Channel              :,CH1
Frequency            :,1.200kHz
Period               :,0.833ms
PK-PK                :,429.7mV
Probe attenuation    :,1X
Voltage per ADC value:,0.244141mV
Time interval        :,2.00000us

index,CH1_Voltage(mV)
1,-58.593750
2,-58.593750
3,-54.687500
4,-50.781250
5,-46.875000
6,-42.968750
7,-39.062500
8,-35.156250
9,-35.156250
10,-31.250000
11,-27.343750
12,-23.437500
13,-19.531250
14,-15.625000
15,-11.718750
16,-11.718750
17,-7.812500
18,-3.906250
19,0.000000
20,3.906250
21,7.812500
22,7.812500
23,11.718750
24,15.625000
25,19.531250
26,23.437500
27,23.437500
28,27.343750
29,31.250000
30,35.156250
31,39.062500
32,39.062500
33,46.875000
34,46.875000
35,46.875000
36,50.781250
37,54.687500
38,58.593750
39,62.500000
40,62.500000
41,66.406250
42,66.406250
43,70.312500
44,74.218750
45,78.125000
46,78.125000
47,82.031250
48,82.031250
49,85.937500
50,89.843750
51,89.843750
52,93.750000
53,97.656250
54,97.656250
55,101.562500
56,101.562500
57,105.468750
58,105.468750
59,109.375000
60,109.375000
61,113.281250
62,117.187500
63,117.187500
64,121.093750
65,121.093750
66,121.093750
67,125.000000
68,125.000000
69,128.906250
70,128.906250
71,128.906250
72,132.812500
73,136.718750
74,136.718750
75,136.718750
76,140.625000
77,140.625000
78,140.625000
79,144.531250
80,144.531250
81,144.531250
82,148.437500
83,148.437500
84,148.437500
85,152.343750
86,152.343750
87,156.250000
88,152.343750
89,156.250000
90,156.250000
91,156.250000
92,156.250000
93,160.156250
94,160.156250
95,160.156250
96,160.156250
97,164.062500
98,164.062500
99,164.062500
100,164.062500
101,164.062500
102,167.968750
103,164.062500
104,167.968750
105,167.968750
106,167.968750
107,167.968750
108,167.968750
109,167.968750
110,167.968750
111,167.968750
112,167.968750
113,171.875000
114,171.875000
115,171.875000
116,167.968750
117,171.875000
118,171.875000
119,171.875000
120,171.875000
121,171.875000
122,171.875000
123,171.875000
124,167.968750
125,171.875000
126,171.875000
127,171.875000
128,167.968750
129,167.968750
130,167.968750
131,167.968750
132,167.968750
133,167.968750
134,167.968750
135,167.968750
136,167.968750
137,167.968750
138,164.062500
139,164.062500
140,164.062500
141,164.062500
142,164.062500
143,160.156250
144,160.156250
145,160.156250
146,160.156250
147,160.156250
148,156.250000
149,156.250000
150,156.250000
151,156.250000
152,156.250000
153,152.343750
154,152.343750
155,152.343750
156,148.437500
157,148.437500
158,148.437500
159,144.531250
160,144.531250
161,140.625000
162,140.625000
163,140.625000
164,140.625000
165,136.718750
166,136.718750
167,132.812500
168,132.812500
169,128.906250
170,128.906250
171,125.000000
172,125.000000
173,125.000000
174,121.093750
175,121.093750
176,117.187500
177,117.187500
178,113.281250
179,109.375000
180,109.375000
181,109.375000
182,105.468750
183,101.562500
184,101.562500
185,97.656250
186,97.656250
187,93.750000
188,89.843750
189,89.843750
190,85.937500
191,85.937500
192,82.031250
193,78.125000
194,78.125000
195,74.218750
196,70.312500
197,70.312500
198,66.406250
199,62.500000
200,62.500000
201,58.593750
202,54.687500
203,50.781250
204,50.781250
205,46.875000
206,42.968750
207,39.062500
208,39.062500
209,35.156250
210,31.250000
211,27.343750
212,27.343750
213,23.437500
214,19.531250
215,15.625000
216,11.718750
217,11.718750
218,7.812500
219,3.906250
220,0.000000
221,-3.906250
222,-7.812500
223,-7.812500
224,-15.625000
225,-15.625000
226,-19.531250
227,-23.437500
228,-27.343750
229,-31.250000
230,-35.156250
231,-39.062500
232,-39.062500
233,-42.968750
234,-46.875000
235,-50.781250
236,-54.687500
237,-58.593750
238,-62.500000
239,-62.500000
240,-66.406250
241,-70.312500
242,-74.218750
243,-78.125000
244,-82.031250
245,-85.937500
246,-85.937500
247,-93.750000
248,-93.750000
249,-97.656250
250,-101.562500
251,-105.468750
252,-109.375000
253,-109.375000
254,-113.281250
255,-117.187500
256,-121.093750
257,-125.000000
258,-128.906250
259,-132.812500
260,-132.812500
261,-136.718750
262,-140.625000
263,-144.531250
264,-148.437500
265,-152.343750
266,-152.343750
267,-152.343750
268,-156.250000
269,-160.156250
270,-164.062500
271,-167.968750
272,-167.968750
273,-171.875000
274,-175.781250
275,-175.781250
276,-179.687500
277,-183.593750
278,-183.593750
279,-187.500000
280,-191.406250
281,-191.406250
282,-195.312500
283,-199.218750
284,-199.218750
285,-203.125000
286,-203.125000
287,-207.031250
288,-210.937500
289,-210.937500
290,-214.843750
291,-214.843750
292,-218.750000
293,-218.750000
294,-222.656250
295,-222.656250
296,-226.562500
297,-226.562500
298,-230.468750
299,-230.468750
300,-234.375000
301,-234.375000
302,-234.375000
303,-234.375000
304,-238.281250
305,-238.281250
306,-242.187500
307,-242.187500
308,-242.187500
309,-242.187500
310,-246.093750
311,-246.093750
312,-246.093750
313,-250.000000
314,-246.093750
315,-250.000000
316,-250.000000
317,-250.000000
318,-250.000000
319,-250.000000
320,-250.000000
321,-253.906250
322,-253.906250
323,-253.906250
324,-253.906250
325,-253.906250
326,-253.906250
327,-253.906250
328,-253.906250
329,-253.906250
330,-253.906250
331,-253.906250
332,-253.906250
333,-253.906250
334,-250.000000
335,-250.000000
336,-250.000000
337,-250.000000
338,-250.000000
339,-250.000000
340,-250.000000
341,-250.000000
342,-246.093750
343,-246.093750
344,-246.093750
345,-246.093750
346,-246.093750
347,-242.187500
348,-242.187500
349,-242.187500
350,-238.281250
351,-238.281250
352,-238.281250
353,-234.375000
354,-234.375000
355,-234.375000
356,-230.468750
357,-230.468750
358,-226.562500
359,-226.562500
360,-222.656250
361,-222.656250
362,-222.656250
363,-218.750000
364,-218.750000
365,-214.843750
366,-214.843750
367,-210.937500
368,-210.937500
369,-207.031250
370,-207.031250
371,-203.125000
372,-199.218750
373,-199.218750
374,-195.312500
375,-191.406250
376,-191.406250
377,-187.500000
378,-187.500000
379,-183.593750
380,-179.687500
381,-179.687500
382,-175.781250
383,-171.875000
384,-167.968750
385,-167.968750
386,-164.062500
387,-160.156250
388,-156.250000
389,-156.250000
390,-152.343750
391,-148.437500
392,-144.531250
393,-140.625000
394,-140.625000
395,-136.718750
396,-132.812500
397,-128.906250
398,-125.000000
399,-125.000000
400,-121.093750
401,-117.187500
402,-113.281250
403,-109.375000
404,-109.375000
405,-105.468750
406,-101.562500
407,-97.656250
408,-93.750000
409,-89.843750
410,-85.937500
411,-82.031250
412,-82.031250
413,-78.125000
414,-74.218750
415,-70.312500
416,-66.406250
417,-62.500000
418,-58.593750
419,-54.687500
420,-50.781250
421,-50.781250
422,-46.875000
423,-42.968750
424,-39.062500
425,-35.156250
426,-31.250000
427,-31.250000
428,-27.343750
429,-23.437500
430,-19.531250
431,-15.625000
432,-11.718750
433,-7.812500
434,-7.812500
435,-3.906250
436,0.000000
437,3.906250
438,7.812500
439,11.718750
440,11.718750
441,15.625000
442,19.531250
443,23.437500
444,27.343750
445,27.343750
446,35.156250
447,35.156250
448,39.062500
449,39.062500
450,42.968750
451,46.875000
452,50.781250
453,54.687500
454,54.687500
455,58.593750
456,62.500000
457,66.406250
458,66.406250
459,70.312500
460,70.312500
461,74.218750
462,78.125000
463,78.125000
464,82.031250
465,85.937500
466,85.937500
467,89.843750
468,93.750000
469,93.750000
470,97.656250
471,101.562500
472,101.562500
473,101.562500
474,105.468750
475,109.375000
476,109.375000
477,113.281250
478,113.281250
479,117.187500
480,117.187500
481,121.093750
482,121.093750
483,121.093750
484,125.000000
485,125.000000
486,128.906250
487,128.906250
488,132.812500
489,132.812500
490,132.812500
491,136.718750
492,136.718750
493,140.625000
494,140.625000
495,140.625000
496,144.531250
497,144.531250
498,144.531250
499,148.437500
500,148.437500
501,148.437500
502,152.343750
503,152.343750
504,152.343750
505,152.343750
506,156.250000
507,156.250000
508,156.250000
509,160.156250
510,160.156250
511,160.156250
512,160.156250
513,164.062500
514,164.062500
515,164.062500
516,164.062500
517,164.062500
518,164.062500
519,167.968750
520,164.062500
521,167.968750
522,167.968750
523,167.968750
524,167.968750
525,167.968750
526,167.968750
527,167.968750
528,167.968750
529,171.875000
530,171.875000
531,171.875000
532,171.875000
533,171.875000
534,167.968750
535,171.875000
536,171.875000
537,171.875000
538,171.875000
539,171.875000
540,171.875000
541,171.875000
542,171.875000
543,171.875000
544,167.968750
545,167.968750
546,167.968750
547,167.968750
548,167.968750
549,167.968750
550,167.968750
551,167.968750
552,167.968750
553,167.968750
554,164.062500
555,164.062500
556,164.062500
557,164.062500
558,164.062500
559,160.156250
560,160.156250
561,160.156250
562,160.156250
563,160.156250
564,160.156250
565,156.250000
566,156.250000
567,156.250000
568,156.250000
569,152.343750
570,152.343750
571,152.343750
572,148.437500
573,148.437500
574,148.437500
575,148.437500
576,144.531250
577,144.531250
578,140.625000
579,140.625000
580,140.625000
581,136.718750
582,136.718750
583,132.812500
584,132.812500
585,128.906250
586,128.906250
587,128.906250
588,128.906250
589,125.000000
590,121.093750
591,121.093750
592,121.093750
593,117.187500
594,113.281250
595,113.281250
596,109.375000
597,109.375000
598,109.375000
599,105.468750
600,101.562500
601,101.562500
602,97.656250
603,97.656250
604,93.750000
605,89.843750
606,89.843750
607,85.937500
608,82.031250
609,82.031250
610,78.125000
611,78.125000
612,74.218750
613,70.312500
614,66.406250
615,66.406250
616,62.500000
617,58.593750
618,58.593750
619,54.687500
620,50.781250
621,46.875000
622,42.968750
623,42.968750
624,39.062500
625,35.156250
626,35.156250
627,31.250000
628,27.343750
629,23.437500
630,19.531250
631,19.531250
632,15.625000
633,11.718750
634,7.812500
635,3.906250
636,0.000000
637,-3.906250
638,-3.906250
639,-7.812500
640,-11.718750
641,-15.625000
642,-19.531250
643,-23.437500
644,-23.437500
645,-27.343750
646,-31.250000
647,-35.156250
648,-39.062500
649,-42.968750
650,-46.875000
651,-46.875000
652,-50.781250
653,-54.687500
654,-58.593750
655,-62.500000
656,-66.406250
657,-70.312500
658,-74.218750
659,-74.218750
660,-78.125000
661,-82.031250
662,-85.937500
663,-89.843750
664,-93.750000
665,-97.656250
666,-97.656250
667,-101.562500
668,-105.468750
669,-109.375000
670,-113.281250
671,-117.187500
672,-121.093750
673,-121.093750
674,-125.000000
675,-128.906250
676,-132.812500
677,-136.718750
678,-136.718750
679,-140.625000
680,-144.531250
681,-148.437500
682,-152.343750
683,-152.343750
684,-156.250000
685,-160.156250
686,-164.062500
687,-164.062500
688,-167.968750
689,-171.875000
690,-171.875000
691,-175.781250
692,-179.687500
693,-179.687500
694,-183.593750
695,-187.500000
696,-191.406250
697,-191.406250
698,-195.312500
699,-195.312500
700,-199.218750
701,-203.125000
702,-203.125000
703,-207.031250
704,-207.031250
705,-210.937500
706,-210.937500
707,-214.843750
708,-218.750000
709,-218.750000
710,-218.750000
711,-222.656250
712,-222.656250
713,-226.562500
714,-226.562500
715,-230.468750
716,-230.468750
717,-234.375000
718,-234.375000
719,-234.375000
720,-238.281250
721,-238.281250
722,-238.281250
723,-242.187500
724,-242.187500
725,-242.187500
726,-242.187500
727,-246.093750
728,-246.093750
729,-246.093750
730,-250.000000
731,-250.000000
732,-250.000000
733,-250.000000
734,-250.000000
735,-250.000000
736,-253.906250
737,-253.906250
738,-253.906250
739,-253.906250
740,-253.906250
741,-253.906250
742,-253.906250
743,-253.906250
744,-253.906250
745,-253.906250
746,-253.906250
747,-253.906250
748,-253.906250
749,-253.906250
750,-253.906250
751,-253.906250
752,-253.906250
753,-253.906250
754,-250.000000
755,-250.000000
756,-250.000000
757,-250.000000
758,-250.000000
759,-250.000000
760,-246.093750
761,-246.093750
762,-246.093750
763,-246.093750
764,-242.187500
765,-242.187500
766,-242.187500
767,-242.187500
768,-238.281250
769,-238.281250
770,-238.281250
771,-234.375000
772,-234.375000
773,-230.468750
774,-230.468750
775,-226.562500
776,-226.562500
777,-226.562500
778,-222.656250
779,-222.656250
780,-218.750000
781,-218.750000
782,-214.843750
783,-210.937500
784,-210.937500
785,-210.937500
786,-207.031250
787,-203.125000
788,-203.125000
789,-199.218750
790,-199.218750
791,-195.312500
792,-195.312500
793,-191.406250
794,-191.406250
795,-183.593750
796,-183.593750
797,-179.687500
798,-175.781250
799,-175.781250
800,-171.875000
801,-167.968750
802,-167.968750
803,-164.062500
804,-160.156250
805,-156.250000
806,-152.343750
807,-152.343750
808,-148.437500
809,-144.531250
810,-144.531250
811,-140.625000
812,-136.718750
813,-132.812500
814,-128.906250
815,-125.000000
816,-125.000000
817,-121.093750
818,-117.187500
819,-113.281250
820,-109.375000
821,-109.375000
822,-105.468750
823,-101.562500
824,-97.656250
825,-93.750000
826,-89.843750
827,-85.937500
828,-85.937500
829,-82.031250
830,-78.125000
831,-74.218750
832,-70.312500
833,-66.406250
834,-62.500000
835,-58.593750
836,-54.687500
837,-54.687500
838,-50.781250
839,-46.875000
840,-42.968750
841,-39.062500
842,-35.156250
843,-31.250000
844,-27.343750
845,-27.343750
846,-23.437500
847,-19.531250
848,-15.625000
849,-11.718750
850,-7.812500
851,-7.812500
852,-3.906250
853,0.000000
854,3.906250
855,7.812500
856,11.718750
857,15.625000
858,15.625000
859,19.531250
860,23.437500
861,27.343750
862,27.343750
863,31.250000
864,35.156250
865,39.062500
866,42.968750
867,42.968750
868,46.875000
869,50.781250
870,54.687500
871,54.687500
872,58.593750
873,62.500000
874,62.500000
875,66.406250
876,70.312500
877,70.312500
878,74.218750
879,74.218750
880,78.125000
881,82.031250
882,85.937500
883,85.937500
884,89.843750
885,89.843750
886,93.750000
887,97.656250
888,97.656250
889,101.562500
890,101.562500
891,105.468750
892,109.375000
893,109.375000
894,113.281250
895,113.281250
896,117.187500
897,117.187500
898,121.093750
899,121.093750
900,121.093750
901,125.000000
902,125.000000
903,128.906250
904,132.812500
905,132.812500
906,132.812500
907,136.718750
908,136.718750
909,136.718750
910,140.625000
911,140.625000
912,144.531250
913,144.531250
914,144.531250
915,148.437500
916,148.437500
917,148.437500
918,148.437500
919,152.343750
920,152.343750
921,152.343750
922,156.250000
923,156.250000
924,156.250000
925,156.250000
926,160.156250
927,160.156250
928,160.156250
929,160.156250
930,160.156250
931,164.062500
932,164.062500
933,164.062500
934,164.062500
935,164.062500
936,167.968750
937,167.968750
938,167.968750
939,167.968750
940,167.968750
941,167.968750
942,167.968750
943,167.968750
944,167.968750
945,167.968750
946,171.875000
947,171.875000
948,167.968750
949,171.875000
950,171.875000
951,171.875000
952,171.875000
953,171.875000
954,171.875000
955,171.875000
956,171.875000
957,171.875000
958,171.875000
959,167.968750
960,167.968750
961,167.968750
962,167.968750
963,167.968750
964,167.968750
965,167.968750
966,167.968750
967,167.968750
968,167.968750
969,167.968750
970,167.968750
971,164.062500
972,164.062500
973,164.062500
974,164.062500
975,164.062500
976,164.062500
977,160.156250
978,160.156250
979,160.156250
980,160.156250
981,160.156250
982,156.250000
983,156.250000
984,156.250000
985,156.250000
986,152.343750
987,152.343750
988,152.343750
989,152.343750
990,148.437500
991,148.437500
992,148.437500
993,144.531250
994,144.531250
995,140.625000
996,140.625000
997,140.625000
998,136.718750
999,136.718750
1000,136.718750
1001,132.812500
1002,132.812500
1003,128.906250
1004,128.906250
1005,125.000000
1006,125.000000
1007,121.093750
1008,121.093750
1009,117.187500
1010,117.187500
1011,113.281250
1012,113.281250
1013,109.375000
1014,109.375000
1015,105.468750
1016,105.468750
1017,101.562500
1018,101.562500
1019,97.656250
1020,93.750000
1021,93.750000
1022,89.843750
1023,85.937500
1024,85.937500
1025,82.031250
1026,82.031250
1027,78.125000
1028,74.218750
1029,74.218750
1030,70.312500
1031,66.406250
1032,66.406250
1033,62.500000
1034,58.593750
1035,58.593750
1036,54.687500
1037,50.781250
1038,46.875000
1039,46.875000
1040,42.968750
1041,39.062500
1042,35.156250
1043,35.156250
1044,31.250000
1045,27.343750
1046,23.437500
1047,19.531250
1048,15.625000
1049,15.625000
1050,11.718750
1051,7.812500
1052,3.906250
1053,0.000000
1054,-3.906250
1055,-3.906250
1056,-7.812500
1057,-11.718750
1058,-15.625000
1059,-19.531250
1060,-19.531250
1061,-23.437500
1062,-27.343750
1063,-31.250000
1064,-35.156250
1065,-39.062500
1066,-42.968750
1067,-46.875000
1068,-46.875000
1069,-50.781250
1070,-54.687500
1071,-58.593750
1072,-62.500000
1073,-66.406250
1074,-70.312500
1075,-74.218750
1076,-74.218750
1077,-82.031250
1078,-82.031250
1079,-85.937500
1080,-89.843750
1081,-93.750000
1082,-97.656250
1083,-97.656250
1084,-101.562500
1085,-105.468750
1086,-109.375000
1087,-113.281250
1088,-117.187500
1089,-121.093750
1090,-121.093750
1091,-125.000000
1092,-128.906250
1093,-132.812500
1094,-136.718750
1095,-136.718750
1096,-140.625000
1097,-144.531250
1098,-148.437500
1099,-152.343750
1100,-156.250000
1101,-156.250000
1102,-160.156250
1103,-164.062500
1104,-164.062500
1105,-167.968750
1106,-171.875000
1107,-171.875000
1108,-175.781250
1109,-179.687500
1110,-183.593750
1111,-183.593750
1112,-187.500000
1113,-191.406250
1114,-191.406250
1115,-195.312500
1116,-195.312500
1117,-199.218750
1118,-199.218750
1119,-203.125000
1120,-207.031250
1121,-207.031250
1122,-210.937500
1123,-210.937500
1124,-214.843750
1125,-214.843750
1126,-218.750000
1127,-218.750000
1128,-222.656250
1129,-222.656250
1130,-226.562500
1131,-226.562500
1132,-230.468750
1133,-230.468750
1134,-230.468750
1135,-234.375000
1136,-234.375000
1137,-238.281250
1138,-238.281250
1139,-238.281250
1140,-242.187500
1141,-242.187500
1142,-242.187500
1143,-242.187500
1144,-246.093750
1145,-246.093750
1146,-246.093750
1147,-246.093750
1148,-250.000000
1149,-250.000000
1150,-250.000000
1151,-250.000000
1152,-250.000000
1153,-250.000000
1154,-253.906250
1155,-253.906250
1156,-253.906250
1157,-253.906250
1158,-253.906250
1159,-253.906250
1160,-253.906250
1161,-253.906250
1162,-253.906250
1163,-253.906250
1164,-253.906250
1165,-253.906250
1166,-253.906250
1167,-253.906250
1168,-253.906250
1169,-250.000000
1170,-253.906250
1171,-250.000000
1172,-250.000000
1173,-250.000000
1174,-250.000000
1175,-250.000000
1176,-250.000000
1177,-246.093750
1178,-246.093750
1179,-246.093750
1180,-242.187500
1181,-242.187500
1182,-242.187500
1183,-242.187500
1184,-238.281250
1185,-238.281250
1186,-238.281250
1187,-234.375000
1188,-234.375000
1189,-230.468750
1190,-230.468750
1191,-230.468750
1192,-226.562500
1193,-226.562500
1194,-226.562500
1195,-222.656250
1196,-222.656250
1197,-218.750000
1198,-218.750000
1199,-214.843750
1200,-210.937500
1201,-210.937500
1202,-207.031250
1203,-207.031250
1204,-203.125000
1205,-203.125000
1206,-199.218750
1207,-199.218750
1208,-195.312500
1209,-191.406250
1210,-191.406250
1211,-187.500000
1212,-183.593750
1213,-183.593750
1214,-179.687500
1215,-175.781250
1216,-171.875000
1217,-171.875000
1218,-167.968750
1219,-164.062500
1220,-164.062500
1221,-160.156250
1222,-156.250000
1223,-156.250000
1224,-152.343750
1225,-148.437500
1226,-144.531250
1227,-140.625000
1228,-140.625000
1229,-136.718750
1230,-132.812500
1231,-128.906250
1232,-125.000000
1233,-121.093750
1234,-121.093750
1235,-117.187500
1236,-113.281250
1237,-109.375000
1238,-105.468750
1239,-101.562500
1240,-97.656250
1241,-93.750000
1242,-93.750000
1243,-89.843750
1244,-85.937500
1245,-82.031250
1246,-78.125000
1247,-74.218750
1248,-74.218750
1249,-70.312500
1250,-66.406250
1251,-62.500000
1252,-58.593750
1253,-54.687500
1254,-54.687500
1255,-50.781250
1256,-42.968750
1257,-42.968750
1258,-39.062500
1259,-35.156250
1260,-31.250000
1261,-27.343750
1262,-27.343750
1263,-19.531250
1264,-19.531250
1265,-15.625000
1266,-11.718750
1267,-7.812500
1268,-3.906250
1269,0.000000
1270,0.000000
1271,3.906250
1272,7.812500
1273,11.718750
1274,15.625000
1275,19.531250
1276,19.531250
1277,23.437500
1278,27.343750
1279,31.250000
1280,31.250000
1281,35.156250
1282,39.062500
1283,42.968750
1284,42.968750
1285,46.875000
1286,46.875000
1287,54.687500
1288,54.687500
1289,58.593750
1290,62.500000
1291,66.406250
1292,66.406250
1293,70.312500
1294,74.218750
1295,74.218750
1296,78.125000
1297,82.031250
1298,82.031250
1299,85.937500
1300,85.937500
1301,89.843750
1302,93.750000
1303,93.750000
1304,97.656250
1305,97.656250
1306,101.562500
1307,105.468750
1308,105.468750
1309,109.375000
1310,109.375000
1311,113.281250
1312,113.281250
1313,117.187500
1314,117.187500
1315,121.093750
1316,121.093750
1317,125.000000
1318,125.000000
1319,128.906250
1320,128.906250
1321,132.812500
1322,132.812500
1323,136.718750
1324,136.718750
1325,136.718750
1326,140.625000
1327,140.625000
1328,140.625000
1329,144.531250
1330,144.531250
1331,144.531250
1332,148.437500
1333,148.437500
1334,148.437500
1335,152.343750
1336,152.343750
1337,152.343750
1338,152.343750
1339,156.250000
1340,156.250000
1341,156.250000
1342,156.250000
1343,160.156250
1344,160.156250
1345,160.156250
1346,160.156250
1347,160.156250
1348,164.062500
1349,164.062500
1350,164.062500
1351,164.062500
1352,164.062500
1353,167.968750
1354,164.062500
1355,167.968750
1356,167.968750
1357,167.968750
1358,167.968750
1359,167.968750
1360,167.968750
1361,167.968750
1362,167.968750
1363,167.968750
1364,167.968750
1365,171.875000
1366,171.875000
1367,171.875000
1368,171.875000
1369,171.875000
1370,171.875000
1371,171.875000
1372,171.875000
1373,171.875000
1374,171.875000
1375,171.875000
1376,171.875000
1377,167.968750
1378,171.875000
1379,167.968750
1380,167.968750
1381,167.968750
1382,167.968750
1383,167.968750
1384,167.968750
1385,167.968750
1386,167.968750
1387,167.968750
1388,167.968750
1389,164.062500
1390,164.062500
1391,164.062500
1392,164.062500
1393,160.156250
1394,160.156250
1395,160.156250
1396,160.156250
1397,160.156250
1398,156.250000
1399,156.250000
1400,156.250000
1401,156.250000
1402,156.250000
1403,152.343750
1404,152.343750
1405,152.343750
1406,148.437500
1407,148.437500
1408,144.531250
1409,144.531250
1410,144.531250
1411,140.625000
1412,140.625000
1413,140.625000
1414,136.718750
1415,136.718750
1416,136.718750
1417,132.812500
1418,132.812500
1419,128.906250
1420,128.906250
1421,125.000000
1422,125.000000
1423,121.093750
1424,121.093750
1425,121.093750
1426,117.187500
1427,117.187500
1428,113.281250
1429,113.281250
1430,109.375000
1431,109.375000
1432,105.468750
1433,101.562500
1434,101.562500
1435,97.656250
1436,97.656250
1437,93.750000
1438,93.750000
1439,89.843750
1440,85.937500
1441,85.937500
1442,82.031250
1443,78.125000
1444,78.125000
1445,74.218750
1446,74.218750
1447,70.312500
1448,66.406250
1449,62.500000
1450,62.500000
1451,58.593750
1452,54.687500
1453,50.781250
1454,46.875000
1455,46.875000
1456,42.968750
1457,39.062500
1458,35.156250
1459,35.156250
1460,31.250000
1461,27.343750
1462,23.437500
1463,23.437500
1464,19.531250
1465,15.625000
1466,11.718750
1467,7.812500
1468,7.812500
1469,3.906250
1470,0.000000
1471,-3.906250
1472,-7.812500
1473,-11.718750
1474,-11.718750
1475,-15.625000
1476,-19.531250
1477,-23.437500
1478,-27.343750
1479,-31.250000
1480,-35.156250
1481,-35.156250
1482,-39.062500
1483,-42.968750
1484,-46.875000
1485,-50.781250
1486,-54.687500
1487,-58.593750
1488,-62.500000
1489,-62.500000
1490,-66.406250
1491,-70.312500
1492,-74.218750
1493,-78.125000
1494,-82.031250
1495,-85.937500
1496,-85.937500
1497,-89.843750
1498,-93.750000
1499,-97.656250
1500,-101.562500
1501,-105.468750
1502,-109.375000
1503,-113.281250
1504,-113.281250
1505,-117.187500
1506,-121.093750
1507,-125.000000
1508,-128.906250
1509,-128.906250
1510,-132.812500
1511,-136.718750
1512,-140.625000
1513,-144.531250
1514,-148.437500
1515,-148.437500
1516,-152.343750
1517,-156.250000
1518,-156.250000
1519,-160.156250
1520,-164.062500
1521,-167.968750
1522,-167.968750
1523,-171.875000
1524,-175.781250
1525,-179.687500
1526,-179.687500
1527,-183.593750
1528,-187.500000
1529,-187.500000
1530,-191.406250
1531,-195.312500
1532,-195.312500
1533,-199.218750
1534,-199.218750
1535,-203.125000
1536,-203.125000
1537,-207.031250
1538,-207.031250
1539,-210.937500
1540,-214.843750
1541,-214.843750
1542,-218.750000
1543,-218.750000
1544,-218.750000
1545,-222.656250
1546,-222.656250
1547,-226.562500
1548,-226.562500
1549,-230.468750
1550,-230.468750
1551,-234.375000
1552,-234.375000
1553,-234.375000
1554,-238.281250
1555,-238.281250
1556,-242.187500
1557,-242.187500
1558,-238.281250
1559,-242.187500
1560,-242.187500
1561,-246.093750
1562,-246.093750
1563,-246.093750
1564,-246.093750
1565,-250.000000
1566,-250.000000
1567,-250.000000
1568,-250.000000
1569,-250.000000
1570,-250.000000
1571,-250.000000
1572,-250.000000
1573,-253.906250
1574,-253.906250
1575,-253.906250
1576,-253.906250
1577,-253.906250
1578,-253.906250
1579,-253.906250
1580,-253.906250
1581,-253.906250
1582,-253.906250
1583,-253.906250
1584,-253.906250
1585,-253.906250
1586,-250.000000
1587,-253.906250
1588,-250.000000
1589,-250.000000
1590,-250.000000
1591,-250.000000
1592,-250.000000
1593,-250.000000
1594,-246.093750
1595,-246.093750
1596,-246.093750
1597,-242.187500
1598,-242.187500
1599,-242.187500
1600,-242.187500
1601,-238.281250
1602,-238.281250
1603,-238.281250
1604,-234.375000
1605,-234.375000
1606,-230.468750
1607,-230.468750
1608,-230.468750
1609,-226.562500
1610,-226.562500
1611,-222.656250
1612,-222.656250
1613,-218.750000
1614,-218.750000
1615,-214.843750
1616,-214.843750
1617,-210.937500
1618,-214.843750
1619,-207.031250
1620,-207.031250
1621,-203.125000
1622,-203.125000
1623,-199.218750
1624,-195.312500
1625,-195.312500
1626,-191.406250
1627,-187.500000
1628,-187.500000
1629,-183.593750
1630,-179.687500
1631,-179.687500
1632,-175.781250
1633,-171.875000
1634,-171.875000
1635,-167.968750
1636,-164.062500
1637,-164.062500
1638,-160.156250
1639,-156.250000
1640,-152.343750
1641,-148.437500
1642,-148.437500
1643,-144.531250
1644,-140.625000
1645,-136.718750
1646,-132.812500
1647,-132.812500
1648,-128.906250
1649,-125.000000
1650,-121.093750
1651,-117.187500
1652,-117.187500
1653,-113.281250
1654,-109.375000
1655,-105.468750
1656,-101.562500
1657,-97.656250
1658,-93.750000
1659,-93.750000
1660,-89.843750
1661,-85.937500
1662,-82.031250
1663,-78.125000
1664,-74.218750
1665,-70.312500
1666,-66.406250
1667,-66.406250
1668,-62.500000
1669,-58.593750
1670,-54.687500
1671,-50.781250
1672,-46.875000
1673,-42.968750
1674,-42.968750
1675,-39.062500
1676,-35.156250
1677,-31.250000
1678,-27.343750
1679,-23.437500
1680,-19.531250
1681,-15.625000
1682,-15.625000
1683,-11.718750
1684,-7.812500
1685,-3.906250
1686,0.000000
1687,3.906250
1688,3.906250
1689,7.812500
1690,11.718750
1691,15.625000
1692,19.531250
1693,19.531250
1694,23.437500
1695,27.343750
1696,23.437500
1697,35.156250
1698,39.062500
1699,39.062500
1700,42.968750
1701,46.875000
1702,50.781250
1703,50.781250
1704,54.687500
1705,58.593750
1706,58.593750
1707,62.500000
1708,66.406250
1709,66.406250
1710,70.312500
1711,74.218750
1712,78.125000
1713,78.125000
1714,82.031250
1715,85.937500
1716,85.937500
1717,89.843750
1718,89.843750
1719,93.750000
1720,93.750000
1721,97.656250
1722,101.562500
1723,101.562500
1724,105.468750
1725,105.468750
1726,109.375000
1727,109.375000
1728,113.281250
1729,113.281250
1730,117.187500
1731,117.187500
1732,121.093750
1733,121.093750
1734,125.000000
1735,125.000000
1736,128.906250
1737,128.906250
1738,132.812500
1739,132.812500
1740,136.718750
1741,136.718750
1742,136.718750
1743,136.718750
1744,140.625000
1745,140.625000
1746,144.531250
1747,144.531250
1748,144.531250
1749,148.437500
1750,148.437500
1751,148.437500
1752,152.343750
1753,152.343750
1754,152.343750
1755,156.250000
1756,156.250000
1757,156.250000
1758,156.250000
1759,160.156250
1760,160.156250
1761,160.156250
1762,160.156250
1763,160.156250
1764,164.062500
1765,164.062500
1766,164.062500
1767,164.062500
1768,164.062500
1769,164.062500
1770,167.968750
1771,167.968750
1772,167.968750
1773,167.968750
1774,167.968750
1775,167.968750
1776,167.968750
1777,167.968750
1778,167.968750
1779,167.968750
1780,171.875000
1781,171.875000
1782,171.875000
1783,171.875000
1784,171.875000
1785,171.875000
1786,167.968750
1787,171.875000
1788,171.875000
1789,171.875000
1790,171.875000
1791,171.875000
1792,171.875000
1793,171.875000
1794,171.875000
1795,167.968750
1796,167.968750
1797,167.968750
1798,167.968750
1799,167.968750
1800,167.968750
1801,167.968750
1802,167.968750
1803,167.968750
1804,167.968750
1805,164.062500
1806,164.062500
1807,164.062500
1808,164.062500
1809,164.062500
1810,164.062500
1811,160.156250
1812,160.156250
1813,160.156250
1814,160.156250
1815,156.250000
1816,156.250000
1817,156.250000
1818,156.250000
1819,152.343750
1820,152.343750
1821,152.343750
1822,152.343750
1823,148.437500
1824,148.437500
1825,148.437500
1826,144.531250
1827,144.531250
1828,144.531250
1829,140.625000
1830,140.625000
1831,136.718750
1832,136.718750
1833,136.718750
1834,136.718750
1835,132.812500
1836,128.906250
1837,128.906250
1838,128.906250
1839,125.000000
1840,121.093750
1841,121.093750
1842,121.093750
1843,117.187500
1844,117.187500
1845,113.281250
1846,113.281250
1847,109.375000
1848,105.468750
1849,105.468750
1850,101.562500
1851,97.656250
1852,97.656250
1853,97.656250
1854,93.750000
1855,89.843750
1856,89.843750
1857,85.937500
1858,82.031250
1859,82.031250
1860,78.125000
1861,78.125000
1862,74.218750
1863,74.218750
1864,70.312500
1865,66.406250
1866,62.500000
1867,58.593750
1868,58.593750
1869,54.687500
1870,50.781250
1871,50.781250
1872,46.875000
1873,42.968750
1874,42.968750
1875,39.062500
1876,35.156250
1877,31.250000
1878,27.343750
1879,23.437500
1880,23.437500
1881,19.531250
1882,15.625000
1883,11.718750
1884,7.812500
1885,7.812500
1886,3.906250
1887,0.000000
1888,-3.906250
1889,-7.812500
1890,-11.718750
1891,-15.625000
1892,-15.625000
1893,-19.531250
1894,-23.437500
1895,-27.343750
1896,-31.250000
1897,-35.156250
1898,-35.156250
1899,-39.062500
1900,-42.968750
1901,-46.875000
1902,-50.781250
1903,-54.687500
1904,-58.593750
1905,-62.500000
1906,-66.406250
1907,-66.406250
1908,-70.312500
1909,-74.218750
1910,-78.125000
1911,-82.031250
1912,-85.937500
1913,-89.843750
1914,-93.750000
1915,-93.750000
1916,-97.656250
1917,-101.562500
1918,-105.468750
1919,-109.375000
1920,-109.375000
1921,-113.281250
1922,-117.187500
1923,-121.093750
1924,-125.000000
1925,-128.906250
1926,-128.906250
1927,-132.812500
1928,-136.718750
1929,-140.625000
1930,-144.531250
1931,-144.531250
1932,-148.437500
1933,-152.343750
1934,-156.250000
1935,-156.250000
1936,-160.156250
1937,-164.062500
1938,-167.968750
1939,-167.968750
1940,-171.875000
1941,-175.781250
1942,-179.687500
1943,-179.687500
1944,-183.593750
1945,-187.500000
1946,-187.500000
1947,-191.406250
1948,-191.406250
1949,-195.312500
1950,-199.218750
1951,-203.125000
1952,-203.125000
1953,-203.125000
1954,-207.031250
1955,-210.937500
1956,-210.937500
1957,-214.843750
1958,-214.843750
1959,-218.750000
1960,-218.750000
1961,-218.750000
1962,-222.656250
1963,-226.562500
1964,-226.562500
1965,-226.562500
1966,-230.468750
1967,-230.468750
1968,-234.375000
1969,-234.375000
1970,-238.281250
1971,-238.281250
1972,-238.281250
1973,-238.281250
1974,-242.187500
1975,-242.187500
1976,-242.187500
1977,-246.093750
1978,-246.093750
1979,-246.093750
1980,-246.093750
1981,-250.000000
1982,-250.000000
1983,-250.000000
1984,-250.000000
1985,-250.000000
1986,-250.000000
1987,-253.906250
1988,-253.906250
1989,-253.906250
1990,-253.906250
1991,-253.906250
1992,-253.906250
1993,-253.906250
1994,-253.906250
1995,-253.906250
1996,-253.906250
1997,-253.906250
1998,-253.906250
1999,-253.906250
2000,-253.906250
2001,-253.906250
2002,-250.000000
2003,-253.906250
2004,-250.000000
2005,-250.000000
2006,-250.000000
2007,-250.000000
2008,-250.000000
2009,-250.000000
2010,-246.093750
2011,-246.093750
2012,-246.093750
2013,-246.093750
2014,-242.187500
2015,-242.187500
2016,-242.187500
2017,-242.187500
2018,-238.281250
2019,-238.281250
2020,-234.375000
2021,-234.375000
2022,-234.375000
2023,-234.375000
2024,-230.468750
2025,-230.468750
2026,-226.562500
2027,-226.562500
2028,-222.656250
2029,-222.656250
2030,-218.750000
2031,-218.750000
2032,-214.843750
2033,-214.843750
2034,-210.937500
2035,-210.937500
2036,-207.031250
2037,-207.031250
2038,-203.125000
2039,-203.125000
2040,-199.218750
2041,-195.312500
2042,-195.312500
2043,-191.406250
2044,-187.500000
2045,-187.500000
2046,-183.593750
2047,-179.687500
2048,-179.687500
2049,-175.781250
2050,-171.875000
2051,-171.875000
2052,-167.968750
2053,-164.062500
2054,-164.062500
2055,-160.156250
2056,-156.250000
2057,-152.343750
2058,-148.437500
2059,-148.437500
2060,-144.531250
2061,-140.625000
2062,-136.718750
2063,-132.812500
2064,-128.906250
2065,-128.906250
2066,-125.000000
2067,-121.093750
2068,-117.187500
2069,-113.281250
2070,-113.281250
2071,-109.375000
2072,-105.468750
2073,-101.562500
2074,-97.656250
2075,-93.750000
2076,-93.750000
2077,-89.843750
2078,-85.937500
2079,-82.031250
2080,-78.125000
2081,-74.218750
2082,-70.312500
2083,-66.406250
2084,-62.500000
2085,-58.593750
2086,-54.687500
2087,-54.687500
2088,-50.781250
2089,-46.875000
2090,-42.968750
2091,-39.062500
2092,-39.062500
2093,-35.156250
2094,-31.250000
2095,-27.343750
2096,-23.437500
2097,-19.531250
2098,-15.625000
2099,-11.718750
2100,-11.718750
2101,-7.812500
2102,-3.906250
2103,0.000000
2104,3.906250
2105,7.812500
2106,7.812500
2107,11.718750
2108,15.625000
2109,19.531250
2110,23.437500
2111,23.437500
2112,23.437500
2113,31.250000
2114,35.156250
2115,39.062500
2116,39.062500
2117,42.968750
2118,46.875000
2119,46.875000
2120,50.781250
2121,54.687500
2122,58.593750
2123,62.500000
2124,62.500000
2125,66.406250
2126,70.312500
2127,70.312500
2128,74.218750
2129,78.125000
2130,78.125000
2131,82.031250
2132,85.937500
2133,85.937500
2134,89.843750
2135,93.750000
2136,93.750000
2137,97.656250
2138,97.656250
2139,101.562500
2140,105.468750
2141,105.468750
2142,109.375000
2143,109.375000
2144,113.281250
2145,113.281250
2146,113.281250
2147,121.093750
2148,121.093750
2149,121.093750
2150,125.000000
2151,125.000000
2152,125.000000
2153,128.906250
2154,128.906250
2155,132.812500
2156,132.812500
2157,136.718750
2158,136.718750
2159,136.718750
2160,140.625000
2161,140.625000
2162,144.531250
2163,144.531250
2164,144.531250
2165,144.531250
2166,148.437500
2167,148.437500
2168,148.437500
2169,152.343750
2170,152.343750
2171,152.343750
2172,152.343750
2173,156.250000
2174,156.250000
2175,156.250000
2176,156.250000
2177,160.156250
2178,160.156250
2179,160.156250
2180,160.156250
2181,164.062500
2182,164.062500
2183,164.062500
2184,164.062500
2185,164.062500
2186,164.062500
2187,164.062500
2188,167.968750
2189,167.968750
2190,167.968750
2191,167.968750
2192,167.968750
2193,167.968750
2194,167.968750
2195,171.875000
2196,167.968750
2197,171.875000
2198,167.968750
2199,171.875000
2200,171.875000
2201,171.875000
2202,171.875000
2203,171.875000
2204,171.875000
2205,171.875000
2206,171.875000
2207,171.875000
2208,171.875000
2209,171.875000
2210,171.875000
2211,167.968750
2212,167.968750
2213,167.968750
2214,167.968750
2215,167.968750
2216,167.968750
2217,167.968750
2218,167.968750
2219,167.968750
2220,164.062500
2221,164.062500
2222,164.062500
2223,164.062500
2224,164.062500
2225,164.062500
2226,164.062500
2227,160.156250
2228,160.156250
2229,160.156250
2230,160.156250
2231,160.156250
2232,156.250000
2233,156.250000
2234,156.250000
2235,156.250000
2236,152.343750
2237,152.343750
2238,152.343750
2239,148.437500
2240,148.437500
2241,148.437500
2242,144.531250
2243,144.531250
2244,144.531250
2245,140.625000
2246,140.625000
2247,140.625000
2248,136.718750
2249,136.718750
2250,132.812500
2251,132.812500
2252,132.812500
2253,128.906250
2254,128.906250
2255,125.000000
2256,125.000000
2257,121.093750
2258,121.093750
2259,117.187500
2260,117.187500
2261,113.281250
2262,113.281250
2263,109.375000
2264,109.375000
2265,105.468750
2266,105.468750
2267,101.562500
2268,101.562500
2269,97.656250
2270,97.656250
2271,93.750000
2272,89.843750
2273,89.843750
2274,85.937500
2275,85.937500
2276,82.031250
2277,78.125000
2278,74.218750
2279,74.218750
2280,70.312500
2281,66.406250
2282,66.406250
2283,62.500000
2284,58.593750
2285,58.593750
2286,54.687500
2287,50.781250
2288,46.875000
2289,46.875000
2290,42.968750
2291,39.062500
2292,35.156250
2293,35.156250
2294,31.250000
2295,27.343750
2296,23.437500
2297,19.531250
2298,19.531250
2299,15.625000
2300,11.718750
2301,7.812500
2302,3.906250
2303,3.906250
2304,0.000000
2305,-3.906250
2306,-7.812500
2307,-11.718750
2308,-15.625000
2309,-19.531250
2310,-23.437500
2311,-23.437500
2312,-27.343750
2313,-31.250000
2314,-35.156250
2315,-39.062500
2316,-42.968750
2317,-46.875000
2318,-46.875000
2319,-50.781250
2320,-54.687500
2321,-58.593750
2322,-62.500000
2323,-66.406250
2324,-70.312500
2325,-74.218750
2326,-74.218750
2327,-78.125000
2328,-82.031250
2329,-85.937500
2330,-89.843750
2331,-93.750000
2332,-97.656250
2333,-97.656250
2334,-101.562500
2335,-105.468750
2336,-109.375000
2337,-113.281250
2338,-113.281250
2339,-117.187500
2340,-121.093750
2341,-125.000000
2342,-128.906250
2343,-132.812500
2344,-132.812500
2345,-136.718750
2346,-140.625000
2347,-144.531250
2348,-148.437500
2349,-148.437500
2350,-152.343750
2351,-156.250000
2352,-160.156250
2353,-160.156250
2354,-164.062500
2355,-167.968750
2356,-167.968750
2357,-171.875000
2358,-175.781250
2359,-179.687500
2360,-179.687500
2361,-183.593750
2362,-187.500000
2363,-187.500000
2364,-191.406250
2365,-195.312500
2366,-195.312500
2367,-199.218750
2368,-203.125000
2369,-203.125000
2370,-207.031250
2371,-207.031250
2372,-210.937500
2373,-210.937500
2374,-214.843750
2375,-214.843750
2376,-218.750000
2377,-218.750000
2378,-222.656250
2379,-222.656250
2380,-226.562500
2381,-226.562500
2382,-230.468750
2383,-230.468750
2384,-230.468750
2385,-234.375000
2386,-234.375000
2387,-238.281250
2388,-238.281250
2389,-238.281250
2390,-238.281250
2391,-242.187500
2392,-242.187500
2393,-242.187500
2394,-246.093750
2395,-246.093750
2396,-246.093750
2397,-246.093750
2398,-246.093750
2399,-250.000000
2400,-250.000000
2401,-250.000000
2402,-250.000000
2403,-250.000000
2404,-250.000000
2405,-253.906250
2406,-250.000000
2407,-253.906250
2408,-250.000000
2409,-253.906250
2410,-253.906250
2411,-253.906250
2412,-253.906250
2413,-253.906250
2414,-253.906250
2415,-253.906250
2416,-253.906250
2417,-253.906250
2418,-250.000000
2419,-250.000000
2420,-250.000000
2421,-250.000000
2422,-250.000000
2423,-250.000000
2424,-250.000000
2425,-250.000000
2426,-246.093750
2427,-246.093750
2428,-246.093750
2429,-246.093750
2430,-246.093750
2431,-242.187500
2432,-242.187500
2433,-242.187500
2434,-238.281250
2435,-238.281250
2436,-238.281250
2437,-234.375000
2438,-234.375000
2439,-234.375000
2440,-230.468750
2441,-230.468750
2442,-230.468750
2443,-222.656250
2444,-226.562500
2445,-222.656250
2446,-222.656250
2447,-218.750000
2448,-218.750000
2449,-214.843750
2450,-210.937500
2451,-210.937500
2452,-207.031250
2453,-207.031250
2454,-203.125000
2455,-203.125000
2456,-199.218750
2457,-195.312500
2458,-195.312500
2459,-191.406250
2460,-191.406250
2461,-187.500000
2462,-183.593750
2463,-183.593750
2464,-179.687500
2465,-175.781250
2466,-175.781250
2467,-171.875000
2468,-167.968750
2469,-167.968750
2470,-164.062500
2471,-160.156250
2472,-156.250000
2473,-152.343750
2474,-152.343750
2475,-148.437500
2476,-144.531250
2477,-140.625000
2478,-136.718750
2479,-136.718750
2480,-132.812500
2481,-128.906250
2482,-125.000000
2483,-121.093750
2484,-121.093750
2485,-117.187500
2486,-113.281250
2487,-109.375000
2488,-105.468750
2489,-105.468750
2490,-101.562500
2491,-97.656250
2492,-93.750000
2493,-89.843750
2494,-85.937500
2495,-85.937500
2496,-82.031250
2497,-78.125000
2498,-74.218750
2499,-70.312500
2500,-66.406250
2501,-62.500000
2502,-58.593750
2503,-54.687500
2504,-54.687500
2505,-50.781250
2506,-46.875000
2507,-42.968750
2508,-39.062500
2509,-35.156250
2510,-31.250000
2511,-27.343750
2512,-27.343750
2513,-23.437500
2514,-19.531250
2515,-15.625000
2516,-11.718750
2517,-7.812500
2518,-3.906250
2519,-3.906250
2520,0.000000
2521,3.906250
2522,7.812500
2523,7.812500
2524,11.718750
2525,15.625000
2526,19.531250
2527,23.437500
2528,27.343750
2529,31.250000
2530,31.250000
2531,35.156250
2532,39.062500
2533,42.968750
2534,42.968750
2535,46.875000
2536,50.781250
2537,54.687500
2538,54.687500
2539,58.593750
2540,62.500000
2541,62.500000
2542,66.406250
2543,70.312500
2544,70.312500
2545,74.218750
2546,78.125000
2547,78.125000
2548,82.031250
2549,85.937500
2550,85.937500
2551,89.843750
2552,89.843750
2553,93.750000
2554,97.656250
2555,97.656250
2556,101.562500
2557,105.468750
2558,105.468750
2559,109.375000
2560,109.375000
2561,113.281250
2562,113.281250
2563,117.187500
2564,117.187500
2565,121.093750
2566,121.093750
2567,125.000000
2568,125.000000
2569,128.906250
2570,128.906250
2571,128.906250
2572,132.812500
2573,132.812500
2574,136.718750
2575,136.718750
2576,140.625000
2577,140.625000
2578,140.625000
2579,140.625000
2580,144.531250
2581,144.531250
2582,148.437500
2583,148.437500
2584,148.437500
2585,152.343750
2586,152.343750
2587,152.343750
2588,152.343750
2589,152.343750
2590,156.250000
2591,156.250000
2592,156.250000
2593,160.156250
2594,160.156250
2595,160.156250
2596,164.062500
2597,160.156250
2598,164.062500
2599,164.062500
2600,164.062500
2601,164.062500
2602,164.062500
2603,167.968750
2604,164.062500
2605,167.968750
2606,164.062500
2607,167.968750
2608,167.968750
2609,167.968750
2610,167.968750
2611,167.968750
2612,167.968750
2613,171.875000
2614,171.875000
2615,167.968750
2616,171.875000
2617,167.968750
2618,167.968750
2619,171.875000
2620,171.875000
2621,171.875000
2622,171.875000
2623,171.875000
2624,167.968750
2625,167.968750
2626,167.968750
2627,167.968750
2628,167.968750
2629,167.968750
2630,167.968750
2631,167.968750
2632,167.968750
2633,167.968750
2634,167.968750
2635,167.968750
2636,167.968750
2637,164.062500
2638,164.062500
2639,164.062500
2640,164.062500
2641,164.062500
2642,164.062500
2643,164.062500
2644,160.156250
2645,160.156250
2646,160.156250
2647,160.156250
2648,156.250000
2649,156.250000
2650,156.250000
2651,156.250000
2652,152.343750
2653,152.343750
2654,152.343750
2655,148.437500
2656,148.437500
2657,148.437500
2658,148.437500
2659,144.531250
2660,144.531250
2661,144.531250
2662,140.625000
2663,140.625000
2664,140.625000
2665,136.718750
2666,136.718750
2667,136.718750
2668,132.812500
2669,132.812500
2670,128.906250
2671,128.906250
2672,125.000000
2673,125.000000
2674,121.093750
2675,121.093750
2676,117.187500
2677,117.187500
2678,117.187500
2679,113.281250
2680,113.281250
2681,109.375000
2682,105.468750
2683,105.468750
2684,101.562500
2685,97.656250
2686,97.656250
2687,93.750000
2688,93.750000
2689,89.843750
2690,89.843750
2691,85.937500
2692,85.937500
2693,82.031250
2694,78.125000
2695,74.218750
2696,74.218750
2697,70.312500
2698,66.406250
2699,62.500000
2700,62.500000
2701,58.593750
2702,54.687500
2703,54.687500
2704,50.781250
2705,46.875000
2706,42.968750
2707,42.968750
2708,39.062500
2709,35.156250
2710,31.250000
2711,27.343750
2712,27.343750
2713,23.437500
2714,19.531250
2715,19.531250
2716,15.625000
2717,11.718750
2718,7.812500
2719,3.906250
2720,0.000000
2721,-3.906250
2722,-3.906250
2723,-7.812500
2724,-11.718750
2725,-15.625000
2726,-19.531250
2727,-19.531250
2728,-23.437500
2729,-27.343750
2730,-31.250000
2731,-35.156250
2732,-39.062500
2733,-42.968750
2734,-46.875000
2735,-50.781250
2736,-50.781250
2737,-54.687500
2738,-58.593750
2739,-62.500000
2740,-66.406250
2741,-70.312500
2742,-74.218750
2743,-74.218750
2744,-78.125000
2745,-82.031250
2746,-85.937500
2747,-89.843750
2748,-93.750000
2749,-97.656250
2750,-101.562500
2751,-105.468750
2752,-105.468750
2753,-109.375000
2754,-113.281250
2755,-117.187500
2756,-121.093750
2757,-121.093750
2758,-125.000000
2759,-128.906250
2760,-132.812500
2761,-136.718750
2762,-140.625000
2763,-140.625000
2764,-144.531250
2765,-148.437500
2766,-152.343750
2767,-152.343750
2768,-156.250000
2769,-160.156250
2770,-164.062500
2771,-164.062500
2772,-167.968750
2773,-171.875000
2774,-175.781250
2775,-175.781250
2776,-179.687500
2777,-183.593750
2778,-183.593750
2779,-187.500000
2780,-191.406250
2781,-191.406250
2782,-195.312500
2783,-195.312500
2784,-199.218750
2785,-203.125000
2786,-203.125000
2787,-207.031250
2788,-207.031250
2789,-210.937500
2790,-210.937500
2791,-214.843750
2792,-214.843750
2793,-218.750000
2794,-222.656250
2795,-218.750000
2796,-222.656250
2797,-226.562500
2798,-226.562500
2799,-230.468750
2800,-230.468750
2801,-230.468750
2802,-234.375000
2803,-234.375000
2804,-238.281250
2805,-238.281250
2806,-238.281250
2807,-242.187500
2808,-242.187500
2809,-242.187500
2810,-242.187500
2811,-246.093750
2812,-246.093750
2813,-246.093750
2814,-246.093750
2815,-250.000000
2816,-250.000000
2817,-250.000000
2818,-250.000000
2819,-250.000000
2820,-250.000000
2821,-253.906250
2822,-253.906250
2823,-253.906250
2824,-253.906250
2825,-253.906250
2826,-253.906250
2827,-253.906250
2828,-253.906250
2829,-253.906250
2830,-253.906250
2831,-253.906250
2832,-253.906250
2833,-253.906250
2834,-253.906250
2835,-253.906250
2836,-253.906250
2837,-250.000000
2838,-253.906250
2839,-250.000000
2840,-250.000000
2841,-250.000000
2842,-250.000000
2843,-250.000000
2844,-246.093750
2845,-246.093750
2846,-246.093750
2847,-242.187500
2848,-242.187500
2849,-242.187500
2850,-238.281250
2851,-238.281250
2852,-238.281250
2853,-234.375000
2854,-234.375000
2855,-234.375000
2856,-234.375000
2857,-230.468750
2858,-230.468750
2859,-226.562500
2860,-226.562500
2861,-222.656250
2862,-222.656250
2863,-218.750000
2864,-218.750000
2865,-214.843750
2866,-214.843750
2867,-210.937500
2868,-210.937500
2869,-207.031250
2870,-207.031250
2871,-203.125000
2872,-203.125000
2873,-199.218750
2874,-195.312500
2875,-195.312500
2876,-191.406250
2877,-191.406250
2878,-187.500000
2879,-183.593750
2880,-183.593750
2881,-179.687500
2882,-175.781250
2883,-171.875000
2884,-171.875000
2885,-167.968750
2886,-164.062500
2887,-164.062500
2888,-160.156250
2889,-156.250000
2890,-152.343750
2891,-152.343750
2892,-148.437500
2893,-144.531250
2894,-140.625000
2895,-140.625000
2896,-136.718750
2897,-132.812500
2898,-128.906250
2899,-125.000000
2900,-121.093750
2901,-121.093750
2902,-117.187500
2903,-113.281250
2904,-109.375000
2905,-109.375000
2906,-101.562500
2907,-97.656250
2908,-97.656250
2909,-93.750000
2910,-89.843750
2911,-85.937500
2912,-82.031250
2913,-78.125000
2914,-78.125000
2915,-74.218750
2916,-70.312500
2917,-66.406250
2918,-62.500000
2919,-58.593750
2920,-54.687500
2921,-50.781250
2922,-46.875000
2923,-42.968750
2924,-42.968750
2925,-39.062500
2926,-35.156250
2927,-31.250000
2928,-27.343750
2929,-23.437500
2930,-23.437500
2931,-19.531250
2932,-15.625000
2933,-11.718750
2934,-7.812500
2935,-3.906250
2936,0.000000
2937,3.906250
2938,3.906250
2939,7.812500
2940,11.718750
2941,15.625000
2942,15.625000
2943,19.531250
2944,23.437500
2945,27.343750
2946,31.250000
2947,31.250000
2948,35.156250
2949,39.062500
2950,42.968750
2951,42.968750
2952,46.875000
2953,50.781250
2954,54.687500
2955,54.687500
2956,58.593750
2957,62.500000
2958,62.500000
2959,66.406250
2960,70.312500
2961,70.312500
2962,74.218750
2963,78.125000
2964,82.031250
2965,82.031250
2966,85.937500
2967,89.843750
2968,89.843750
2969,93.750000
2970,93.750000
2971,97.656250
2972,93.750000
2973,101.562500
2974,105.468750
2975,105.468750
2976,109.375000
2977,109.375000
2978,113.281250
2979,113.281250
2980,117.187500
2981,117.187500
2982,121.093750
2983,121.093750
2984,125.000000
2985,125.000000
2986,128.906250
2987,128.906250
2988,128.906250
2989,132.812500
2990,132.812500
2991,136.718750
2992,136.718750
2993,136.718750
2994,140.625000
2995,140.625000
2996,144.531250
2997,144.531250
2998,144.531250
2999,148.437500
3000,148.437500
3001,148.437500
3002,148.437500
3003,152.343750
3004,152.343750
3005,152.343750
3006,156.250000
3007,156.250000
3008,156.250000
3009,156.250000
3010,160.156250
3011,160.156250
3012,160.156250
3013,160.156250
3014,160.156250
3015,164.062500
3016,164.062500
3017,164.062500
3018,164.062500
3019,164.062500
3020,167.968750
3021,167.968750
3022,167.968750
3023,167.968750
3024,167.968750
3025,167.968750
3026,167.968750
3027,167.968750
3028,167.968750
3029,167.968750
3030,167.968750
3031,171.875000
3032,171.875000
3033,171.875000
3034,167.968750
3035,167.968750
3036,171.875000
3037,167.968750
3038,171.875000
3039,171.875000
3040,171.875000
3041,171.875000
3042,167.968750
3043,167.968750
3044,167.968750
3045,167.968750
3046,167.968750
3047,167.968750
3048,167.968750
3049,167.968750
3050,167.968750
3051,167.968750
3052,167.968750
3053,167.968750
3054,167.968750
3055,164.062500
3056,164.062500
3057,164.062500
3058,164.062500
3059,164.062500
3060,160.156250
3061,160.156250
3062,160.156250
3063,160.156250
3064,160.156250
3065,160.156250
3066,156.250000
3067,156.250000
3068,156.250000
3069,152.343750
3070,152.343750
3071,152.343750
3072,152.343750
3073,148.437500
3074,148.437500
3075,144.531250
3076,144.531250
3077,144.531250
3078,140.625000
3079,140.625000
3080,140.625000
3081,140.625000
3082,136.718750
3083,136.718750
3084,132.812500
3085,132.812500
3086,128.906250
3087,128.906250
3088,128.906250
3089,125.000000
3090,121.093750
3091,121.093750
3092,121.093750
3093,117.187500
3094,117.187500
3095,113.281250
3096,113.281250
3097,109.375000
3098,109.375000
3099,105.468750
3100,105.468750
3101,101.562500
3102,97.656250
3103,97.656250
3104,93.750000
3105,93.750000
3106,89.843750
3107,85.937500
3108,85.937500
3109,82.031250
3110,78.125000
3111,78.125000
3112,74.218750
3113,74.218750
3114,70.312500
3115,66.406250
3116,62.500000
3117,62.500000
3118,58.593750
3119,54.687500
3120,50.781250
3121,50.781250
3122,46.875000
3123,42.968750
3124,42.968750
3125,39.062500
3126,35.156250
3127,31.250000
3128,27.343750
3129,27.343750
3130,23.437500
3131,19.531250
3132,15.625000
3133,11.718750
3134,11.718750
3135,3.906250
3136,3.906250
3137,3.906250
3138,-3.906250
3139,-7.812500
3140,-7.812500
3141,-11.718750
3142,-15.625000
3143,-19.531250
3144,-23.437500
3145,-27.343750
3146,-27.343750
3147,-35.156250
3148,-35.156250
3149,-39.062500
3150,-42.968750
3151,-46.875000
3152,-50.781250
3153,-54.687500
3154,-58.593750
3155,-58.593750
3156,-62.500000
3157,-70.312500
3158,-70.312500
3159,-74.218750
3160,-78.125000
3161,-82.031250
3162,-85.937500
3163,-85.937500
3164,-89.843750
3165,-93.750000
3166,-97.656250
3167,-101.562500
3168,-105.468750
3169,-105.468750
3170,-109.375000
3171,-113.281250
3172,-117.187500
3173,-121.093750
3174,-125.000000
3175,-125.000000
3176,-128.906250
3177,-132.812500
3178,-136.718750
3179,-140.625000
3180,-140.625000
3181,-144.531250
3182,-148.437500
3183,-152.343750
3184,-152.343750
3185,-156.250000
3186,-160.156250
3187,-164.062500
3188,-167.968750
3189,-167.968750
3190,-171.875000
3191,-175.781250
3192,-175.781250
3193,-179.687500
3194,-183.593750
3195,-183.593750
3196,-187.500000
3197,-191.406250
3198,-191.406250
3199,-195.312500
3200,-199.218750
3201,-199.218750
3202,-203.125000
3203,-203.125000
3204,-207.031250
3205,-207.031250
3206,-210.937500
3207,-210.937500
3208,-214.843750
3209,-218.750000
3210,-218.750000
3211,-218.750000
3212,-222.656250
3213,-222.656250
3214,-226.562500
3215,-226.562500
3216,-230.468750
3217,-230.468750
3218,-234.375000
3219,-234.375000
3220,-234.375000
3221,-238.281250
3222,-238.281250
3223,-238.281250
3224,-242.187500
3225,-242.187500
3226,-242.187500
3227,-242.187500
3228,-246.093750
3229,-246.093750
3230,-246.093750
3231,-246.093750
3232,-250.000000
3233,-250.000000
3234,-250.000000
3235,-250.000000
3236,-250.000000
3237,-250.000000
3238,-253.906250
3239,-253.906250
3240,-253.906250
3241,-253.906250
3242,-253.906250
3243,-253.906250
3244,-253.906250
3245,-253.906250
3246,-253.906250
3247,-253.906250
3248,-253.906250
3249,-253.906250
3250,-253.906250
3251,-253.906250
3252,-253.906250
3253,-250.000000
3254,-250.000000
3255,-250.000000
3256,-250.000000
3257,-250.000000
3258,-250.000000
3259,-246.093750
3260,-246.093750
3261,-246.093750
3262,-246.093750
3263,-246.093750
3264,-242.187500
3265,-242.187500
3266,-242.187500
3267,-238.281250
3268,-238.281250
3269,-238.281250
3270,-234.375000
3271,-234.375000
3272,-234.375000
3273,-230.468750
3274,-230.468750
3275,-226.562500
3276,-226.562500
3277,-226.562500
3278,-222.656250
3279,-222.656250
3280,-222.656250
3281,-218.750000
3282,-214.843750
3283,-214.843750
3284,-210.937500
3285,-210.937500
3286,-207.031250
3287,-207.031250
3288,-203.125000
3289,-199.218750
3290,-199.218750
3291,-199.218750
3292,-191.406250
3293,-191.406250
3294,-187.500000
3295,-187.500000
3296,-183.593750
3297,-179.687500
3298,-179.687500
3299,-175.781250
3300,-171.875000
3301,-167.968750
3302,-167.968750
3303,-164.062500
3304,-160.156250
3305,-160.156250
3306,-156.250000
3307,-152.343750
3308,-148.437500
3309,-144.531250
3310,-144.531250
3311,-140.625000
3312,-136.718750
3313,-132.812500
3314,-128.906250
3315,-128.906250
3316,-125.000000
3317,-121.093750
3318,-113.281250
3319,-113.281250
3320,-109.375000
3321,-109.375000
3322,-105.468750
3323,-101.562500
3324,-97.656250
3325,-97.656250
3326,-89.843750
3327,-89.843750
3328,-85.937500
3329,-82.031250
3330,-78.125000
3331,-74.218750
3332,-70.312500
3333,-66.406250
3334,-62.500000
3335,-58.593750
3336,-58.593750
3337,-54.687500
3338,-50.781250
3339,-46.875000
3340,-42.968750
3341,-39.062500
3342,-39.062500
3343,-35.156250
3344,-31.250000
3345,-27.343750
3346,-23.437500
3347,-19.531250
3348,-15.625000
3349,-15.625000
3350,-11.718750
3351,-7.812500
3352,-3.906250
3353,0.000000
3354,3.906250
3355,7.812500
3356,7.812500
3357,11.718750
3358,15.625000
3359,15.625000
3360,23.437500
3361,23.437500
3362,27.343750
3363,31.250000
3364,35.156250
3365,35.156250
3366,39.062500
3367,42.968750
3368,42.968750
3369,46.875000
3370,50.781250
3371,54.687500
3372,58.593750
3373,58.593750
3374,62.500000
3375,66.406250
3376,70.312500
3377,70.312500
3378,74.218750
3379,78.125000
3380,78.125000
3381,82.031250
3382,85.937500
3383,85.937500
3384,89.843750
3385,89.843750
3386,93.750000
3387,97.656250
3388,97.656250
3389,101.562500
3390,101.562500
3391,105.468750
3392,109.375000
3393,109.375000
3394,109.375000
3395,113.281250
3396,117.187500
3397,117.187500
3398,117.187500
3399,125.000000
3400,121.093750
3401,125.000000
3402,125.000000
3403,128.906250
3404,128.906250
3405,132.812500
3406,132.812500
3407,132.812500
3408,136.718750
3409,140.625000
3410,140.625000
3411,140.625000
3412,140.625000
3413,144.531250
3414,144.531250
3415,144.531250
3416,148.437500
3417,148.437500
3418,148.437500
3419,152.343750
3420,152.343750
3421,152.343750
3422,152.343750
3423,156.250000
3424,156.250000
3425,156.250000
3426,160.156250
3427,160.156250
3428,160.156250
3429,160.156250
3430,160.156250
3431,164.062500
3432,164.062500
3433,164.062500
3434,164.062500
3435,164.062500
3436,164.062500
3437,164.062500
3438,167.968750
3439,167.968750
3440,167.968750
3441,167.968750
3442,167.968750
3443,167.968750
3444,167.968750
3445,167.968750
3446,167.968750
3447,167.968750
3448,171.875000
3449,171.875000
3450,171.875000
3451,167.968750
3452,171.875000
3453,171.875000
3454,171.875000
3455,171.875000
3456,171.875000
3457,171.875000
3458,171.875000
3459,171.875000
3460,171.875000
3461,171.875000
3462,167.968750
3463,167.968750
3464,167.968750
3465,167.968750
3466,167.968750
3467,167.968750
3468,167.968750
3469,167.968750
3470,167.968750
3471,164.062500
3472,164.062500
3473,164.062500
3474,164.062500
3475,164.062500
3476,160.156250
3477,160.156250
3478,160.156250
3479,160.156250
3480,160.156250
3481,160.156250
3482,156.250000
3483,156.250000
3484,156.250000
3485,156.250000
3486,152.343750
3487,152.343750
3488,152.343750
3489,152.343750
3490,148.437500
3491,148.437500
3492,148.437500
3493,144.531250
3494,144.531250
3495,144.531250
3496,140.625000
3497,140.625000
3498,140.625000
3499,136.718750
3500,136.718750
3501,132.812500
3502,128.906250
3503,128.906250
3504,128.906250
3505,125.000000
3506,125.000000
3507,121.093750
3508,121.093750
3509,117.187500
3510,117.187500
3511,117.187500
3512,113.281250
3513,113.281250
3514,109.375000
3515,105.468750
3516,105.468750
3517,101.562500
3518,101.562500
3519,97.656250
3520,97.656250
3521,93.750000
3522,89.843750
3523,89.843750
3524,85.937500
3525,85.937500
3526,82.031250
3527,82.031250
3528,74.218750
3529,74.218750
3530,70.312500
3531,70.312500
3532,66.406250
3533,62.500000
3534,62.500000
3535,58.593750
3536,54.687500
3537,50.781250
3538,50.781250
3539,46.875000
3540,42.968750
3541,39.062500
3542,35.156250
3543,35.156250
3544,31.250000
3545,27.343750
3546,27.343750
3547,19.531250
3548,19.531250
3549,15.625000
3550,11.718750
3551,7.812500
3552,7.812500
3553,3.906250
3554,0.000000
3555,-3.906250
3556,-7.812500
3557,-11.718750
3558,-15.625000
3559,-15.625000
3560,-19.531250
3561,-23.437500
3562,-27.343750
3563,-31.250000
3564,-35.156250
3565,-35.156250
3566,-39.062500
3567,-42.968750
3568,-46.875000
3569,-50.781250
3570,-54.687500
3571,-58.593750
3572,-62.500000
3573,-62.500000
3574,-66.406250
3575,-70.312500
3576,-74.218750
3577,-78.125000
3578,-82.031250
3579,-85.937500
3580,-85.937500
3581,-89.843750
3582,-89.843750
3583,-97.656250
3584,-101.562500
3585,-105.468750
3586,-109.375000
3587,-113.281250
3588,-113.281250
3589,-117.187500
3590,-121.093750
3591,-125.000000
3592,-132.812500
3593,-132.812500
3594,-136.718750
3595,-136.718750
3596,-140.625000
3597,-144.531250
3598,-144.531250
3599,-148.437500
3600,-152.343750
3601,-156.250000
3602,-160.156250
3603,-160.156250
3604,-164.062500
3605,-167.968750
3606,-167.968750
3607,-171.875000
3608,-175.781250
3609,-179.687500
3610,-179.687500
3611,-183.593750
3612,-187.500000
3613,-187.500000
3614,-191.406250
3615,-195.312500
3616,-195.312500
3617,-199.218750
3618,-199.218750
3619,-203.125000
3620,-203.125000
3621,-207.031250
3622,-210.937500
3623,-210.937500
3624,-214.843750
3625,-214.843750
3626,-218.750000
3627,-218.750000
3628,-218.750000
3629,-222.656250
3630,-226.562500
3631,-226.562500
3632,-230.468750
3633,-230.468750
3634,-230.468750
3635,-234.375000
3636,-234.375000
3637,-234.375000
3638,-238.281250
3639,-238.281250
3640,-238.281250
3641,-242.187500
3642,-242.187500
3643,-242.187500
3644,-246.093750
3645,-246.093750
3646,-246.093750
3647,-246.093750
3648,-246.093750
3649,-250.000000
3650,-250.000000
3651,-250.000000
3652,-250.000000
3653,-250.000000
3654,-253.906250
3655,-253.906250
3656,-253.906250
3657,-253.906250
3658,-253.906250
3659,-253.906250
3660,-253.906250
3661,-253.906250
3662,-253.906250
3663,-253.906250
3664,-253.906250
3665,-253.906250
3666,-253.906250
3667,-253.906250
3668,-253.906250
3669,-253.906250
3670,-253.906250
3671,-253.906250
3672,-250.000000
3673,-250.000000
3674,-250.000000
3675,-250.000000
3676,-246.093750
3677,-246.093750
3678,-246.093750
3679,-246.093750
3680,-246.093750
3681,-242.187500
3682,-242.187500
3683,-242.187500
3684,-242.187500
3685,-238.281250
3686,-238.281250
3687,-234.375000
3688,-234.375000
3689,-234.375000
3690,-230.468750
3691,-230.468750
3692,-226.562500
3693,-226.562500
3694,-226.562500
3695,-222.656250
3696,-218.750000
3697,-218.750000
3698,-218.750000
3699,-214.843750
3700,-214.843750
3701,-210.937500
3702,-210.937500
3703,-207.031250
3704,-203.125000
3705,-203.125000
3706,-199.218750
3707,-199.218750
3708,-195.312500
3709,-195.312500
3710,-191.406250
3711,-187.500000
3712,-187.500000
3713,-183.593750
3714,-179.687500
3715,-179.687500
3716,-175.781250
3717,-171.875000
3718,-167.968750
3719,-167.968750
3720,-164.062500
3721,-160.156250
3722,-160.156250
3723,-156.250000
3724,-152.343750
3725,-148.437500
3726,-144.531250
3727,-144.531250
3728,-140.625000
3729,-136.718750
3730,-132.812500
3731,-132.812500
3732,-128.906250
3733,-125.000000
3734,-121.093750
3735,-117.187500
3736,-113.281250
3737,-113.281250
3738,-109.375000
3739,-105.468750
3740,-101.562500
3741,-97.656250
3742,-93.750000
3743,-89.843750
3744,-85.937500
3745,-85.937500
3746,-82.031250
3747,-78.125000
3748,-74.218750
3749,-70.312500
3750,-66.406250
3751,-62.500000
3752,-58.593750
3753,-58.593750
3754,-54.687500
3755,-50.781250
3756,-46.875000
3757,-42.968750
3758,-39.062500
3759,-35.156250
3760,-35.156250
3761,-31.250000
3762,-27.343750
3763,-23.437500
3764,-19.531250
3765,-15.625000
3766,-11.718750
3767,-11.718750
3768,-7.812500
3769,-3.906250
3770,0.000000
3771,3.906250
3772,7.812500
3773,7.812500
3774,11.718750
3775,15.625000
3776,19.531250
3777,23.437500
3778,23.437500
3779,27.343750
3780,31.250000
3781,35.156250
3782,39.062500
3783,39.062500
3784,42.968750
3785,46.875000
3786,46.875000
3787,50.781250
3788,54.687500
3789,58.593750
3790,62.500000
3791,62.500000
3792,66.406250
3793,70.312500
3794,70.312500
3795,74.218750
3796,78.125000
3797,78.125000
3798,82.031250
3799,85.937500
3800,85.937500
3801,89.843750
3802,89.843750
3803,93.750000
3804,97.656250
3805,97.656250
3806,101.562500
3807,101.562500
3808,105.468750
3809,109.375000
3810,109.375000
3811,113.281250
3812,113.281250
3813,117.187500
3814,117.187500
3815,121.093750
3816,121.093750
3817,121.093750
3818,125.000000
3819,125.000000
3820,128.906250
3821,128.906250
3822,132.812500
3823,132.812500
3824,132.812500
3825,136.718750
3826,136.718750
3827,140.625000
3828,140.625000
3829,144.531250
3830,144.531250
3831,144.531250
3832,148.437500
3833,148.437500
3834,148.437500
3835,152.343750
3836,152.343750
3837,152.343750
3838,152.343750
3839,156.250000
3840,156.250000
3841,156.250000
3842,156.250000
3843,156.250000
3844,160.156250
3845,160.156250
3846,160.156250
3847,160.156250
3848,164.062500
3849,164.062500
3850,164.062500
3851,164.062500
3852,164.062500
3853,164.062500
3854,167.968750
3855,167.968750
3856,167.968750
3857,167.968750
3858,167.968750
3859,167.968750
3860,167.968750
3861,167.968750
3862,167.968750
3863,167.968750
3864,167.968750
3865,167.968750
3866,171.875000
3867,171.875000
3868,171.875000
3869,171.875000
3870,171.875000
3871,171.875000
3872,171.875000
3873,171.875000
3874,171.875000
3875,171.875000
3876,171.875000
3877,171.875000
3878,167.968750
3879,167.968750
3880,167.968750
3881,167.968750
3882,167.968750
3883,167.968750
3884,167.968750
3885,167.968750
3886,167.968750
3887,167.968750
3888,164.062500
3889,164.062500
3890,164.062500
3891,164.062500
3892,164.062500
3893,164.062500
3894,164.062500
3895,160.156250
3896,160.156250
3897,160.156250
3898,160.156250
3899,160.156250
3900,156.250000
3901,156.250000
3902,152.343750
3903,152.343750
3904,152.343750
3905,152.343750
3906,148.437500
3907,148.437500
3908,148.437500
3909,148.437500
3910,144.531250
3911,144.531250
3912,140.625000
3913,140.625000
3914,140.625000
3915,136.718750
3916,136.718750
3917,132.812500
3918,132.812500
3919,128.906250
3920,128.906250
3921,128.906250
3922,125.000000
3923,125.000000
3924,121.093750
3925,121.093750
3926,117.187500
3927,117.187500
3928,117.187500
3929,113.281250
3930,109.375000
3931,109.375000
3932,105.468750
3933,105.468750
3934,101.562500
3935,101.562500
3936,97.656250
3937,97.656250
3938,93.750000
3939,89.843750
3940,89.843750
3941,85.937500
3942,82.031250
3943,82.031250
3944,78.125000
3945,78.125000
3946,74.218750
3947,70.312500
3948,66.406250
3949,66.406250
3950,62.500000
3951,58.593750
3952,58.593750
3953,54.687500
3954,50.781250
3955,46.875000
3956,46.875000
3957,42.968750
3958,39.062500
3959,35.156250
3960,35.156250
3961,31.250000
3962,27.343750
3963,23.437500
3964,19.531250
3965,19.531250
3966,15.625000
3967,11.718750
3968,7.812500
3969,3.906250
3970,0.000000
3971,-3.906250
3972,-3.906250
3973,-7.812500
3974,-11.718750
3975,-15.625000
3976,-19.531250
3977,-19.531250
3978,-23.437500
3979,-27.343750
3980,-31.250000
3981,-35.156250
3982,-39.062500
3983,-42.968750
3984,-46.875000
3985,-50.781250
3986,-50.781250
3987,-54.687500
3988,-58.593750
3989,-62.500000
3990,-66.406250
3991,-70.312500
3992,-74.218750
3993,-74.218750
3994,-82.031250
3995,-82.031250
3996,-85.937500
3997,-93.750000
3998,-93.750000
3999,-97.656250
4000,-97.656250
4001,-101.562500
4002,-105.468750
4003,-109.375000
4004,-113.281250
4005,-117.187500
4006,-121.093750
4007,-125.000000
4008,-125.000000
4009,-128.906250
4010,-132.812500
4011,-136.718750
4012,-136.718750
4013,-140.625000
4014,-144.531250
4015,-148.437500
4016,-152.343750
4017,-152.343750
4018,-156.250000
4019,-160.156250
4020,-160.156250
4021,-164.062500
4022,-167.968750
4023,-171.875000
4024,-171.875000
4025,-175.781250
4026,-179.687500
4027,-179.687500
4028,-183.593750
4029,-187.500000
4030,-187.500000
4031,-191.406250
4032,-195.312500
4033,-195.312500
4034,-199.218750
4035,-203.125000
4036,-203.125000
4037,-207.031250
4038,-207.031250
4039,-210.937500
4040,-210.937500
4041,-214.843750
4042,-214.843750
4043,-218.750000
4044,-218.750000
4045,-222.656250
4046,-222.656250
4047,-226.562500
4048,-226.562500
4049,-230.468750
4050,-230.468750
4051,-230.468750
4052,-234.375000
4053,-234.375000
4054,-238.281250
4055,-238.281250
4056,-238.281250
4057,-242.187500
4058,-242.187500
4059,-242.187500
4060,-246.093750
4061,-246.093750
4062,-246.093750
4063,-246.093750
4064,-250.000000
4065,-250.000000
4066,-250.000000
4067,-250.000000
4068,-250.000000
4069,-250.000000
4070,-250.000000
4071,-250.000000
4072,-253.906250
4073,-253.906250
4074,-253.906250
4075,-253.906250
4076,-253.906250
4077,-253.906250
4078,-253.906250
4079,-253.906250
4080,-253.906250
4081,-253.906250
4082,-253.906250
4083,-253.906250
4084,-253.906250
4085,-253.906250
4086,-253.906250
4087,-250.000000
4088,-250.000000
4089,-250.000000
4090,-250.000000
4091,-250.000000
4092,-246.093750
4093,-250.000000
4094,-246.093750
4095,-246.093750
4096,-246.093750
4097,-242.187500
4098,-242.187500
4099,-242.187500
4100,-242.187500
4101,-238.281250
4102,-238.281250
4103,-238.281250
4104,-234.375000
4105,-234.375000
4106,-234.375000
4107,-230.468750
4108,-230.468750
4109,-226.562500
4110,-226.562500
4111,-222.656250
4112,-222.656250
4113,-222.656250
4114,-218.750000
4115,-218.750000
4116,-214.843750
4117,-214.843750
4118,-210.937500
4119,-207.031250
4120,-207.031250
4121,-203.125000
4122,-203.125000
4123,-203.125000
4124,-199.218750
4125,-195.312500
4126,-191.406250
4127,-191.406250
4128,-187.500000
4129,-183.593750
4130,-183.593750
4131,-179.687500
4132,-175.781250
4133,-171.875000
4134,-171.875000
4135,-167.968750
4136,-164.062500
4137,-164.062500
4138,-160.156250
4139,-156.250000
4140,-152.343750
4141,-152.343750
4142,-148.437500
4143,-144.531250
4144,-140.625000
4145,-140.625000
4146,-136.718750
4147,-132.812500
4148,-128.906250
4149,-125.000000
4150,-121.093750
4151,-121.093750
4152,-117.187500
4153,-113.281250
4154,-109.375000
4155,-105.468750
4156,-101.562500
4157,-97.656250
4158,-97.656250
4159,-93.750000
4160,-89.843750
4161,-85.937500
4162,-82.031250
4163,-78.125000
4164,-74.218750
4165,-74.218750
4166,-70.312500
4167,-66.406250
4168,-62.500000
4169,-58.593750
4170,-54.687500
4171,-50.781250
4172,-46.875000
4173,-46.875000
4174,-42.968750
4175,-39.062500
4176,-35.156250
4177,-31.250000
4178,-27.343750
4179,-23.437500
4180,-23.437500
4181,-19.531250
4182,-15.625000
4183,-11.718750
4184,-11.718750
4185,-3.906250
4186,-3.906250
4187,0.000000
4188,3.906250
4189,7.812500
4190,11.718750
4191,15.625000
4192,15.625000
4193,19.531250
4194,23.437500
4195,27.343750
4196,27.343750
4197,31.250000
4198,35.156250
4199,39.062500
4200,42.968750
4201,42.968750
4202,46.875000
4203,50.781250
4204,54.687500
4205,54.687500
4206,58.593750
4207,62.500000
4208,66.406250
4209,66.406250
4210,70.312500
4211,70.312500
4212,74.218750
4213,78.125000
4214,82.031250
4215,82.031250
4216,85.937500
4217,85.937500
4218,89.843750
4219,93.750000
4220,93.750000
4221,97.656250
4222,101.562500
4223,101.562500
4224,101.562500
4225,105.468750
4226,109.375000
4227,109.375000
4228,113.281250
4229,117.187500
4230,117.187500
4231,117.187500
4232,121.093750
4233,121.093750
4234,121.093750
4235,125.000000
4236,125.000000
4237,128.906250
4238,128.906250
4239,132.812500
4240,132.812500
4241,136.718750
4242,136.718750
4243,136.718750
4244,140.625000
4245,140.625000
4246,140.625000
4247,144.531250
4248,144.531250
4249,148.437500
4250,148.437500
4251,148.437500
4252,148.437500
4253,152.343750
4254,152.343750
4255,152.343750
4256,152.343750
4257,156.250000
4258,156.250000
4259,156.250000
4260,160.156250
4261,160.156250
4262,160.156250
4263,160.156250
4264,160.156250
4265,164.062500
4266,164.062500
4267,164.062500
4268,164.062500
4269,164.062500
4270,164.062500
4271,167.968750
4272,167.968750
4273,167.968750
4274,167.968750
4275,167.968750
4276,167.968750
4277,167.968750
4278,167.968750
4279,167.968750
4280,167.968750
4281,167.968750
4282,167.968750
4283,171.875000
4284,167.968750
4285,171.875000
4286,171.875000
4287,171.875000
4288,171.875000
4289,171.875000
4290,167.968750
4291,171.875000
4292,167.968750
4293,171.875000
4294,167.968750
4295,167.968750
4296,167.968750
4297,167.968750
4298,167.968750
4299,167.968750
4300,167.968750
4301,167.968750
4302,167.968750
4303,167.968750
4304,164.062500
4305,164.062500
4306,164.062500
4307,164.062500
4308,164.062500
4309,160.156250
4310,160.156250
4311,160.156250
4312,160.156250
4313,160.156250
4314,160.156250
4315,156.250000
4316,160.156250
4317,156.250000
4318,156.250000
4319,152.343750
4320,152.343750
4321,152.343750
4322,152.343750
4323,148.437500
4324,148.437500
4325,144.531250
4326,144.531250
4327,144.531250
4328,140.625000
4329,140.625000
4330,140.625000
4331,140.625000
4332,136.718750
4333,136.718750
4334,132.812500
4335,132.812500
4336,132.812500
4337,128.906250
4338,125.000000
4339,125.000000
4340,125.000000
4341,121.093750
4342,121.093750
4343,117.187500
4344,117.187500
4345,113.281250
4346,113.281250
4347,109.375000
4348,109.375000
4349,105.468750
4350,101.562500
4351,101.562500
4352,97.656250
4353,97.656250
4354,93.750000
4355,93.750000
4356,89.843750
4357,89.843750
4358,85.937500
4359,82.031250
4360,78.125000
4361,78.125000
4362,74.218750
4363,70.312500
4364,70.312500
4365,66.406250
4366,62.500000
4367,62.500000
4368,58.593750
4369,54.687500
4370,54.687500
4371,50.781250
4372,46.875000
4373,42.968750
4374,39.062500
4375,39.062500
4376,35.156250
4377,31.250000
4378,27.343750
4379,23.437500
4380,23.437500
4381,19.531250
4382,15.625000
4383,11.718750
4384,11.718750
4385,7.812500
4386,3.906250
4387,0.000000
4388,-3.906250
4389,-3.906250
4390,-7.812500
4391,-11.718750
4392,-15.625000
4393,-19.531250
4394,-23.437500
4395,-27.343750
4396,-31.250000
4397,-31.250000
4398,-35.156250
4399,-39.062500
4400,-42.968750
4401,-46.875000
4402,-50.781250
4403,-54.687500
4404,-58.593750
4405,-58.593750
4406,-62.500000
4407,-66.406250
4408,-70.312500
4409,-74.218750
4410,-78.125000
4411,-78.125000
4412,-82.031250
4413,-85.937500
4414,-89.843750
4415,-93.750000
4416,-97.656250
4417,-101.562500
4418,-105.468750
4419,-105.468750
4420,-109.375000
4421,-113.281250
4422,-121.093750
4423,-121.093750
4424,-125.000000
4425,-125.000000
4426,-128.906250
4427,-132.812500
4428,-136.718750
4429,-140.625000
4430,-140.625000
4431,-144.531250
4432,-148.437500
4433,-152.343750
4434,-156.250000
4435,-156.250000
4436,-160.156250
4437,-164.062500
4438,-164.062500
4439,-167.968750
4440,-171.875000
4441,-175.781250
4442,-175.781250
4443,-179.687500
4444,-183.593750
4445,-183.593750
4446,-187.500000
4447,-191.406250
4448,-191.406250
4449,-195.312500
4450,-195.312500
4451,-199.218750
4452,-203.125000
4453,-203.125000
4454,-207.031250
4455,-207.031250
4456,-210.937500
4457,-210.937500
4458,-214.843750
4459,-218.750000
4460,-218.750000
4461,-218.750000
4462,-222.656250
4463,-222.656250
4464,-226.562500
4465,-226.562500
4466,-230.468750
4467,-230.468750
4468,-234.375000
4469,-234.375000
4470,-234.375000
4471,-238.281250
4472,-238.281250
4473,-238.281250
4474,-242.187500
4475,-242.187500
4476,-242.187500
4477,-242.187500
4478,-242.187500
4479,-246.093750
4480,-246.093750
4481,-246.093750
4482,-250.000000
4483,-250.000000
4484,-250.000000
4485,-250.000000
4486,-253.906250
4487,-250.000000
4488,-250.000000
4489,-253.906250
4490,-250.000000
4491,-253.906250
4492,-253.906250
4493,-253.906250
4494,-253.906250
4495,-253.906250
4496,-253.906250
4497,-253.906250
4498,-253.906250
4499,-253.906250
4500,-253.906250
4501,-253.906250
4502,-253.906250
4503,-253.906250
4504,-253.906250
4505,-250.000000
4506,-250.000000
4507,-250.000000
4508,-250.000000
4509,-250.000000
4510,-250.000000
4511,-246.093750
4512,-246.093750
4513,-246.093750
4514,-246.093750
4515,-242.187500
4516,-246.093750
4517,-242.187500
4518,-238.281250
4519,-238.281250
4520,-238.281250
4521,-238.281250
4522,-234.375000
4523,-234.375000
4524,-230.468750
4525,-230.468750
4526,-226.562500
4527,-226.562500
4528,-222.656250
4529,-222.656250
4530,-222.656250
4531,-218.750000
4532,-214.843750
4533,-214.843750
4534,-207.031250
4535,-210.937500
4536,-207.031250
4537,-207.031250
4538,-203.125000
4539,-203.125000
4540,-199.218750
4541,-199.218750
4542,-195.312500
4543,-191.406250
4544,-191.406250
4545,-187.500000
4546,-183.593750
4547,-183.593750
4548,-179.687500
4549,-175.781250
4550,-175.781250
4551,-171.875000
4552,-167.968750
4553,-164.062500
4554,-164.062500
4555,-160.156250
4556,-156.250000
4557,-156.250000
4558,-152.343750
4559,-148.437500
4560,-144.531250
4561,-140.625000
4562,-140.625000
4563,-136.718750
4564,-132.812500
4565,-128.906250
4566,-125.000000
4567,-121.093750
4568,-121.093750
4569,-117.187500
4570,-113.281250
4571,-109.375000
4572,-105.468750
4573,-101.562500
4574,-101.562500
4575,-97.656250
4576,-93.750000
4577,-89.843750
4578,-85.937500
4579,-82.031250
4580,-78.125000
4581,-74.218750
4582,-74.218750
4583,-70.312500
4584,-66.406250
4585,-62.500000
4586,-58.593750
4587,-54.687500
4588,-50.781250
4589,-50.781250
4590,-46.875000
4591,-42.968750
4592,-39.062500
4593,-35.156250
4594,-31.250000
4595,-27.343750
4596,-23.437500
4597,-23.437500
4598,-19.531250
4599,-15.625000
4600,-11.718750
4601,-7.812500
4602,-3.906250
4603,0.000000
4604,0.000000
4605,3.906250
4606,7.812500
4607,11.718750
4608,11.718750
4609,19.531250
4610,19.531250
4611,23.437500
4612,27.343750
4613,31.250000
4614,31.250000
4615,35.156250
4616,39.062500
4617,42.968750
4618,46.875000
4619,46.875000
4620,50.781250
4621,54.687500
4622,54.687500
4623,58.593750
4624,62.500000
4625,62.500000
4626,66.406250
4627,70.312500
4628,74.218750
4629,74.218750
4630,78.125000
4631,82.031250
4632,82.031250
4633,85.937500
4634,85.937500
4635,89.843750
4636,93.750000
4637,93.750000
4638,97.656250
4639,97.656250
4640,101.562500
4641,101.562500
4642,105.468750
4643,109.375000
4644,109.375000
4645,113.281250
4646,113.281250
4647,117.187500
4648,117.187500
4649,121.093750
4650,121.093750
4651,125.000000
4652,125.000000
4653,125.000000
4654,128.906250
4655,128.906250
4656,132.812500
4657,132.812500
4658,136.718750
4659,136.718750
4660,136.718750
4661,140.625000
4662,144.531250
4663,140.625000
4664,144.531250
4665,144.531250
4666,148.437500
4667,148.437500
4668,148.437500
4669,152.343750
4670,152.343750
4671,152.343750
4672,152.343750
4673,156.250000
4674,156.250000
4675,156.250000
4676,156.250000
4677,160.156250
4678,160.156250
4679,160.156250
4680,160.156250
4681,164.062500
4682,164.062500
4683,164.062500
4684,164.062500
4685,164.062500
4686,164.062500
4687,164.062500
4688,167.968750
4689,167.968750
4690,167.968750
4691,167.968750
4692,167.968750
4693,167.968750
4694,167.968750
4695,167.968750
4696,167.968750
4697,167.968750
4698,167.968750
4699,171.875000
4700,167.968750
4701,171.875000
4702,167.968750
4703,167.968750
4704,171.875000
4705,171.875000
4706,167.968750
4707,167.968750
4708,167.968750
4709,171.875000
4710,171.875000
4711,167.968750
4712,167.968750
4713,171.875000
4714,167.968750
4715,167.968750
4716,167.968750
4717,167.968750
4718,167.968750
4719,167.968750
4720,167.968750
4721,164.062500
4722,164.062500
4723,164.062500
4724,164.062500
4725,164.062500
4726,164.062500
4727,164.062500
4728,160.156250
4729,160.156250
4730,160.156250
4731,160.156250
4732,156.250000
4733,156.250000
4734,156.250000
4735,156.250000
4736,156.250000
4737,152.343750
4738,152.343750
4739,152.343750
4740,148.437500
4741,148.437500
4742,148.437500
4743,144.531250
4744,144.531250
4745,144.531250
4746,140.625000
4747,140.625000
4748,136.718750
4749,136.718750
4750,136.718750
4751,132.812500
4752,128.906250
4753,128.906250
4754,128.906250
4755,125.000000
4756,125.000000
4757,121.093750
4758,121.093750
4759,121.093750
4760,117.187500
4761,117.187500
4762,113.281250
4763,113.281250
4764,109.375000
4765,109.375000
4766,105.468750
4767,101.562500
4768,101.562500
4769,97.656250
4770,97.656250
4771,93.750000
4772,93.750000
4773,89.843750
4774,85.937500
4775,82.031250
4776,82.031250
4777,78.125000
4778,74.218750
4779,74.218750
4780,70.312500
4781,70.312500
4782,66.406250
4783,62.500000
4784,62.500000
4785,58.593750
4786,54.687500
4787,50.781250
4788,50.781250
4789,46.875000
4790,42.968750
4791,39.062500
4792,39.062500
4793,35.156250
4794,31.250000
4795,27.343750
4796,23.437500
4797,23.437500
4798,19.531250
4799,15.625000
4800,11.718750
4801,7.812500
4802,7.812500
4803,3.906250
4804,0.000000
4805,-3.906250
4806,-7.812500
4807,-7.812500
4808,-11.718750
4809,-15.625000
4810,-19.531250
4811,-23.437500
4812,-27.343750
4813,-31.250000
4814,-31.250000
4815,-35.156250
4816,-39.062500
4817,-42.968750
4818,-46.875000
4819,-50.781250
4820,-54.687500
4821,-58.593750
4822,-58.593750
4823,-62.500000
4824,-70.312500
4825,-70.312500
4826,-74.218750
4827,-78.125000
4828,-82.031250
4829,-85.937500
4830,-89.843750
4831,-89.843750
4832,-93.750000
4833,-97.656250
4834,-101.562500
4835,-105.468750
4836,-109.375000
4837,-113.281250
4838,-113.281250
4839,-117.187500
4840,-121.093750
4841,-125.000000
4842,-128.906250
4843,-128.906250
4844,-132.812500
4845,-136.718750
4846,-140.625000
4847,-144.531250
4848,-144.531250
4849,-148.437500
4850,-152.343750
4851,-156.250000
4852,-160.156250
4853,-160.156250
4854,-164.062500
4855,-167.968750
4856,-167.968750
4857,-171.875000
4858,-175.781250
4859,-179.687500
4860,-179.687500
4861,-183.593750
4862,-183.593750
4863,-187.500000
4864,-191.406250
4865,-191.406250
4866,-195.312500
4867,-199.218750
4868,-199.218750
4869,-203.125000
4870,-203.125000
4871,-207.031250
4872,-210.937500
4873,-210.937500
4874,-214.843750
4875,-214.843750
4876,-218.750000
4877,-218.750000
4878,-222.656250
4879,-222.656250
4880,-226.562500
4881,-226.562500
4882,-226.562500
4883,-230.468750
4884,-230.468750
4885,-234.375000
4886,-234.375000
4887,-234.375000
4888,-238.281250
4889,-238.281250
4890,-238.281250
4891,-242.187500
4892,-242.187500
4893,-242.187500
4894,-246.093750
4895,-246.093750
4896,-250.000000
4897,-246.093750
4898,-246.093750
4899,-250.000000
4900,-250.000000
4901,-250.000000
4902,-250.000000
4903,-250.000000
4904,-253.906250
4905,-253.906250
4906,-253.906250
4907,-253.906250
4908,-253.906250
4909,-253.906250
4910,-253.906250
4911,-253.906250
4912,-250.000000
4913,-253.906250
4914,-253.906250
4915,-253.906250
4916,-253.906250
4917,-253.906250
4918,-253.906250
4919,-253.906250
4920,-253.906250
4921,-250.000000
4922,-250.000000
4923,-250.000000
4924,-250.000000
4925,-250.000000
4926,-250.000000
4927,-246.093750
4928,-246.093750
4929,-246.093750
4930,-246.093750
4931,-242.187500
4932,-242.187500
4933,-242.187500
4934,-242.187500
4935,-238.281250
4936,-238.281250
4937,-238.281250
4938,-234.375000
4939,-234.375000
4940,-230.468750
4941,-230.468750
4942,-230.468750
4943,-226.562500
4944,-226.562500
4945,-222.656250
4946,-222.656250
4947,-218.750000
4948,-218.750000
4949,-214.843750
4950,-214.843750
4951,-214.843750
4952,-210.937500
4953,-207.031250
4954,-207.031250
4955,-203.125000
4956,-203.125000
4957,-199.218750
4958,-195.312500
4959,-195.312500
4960,-191.406250
4961,-187.500000
4962,-187.500000
4963,-183.593750
4964,-179.687500
4965,-179.687500
4966,-175.781250
4967,-171.875000
4968,-171.875000
4969,-167.968750
4970,-164.062500
4971,-160.156250
4972,-160.156250
4973,-156.250000
4974,-152.343750
4975,-148.437500
4976,-148.437500
4977,-144.531250
4978,-140.625000
4979,-136.718750
4980,-132.812500
4981,-132.812500
4982,-128.906250
4983,-125.000000
4984,-121.093750
4985,-117.187500
4986,-117.187500
4987,-113.281250
4988,-109.375000
4989,-105.468750
4990,-101.562500
4991,-97.656250
4992,-93.750000
4993,-93.750000
4994,-89.843750
4995,-85.937500
4996,-82.031250
4997,-78.125000
4998,-74.218750
4999,-70.312500
5000,-70.312500
5001,-66.406250
5002,-62.500000
5003,-58.593750
5004,-54.687500
5005,-50.781250
5006,-46.875000
5007,-42.968750
5008,-39.062500
5009,-39.062500
5010,-35.156250
5011,-31.250000
5012,-27.343750
5013,-23.437500
5014,-19.531250
5015,-15.625000
5016,-15.625000
5017,-11.718750
5018,-7.812500
5019,-3.906250
5020,0.000000
5021,0.000000
5022,3.906250
5023,7.812500
5024,11.718750
5025,15.625000
5026,19.531250
5027,19.531250
5028,23.437500
5029,27.343750
5030,31.250000
5031,31.250000
5032,35.156250
5033,39.062500
5034,42.968750
5035,46.875000
5036,46.875000
5037,50.781250
5038,54.687500
5039,54.687500
5040,58.593750
5041,62.500000
5042,66.406250
5043,66.406250
5044,70.312500
5045,74.218750
5046,74.218750
5047,78.125000
5048,82.031250
5049,82.031250
5050,85.937500
5051,89.843750
5052,89.843750
5053,93.750000
5054,93.750000
5055,97.656250
5056,101.562500
5057,101.562500
5058,105.468750
5059,105.468750
5060,109.375000
5061,109.375000
5062,113.281250
5063,113.281250
5064,117.187500
5065,121.093750
5066,121.093750
5067,121.093750
5068,125.000000
5069,125.000000
5070,128.906250
5071,128.906250
5072,128.906250
5073,132.812500
5074,132.812500
5075,136.718750
5076,136.718750
5077,136.718750
5078,140.625000
5079,140.625000
5080,144.531250
5081,144.531250
5082,144.531250
5083,144.531250
5084,148.437500
5085,148.437500
5086,152.343750
5087,152.343750
5088,152.343750
5089,152.343750
5090,156.250000
5091,156.250000
5092,156.250000
5093,156.250000
5094,160.156250
5095,160.156250
5096,160.156250
5097,160.156250
5098,164.062500
5099,164.062500
5100,164.062500
5101,164.062500
5102,164.062500
5103,164.062500
5104,164.062500
5105,164.062500
5106,167.968750
5107,167.968750
5108,167.968750
5109,167.968750
5110,167.968750
5111,167.968750
5112,167.968750
5113,167.968750
5114,167.968750
5115,167.968750
5116,167.968750
5117,167.968750
5118,167.968750
5119,167.968750
5120,171.875000
5121,171.875000
5122,171.875000
5123,171.875000
5124,167.968750
5125,171.875000
5126,167.968750
5127,167.968750
5128,167.968750
5129,167.968750
5130,167.968750
5131,167.968750
5132,167.968750
5133,167.968750
5134,167.968750
5135,167.968750
5136,167.968750
5137,167.968750
5138,164.062500
5139,164.062500
5140,164.062500
5141,164.062500
5142,164.062500
5143,164.062500
5144,160.156250
5145,160.156250
5146,160.156250
5147,160.156250
5148,156.250000
5149,156.250000
5150,156.250000
5151,156.250000
5152,152.343750
5153,152.343750
5154,152.343750
5155,152.343750
5156,148.437500
5157,148.437500
5158,148.437500
5159,144.531250
5160,144.531250
5161,144.531250
5162,140.625000
5163,140.625000
5164,140.625000
5165,136.718750
5166,136.718750
5167,136.718750
5168,132.812500
5169,132.812500
5170,128.906250
5171,128.906250
5172,125.000000
5173,125.000000
5174,121.093750
5175,121.093750
5176,121.093750
5177,117.187500
5178,113.281250
5179,113.281250
5180,113.281250
5181,109.375000
5182,105.468750
5183,105.468750
5184,101.562500
5185,97.656250
5186,97.656250
5187,97.656250
5188,93.750000
5189,89.843750
5190,89.843750
5191,85.937500
5192,82.031250
5193,82.031250
5194,78.125000
5195,78.125000
5196,74.218750
5197,70.312500
5198,66.406250
5199,66.406250
5200,62.500000
5201,58.593750
5202,58.593750
5203,54.687500
5204,50.781250
5205,46.875000
5206,46.875000
5207,42.968750
5208,39.062500
5209,35.156250
5210,35.156250
5211,31.250000
5212,27.343750
5213,23.437500
5214,19.531250
5215,15.625000
5216,15.625000
5217,11.718750
5218,7.812500
5219,3.906250
5220,0.000000
5221,0.000000
5222,-3.906250
5223,-7.812500
5224,-11.718750
5225,-15.625000
5226,-19.531250
5227,-19.531250
5228,-23.437500
5229,-27.343750
5230,-31.250000
5231,-35.156250
5232,-39.062500
5233,-42.968750
5234,-42.968750
5235,-46.875000
5236,-50.781250
5237,-54.687500
5238,-58.593750
5239,-62.500000
5240,-66.406250
5241,-70.312500
5242,-70.312500
5243,-74.218750
5244,-78.125000
5245,-82.031250
5246,-85.937500
5247,-89.843750
5248,-93.750000
5249,-97.656250
5250,-97.656250
5251,-101.562500
5252,-105.468750
5253,-109.375000
5254,-113.281250
5255,-113.281250
5256,-117.187500
5257,-121.093750
5258,-125.000000
5259,-128.906250
5260,-132.812500
5261,-132.812500
5262,-136.718750
5263,-140.625000
5264,-144.531250
5265,-148.437500
5266,-152.343750
5267,-152.343750
5268,-156.250000
5269,-160.156250
5270,-160.156250
5271,-164.062500
5272,-167.968750
5273,-171.875000
5274,-171.875000
5275,-175.781250
5276,-179.687500
5277,-179.687500
5278,-183.593750
5279,-187.500000
5280,-187.500000
5281,-191.406250
5282,-195.312500
5283,-195.312500
5284,-199.218750
5285,-203.125000
5286,-203.125000
5287,-203.125000
5288,-207.031250
5289,-210.937500
5290,-210.937500
5291,-214.843750
5292,-214.843750
5293,-218.750000
5294,-218.750000
5295,-222.656250
5296,-222.656250
5297,-226.562500
5298,-226.562500
5299,-230.468750
5300,-230.468750
5301,-230.468750
5302,-234.375000
5303,-234.375000
5304,-238.281250
5305,-238.281250
5306,-238.281250
5307,-242.187500
5308,-242.187500
5309,-242.187500
5310,-246.093750
5311,-246.093750
5312,-246.093750
5313,-246.093750
5314,-246.093750
5315,-250.000000
5316,-250.000000
5317,-250.000000
5318,-250.000000
5319,-250.000000
5320,-250.000000
5321,-253.906250
5322,-253.906250
5323,-253.906250
5324,-253.906250
5325,-253.906250
5326,-253.906250
5327,-253.906250
5328,-253.906250
5329,-253.906250
5330,-253.906250
5331,-253.906250
5332,-253.906250
5333,-253.906250
5334,-253.906250
5335,-253.906250
5336,-253.906250
5337,-250.000000
5338,-253.906250
5339,-250.000000
5340,-250.000000
5341,-250.000000
5342,-250.000000
5343,-250.000000
5344,-246.093750
5345,-246.093750
5346,-246.093750
5347,-246.093750
5348,-242.187500
5349,-242.187500
5350,-242.187500
5351,-242.187500
5352,-238.281250
5353,-238.281250
5354,-238.281250
5355,-234.375000
5356,-234.375000
5357,-230.468750
5358,-230.468750
5359,-230.468750
5360,-226.562500
5361,-226.562500
5362,-222.656250
5363,-222.656250
5364,-222.656250
5365,-218.750000
5366,-214.843750
5367,-214.843750
5368,-210.937500
5369,-210.937500
5370,-207.031250
5371,-207.031250
5372,-203.125000
5373,-199.218750
5374,-199.218750
5375,-195.312500
5376,-191.406250
5377,-191.406250
5378,-187.500000
5379,-187.500000
5380,-183.593750
5381,-179.687500
5382,-175.781250
5383,-175.781250
5384,-171.875000
5385,-167.968750
5386,-167.968750
5387,-164.062500
5388,-160.156250
5389,-156.250000
5390,-156.250000
5391,-152.343750
5392,-148.437500
5393,-144.531250
5394,-144.531250
5395,-140.625000
5396,-136.718750
5397,-132.812500
5398,-132.812500
5399,-128.906250
5400,-125.000000
5401,-121.093750
5402,-117.187500
5403,-117.187500
5404,-109.375000
5405,-109.375000
5406,-105.468750
5407,-101.562500
5408,-97.656250
5409,-93.750000
5410,-89.843750
5411,-89.843750
5412,-85.937500
5413,-82.031250
5414,-78.125000
5415,-74.218750
5416,-70.312500
5417,-66.406250
5418,-66.406250
5419,-62.500000
5420,-58.593750
5421,-54.687500
5422,-50.781250
5423,-46.875000
5424,-42.968750
5425,-39.062500
5426,-35.156250
5427,-35.156250
5428,-31.250000
5429,-27.343750
5430,-23.437500
5431,-19.531250
5432,-15.625000
5433,-15.625000
5434,-11.718750
5435,-7.812500
5436,-3.906250
5437,0.000000
5438,3.906250
5439,7.812500
5440,7.812500
5441,11.718750
5442,15.625000
5443,19.531250
5444,23.437500
5445,27.343750
5446,27.343750
5447,31.250000
5448,35.156250
5449,35.156250
5450,39.062500
5451,42.968750
5452,46.875000
5453,50.781250
5454,50.781250
5455,54.687500
5456,58.593750
5457,58.593750
5458,62.500000
5459,66.406250
5460,66.406250
5461,70.312500
5462,74.218750
5463,74.218750
5464,78.125000
5465,82.031250
5466,82.031250
5467,85.937500
5468,89.843750
5469,89.843750
5470,93.750000
5471,97.656250
5472,97.656250
5473,101.562500
5474,101.562500
5475,105.468750
5476,105.468750
5477,109.375000
5478,109.375000
5479,113.281250
5480,117.187500
5481,117.187500
5482,117.187500
5483,121.093750
5484,121.093750
5485,125.000000
5486,125.000000
5487,128.906250
5488,128.906250
5489,132.812500
5490,132.812500
5491,132.812500
5492,136.718750
5493,136.718750
5494,140.625000
5495,140.625000
5496,140.625000
5497,144.531250
5498,144.531250
5499,148.437500
5500,148.437500
5501,148.437500
5502,148.437500
5503,152.343750
5504,152.343750
5505,152.343750
5506,156.250000
5507,156.250000
5508,156.250000
5509,156.250000
5510,156.250000
5511,160.156250
5512,160.156250
5513,160.156250
5514,160.156250
5515,160.156250
5516,164.062500
5517,164.062500
5518,164.062500
5519,164.062500
5520,164.062500
5521,164.062500
5522,167.968750
5523,167.968750
5524,167.968750
5525,167.968750
5526,167.968750
5527,167.968750
5528,167.968750
5529,167.968750
5530,167.968750
5531,167.968750
5532,167.968750
5533,167.968750
5534,171.875000
5535,171.875000
5536,171.875000
5537,167.968750
5538,167.968750
5539,167.968750
5540,171.875000
5541,167.968750
5542,171.875000
5543,167.968750
5544,167.968750
5545,167.968750
5546,167.968750
5547,167.968750
5548,167.968750
5549,167.968750
5550,167.968750
5551,167.968750
5552,167.968750
5553,167.968750
5554,167.968750
5555,164.062500
5556,164.062500
5557,164.062500
5558,164.062500
5559,164.062500
5560,164.062500
5561,160.156250
5562,160.156250
5563,160.156250
5564,160.156250
5565,156.250000
5566,156.250000
5567,156.250000
5568,156.250000
5569,152.343750
5570,152.343750
5571,152.343750
5572,152.343750
5573,148.437500
5574,148.437500
5575,148.437500
5576,144.531250
5577,144.531250
5578,144.531250
5579,140.625000
5580,140.625000
5581,140.625000
5582,136.718750
5583,136.718750
5584,136.718750
5585,132.812500
5586,132.812500
5587,128.906250
5588,128.906250
5589,125.000000
5590,125.000000
5591,121.093750
5592,121.093750
5593,117.187500
5594,117.187500
5595,113.281250
5596,113.281250
5597,109.375000
5598,109.375000
5599,105.468750
5600,105.468750
5601,101.562500
5602,101.562500
5603,97.656250
5604,93.750000
5605,93.750000
5606,89.843750
5607,85.937500
5608,85.937500
5609,78.125000
5610,82.031250
5611,78.125000
5612,74.218750
5613,74.218750
5614,70.312500
5615,66.406250
5616,66.406250
5617,62.500000
5618,58.593750
5619,54.687500
5620,54.687500
5621,50.781250
5622,46.875000
5623,46.875000
5624,42.968750
5625,39.062500
5626,35.156250
5627,31.250000
5628,31.250000
5629,27.343750
5630,23.437500
5631,19.531250
5632,15.625000
5633,15.625000
5634,11.718750
5635,7.812500
5636,3.906250
5637,0.000000
5638,0.000000
5639,-3.906250
5640,-7.812500
5641,-11.718750
5642,-15.625000
5643,-19.531250
5644,-23.437500
5645,-23.437500
5646,-27.343750
5647,-31.250000
5648,-35.156250
5649,-39.062500
5650,-42.968750
5651,-46.875000
5652,-50.781250
5653,-50.781250
5654,-54.687500
5655,-58.593750
5656,-62.500000
5657,-66.406250
5658,-70.312500
5659,-74.218750
5660,-74.218750
5661,-78.125000
5662,-82.031250
5663,-85.937500
5664,-89.843750
5665,-93.750000
5666,-97.656250
5667,-97.656250
5668,-101.562500
5669,-105.468750
5670,-109.375000
5671,-113.281250
5672,-117.187500
5673,-121.093750
5674,-121.093750
5675,-125.000000
5676,-128.906250
5677,-132.812500
5678,-136.718750
5679,-140.625000
5680,-140.625000
5681,-144.531250
5682,-148.437500
5683,-152.343750
5684,-152.343750
5685,-156.250000
5686,-160.156250
5687,-164.062500
5688,-164.062500
5689,-167.968750
5690,-171.875000
5691,-171.875000
5692,-175.781250
5693,-179.687500
5694,-183.593750
5695,-187.500000
5696,-187.500000
5697,-191.406250
5698,-191.406250
5699,-195.312500
5700,-199.218750
5701,-199.218750
5702,-203.125000
5703,-203.125000
5704,-207.031250
5705,-207.031250
5706,-210.937500
5707,-210.937500
5708,-214.843750
5709,-218.750000
5710,-218.750000
5711,-222.656250
5712,-222.656250
5713,-222.656250
5714,-226.562500
5715,-230.468750
5716,-230.468750
5717,-230.468750
5718,-234.375000
5719,-234.375000
5720,-234.375000
5721,-238.281250
5722,-238.281250
5723,-238.281250
5724,-242.187500
5725,-242.187500
5726,-242.187500
5727,-246.093750
5728,-246.093750
5729,-246.093750
5730,-246.093750
5731,-250.000000
5732,-250.000000
5733,-250.000000
5734,-250.000000
5735,-250.000000
5736,-250.000000
5737,-253.906250
5738,-253.906250
5739,-253.906250
5740,-253.906250
5741,-253.906250
5742,-253.906250
5743,-253.906250
5744,-253.906250
5745,-253.906250
5746,-253.906250
5747,-253.906250
5748,-257.812500
5749,-253.906250
5750,-253.906250
5751,-253.906250
5752,-253.906250
5753,-253.906250
5754,-253.906250
5755,-253.906250
5756,-253.906250
5757,-250.000000
5758,-250.000000
5759,-250.000000
5760,-250.000000
5761,-246.093750
5762,-246.093750
5763,-246.093750
5764,-246.093750
5765,-242.187500
5766,-242.187500
5767,-242.187500
5768,-238.281250
5769,-238.281250
5770,-238.281250
5771,-238.281250
5772,-234.375000
5773,-234.375000
5774,-234.375000
5775,-230.468750
5776,-230.468750
5777,-226.562500
5778,-226.562500
5779,-222.656250
5780,-222.656250
5781,-218.750000
5782,-218.750000
5783,-214.843750
5784,-214.843750
5785,-210.937500
5786,-210.937500
5787,-207.031250
5788,-203.125000
5789,-203.125000
5790,-199.218750
5791,-199.218750
5792,-195.312500
5793,-195.312500
5794,-191.406250
5795,-187.500000
5796,-187.500000
5797,-183.593750
5798,-179.687500
5799,-179.687500
5800,-175.781250
5801,-171.875000
5802,-171.875000
5803,-167.968750
5804,-164.062500
5805,-160.156250
5806,-156.250000
5807,-156.250000
5808,-152.343750
5809,-148.437500
5810,-144.531250
5811,-144.531250
5812,-140.625000
5813,-136.718750
5814,-132.812500
5815,-128.906250
5816,-128.906250
5817,-125.000000
5818,-121.093750
5819,-117.187500
5820,-113.281250
5821,-113.281250
5822,-105.468750
5823,-105.468750
5824,-101.562500
5825,-97.656250
5826,-93.750000
5827,-89.843750
5828,-85.937500
5829,-85.937500
5830,-82.031250
5831,-78.125000
5832,-74.218750
5833,-70.312500
5834,-66.406250
5835,-62.500000
5836,-62.500000
5837,-58.593750
5838,-54.687500
5839,-50.781250
5840,-46.875000
5841,-42.968750
5842,-39.062500
5843,-35.156250
5844,-31.250000
5845,-31.250000
5846,-27.343750
5847,-23.437500
5848,-19.531250
5849,-15.625000
5850,-11.718750
5851,-11.718750
5852,-3.906250
5853,-3.906250
5854,0.000000
5855,3.906250
5856,7.812500
5857,11.718750
5858,11.718750
5859,11.718750
5860,19.531250
5861,23.437500
5862,23.437500
5863,27.343750
5864,31.250000
5865,35.156250
5866,39.062500
5867,39.062500
5868,42.968750
5869,46.875000
5870,50.781250
5871,54.687500
5872,54.687500
5873,58.593750
5874,58.593750
5875,62.500000
5876,66.406250
5877,70.312500
5878,70.312500
5879,74.218750
5880,78.125000
5881,78.125000
5882,82.031250
5883,85.937500
5884,85.937500
5885,89.843750
5886,89.843750
5887,93.750000
5888,93.750000
5889,97.656250
5890,101.562500
5891,101.562500
5892,105.468750
5893,109.375000
5894,109.375000
5895,113.281250
5896,113.281250
5897,113.281250
5898,117.187500
5899,121.093750
5900,121.093750
5901,125.000000
5902,125.000000
5903,125.000000
5904,125.000000
5905,128.906250
5906,132.812500
5907,132.812500
5908,136.718750
5909,132.812500
5910,136.718750
5911,140.625000
5912,140.625000
5913,140.625000
5914,140.625000
5915,144.531250
5916,144.531250
5917,148.437500
5918,148.437500
5919,148.437500
5920,152.343750
5921,152.343750
5922,152.343750
5923,152.343750
5924,152.343750
5925,156.250000
5926,156.250000
5927,156.250000
5928,160.156250
5929,160.156250
5930,160.156250
5931,160.156250
5932,160.156250
5933,164.062500
5934,164.062500
5935,164.062500
5936,164.062500
5937,164.062500
5938,167.968750
5939,164.062500
5940,167.968750
5941,167.968750
5942,167.968750
5943,167.968750
5944,167.968750
5945,167.968750
5946,167.968750
5947,167.968750
5948,167.968750
5949,167.968750
5950,171.875000
5951,167.968750
5952,167.968750
5953,171.875000
5954,167.968750
5955,171.875000
5956,171.875000
5957,167.968750
5958,167.968750
5959,167.968750
5960,167.968750
5961,167.968750
5962,167.968750
5963,167.968750
5964,167.968750
5965,167.968750
5966,167.968750
5967,167.968750
5968,167.968750
5969,164.062500
5970,167.968750
5971,164.062500
5972,164.062500
5973,164.062500
5974,164.062500
5975,164.062500
5976,160.156250
5977,160.156250
5978,160.156250
5979,160.156250
5980,160.156250
5981,156.250000
5982,156.250000
5983,156.250000
5984,156.250000
5985,152.343750
5986,152.343750
5987,152.343750
5988,152.343750
5989,148.437500
5990,148.437500
5991,148.437500
5992,148.437500
5993,144.531250
5994,144.531250
5995,140.625000
5996,140.625000
5997,140.625000
5998,136.718750
5999,136.718750
6000,132.812500
6001,132.812500
6002,132.812500
6003,128.906250
6004,128.906250
6005,125.000000
6006,125.000000
6007,125.000000
6008,121.093750
6009,121.093750
6010,117.187500
6011,117.187500
6012,113.281250
6013,113.281250
6014,109.375000
6015,109.375000
6016,105.468750
6017,101.562500
6018,101.562500
6019,97.656250
6020,97.656250
6021,93.750000
6022,93.750000
6023,89.843750
6024,85.937500
6025,85.937500
6026,82.031250
6027,78.125000
6028,78.125000
6029,74.218750
6030,70.312500
6031,70.312500
6032,62.500000
6033,62.500000
6034,62.500000
6035,58.593750
6036,54.687500
6037,54.687500
6038,50.781250
6039,46.875000
6040,42.968750
6041,42.968750
6042,39.062500
6043,35.156250
6044,31.250000
6045,27.343750
6046,27.343750
6047,23.437500
6048,19.531250
6049,15.625000
6050,11.718750
6051,11.718750
6052,7.812500
6053,3.906250
6054,0.000000
6055,-3.906250
6056,-7.812500
6057,-7.812500
6058,-11.718750
6059,-15.625000
6060,-19.531250
6061,-23.437500
6062,-27.343750
6063,-31.250000
6064,-31.250000
6065,-35.156250
6066,-39.062500
6067,-42.968750
6068,-46.875000
6069,-50.781250
6070,-54.687500
6071,-58.593750
6072,-58.593750
6073,-70.312500
6074,-70.312500
6075,-70.312500
6076,-74.218750
6077,-78.125000
6078,-82.031250
6079,-85.937500
6080,-85.937500
6081,-89.843750
6082,-93.750000
6083,-97.656250
6084,-101.562500
6085,-105.468750
6086,-109.375000
6087,-109.375000
6088,-113.281250
6089,-113.281250
6090,-117.187500
6091,-121.093750
6092,-125.000000
6093,-128.906250
6094,-132.812500
6095,-136.718750
6096,-140.625000
6097,-140.625000
6098,-144.531250
6099,-148.437500
6100,-152.343750
6101,-156.250000
6102,-156.250000
6103,-160.156250
6104,-160.156250
6105,-164.062500
6106,-167.968750
6107,-171.875000
6108,-179.687500
6109,-175.781250
6110,-179.687500
6111,-183.593750
6112,-183.593750
6113,-187.500000
6114,-191.406250
6115,-191.406250
6116,-195.312500
6117,-199.218750
6118,-199.218750
6119,-203.125000
6120,-203.125000
6121,-207.031250
6122,-207.031250
6123,-214.843750
6124,-214.843750
6125,-214.843750
6126,-218.750000
6127,-218.750000
6128,-218.750000
6129,-222.656250
6130,-222.656250
6131,-226.562500
6132,-226.562500
6133,-230.468750
6134,-230.468750
6135,-234.375000
6136,-234.375000
6137,-234.375000
6138,-238.281250
6139,-238.281250
6140,-238.281250
6141,-242.187500
6142,-242.187500
6143,-242.187500
6144,-246.093750
6145,-246.093750
6146,-246.093750
6147,-246.093750
6148,-246.093750
6149,-250.000000
6150,-250.000000
6151,-250.000000
6152,-250.000000
6153,-250.000000
6154,-250.000000
6155,-250.000000
6156,-253.906250
6157,-253.906250
6158,-253.906250
6159,-253.906250
6160,-253.906250
6161,-253.906250
6162,-253.906250
6163,-253.906250
6164,-253.906250
6165,-253.906250
6166,-253.906250
6167,-253.906250
6168,-253.906250
6169,-253.906250
6170,-250.000000
6171,-253.906250
6172,-250.000000
6173,-250.000000
6174,-250.000000
6175,-250.000000
6176,-250.000000
6177,-250.000000
6178,-246.093750
6179,-246.093750
6180,-246.093750
6181,-246.093750
6182,-242.187500
6183,-242.187500
6184,-242.187500
6185,-238.281250
6186,-238.281250
6187,-238.281250
6188,-238.281250
6189,-234.375000
6190,-234.375000
6191,-230.468750
6192,-230.468750
6193,-226.562500
6194,-226.562500
6195,-222.656250
6196,-222.656250
6197,-218.750000
6198,-218.750000
6199,-214.843750
6200,-214.843750
6201,-210.937500
6202,-210.937500
6203,-207.031250
6204,-207.031250
6205,-203.125000
6206,-203.125000
6207,-199.218750
6208,-195.312500
6209,-195.312500
6210,-191.406250
6211,-191.406250
6212,-187.500000
6213,-183.593750
6214,-179.687500
6215,-179.687500
6216,-175.781250
6217,-171.875000
6218,-171.875000
6219,-167.968750
6220,-164.062500
6221,-160.156250
6222,-160.156250
6223,-156.250000
6224,-152.343750
6225,-152.343750
6226,-148.437500
6227,-144.531250
6228,-140.625000
6229,-140.625000
6230,-136.718750
6231,-132.812500
6232,-128.906250
6233,-128.906250
6234,-121.093750
6235,-121.093750
6236,-117.187500
6237,-113.281250
6238,-109.375000
6239,-105.468750
6240,-105.468750
6241,-97.656250
6242,-97.656250
6243,-93.750000
6244,-89.843750
6245,-89.843750
6246,-82.031250
6247,-78.125000
6248,-78.125000
6249,-74.218750
6250,-70.312500
6251,-66.406250
6252,-62.500000
6253,-58.593750
6254,-54.687500
6255,-50.781250
6256,-50.781250
6257,-46.875000
6258,-42.968750
6259,-39.062500
6260,-35.156250
6261,-31.250000
6262,-31.250000
6263,-23.437500
6264,-23.437500
6265,-19.531250
6266,-15.625000
6267,-11.718750
6268,-7.812500
6269,-3.906250
6270,0.000000
6271,0.000000
6272,3.906250
6273,7.812500
6274,11.718750
6275,15.625000
6276,19.531250
6277,19.531250
6278,23.437500
6279,27.343750
6280,31.250000
6281,31.250000
6282,35.156250
6283,39.062500
6284,42.968750
6285,42.968750
6286,46.875000
6287,50.781250
6288,54.687500
6289,58.593750
6290,58.593750
6291,62.500000
6292,62.500000
6293,66.406250
6294,70.312500
6295,74.218750
6296,78.125000
6297,78.125000
6298,78.125000
6299,82.031250
6300,82.031250
6301,85.937500
6302,89.843750
6303,89.843750
6304,93.750000
6305,97.656250
6306,97.656250
6307,101.562500
6308,105.468750
6309,105.468750
6310,105.468750
6311,109.375000
6312,113.281250
6313,113.281250
6314,113.281250
6315,117.187500
6316,121.093750
6317,121.093750
6318,125.000000
6319,125.000000
6320,125.000000
6321,128.906250
6322,128.906250
6323,132.812500
6324,132.812500
6325,136.718750
6326,136.718750
6327,136.718750
6328,140.625000
6329,140.625000
6330,140.625000
6331,144.531250
6332,144.531250
6333,144.531250
6334,148.437500
6335,148.437500
6336,148.437500
6337,152.343750
6338,152.343750
6339,152.343750
6340,156.250000
6341,156.250000
6342,156.250000
6343,156.250000
6344,156.250000
6345,160.156250
6346,160.156250
6347,160.156250
6348,164.062500
6349,160.156250
6350,164.062500
6351,164.062500
6352,164.062500
6353,164.062500
6354,164.062500
6355,164.062500
6356,167.968750
6357,167.968750
6358,167.968750
6359,167.968750
6360,167.968750
6361,167.968750
6362,167.968750
6363,167.968750
6364,171.875000
6365,167.968750
6366,167.968750
6367,171.875000
6368,167.968750
6369,171.875000
6370,171.875000
6371,171.875000
6372,171.875000
6373,167.968750
6374,171.875000
6375,167.968750
6376,171.875000
6377,167.968750
6378,167.968750
6379,167.968750
6380,167.968750
6381,167.968750
6382,167.968750
6383,167.968750
6384,167.968750
6385,167.968750
6386,167.968750
6387,167.968750
6388,164.062500
6389,164.062500
6390,164.062500
6391,164.062500
6392,164.062500
6393,164.062500
6394,160.156250
6395,160.156250
6396,160.156250
6397,160.156250
6398,156.250000
6399,156.250000
6400,156.250000
6401,156.250000
6402,156.250000
6403,152.343750
6404,152.343750
6405,152.343750
6406,152.343750
6407,148.437500
6408,148.437500
6409,148.437500
6410,144.531250
6411,144.531250
6412,140.625000
6413,140.625000
6414,140.625000
6415,136.718750
6416,136.718750
6417,136.718750
6418,132.812500
6419,132.812500
6420,128.906250
6421,128.906250
6422,125.000000
6423,125.000000
6424,125.000000
6425,121.093750
6426,121.093750
6427,121.093750
6428,113.281250
6429,113.281250
6430,109.375000
6431,109.375000
6432,105.468750
6433,105.468750
6434,101.562500
6435,101.562500
6436,97.656250
6437,97.656250
6438,93.750000
6439,89.843750
6440,89.843750
6441,85.937500
6442,85.937500
6443,82.031250
6444,78.125000
6445,74.218750
6446,74.218750
6447,70.312500
6448,66.406250
6449,66.406250
6450,62.500000
6451,58.593750
6452,58.593750
6453,54.687500
6454,50.781250
6455,46.875000
6456,46.875000
6457,42.968750
6458,39.062500
6459,35.156250
6460,35.156250
6461,31.250000
6462,27.343750
6463,27.343750
6464,23.437500
6465,19.531250
6466,15.625000
6467,11.718750
6468,11.718750
6469,3.906250
6470,3.906250
6471,0.000000
6472,-3.906250
6473,-7.812500
6474,-11.718750
6475,-15.625000
6476,-15.625000
6477,-23.437500
6478,-23.437500
6479,-27.343750
6480,-31.250000
6481,-35.156250
6482,-39.062500
6483,-39.062500
6484,-42.968750
6485,-46.875000
6486,-50.781250
6487,-54.687500
6488,-58.593750
6489,-62.500000
6490,-66.406250
6491,-66.406250
6492,-70.312500
6493,-74.218750
6494,-78.125000
6495,-82.031250
6496,-85.937500
6497,-89.843750
6498,-93.750000
6499,-93.750000
6500,-97.656250
6501,-101.562500
6502,-105.468750
6503,-109.375000
6504,-113.281250
6505,-117.187500
6506,-117.187500
6507,-121.093750
6508,-125.000000
6509,-128.906250
6510,-132.812500
6511,-136.718750
6512,-136.718750
6513,-140.625000
6514,-144.531250
6515,-148.437500
6516,-148.437500
6517,-152.343750
6518,-156.250000
6519,-160.156250
6520,-160.156250
6521,-164.062500
6522,-167.968750
6523,-171.875000
6524,-171.875000
6525,-175.781250
6526,-179.687500
6527,-179.687500
6528,-183.593750
6529,-187.500000
6530,-187.500000
6531,-191.406250
6532,-195.312500
6533,-195.312500
6534,-199.218750
6535,-203.125000
6536,-203.125000
6537,-207.031250
6538,-207.031250
6539,-210.937500
6540,-210.937500
6541,-214.843750
6542,-214.843750
6543,-218.750000
6544,-218.750000
6545,-222.656250
6546,-226.562500
6547,-226.562500
6548,-226.562500
6549,-230.468750
6550,-230.468750
6551,-234.375000
6552,-234.375000
6553,-234.375000
6554,-238.281250
6555,-238.281250
6556,-242.187500
6557,-242.187500
6558,-242.187500
6559,-242.187500
6560,-246.093750
6561,-246.093750
6562,-246.093750
6563,-246.093750
6564,-250.000000
6565,-250.000000
6566,-250.000000
6567,-250.000000
6568,-250.000000
6569,-253.906250
6570,-253.906250
6571,-253.906250
6572,-253.906250
6573,-253.906250
6574,-253.906250
6575,-253.906250
6576,-253.906250
6577,-253.906250
6578,-253.906250
6579,-253.906250
6580,-253.906250
6581,-253.906250
6582,-253.906250
6583,-253.906250
6584,-253.906250
6585,-253.906250
6586,-253.906250
6587,-253.906250
6588,-253.906250
6589,-253.906250
6590,-250.000000
6591,-250.000000
6592,-250.000000
6593,-250.000000
6594,-250.000000
6595,-246.093750
6596,-246.093750
6597,-246.093750
6598,-246.093750
6599,-242.187500
6600,-242.187500
6601,-242.187500
6602,-242.187500
6603,-238.281250
6604,-238.281250
6605,-234.375000
6606,-234.375000
6607,-234.375000
6608,-230.468750
6609,-230.468750
6610,-226.562500
6611,-226.562500
6612,-222.656250
6613,-222.656250
6614,-222.656250
6615,-218.750000
6616,-218.750000
6617,-214.843750
6618,-210.937500
6619,-210.937500
6620,-207.031250
6621,-207.031250
6622,-203.125000
6623,-203.125000
6624,-199.218750
6625,-199.218750
6626,-195.312500
6627,-191.406250
6628,-191.406250
6629,-187.500000
6630,-183.593750
6631,-183.593750
6632,-179.687500
6633,-175.781250
6634,-175.781250
6635,-171.875000
6636,-167.968750
6637,-164.062500
6638,-164.062500
6639,-160.156250
6640,-156.250000
6641,-152.343750
6642,-152.343750
6643,-148.437500
6644,-144.531250
6645,-140.625000
6646,-140.625000
6647,-136.718750
6648,-132.812500
6649,-128.906250
6650,-125.000000
6651,-121.093750
6652,-117.187500
6653,-117.187500
6654,-113.281250
6655,-109.375000
6656,-105.468750
6657,-101.562500
6658,-101.562500
6659,-97.656250
6660,-93.750000
6661,-89.843750
6662,-85.937500
6663,-82.031250
6664,-78.125000
6665,-74.218750
6666,-70.312500
6667,-70.312500
6668,-66.406250
6669,-62.500000
6670,-58.593750
6671,-54.687500
6672,-50.781250
6673,-46.875000
6674,-42.968750
6675,-42.968750
6676,-39.062500
6677,-35.156250
6678,-31.250000
6679,-27.343750
6680,-23.437500
6681,-19.531250
6682,-15.625000
6683,-15.625000
6684,-11.718750
6685,-7.812500
6686,-3.906250
6687,0.000000
6688,0.000000
6689,3.906250
6690,7.812500
6691,11.718750
6692,15.625000
6693,19.531250
6694,19.531250
6695,23.437500
6696,27.343750
6697,31.250000
6698,35.156250
6699,35.156250
6700,39.062500
6701,42.968750
6702,46.875000
6703,46.875000
6704,50.781250
6705,54.687500
6706,58.593750
6707,58.593750
6708,62.500000
6709,66.406250
6710,66.406250
6711,70.312500
6712,74.218750
6713,74.218750
6714,78.125000
6715,78.125000
6716,82.031250
6717,85.937500
6718,85.937500
6719,89.843750
6720,93.750000
6721,93.750000
6722,97.656250
6723,101.562500
6724,101.562500
6725,105.468750
6726,105.468750
6727,109.375000
6728,109.375000
6729,113.281250
6730,113.281250
6731,117.187500
6732,117.187500
6733,121.093750
6734,121.093750
6735,125.000000
6736,125.000000
6737,125.000000
6738,128.906250
6739,132.812500
6740,132.812500
6741,132.812500
6742,136.718750
6743,136.718750
6744,140.625000
6745,140.625000
6746,140.625000
6747,140.625000
6748,144.531250
6749,144.531250
6750,148.437500
6751,148.437500
6752,148.437500
6753,148.437500
6754,152.343750
6755,152.343750
6756,152.343750
6757,156.250000
6758,156.250000
6759,156.250000
6760,156.250000
6761,156.250000
6762,160.156250
6763,160.156250
6764,160.156250
6765,160.156250
6766,164.062500
6767,164.062500
6768,164.062500
6769,164.062500
6770,164.062500
6771,164.062500
6772,164.062500
6773,167.968750
6774,167.968750
6775,167.968750
6776,167.968750
6777,167.968750
6778,167.968750
6779,167.968750
6780,167.968750
6781,167.968750
6782,167.968750
6783,167.968750
6784,167.968750
6785,171.875000
6786,171.875000
6787,171.875000
6788,167.968750
6789,167.968750
6790,171.875000
6791,171.875000
6792,171.875000
6793,167.968750
6794,167.968750
6795,167.968750
6796,167.968750
6797,167.968750
6798,167.968750
6799,167.968750
6800,167.968750
6801,167.968750
6802,167.968750
6803,167.968750
6804,164.062500
6805,164.062500
6806,164.062500
6807,164.062500
6808,164.062500
6809,164.062500
6810,164.062500
6811,160.156250
6812,160.156250
6813,160.156250
6814,160.156250
6815,160.156250
6816,156.250000
6817,156.250000
6818,156.250000
6819,156.250000
6820,152.343750
6821,152.343750
6822,152.343750
6823,148.437500
6824,148.437500
6825,148.437500
6826,144.531250
6827,144.531250
6828,144.531250
6829,140.625000
6830,140.625000
6831,140.625000
6832,136.718750
6833,136.718750
6834,136.718750
6835,132.812500
6836,132.812500
6837,128.906250
6838,128.906250
6839,125.000000
6840,125.000000
6841,121.093750
6842,121.093750
6843,117.187500
6844,117.187500
6845,113.281250
6846,113.281250
6847,109.375000
6848,109.375000
6849,105.468750
6850,105.468750
6851,101.562500
6852,101.562500
6853,97.656250
6854,93.750000
6855,93.750000
6856,89.843750
6857,89.843750
6858,85.937500
6859,85.937500
6860,82.031250
6861,78.125000
6862,74.218750
6863,74.218750
6864,70.312500
6865,66.406250
6866,66.406250
6867,66.406250
6868,58.593750
6869,58.593750
6870,54.687500
6871,50.781250
6872,46.875000
6873,46.875000
6874,42.968750
6875,39.062500
6876,35.156250
6877,35.156250
6878,31.250000
6879,27.343750
6880,23.437500
6881,19.531250
6882,19.531250
6883,15.625000
6884,11.718750
6885,7.812500
6886,3.906250
6887,3.906250
6888,-3.906250
6889,-3.906250
6890,-7.812500
6891,-11.718750
6892,-15.625000
6893,-15.625000
6894,-19.531250
6895,-23.437500
6896,-27.343750
6897,-31.250000
6898,-35.156250
6899,-35.156250
6900,-42.968750
6901,-46.875000
6902,-46.875000
6903,-50.781250
6904,-54.687500
6905,-58.593750
6906,-62.500000
6907,-66.406250
6908,-70.312500
6909,-70.312500
6910,-74.218750
6911,-78.125000
6912,-82.031250
6913,-85.937500
6914,-89.843750
6915,-93.750000
6916,-97.656250
6917,-97.656250
6918,-101.562500
6919,-105.468750
6920,-109.375000
6921,-113.281250
6922,-117.187500
6923,-117.187500
6924,-121.093750
6925,-125.000000
6926,-128.906250
6927,-132.812500
6928,-132.812500
6929,-136.718750
6930,-140.625000
6931,-140.625000
6932,-148.437500
6933,-148.437500
6934,-152.343750
6935,-156.250000
6936,-160.156250
6937,-160.156250
6938,-164.062500
6939,-167.968750
6940,-171.875000
6941,-171.875000
6942,-175.781250
6943,-179.687500
6944,-179.687500
6945,-183.593750
6946,-187.500000
6947,-187.500000
6948,-191.406250
6949,-195.312500
6950,-195.312500
6951,-199.218750
6952,-199.218750
6953,-203.125000
6954,-207.031250
6955,-207.031250
6956,-210.937500
6957,-210.937500
6958,-214.843750
6959,-214.843750
6960,-218.750000
6961,-218.750000
6962,-222.656250
6963,-222.656250
6964,-226.562500
6965,-226.562500
6966,-230.468750
6967,-230.468750
6968,-234.375000
6969,-234.375000
6970,-234.375000
6971,-238.281250
6972,-238.281250
6973,-238.281250
6974,-238.281250
6975,-242.187500
6976,-242.187500
6977,-242.187500
6978,-246.093750
6979,-246.093750
6980,-246.093750
6981,-246.093750
6982,-250.000000
6983,-250.000000
6984,-250.000000
6985,-250.000000
6986,-250.000000
6987,-250.000000
6988,-250.000000
6989,-253.906250
6990,-253.906250
6991,-253.906250
6992,-253.906250
6993,-253.906250
6994,-253.906250
6995,-253.906250
6996,-253.906250
6997,-253.906250
6998,-253.906250
6999,-253.906250
7000,-253.906250
7001,-253.906250
7002,-253.906250
7003,-253.906250
7004,-253.906250
7005,-253.906250
7006,-253.906250
7007,-250.000000
7008,-250.000000
7009,-250.000000
7010,-250.000000
7011,-246.093750
7012,-246.093750
7013,-246.093750
7014,-246.093750
7015,-242.187500
7016,-242.187500
7017,-242.187500
7018,-242.187500
7019,-238.281250
7020,-238.281250
7021,-238.281250
7022,-234.375000
7023,-234.375000
7024,-234.375000
7025,-230.468750
7026,-230.468750
7027,-226.562500
7028,-226.562500
7029,-222.656250
7030,-222.656250
7031,-218.750000
7032,-218.750000
7033,-214.843750
7034,-214.843750
7035,-210.937500
7036,-210.937500
7037,-207.031250
7038,-207.031250
7039,-203.125000
7040,-203.125000
7041,-199.218750
7042,-195.312500
7043,-195.312500
7044,-191.406250
7045,-191.406250
7046,-183.593750
7047,-183.593750
7048,-179.687500
7049,-179.687500
7050,-175.781250
7051,-171.875000
7052,-171.875000
7053,-167.968750
7054,-164.062500
7055,-164.062500
7056,-160.156250
7057,-156.250000
7058,-152.343750
7059,-148.437500
7060,-144.531250
7061,-144.531250
7062,-140.625000
7063,-136.718750
7064,-132.812500
7065,-128.906250
7066,-128.906250
7067,-125.000000
7068,-121.093750
7069,-117.187500
7070,-113.281250
7071,-113.281250
7072,-109.375000
7073,-105.468750
7074,-101.562500
7075,-97.656250
7076,-93.750000
7077,-89.843750
7078,-89.843750
7079,-85.937500
7080,-82.031250
7081,-78.125000
7082,-74.218750
7083,-70.312500
7084,-66.406250
7085,-66.406250
7086,-58.593750
7087,-58.593750
7088,-54.687500
7089,-50.781250
7090,-46.875000
7091,-42.968750
7092,-42.968750
7093,-39.062500
7094,-35.156250
7095,-31.250000
7096,-27.343750
7097,-23.437500
7098,-19.531250
7099,-15.625000
7100,-15.625000
7101,-11.718750
7102,-7.812500
7103,-3.906250
7104,0.000000
7105,3.906250
7106,7.812500
7107,7.812500
7108,11.718750
7109,15.625000
7110,19.531250
7111,23.437500
7112,23.437500
7113,27.343750
7114,31.250000
7115,35.156250
7116,39.062500
7117,39.062500
7118,42.968750
7119,46.875000
7120,46.875000
7121,50.781250
7122,54.687500
7123,58.593750
7124,58.593750
7125,62.500000
7126,66.406250
7127,70.312500
7128,70.312500
7129,74.218750
7130,74.218750
7131,78.125000
7132,82.031250
7133,82.031250
7134,85.937500
7135,89.843750
7136,89.843750
7137,93.750000
7138,93.750000
7139,97.656250
7140,101.562500
7141,101.562500
7142,105.468750
7143,105.468750
7144,109.375000
7145,109.375000
7146,113.281250
7147,113.281250
7148,117.187500
7149,117.187500
7150,121.093750
7151,121.093750
7152,125.000000
7153,125.000000
7154,128.906250
7155,128.906250
7156,132.812500
7157,132.812500
7158,136.718750
7159,136.718750
7160,136.718750
7161,140.625000
7162,140.625000
7163,140.625000
7164,144.531250
7165,144.531250
7166,144.531250
7167,148.437500
7168,148.437500
7169,148.437500
7170,148.437500
7171,152.343750
7172,152.343750
7173,152.343750
7174,156.250000
7175,156.250000
7176,156.250000
7177,156.250000
7178,160.156250
7179,160.156250
7180,160.156250
7181,160.156250
7182,164.062500
7183,164.062500
7184,164.062500
7185,164.062500
7186,164.062500
7187,164.062500
7188,164.062500
7189,164.062500
7190,167.968750
7191,167.968750
7192,167.968750
7193,167.968750
7194,167.968750
7195,171.875000
7196,167.968750
7197,167.968750
7198,167.968750
7199,167.968750
7200,167.968750
7201,167.968750
7202,167.968750
7203,167.968750
7204,171.875000
7205,167.968750
7206,167.968750
7207,167.968750
7208,167.968750
7209,167.968750
7210,167.968750
7211,167.968750
7212,167.968750
7213,167.968750
7214,167.968750
7215,167.968750
7216,167.968750
7217,167.968750
7218,167.968750
7219,167.968750
7220,164.062500
7221,164.062500
7222,164.062500
7223,164.062500
7224,164.062500
7225,164.062500
7226,164.062500
7227,164.062500
7228,160.156250
7229,160.156250
7230,160.156250
7231,156.250000
7232,160.156250
7233,156.250000
7234,156.250000
7235,156.250000
7236,156.250000
7237,152.343750
7238,152.343750
7239,152.343750
7240,148.437500
7241,148.437500
7242,148.437500
7243,144.531250
7244,144.531250
7245,144.531250
7246,140.625000
7247,140.625000
7248,140.625000
7249,136.718750
7250,136.718750
7251,132.812500
7252,132.812500
7253,132.812500
7254,128.906250
7255,128.906250
7256,125.000000
7257,125.000000
7258,121.093750
7259,121.093750
7260,117.187500
7261,117.187500
7262,113.281250
7263,113.281250
7264,109.375000
7265,105.468750
7266,105.468750
7267,105.468750
7268,101.562500
7269,97.656250
7270,97.656250
7271,93.750000
7272,93.750000
7273,89.843750
7274,85.937500
7275,85.937500
7276,82.031250
7277,78.125000
7278,78.125000
7279,74.218750
7280,70.312500
7281,70.312500
7282,66.406250
7283,62.500000
7284,62.500000
7285,58.593750
7286,54.687500
7287,50.781250
7288,50.781250
7289,46.875000
7290,42.968750
7291,42.968750
7292,39.062500
7293,35.156250
7294,31.250000
7295,27.343750
7296,27.343750
7297,23.437500
7298,19.531250
7299,15.625000
7300,11.718750
7301,11.718750
7302,7.812500
7303,3.906250
7304,0.000000
7305,-3.906250
7306,-7.812500
7307,-7.812500
7308,-11.718750
7309,-15.625000
7310,-19.531250
7311,-23.437500
7312,-27.343750
7313,-27.343750
7314,-31.250000
7315,-35.156250
7316,-39.062500
7317,-42.968750
7318,-46.875000
7319,-50.781250
7320,-54.687500
7321,-54.687500
7322,-58.593750
7323,-62.500000
7324,-66.406250
7325,-70.312500
7326,-74.218750
7327,-78.125000
7328,-78.125000
7329,-82.031250
7330,-85.937500
7331,-89.843750
7332,-93.750000
7333,-97.656250
7334,-101.562500
7335,-105.468750
7336,-105.468750
7337,-109.375000
7338,-113.281250
7339,-117.187500
7340,-121.093750
7341,-125.000000
7342,-125.000000
7343,-128.906250
7344,-132.812500
7345,-136.718750
7346,-136.718750
7347,-144.531250
7348,-144.531250
7349,-148.437500
7350,-152.343750
7351,-156.250000
7352,-156.250000
7353,-160.156250
7354,-164.062500
7355,-167.968750
7356,-167.968750
7357,-171.875000
7358,-175.781250
7359,-175.781250
7360,-179.687500
7361,-183.593750
7362,-183.593750
7363,-187.500000
7364,-191.406250
7365,-191.406250
7366,-195.312500
7367,-195.312500
7368,-199.218750
7369,-203.125000
7370,-203.125000
7371,-207.031250
7372,-207.031250
7373,-210.937500
7374,-214.843750
7375,-214.843750
7376,-214.843750
7377,-218.750000
7378,-222.656250
7379,-222.656250
7380,-222.656250
7381,-226.562500
7382,-230.468750
7383,-230.468750
7384,-230.468750
7385,-234.375000
7386,-234.375000
7387,-234.375000
7388,-238.281250
7389,-238.281250
7390,-238.281250
7391,-242.187500
7392,-242.187500
7393,-242.187500
7394,-242.187500
7395,-246.093750
7396,-246.093750
7397,-246.093750
7398,-250.000000
7399,-250.000000
7400,-250.000000
7401,-250.000000
7402,-250.000000
7403,-250.000000
7404,-253.906250
7405,-253.906250
7406,-253.906250
7407,-253.906250
7408,-253.906250
7409,-253.906250
7410,-253.906250
7411,-253.906250
7412,-253.906250
7413,-253.906250
7414,-253.906250
7415,-253.906250
7416,-253.906250
7417,-253.906250
7418,-253.906250
7419,-253.906250
7420,-253.906250
7421,-253.906250
7422,-253.906250
7423,-250.000000
7424,-250.000000
7425,-250.000000
7426,-250.000000
7427,-250.000000
7428,-250.000000
7429,-246.093750
7430,-242.187500
7431,-246.093750
7432,-242.187500
7433,-242.187500
7434,-242.187500
7435,-242.187500
7436,-238.281250
7437,-238.281250
7438,-238.281250
7439,-234.375000
7440,-234.375000
7441,-230.468750
7442,-230.468750
7443,-230.468750
7444,-226.562500
7445,-226.562500
7446,-222.656250
7447,-222.656250
7448,-218.750000
7449,-218.750000
7450,-214.843750
7451,-210.937500
7452,-210.937500
7453,-210.937500
7454,-207.031250
7455,-207.031250
7456,-203.125000
7457,-199.218750
7458,-199.218750
7459,-195.312500
7460,-191.406250
7461,-191.406250
7462,-187.500000
7463,-187.500000
7464,-183.593750
7465,-179.687500
7466,-179.687500
7467,-175.781250
7468,-171.875000
7469,-167.968750
7470,-167.968750
7471,-164.062500
7472,-160.156250
7473,-156.250000
7474,-156.250000
7475,-152.343750
7476,-148.437500
7477,-148.437500
7478,-144.531250
7479,-140.625000
7480,-136.718750
7481,-132.812500
7482,-128.906250
7483,-128.906250
7484,-125.000000
7485,-121.093750
7486,-117.187500
7487,-113.281250
7488,-109.375000
7489,-105.468750
7490,-105.468750
7491,-101.562500
7492,-97.656250
7493,-93.750000
7494,-89.843750
7495,-85.937500
7496,-85.937500
7497,-82.031250
7498,-78.125000
7499,-74.218750
7500,-70.312500
7501,-66.406250
7502,-62.500000
7503,-58.593750
7504,-54.687500
7505,-54.687500
7506,-50.781250
7507,-46.875000
7508,-42.968750
7509,-39.062500
7510,-35.156250
7511,-31.250000
7512,-31.250000
7513,-27.343750
7514,-23.437500
7515,-19.531250
7516,-15.625000
7517,-11.718750
7518,-11.718750
7519,-7.812500
7520,-3.906250
7521,0.000000
7522,3.906250
7523,7.812500
7524,11.718750
7525,11.718750
7526,15.625000
7527,19.531250
7528,23.437500
7529,23.437500
7530,27.343750
7531,31.250000
7532,35.156250
7533,39.062500
7534,39.062500
7535,42.968750
7536,46.875000
7537,50.781250
7538,54.687500
7539,54.687500
7540,58.593750
7541,62.500000
7542,62.500000
7543,66.406250
7544,70.312500
7545,70.312500
7546,74.218750
7547,78.125000
7548,78.125000
7549,82.031250
7550,85.937500
7551,85.937500
7552,89.843750
7553,89.843750
7554,93.750000
7555,97.656250
7556,97.656250
7557,101.562500
7558,101.562500
7559,105.468750
7560,109.375000
7561,109.375000
7562,113.281250
7563,113.281250
7564,117.187500
7565,117.187500
7566,121.093750
7567,121.093750
7568,125.000000
7569,125.000000
7570,125.000000
7571,128.906250
7572,128.906250
7573,128.906250
7574,132.812500
7575,136.718750
7576,136.718750
7577,136.718750
7578,140.625000
7579,140.625000
7580,140.625000
7581,144.531250
7582,144.531250
7583,148.437500
7584,148.437500
7585,148.437500
7586,148.437500
7587,152.343750
7588,152.343750
7589,152.343750
7590,156.250000
7591,156.250000
7592,156.250000
7593,156.250000
7594,160.156250
7595,160.156250
7596,160.156250
7597,160.156250
7598,160.156250
7599,160.156250
7600,164.062500
7601,164.062500
7602,164.062500
7603,164.062500
7604,164.062500
7605,167.968750
7606,167.968750
7607,167.968750
7608,167.968750
7609,167.968750
7610,167.968750
7611,167.968750
7612,167.968750
7613,167.968750
7614,167.968750
7615,167.968750
7616,171.875000
7617,167.968750
7618,171.875000
7619,171.875000
7620,167.968750
7621,171.875000
7622,171.875000
7623,171.875000
7624,171.875000
7625,167.968750
7626,171.875000
7627,167.968750
7628,167.968750
7629,167.968750
7630,167.968750
7631,167.968750
7632,167.968750
7633,167.968750
7634,167.968750
7635,167.968750
7636,167.968750
7637,167.968750
7638,164.062500
7639,164.062500
7640,164.062500
7641,164.062500
7642,164.062500
7643,164.062500
7644,160.156250
7645,160.156250
7646,160.156250
7647,160.156250
7648,160.156250
7649,156.250000
7650,156.250000
7651,156.250000
7652,156.250000
7653,152.343750
7654,152.343750
7655,152.343750
7656,152.343750
7657,148.437500
7658,148.437500
7659,148.437500
7660,144.531250
7661,144.531250
7662,144.531250
7663,140.625000
7664,140.625000
7665,136.718750
7666,136.718750
7667,132.812500
7668,132.812500
7669,132.812500
7670,132.812500
7671,128.906250
7672,125.000000
7673,125.000000
7674,125.000000
7675,121.093750
7676,121.093750
7677,117.187500
7678,117.187500
7679,113.281250
7680,113.281250
7681,109.375000
7682,109.375000
7683,105.468750
7684,105.468750
7685,101.562500
7686,97.656250
7687,97.656250
7688,93.750000
7689,93.750000
7690,89.843750
7691,85.937500
7692,82.031250
7693,82.031250
7694,78.125000
7695,78.125000
7696,74.218750
7697,70.312500
7698,70.312500
7699,66.406250
7700,66.406250
7701,62.500000
7702,58.593750
7703,54.687500
7704,54.687500
7705,50.781250
7706,46.875000
7707,42.968750
7708,42.968750
7709,39.062500
7710,35.156250
7711,31.250000
7712,27.343750
7713,27.343750
7714,23.437500
7715,19.531250
7716,15.625000
7717,11.718750
7718,11.718750
7719,7.812500
7720,3.906250
7721,0.000000
7722,-3.906250
7723,-7.812500
7724,-11.718750
7725,-11.718750
7726,-15.625000
7727,-19.531250
7728,-23.437500
7729,-27.343750
7730,-31.250000
7731,-35.156250
7732,-35.156250
7733,-39.062500
7734,-42.968750
7735,-46.875000
7736,-50.781250
7737,-54.687500
7738,-54.687500
7739,-62.500000
7740,-62.500000
7741,-66.406250
7742,-70.312500
7743,-74.218750
7744,-78.125000
7745,-82.031250
7746,-82.031250
7747,-85.937500
7748,-89.843750
7749,-93.750000
7750,-97.656250
7751,-101.562500
7752,-105.468750
7753,-105.468750
7754,-109.375000
7755,-113.281250
7756,-117.187500
7757,-121.093750
7758,-125.000000
7759,-128.906250
7760,-128.906250
7761,-132.812500
7762,-136.718750
7763,-140.625000
7764,-144.531250
7765,-144.531250
7766,-148.437500
7767,-152.343750
7768,-156.250000
7769,-156.250000
7770,-160.156250
7771,-164.062500
7772,-164.062500
7773,-167.968750
7774,-171.875000
7775,-175.781250
7776,-175.781250
7777,-183.593750
7778,-183.593750
7779,-183.593750
7780,-187.500000
7781,-191.406250
7782,-191.406250
7783,-195.312500
7784,-199.218750
7785,-199.218750
7786,-203.125000
7787,-203.125000
7788,-207.031250
7789,-210.937500
7790,-210.937500
7791,-210.937500
7792,-214.843750
7793,-218.750000
7794,-218.750000
7795,-222.656250
7796,-222.656250
7797,-226.562500
7798,-226.562500
7799,-226.562500
7800,-230.468750
7801,-230.468750
7802,-234.375000
7803,-234.375000
7804,-238.281250
7805,-238.281250
7806,-238.281250
7807,-242.187500
7808,-242.187500
7809,-242.187500
7810,-246.093750
7811,-246.093750
7812,-246.093750
7813,-246.093750
7814,-246.093750
7815,-250.000000
7816,-250.000000
7817,-250.000000
7818,-250.000000
7819,-250.000000
7820,-250.000000
7821,-250.000000
7822,-253.906250
7823,-253.906250
7824,-253.906250
7825,-253.906250
7826,-253.906250
7827,-253.906250
7828,-253.906250
7829,-253.906250
7830,-253.906250
7831,-253.906250
7832,-253.906250
7833,-253.906250
7834,-253.906250
7835,-253.906250
7836,-253.906250
7837,-250.000000
7838,-253.906250
7839,-253.906250
7840,-250.000000
7841,-250.000000
7842,-250.000000
7843,-250.000000
7844,-246.093750
7845,-246.093750
7846,-246.093750
7847,-242.187500
7848,-246.093750
7849,-246.093750
7850,-242.187500
7851,-242.187500
7852,-242.187500
7853,-238.281250
7854,-238.281250
7855,-238.281250
7856,-234.375000
7857,-234.375000
7858,-230.468750
7859,-230.468750
7860,-226.562500
7861,-226.562500
7862,-226.562500
7863,-222.656250
7864,-222.656250
7865,-218.750000
7866,-218.750000
7867,-214.843750
7868,-214.843750
7869,-210.937500
7870,-210.937500
7871,-207.031250
7872,-207.031250
7873,-203.125000
7874,-199.218750
7875,-199.218750
7876,-195.312500
7877,-191.406250
7878,-187.500000
7879,-187.500000
7880,-183.593750
7881,-179.687500
7882,-179.687500
7883,-175.781250
7884,-175.781250
7885,-171.875000
7886,-167.968750
7887,-167.968750
7888,-164.062500
7889,-160.156250
7890,-156.250000
7891,-156.250000
7892,-152.343750
7893,-148.437500
7894,-144.531250
7895,-144.531250
7896,-140.625000
7897,-136.718750
7898,-132.812500
7899,-128.906250
7900,-125.000000
7901,-125.000000
7902,-121.093750
7903,-117.187500
7904,-113.281250
7905,-109.375000
7906,-105.468750
7907,-101.562500
7908,-101.562500
7909,-97.656250
7910,-93.750000
7911,-89.843750
7912,-85.937500
7913,-82.031250
7914,-82.031250
7915,-78.125000
7916,-74.218750
7917,-70.312500
7918,-66.406250
7919,-62.500000
7920,-58.593750
7921,-54.687500
7922,-50.781250
7923,-50.781250
7924,-46.875000
7925,-42.968750
7926,-39.062500
7927,-35.156250
7928,-31.250000
7929,-27.343750
7930,-27.343750
7931,-23.437500
7932,-19.531250
7933,-15.625000
7934,-11.718750
7935,-7.812500
7936,-3.906250
7937,-3.906250
7938,0.000000
7939,3.906250
7940,7.812500
7941,11.718750
7942,11.718750
7943,15.625000
7944,19.531250
7945,23.437500
7946,27.343750
7947,31.250000
7948,31.250000
7949,35.156250
7950,39.062500
7951,42.968750
7952,46.875000
7953,46.875000
7954,50.781250
7955,54.687500
7956,54.687500
7957,58.593750
7958,62.500000
7959,62.500000
7960,66.406250
7961,70.312500
7962,74.218750
7963,74.218750
7964,78.125000
7965,82.031250
7966,82.031250
7967,85.937500
7968,85.937500
7969,89.843750
7970,93.750000
7971,93.750000
7972,97.656250
7973,97.656250
7974,101.562500
7975,101.562500
7976,105.468750
7977,105.468750
7978,109.375000
7979,113.281250
7980,113.281250
7981,117.187500
7982,117.187500
7983,117.187500
7984,121.093750
7985,125.000000
7986,125.000000
7987,125.000000
7988,128.906250
7989,128.906250
7990,132.812500
7991,132.812500
7992,136.718750
7993,136.718750
7994,136.718750
7995,140.625000
7996,140.625000
7997,140.625000
7998,144.531250
7999,144.531250
8000,144.531250
8001,148.437500
8002,148.437500
8003,148.437500
8004,152.343750
8005,152.343750
8006,152.343750
8007,156.250000
8008,156.250000
8009,156.250000
8010,156.250000
8011,160.156250
8012,160.156250
8013,160.156250
8014,160.156250
8015,160.156250
8016,160.156250
8017,164.062500
8018,164.062500
8019,164.062500
8020,164.062500
8021,164.062500
8022,167.968750
8023,167.968750
8024,167.968750
8025,167.968750
8026,167.968750
8027,167.968750
8028,167.968750
8029,167.968750
8030,167.968750
8031,167.968750
8032,167.968750
8033,171.875000
8034,167.968750
8035,167.968750
8036,171.875000
8037,167.968750
8038,167.968750
8039,171.875000
8040,171.875000
8041,167.968750
8042,171.875000
8043,171.875000
8044,167.968750
8045,167.968750
8046,167.968750
8047,171.875000
8048,167.968750
8049,167.968750
8050,167.968750
8051,167.968750
8052,164.062500
8053,167.968750
8054,164.062500
8055,164.062500
8056,167.968750
8057,164.062500
8058,164.062500
8059,164.062500
8060,160.156250
8061,164.062500
8062,160.156250
8063,160.156250
8064,160.156250
8065,156.250000
8066,156.250000
8067,156.250000
8068,156.250000
8069,152.343750
8070,152.343750
8071,152.343750
8072,152.343750
8073,148.437500
8074,148.437500
8075,148.437500
8076,144.531250
8077,144.531250
8078,144.531250
8079,140.625000
8080,140.625000
8081,140.625000
8082,136.718750
8083,136.718750
8084,136.718750
8085,132.812500
8086,132.812500
8087,128.906250
8088,128.906250
8089,128.906250
8090,125.000000
8091,125.000000
8092,121.093750
8093,121.093750
8094,117.187500
8095,117.187500
8096,113.281250
8097,113.281250
8098,109.375000
8099,105.468750
8100,105.468750
8101,101.562500
8102,101.562500
8103,97.656250
8104,97.656250
8105,93.750000
8106,89.843750
8107,89.843750
8108,85.937500
8109,82.031250
8110,82.031250
8111,78.125000
8112,78.125000
8113,74.218750
8114,70.312500
8115,70.312500
8116,66.406250
8117,62.500000
8118,62.500000
8119,58.593750
8120,54.687500
8121,50.781250
8122,50.781250
8123,46.875000
8124,42.968750
8125,39.062500
8126,39.062500
8127,35.156250
8128,31.250000
8129,27.343750
8130,23.437500
8131,23.437500
8132,19.531250
8133,15.625000
8134,11.718750
8135,7.812500
8136,7.812500
8137,3.906250
8138,0.000000
8139,-3.906250
8140,-7.812500
8141,-11.718750
8142,-15.625000
8143,-15.625000
8144,-19.531250
8145,-23.437500
8146,-27.343750
8147,-31.250000
8148,-35.156250
8149,-35.156250
8150,-39.062500
8151,-42.968750
8152,-46.875000
8153,-50.781250
8154,-54.687500
8155,-58.593750
8156,-58.593750
8157,-62.500000
8158,-66.406250
8159,-70.312500
8160,-74.218750
8161,-78.125000
8162,-82.031250
8163,-85.937500
8164,-85.937500
8165,-89.843750
8166,-93.750000
8167,-97.656250
8168,-101.562500
8169,-101.562500
8170,-105.468750
8171,-113.281250
8172,-113.281250
8173,-117.187500
8174,-121.093750
8175,-125.000000
8176,-128.906250
8177,-132.812500
8178,-136.718750
8179,-136.718750
8180,-140.625000
8181,-144.531250
8182,-144.531250
8183,-148.437500
8184,-152.343750
8185,-156.250000
8186,-160.156250
8187,-160.156250
8188,-164.062500
8189,-167.968750
8190,-171.875000
8191,-171.875000
8192,-175.781250
8193,-175.781250
8194,-179.687500
8195,-183.593750
8196,-183.593750
8197,-187.500000
8198,-191.406250
8199,-191.406250
8200,-195.312500
8201,-199.218750
8202,-199.218750
8203,-203.125000
8204,-203.125000
8205,-207.031250
8206,-210.937500
8207,-210.937500
8208,-214.843750
8209,-214.843750
8210,-218.750000
8211,-218.750000
8212,-222.656250
8213,-222.656250
8214,-226.562500
8215,-226.562500
8216,-226.562500
8217,-230.468750
8218,-230.468750
8219,-234.375000
8220,-234.375000
8221,-234.375000
8222,-238.281250
8223,-238.281250
8224,-242.187500
8225,-242.187500
8226,-242.187500
8227,-242.187500
8228,-246.093750
8229,-246.093750
8230,-250.000000
8231,-246.093750
8232,-250.000000
8233,-250.000000
8234,-250.000000
8235,-250.000000
8236,-250.000000
8237,-253.906250
8238,-253.906250
8239,-253.906250
8240,-253.906250
8241,-253.906250
8242,-253.906250
8243,-253.906250
8244,-253.906250
8245,-253.906250
8246,-253.906250
8247,-253.906250
8248,-253.906250
8249,-253.906250
8250,-253.906250
8251,-253.906250
8252,-253.906250
8253,-253.906250
8254,-253.906250
8255,-253.906250
8256,-253.906250
8257,-250.000000
8258,-250.000000
8259,-250.000000
8260,-250.000000
8261,-250.000000
8262,-246.093750
8263,-246.093750
8264,-246.093750
8265,-246.093750
8266,-242.187500
8267,-242.187500
8268,-242.187500
8269,-238.281250
8270,-238.281250
8271,-238.281250
8272,-238.281250
8273,-234.375000
8274,-234.375000
8275,-230.468750
8276,-230.468750
8277,-226.562500
8278,-226.562500
8279,-222.656250
8280,-222.656250
8281,-222.656250
8282,-218.750000
8283,-214.843750
8284,-214.843750
8285,-210.937500
8286,-210.937500
8287,-207.031250
8288,-207.031250
8289,-203.125000
8290,-203.125000
8291,-199.218750
8292,-199.218750
8293,-195.312500
8294,-191.406250
8295,-191.406250
8296,-187.500000
8297,-183.593750
8298,-183.593750
8299,-179.687500
8300,-175.781250
8301,-171.875000
8302,-171.875000
8303,-167.968750
8304,-164.062500
8305,-164.062500
8306,-160.156250
8307,-156.250000
8308,-152.343750
8309,-152.343750
8310,-148.437500
8311,-144.531250
8312,-140.625000
8313,-136.718750
8314,-136.718750
8315,-132.812500
8316,-128.906250
8317,-125.000000
8318,-121.093750
8319,-121.093750
8320,-117.187500
8321,-113.281250
8322,-109.375000
8323,-105.468750
8324,-101.562500
8325,-97.656250
8326,-97.656250
8327,-93.750000
8328,-89.843750
8329,-85.937500
8330,-82.031250
8331,-78.125000
8332,-74.218750
8333,-70.312500
8334,-70.312500
8335,-66.406250
8336,-62.500000
8337,-58.593750
8338,-54.687500
8339,-50.781250
8340,-46.875000
8341,-42.968750
8342,-39.062500
8343,-39.062500
8344,-35.156250
8345,-31.250000
8346,-27.343750
8347,-23.437500
8348,-19.531250
8349,-15.625000
8350,-15.625000
8351,-11.718750
8352,-7.812500
8353,-3.906250
8354,0.000000
8355,3.906250
8356,3.906250
8357,7.812500
8358,11.718750
8359,15.625000
8360,19.531250
8361,23.437500
8362,23.437500
8363,27.343750
8364,31.250000
8365,35.156250
8366,35.156250
8367,39.062500
8368,42.968750
8369,46.875000
8370,46.875000
8371,50.781250
8372,54.687500
8373,58.593750
8374,58.593750
8375,62.500000
8376,66.406250
8377,66.406250
8378,70.312500
8379,74.218750
8380,78.125000
8381,78.125000
8382,82.031250
8383,82.031250
8384,85.937500
8385,85.937500
8386,89.843750
8387,93.750000
8388,93.750000
8389,97.656250
8390,101.562500
8391,101.562500
8392,105.468750
8393,105.468750
8394,109.375000
8395,109.375000
8396,113.281250
8397,113.281250
8398,117.187500
8399,117.187500
8400,121.093750
8401,121.093750
8402,125.000000
8403,125.000000
8404,128.906250
8405,128.906250
8406,132.812500
8407,132.812500
8408,132.812500
8409,136.718750
8410,140.625000
8411,140.625000
8412,140.625000
8413,140.625000
8414,144.531250
8415,144.531250
8416,148.437500
8417,148.437500
8418,148.437500
8419,148.437500
8420,152.343750
8421,152.343750
8422,152.343750
8423,156.250000
8424,156.250000
8425,156.250000
8426,156.250000
8427,156.250000
8428,160.156250
8429,160.156250
8430,160.156250
8431,160.156250
8432,164.062500
8433,164.062500
8434,164.062500
8435,164.062500
8436,164.062500
8437,164.062500
8438,167.968750
8439,167.968750
8440,167.968750
8441,167.968750
8442,167.968750
8443,167.968750
8444,167.968750
8445,167.968750
8446,167.968750
8447,167.968750
8448,167.968750
8449,167.968750
8450,167.968750
8451,171.875000
8452,171.875000
8453,171.875000
8454,171.875000
8455,167.968750
8456,171.875000
8457,167.968750
8458,167.968750
8459,167.968750
8460,167.968750
8461,167.968750
8462,167.968750
8463,167.968750
8464,167.968750
8465,167.968750
8466,167.968750
8467,167.968750
8468,167.968750
8469,167.968750
8470,167.968750
8471,164.062500
8472,164.062500
8473,164.062500
8474,164.062500
8475,164.062500
8476,164.062500
8477,164.062500
8478,164.062500
8479,160.156250
8480,160.156250
8481,160.156250
8482,160.156250
8483,156.250000
8484,156.250000
8485,156.250000
8486,156.250000
8487,152.343750
8488,152.343750
8489,152.343750
8490,148.437500
8491,148.437500
8492,148.437500
8493,144.531250
8494,144.531250
8495,144.531250
8496,140.625000
8497,140.625000
8498,140.625000
8499,136.718750
8500,136.718750
8501,136.718750
8502,132.812500
8503,132.812500
8504,128.906250
8505,128.906250
8506,125.000000
8507,125.000000
8508,121.093750
8509,121.093750
8510,117.187500
8511,117.187500
8512,113.281250
8513,113.281250
8514,109.375000
8515,109.375000
8516,105.468750
8517,105.468750
8518,101.562500
8519,101.562500
8520,97.656250
8521,93.750000
8522,93.750000
8523,89.843750
8524,89.843750
8525,85.937500
8526,85.937500
8527,82.031250
8528,78.125000
8529,78.125000
8530,74.218750
8531,70.312500
8532,66.406250
8533,66.406250
8534,62.500000
8535,62.500000
8536,58.593750
8537,54.687500
8538,50.781250
8539,46.875000
8540,46.875000
8541,42.968750
8542,39.062500
8543,35.156250
8544,35.156250
8545,31.250000
8546,27.343750
8547,23.437500
8548,23.437500
8549,19.531250
8550,15.625000
8551,11.718750
8552,7.812500
8553,3.906250
8554,3.906250
8555,0.000000
8556,-3.906250
8557,-7.812500
8558,-11.718750
8559,-15.625000
8560,-19.531250
8561,-19.531250
8562,-23.437500
8563,-27.343750
8564,-31.250000
8565,-35.156250
8566,-39.062500
8567,-39.062500
8568,-46.875000
8569,-50.781250
8570,-50.781250
8571,-54.687500
8572,-58.593750
8573,-62.500000
8574,-66.406250
8575,-66.406250
8576,-70.312500
8577,-78.125000
8578,-78.125000
8579,-82.031250
8580,-85.937500
8581,-89.843750
8582,-93.750000
8583,-93.750000
8584,-97.656250
8585,-101.562500
8586,-105.468750
8587,-109.375000
8588,-113.281250
8589,-117.187500
8590,-117.187500
8591,-121.093750
8592,-125.000000
8593,-128.906250
8594,-132.812500
8595,-132.812500
8596,-136.718750
8597,-140.625000
8598,-144.531250
8599,-148.437500
8600,-148.437500
8601,-152.343750
8602,-156.250000
8603,-160.156250
8604,-160.156250
8605,-164.062500
8606,-167.968750
8607,-171.875000
8608,-171.875000
8609,-175.781250
8610,-179.687500
8611,-179.687500
8612,-183.593750
8613,-187.500000
8614,-191.406250
8615,-191.406250
8616,-191.406250
8617,-199.218750
8618,-199.218750
8619,-199.218750
8620,-203.125000
8621,-207.031250
8622,-207.031250
8623,-210.937500
8624,-210.937500
8625,-214.843750
8626,-218.750000
8627,-218.750000
8628,-218.750000
8629,-222.656250
8630,-222.656250
8631,-226.562500
8632,-226.562500
8633,-230.468750
8634,-230.468750
8635,-230.468750
8636,-234.375000
8637,-234.375000
8638,-238.281250
8639,-238.281250
8640,-238.281250
8641,-238.281250
8642,-242.187500
8643,-242.187500
8644,-246.093750
8645,-246.093750
8646,-246.093750
8647,-246.093750
8648,-246.093750
8649,-250.000000
8650,-250.000000
8651,-250.000000
8652,-246.093750
8653,-253.906250
8654,-253.906250
8655,-253.906250
8656,-253.906250
8657,-253.906250
8658,-253.906250
8659,-253.906250
8660,-253.906250
8661,-253.906250
8662,-253.906250
8663,-253.906250
8664,-253.906250
8665,-253.906250
8666,-253.906250
8667,-253.906250
8668,-253.906250
8669,-253.906250
8670,-253.906250
8671,-253.906250
8672,-253.906250
8673,-250.000000
8674,-250.000000
8675,-250.000000
8676,-250.000000
8677,-250.000000
8678,-250.000000
8679,-246.093750
8680,-246.093750
8681,-246.093750
8682,-246.093750
8683,-242.187500
8684,-242.187500
8685,-242.187500
8686,-238.281250
8687,-238.281250
8688,-238.281250
8689,-234.375000
8690,-234.375000
8691,-234.375000
8692,-230.468750
8693,-230.468750
8694,-226.562500
8695,-226.562500
8696,-222.656250
8697,-222.656250
8698,-222.656250
8699,-218.750000
8700,-218.750000
8701,-214.843750
8702,-214.843750
8703,-210.937500
8704,-207.031250
8705,-207.031250
8706,-203.125000
8707,-199.218750
8708,-199.218750
8709,-195.312500
8710,-195.312500
8711,-191.406250
8712,-187.500000
8713,-187.500000
8714,-183.593750
8715,-179.687500
8716,-179.687500
8717,-171.875000
8718,-171.875000
8719,-171.875000
8720,-167.968750
8721,-164.062500
8722,-164.062500
8723,-160.156250
8724,-156.250000
8725,-152.343750
8726,-152.343750
8727,-148.437500
8728,-144.531250
8729,-140.625000
8730,-136.718750
8731,-132.812500
8732,-132.812500
8733,-128.906250
8734,-125.000000
8735,-121.093750
8736,-117.187500
8737,-117.187500
8738,-113.281250
8739,-109.375000
8740,-105.468750
8741,-101.562500
8742,-97.656250
8743,-93.750000
8744,-89.843750
8745,-89.843750
8746,-85.937500
8747,-82.031250
8748,-78.125000
8749,-74.218750
8750,-70.312500
8751,-66.406250
8752,-66.406250
8753,-62.500000
8754,-58.593750
8755,-54.687500
8756,-50.781250
8757,-46.875000
8758,-42.968750
8759,-39.062500
8760,-39.062500
8761,-35.156250
8762,-31.250000
8763,-27.343750
8764,-23.437500
8765,-19.531250
8766,-15.625000
8767,-15.625000
8768,-11.718750
8769,-7.812500
8770,-3.906250
8771,0.000000
8772,0.000000
8773,3.906250
8774,7.812500
8775,11.718750
8776,15.625000
8777,19.531250
8778,19.531250
8779,23.437500
8780,27.343750
8781,31.250000
8782,31.250000
8783,35.156250
8784,39.062500
8785,42.968750
8786,42.968750
8787,46.875000
8788,50.781250
8789,54.687500
8790,58.593750
8791,58.593750
8792,62.500000
8793,66.406250
8794,66.406250
8795,70.312500
8796,74.218750
8797,74.218750
8798,78.125000
8799,82.031250
8800,82.031250
8801,85.937500
8802,89.843750
8803,89.843750
8804,93.750000
8805,93.750000
8806,97.656250
8807,101.562500
8808,101.562500
8809,105.468750
8810,105.468750
8811,109.375000
8812,109.375000
8813,113.281250
8814,113.281250
8815,117.187500
8816,117.187500
8817,121.093750
8818,121.093750
8819,125.000000
8820,125.000000
8821,128.906250
8822,128.906250
8823,132.812500
8824,132.812500
8825,132.812500
8826,136.718750
8827,136.718750
8828,140.625000
8829,140.625000
8830,140.625000
8831,144.531250
8832,144.531250
8833,144.531250
8834,148.437500
8835,148.437500
8836,152.343750
8837,152.343750
8838,152.343750
8839,152.343750
8840,156.250000
8841,156.250000
8842,156.250000
8843,156.250000
8844,160.156250
8845,160.156250
8846,160.156250
8847,160.156250
8848,160.156250
8849,164.062500
8850,164.062500
8851,164.062500
8852,164.062500
8853,164.062500
8854,164.062500
8855,167.968750
8856,167.968750
8857,167.968750
8858,167.968750
8859,167.968750
8860,167.968750
8861,167.968750
8862,167.968750
8863,167.968750
8864,167.968750
8865,171.875000
8866,167.968750
8867,171.875000
8868,167.968750
8869,167.968750
8870,171.875000
8871,171.875000
8872,167.968750
8873,171.875000
8874,171.875000
8875,167.968750
8876,167.968750
8877,171.875000
8878,167.968750
8879,167.968750
8880,167.968750
8881,167.968750
8882,167.968750
8883,167.968750
8884,167.968750
8885,167.968750
8886,167.968750
8887,164.062500
8888,164.062500
8889,164.062500
8890,164.062500
8891,164.062500
8892,164.062500
8893,160.156250
8894,164.062500
8895,160.156250
8896,160.156250
8897,160.156250
8898,160.156250
8899,160.156250
8900,156.250000
8901,156.250000
8902,156.250000
8903,152.343750
8904,152.343750
8905,152.343750
8906,152.343750
8907,152.343750
8908,148.437500
8909,148.437500
8910,148.437500
8911,144.531250
8912,144.531250
8913,140.625000
8914,140.625000
8915,140.625000
8916,136.718750
8917,136.718750
8918,136.718750
8919,132.812500
8920,132.812500
8921,128.906250
8922,128.906250
8923,125.000000
8924,125.000000
8925,121.093750
8926,121.093750
8927,117.187500
8928,117.187500
8929,113.281250
8930,113.281250
8931,109.375000
8932,109.375000
8933,105.468750
8934,105.468750
8935,101.562500
8936,101.562500
8937,97.656250
8938,97.656250
8939,93.750000
8940,89.843750
8941,89.843750
8942,85.937500
8943,82.031250
8944,82.031250
8945,78.125000
8946,78.125000
8947,74.218750
8948,70.312500
8949,66.406250
8950,62.500000
8951,62.500000
8952,58.593750
8953,54.687500
8954,54.687500
8955,50.781250
8956,46.875000
8957,42.968750
8958,42.968750
8959,39.062500
8960,35.156250
8961,35.156250
8962,31.250000
8963,27.343750
8964,23.437500
8965,19.531250
8966,15.625000
8967,15.625000
8968,11.718750
8969,7.812500
8970,3.906250
8971,0.000000
8972,0.000000
8973,-3.906250
8974,-7.812500
8975,-11.718750
8976,-15.625000
8977,-19.531250
8978,-23.437500
8979,-23.437500
8980,-27.343750
8981,-31.250000
8982,-35.156250
8983,-39.062500
8984,-42.968750
8985,-46.875000
8986,-50.781250
8987,-50.781250
8988,-54.687500
8989,-58.593750
8990,-62.500000
8991,-66.406250
8992,-70.312500
8993,-74.218750
8994,-78.125000
8995,-78.125000
8996,-82.031250
8997,-85.937500
8998,-89.843750
8999,-93.750000
9000,-93.750000
9001,-101.562500
9002,-101.562500
9003,-105.468750
9004,-109.375000
9005,-113.281250
9006,-117.187500
9007,-121.093750
9008,-125.000000
9009,-125.000000
9010,-128.906250
9011,-132.812500
9012,-136.718750
9013,-136.718750
9014,-140.625000
9015,-144.531250
9016,-148.437500
9017,-148.437500
9018,-156.250000
9019,-156.250000
9020,-160.156250
9021,-164.062500
9022,-164.062500
9023,-167.968750
9024,-171.875000
9025,-175.781250
9026,-175.781250
9027,-179.687500
9028,-183.593750
9029,-183.593750
9030,-187.500000
9031,-191.406250
9032,-191.406250
9033,-195.312500
9034,-195.312500
9035,-199.218750
9036,-203.125000
9037,-203.125000
9038,-207.031250
9039,-210.937500
9040,-210.937500
9041,-210.937500
9042,-214.843750
9043,-214.843750
9044,-218.750000
9045,-218.750000
9046,-222.656250
9047,-222.656250
9048,-226.562500
9049,-226.562500
9050,-230.468750
9051,-230.468750
9052,-234.375000
9053,-234.375000
9054,-234.375000
9055,-238.281250
9056,-238.281250
9057,-238.281250
9058,-238.281250
9059,-242.187500
9060,-246.093750
9061,-242.187500
9062,-246.093750
9063,-246.093750
9064,-246.093750
9065,-250.000000
9066,-246.093750
9067,-250.000000
9068,-250.000000
9069,-250.000000
9070,-250.000000
9071,-253.906250
9072,-253.906250
9073,-253.906250
9074,-253.906250
9075,-253.906250
9076,-253.906250
9077,-253.906250
9078,-253.906250
9079,-253.906250
9080,-253.906250
9081,-253.906250
9082,-253.906250
9083,-253.906250
9084,-253.906250
9085,-253.906250
9086,-253.906250
9087,-253.906250
9088,-253.906250
9089,-253.906250
9090,-250.000000
9091,-250.000000
9092,-250.000000
9093,-250.000000
9094,-250.000000
9095,-246.093750
9096,-246.093750
9097,-246.093750
9098,-246.093750
9099,-242.187500
9100,-242.187500
9101,-242.187500
9102,-242.187500
9103,-238.281250
9104,-238.281250
9105,-234.375000
9106,-234.375000
9107,-234.375000
9108,-230.468750
9109,-230.468750
9110,-230.468750
9111,-226.562500
9112,-222.656250
9113,-222.656250
9114,-222.656250
9115,-218.750000
9116,-218.750000
9117,-214.843750
9118,-214.843750
9119,-210.937500
9120,-210.937500
9121,-207.031250
9122,-203.125000
9123,-203.125000
9124,-199.218750
9125,-199.218750
9126,-195.312500
9127,-191.406250
9128,-191.406250
9129,-187.500000
9130,-183.593750
9131,-183.593750
9132,-179.687500
9133,-175.781250
9134,-175.781250
9135,-171.875000
9136,-167.968750
9137,-164.062500
9138,-164.062500
9139,-160.156250
9140,-156.250000
9141,-156.250000
9142,-152.343750
9143,-148.437500
9144,-144.531250
9145,-144.531250
9146,-140.625000
9147,-136.718750
9148,-132.812500
9149,-128.906250
9150,-125.000000
9151,-125.000000
9152,-121.093750
9153,-117.187500
9154,-113.281250
9155,-109.375000
9156,-105.468750
9157,-105.468750
9158,-101.562500
9159,-97.656250
9160,-93.750000
9161,-89.843750
9162,-85.937500
9163,-82.031250
9164,-82.031250
9165,-78.125000
9166,-74.218750
9167,-70.312500
9168,-66.406250
9169,-62.500000
9170,-62.500000
9171,-58.593750
9172,-54.687500
9173,-50.781250
9174,-46.875000
9175,-42.968750
9176,-39.062500
9177,-35.156250
9178,-31.250000
9179,-31.250000
9180,-27.343750
9181,-19.531250
9182,-19.531250
9183,-15.625000
9184,-11.718750
9185,-7.812500
9186,-7.812500
9187,-3.906250
9188,0.000000
9189,3.906250
9190,7.812500
9191,11.718750
9192,15.625000
9193,15.625000
9194,19.531250
9195,23.437500
9196,27.343750
9197,27.343750
9198,31.250000
9199,35.156250
9200,39.062500
9201,39.062500
9202,42.968750
9203,46.875000
9204,50.781250
9205,50.781250
9206,54.687500
9207,58.593750
9208,62.500000
9209,62.500000
9210,66.406250
9211,70.312500
9212,74.218750
9213,74.218750
9214,78.125000
9215,82.031250
9216,82.031250
9217,85.937500
9218,85.937500
9219,89.843750
9220,93.750000
9221,93.750000
9222,97.656250
9223,97.656250
9224,101.562500
9225,101.562500
9226,105.468750
9227,109.375000
9228,109.375000
9229,113.281250
9230,113.281250
9231,117.187500
9232,117.187500
9233,121.093750
9234,121.093750
9235,121.093750
9236,125.000000
9237,128.906250
9238,128.906250
9239,128.906250
9240,132.812500
9241,132.812500
9242,136.718750
9243,136.718750
9244,140.625000
9245,140.625000
9246,140.625000
9247,144.531250
9248,144.531250
9249,144.531250
9250,144.531250
9251,148.437500
9252,148.437500
9253,148.437500
9254,152.343750
9255,152.343750
9256,156.250000
9257,156.250000
9258,156.250000
9259,156.250000
9260,156.250000
9261,160.156250
9262,160.156250
9263,160.156250
9264,160.156250
9265,160.156250
9266,164.062500
9267,164.062500
9268,164.062500
9269,164.062500
9270,164.062500
9271,164.062500
9272,167.968750
9273,167.968750
9274,167.968750
9275,167.968750
9276,167.968750
9277,167.968750
9278,167.968750
9279,167.968750
9280,167.968750
9281,167.968750
9282,167.968750
9283,171.875000
9284,171.875000
9285,167.968750
9286,171.875000
9287,171.875000
9288,171.875000
9289,167.968750
9290,167.968750
9291,171.875000
9292,167.968750
9293,167.968750
9294,167.968750
9295,171.875000
9296,167.968750
9297,167.968750
9298,167.968750
9299,167.968750
9300,167.968750
9301,167.968750
9302,167.968750
9303,167.968750
9304,167.968750
9305,164.062500
9306,164.062500
9307,164.062500
9308,164.062500
9309,164.062500
9310,164.062500
9311,160.156250
9312,160.156250
9313,160.156250
9314,160.156250
9315,160.156250
9316,156.250000
9317,156.250000
9318,156.250000
9319,156.250000
9320,152.343750
9321,152.343750
9322,152.343750
9323,152.343750
9324,148.437500
9325,148.437500
9326,148.437500
9327,144.531250
9328,144.531250
9329,144.531250
9330,140.625000
9331,140.625000
9332,140.625000
9333,136.718750
9334,136.718750
9335,132.812500
9336,132.812500
9337,128.906250
9338,128.906250
9339,128.906250
9340,125.000000
9341,125.000000
9342,121.093750
9343,121.093750
9344,117.187500
9345,117.187500
9346,113.281250
9347,113.281250
9348,109.375000
9349,109.375000
9350,105.468750
9351,101.562500
9352,101.562500
9353,97.656250
9354,97.656250
9355,93.750000
9356,93.750000
9357,89.843750
9358,85.937500
9359,85.937500
9360,82.031250
9361,78.125000
9362,78.125000
9363,74.218750
9364,74.218750
9365,70.312500
9366,66.406250
9367,66.406250
9368,62.500000
9369,58.593750
9370,54.687500
9371,54.687500
9372,50.781250
9373,46.875000
9374,42.968750
9375,42.968750
9376,39.062500
9377,35.156250
9378,31.250000
9379,27.343750
9380,27.343750
9381,23.437500
9382,19.531250
9383,15.625000
9384,15.625000
9385,11.718750
9386,7.812500
9387,3.906250
9388,0.000000
9389,-3.906250
9390,-7.812500
9391,-7.812500
9392,-11.718750
9393,-15.625000
9394,-19.531250
9395,-23.437500
9396,-27.343750
9397,-27.343750
9398,-35.156250
9399,-35.156250
9400,-39.062500
9401,-42.968750
9402,-46.875000
9403,-50.781250
9404,-54.687500
9405,-54.687500
9406,-58.593750
9407,-62.500000
9408,-66.406250
9409,-70.312500
9410,-74.218750
9411,-78.125000
9412,-78.125000
9413,-85.937500
9414,-89.843750
9415,-89.843750
9416,-93.750000
9417,-97.656250
9418,-101.562500
9419,-105.468750
9420,-109.375000
9421,-109.375000
9422,-113.281250
9423,-117.187500
9424,-121.093750
9425,-125.000000
9426,-125.000000
9427,-128.906250
9428,-132.812500
9429,-136.718750
9430,-140.625000
9431,-144.531250
9432,-144.531250
9433,-148.437500
9434,-152.343750
9435,-156.250000
9436,-156.250000
9437,-160.156250
9438,-164.062500
9439,-167.968750
9440,-167.968750
9441,-171.875000
9442,-175.781250
9443,-175.781250
9444,-179.687500
9445,-183.593750
9446,-187.500000
9447,-187.500000
9448,-191.406250
9449,-191.406250
9450,-195.312500
9451,-199.218750
9452,-199.218750
9453,-203.125000
9454,-203.125000
9455,-207.031250
9456,-210.937500
9457,-210.937500
9458,-214.843750
9459,-214.843750
9460,-218.750000
9461,-218.750000
9462,-222.656250
9463,-222.656250
9464,-226.562500
9465,-226.562500
9466,-226.562500
9467,-230.468750
9468,-230.468750
9469,-234.375000
9470,-234.375000
9471,-238.281250
9472,-238.281250
9473,-238.281250
9474,-238.281250
9475,-238.281250
9476,-242.187500
9477,-242.187500
9478,-246.093750
9479,-246.093750
9480,-246.093750
9481,-246.093750
9482,-246.093750
9483,-250.000000
9484,-250.000000
9485,-250.000000
9486,-250.000000
9487,-250.000000
9488,-253.906250
9489,-253.906250
9490,-253.906250
9491,-253.906250
9492,-253.906250
9493,-253.906250
9494,-253.906250
9495,-253.906250
9496,-253.906250
9497,-253.906250
9498,-253.906250
9499,-253.906250
9500,-253.906250
9501,-253.906250
9502,-253.906250
9503,-253.906250
9504,-253.906250
9505,-253.906250
9506,-250.000000
9507,-250.000000
9508,-250.000000
9509,-250.000000
9510,-250.000000
9511,-246.093750
9512,-250.000000
9513,-246.093750
9514,-246.093750
9515,-242.187500
9516,-242.187500
9517,-242.187500
9518,-242.187500
9519,-238.281250
9520,-238.281250
9521,-238.281250
9522,-234.375000
9523,-234.375000
9524,-234.375000
9525,-230.468750
9526,-230.468750
9527,-226.562500
9528,-226.562500
9529,-226.562500
9530,-226.562500
9531,-222.656250
9532,-218.750000
9533,-218.750000
9534,-214.843750
9535,-214.843750
9536,-210.937500
9537,-207.031250
9538,-207.031250
9539,-203.125000
9540,-203.125000
9541,-199.218750
9542,-199.218750
9543,-195.312500
9544,-191.406250
9545,-191.406250
9546,-187.500000
9547,-187.500000
9548,-183.593750
9549,-179.687500
9550,-179.687500
9551,-175.781250
9552,-171.875000
9553,-167.968750
9554,-167.968750
9555,-164.062500
9556,-160.156250
9557,-156.250000
9558,-156.250000
9559,-152.343750
9560,-148.437500
9561,-144.531250
9562,-140.625000
9563,-140.625000
9564,-136.718750
9565,-132.812500
9566,-128.906250
9567,-125.000000
9568,-125.000000
9569,-121.093750
9570,-117.187500
9571,-113.281250
9572,-109.375000
9573,-105.468750
9574,-101.562500
9575,-97.656250
9576,-97.656250
9577,-93.750000
9578,-89.843750
9579,-85.937500
9580,-82.031250
9581,-78.125000
9582,-74.218750
9583,-74.218750
9584,-70.312500
9585,-66.406250
9586,-62.500000
9587,-58.593750
9588,-54.687500
9589,-54.687500
9590,-50.781250
9591,-46.875000
9592,-42.968750
9593,-39.062500
9594,-35.156250
9595,-31.250000
9596,-27.343750
9597,-23.437500
9598,-23.437500
9599,-19.531250
9600,-15.625000
9601,-11.718750
9602,-7.812500
9603,-3.906250
9604,-3.906250
9605,0.000000
9606,3.906250
9607,7.812500
9608,11.718750
9609,15.625000
9610,19.531250
9611,19.531250
9612,23.437500
9613,27.343750
9614,31.250000
9615,31.250000
9616,35.156250
9617,39.062500
9618,42.968750
9619,42.968750
9620,46.875000
9621,50.781250
9622,50.781250
9623,54.687500
9624,58.593750
9625,62.500000
9626,66.406250
9627,66.406250
9628,70.312500
9629,74.218750
9630,74.218750
9631,78.125000
9632,82.031250
9633,82.031250
9634,85.937500
9635,85.937500
9636,89.843750
9637,93.750000
9638,93.750000
9639,97.656250
9640,97.656250
9641,101.562500
9642,105.468750
9643,105.468750
9644,109.375000
9645,109.375000
9646,113.281250
9647,113.281250
9648,117.187500
9649,117.187500
9650,121.093750
9651,121.093750
9652,125.000000
9653,125.000000
9654,128.906250
9655,128.906250
9656,128.906250
9657,132.812500
9658,132.812500
9659,136.718750
9660,136.718750
9661,136.718750
9662,140.625000
9663,140.625000
9664,144.531250
9665,144.531250
9666,144.531250
9667,144.531250
9668,148.437500
9669,148.437500
9670,148.437500
9671,152.343750
9672,152.343750
9673,152.343750
9674,156.250000
9675,156.250000
9676,156.250000
9677,156.250000
9678,160.156250
9679,160.156250
9680,160.156250
9681,160.156250
9682,160.156250
9683,164.062500
9684,164.062500
9685,164.062500
9686,164.062500
9687,167.968750
9688,167.968750
9689,167.968750
9690,167.968750
9691,167.968750
9692,167.968750
9693,167.968750
9694,167.968750
9695,167.968750
9696,167.968750
9697,167.968750
9698,171.875000
9699,171.875000
9700,171.875000
9701,171.875000
9702,171.875000
9703,171.875000
9704,171.875000
9705,171.875000
9706,171.875000
9707,171.875000
9708,167.968750
9709,171.875000
9710,171.875000
9711,167.968750
9712,167.968750
9713,167.968750
9714,167.968750
9715,167.968750
9716,167.968750
9717,167.968750
9718,167.968750
9719,167.968750
9720,167.968750
9721,164.062500
9722,164.062500
9723,164.062500
9724,164.062500
9725,164.062500
9726,164.062500
9727,164.062500
9728,164.062500
9729,160.156250
9730,160.156250
9731,160.156250
9732,160.156250
9733,156.250000
9734,156.250000
9735,156.250000
9736,148.437500
9737,152.343750
9738,152.343750
9739,152.343750
9740,148.437500
9741,148.437500
9742,148.437500
9743,148.437500
9744,144.531250
9745,144.531250
9746,140.625000
9747,140.625000
9748,140.625000
9749,136.718750
9750,136.718750
9751,136.718750
9752,132.812500
9753,132.812500
9754,132.812500
9755,128.906250
9756,128.906250
9757,125.000000
9758,125.000000
9759,121.093750
9760,121.093750
9761,117.187500
9762,117.187500
9763,113.281250
9764,113.281250
9765,109.375000
9766,109.375000
9767,105.468750
9768,101.562500
9769,101.562500
9770,97.656250
9771,97.656250
9772,93.750000
9773,93.750000
9774,89.843750
9775,85.937500
9776,85.937500
9777,82.031250
9778,78.125000
9779,78.125000
9780,74.218750
9781,70.312500
9782,70.312500
9783,66.406250
9784,66.406250
9785,62.500000
9786,58.593750
9787,54.687500
9788,50.781250
9789,50.781250
9790,46.875000
9791,42.968750
9792,39.062500
9793,35.156250
9794,35.156250
9795,31.250000
9796,27.343750
9797,23.437500
9798,19.531250
9799,19.531250
9800,15.625000
9801,11.718750
9802,7.812500
9803,3.906250
9804,3.906250
9805,0.000000
9806,-3.906250
9807,-7.812500
9808,-11.718750
9809,-11.718750
9810,-15.625000
9811,-19.531250
9812,-23.437500
9813,-27.343750
9814,-31.250000
9815,-35.156250
9816,-35.156250
9817,-39.062500
9818,-42.968750
9819,-46.875000
9820,-50.781250
9821,-54.687500
9822,-58.593750
9823,-62.500000
9824,-66.406250
9825,-66.406250
9826,-70.312500
9827,-74.218750
9828,-78.125000
9829,-82.031250
9830,-85.937500
9831,-85.937500
9832,-89.843750
9833,-93.750000
9834,-97.656250
9835,-101.562500
9836,-105.468750
9837,-109.375000
9838,-113.281250
9839,-113.281250
9840,-117.187500
9841,-121.093750
9842,-125.000000
9843,-125.000000
9844,-132.812500
9845,-132.812500
9846,-136.718750
9847,-140.625000
9848,-144.531250
9849,-144.531250
9850,-148.437500
9851,-152.343750
9852,-156.250000
9853,-156.250000
9854,-160.156250
9855,-164.062500
9856,-167.968750
9857,-167.968750
9858,-171.875000
9859,-175.781250
9860,-179.687500
9861,-179.687500
9862,-183.593750
9863,-183.593750
9864,-187.500000
9865,-191.406250
9866,-191.406250
9867,-195.312500
9868,-199.218750
9869,-199.218750
9870,-203.125000
9871,-203.125000
9872,-207.031250
9873,-210.937500
9874,-210.937500
9875,-214.843750
9876,-214.843750
9877,-218.750000
9878,-218.750000
9879,-222.656250
9880,-222.656250
9881,-222.656250
9882,-226.562500
9883,-226.562500
9884,-230.468750
9885,-230.468750
9886,-234.375000
9887,-234.375000
9888,-234.375000
9889,-238.281250
9890,-238.281250
9891,-238.281250
9892,-242.187500
9893,-242.187500
9894,-242.187500
9895,-246.093750
9896,-246.093750
9897,-246.093750
9898,-246.093750
9899,-246.093750
9900,-250.000000
9901,-250.000000
9902,-250.000000
9903,-250.000000
9904,-250.000000
9905,-250.000000
9906,-250.000000
9907,-253.906250
9908,-253.906250
9909,-253.906250
9910,-253.906250
9911,-253.906250
9912,-253.906250
9913,-253.906250
9914,-253.906250
9915,-253.906250
9916,-253.906250
9917,-253.906250
9918,-253.906250
9919,-253.906250
9920,-250.000000
9921,-253.906250
9922,-250.000000
9923,-250.000000
9924,-250.000000
9925,-250.000000
9926,-250.000000
9927,-250.000000
9928,-250.000000
9929,-246.093750
9930,-246.093750
9931,-246.093750
9932,-246.093750
9933,-242.187500
9934,-242.187500
9935,-242.187500
9936,-238.281250
9937,-238.281250
9938,-238.281250
9939,-234.375000
9940,-234.375000
9941,-230.468750
9942,-230.468750
9943,-230.468750
9944,-226.562500
9945,-226.562500
9946,-222.656250
9947,-222.656250
9948,-218.750000
9949,-218.750000
9950,-218.750000
9951,-214.843750
9952,-210.937500
9953,-210.937500
9954,-207.031250
9955,-207.031250
9956,-203.125000
9957,-199.218750
9958,-199.218750
9959,-195.312500
9960,-195.312500
9961,-191.406250
9962,-187.500000
9963,-187.500000
9964,-183.593750
9965,-179.687500
9966,-179.687500
9967,-175.781250
9968,-171.875000
9969,-171.875000
9970,-167.968750
9971,-164.062500
9972,-160.156250
9973,-160.156250
9974,-156.250000
9975,-152.343750
9976,-152.343750
9977,-144.531250
9978,-144.531250
9979,-140.625000
9980,-136.718750
9981,-136.718750
9982,-132.812500
9983,-128.906250
9984,-125.000000
9985,-121.093750
9986,-117.187500
9987,-113.281250
9988,-113.281250
9989,-109.375000
9990,-105.468750
9991,-101.562500
9992,-97.656250
9993,-97.656250
9994,-93.750000
9995,-89.843750
9996,-85.937500
9997,-82.031250
9998,-78.125000
9999,-74.218750
10000,-70.312500
