Channel              :,CH1
Frequency            :,1.200kHz
Period               :,0.833ms
PK-PK                :,531.3mV
Probe attenuation    :,1X
Voltage per ADC value:,0.244141mV
Time interval        :,2.00000us

index,CH1_Voltage(mV)
1,-58.593750
2,-58.593750
3,-54.687500
4,-46.875000
5,-42.968750
6,-39.062500
7,-35.156250
8,-31.250000
9,-27.343750
10,-23.437500
11,-19.531250
12,-15.625000
13,-11.718750
14,-7.812500
15,-3.906250
16,0.000000
17,3.906250
18,7.812500
19,11.718750
20,15.625000
21,19.531250
22,23.437500
23,27.343750
24,31.250000
25,35.156250
26,39.062500
27,42.968750
28,46.875000
29,50.781250
30,54.687500
31,58.593750
32,62.500000
33,62.500000
34,66.406250
35,70.312500
36,74.218750
37,74.218750
38,78.125000
39,82.031250
40,85.937500
41,89.843750
42,93.750000
43,93.750000
44,97.656250
45,101.562500
46,101.562500
47,105.468750
48,109.375000
49,113.281250
50,113.281250
51,117.187500
52,121.093750
53,121.093750
54,125.000000
55,125.000000
56,128.906250
57,128.906250
58,132.812500
59,136.718750
60,136.718750
61,140.625000
62,140.625000
63,144.531250
64,144.531250
65,148.437500
66,148.437500
67,152.343750
68,152.343750
69,156.250000
70,156.250000
71,156.250000
72,160.156250
73,160.156250
74,164.062500
75,164.062500
76,164.062500
77,167.968750
78,167.968750
79,167.968750
80,171.875000
81,171.875000
82,171.875000
83,175.781250
84,175.781250
85,175.781250
86,175.781250
87,175.781250
88,179.687500
89,179.687500
90,179.687500
91,179.687500
92,179.687500
93,183.593750
94,183.593750
95,183.593750
96,183.593750
97,183.593750
98,183.593750
99,183.593750
100,187.500000
101,183.593750
102,187.500000
103,187.500000
104,187.500000
105,187.500000
106,187.500000
107,187.500000
108,187.500000
109,187.500000
110,187.500000
111,187.500000
112,187.500000
113,187.500000
114,187.500000
115,187.500000
116,187.500000
117,187.500000
118,187.500000
119,183.593750
120,183.593750
121,183.593750
122,183.593750
123,183.593750
124,183.593750
125,183.593750
126,183.593750
127,183.593750
128,183.593750
129,179.687500
130,179.687500
131,179.687500
132,179.687500
133,179.687500
134,175.781250
135,175.781250
136,175.781250
137,175.781250
138,171.875000
139,171.875000
140,171.875000
141,171.875000
142,167.968750
143,167.968750
144,167.968750
145,164.062500
146,164.062500
147,164.062500
148,160.156250
149,160.156250
150,160.156250
151,156.250000
152,156.250000
153,152.343750
154,152.343750
155,152.343750
156,148.437500
157,148.437500
158,144.531250
159,144.531250
160,140.625000
161,140.625000
162,136.718750
163,132.812500
164,132.812500
165,128.906250
166,128.906250
167,125.000000
168,121.093750
169,121.093750
170,117.187500
171,117.187500
172,113.281250
173,109.375000
174,105.468750
175,105.468750
176,101.562500
177,97.656250
178,97.656250
179,93.750000
180,89.843750
181,85.937500
182,82.031250
183,82.031250
184,78.125000
185,74.218750
186,70.312500
187,70.312500
188,66.406250
189,62.500000
190,58.593750
191,54.687500
192,50.781250
193,46.875000
194,42.968750
195,39.062500
196,35.156250
197,35.156250
198,31.250000
199,27.343750
200,23.437500
201,19.531250
202,15.625000
203,11.718750
204,7.812500
205,3.906250
206,0.000000
207,-3.906250
208,-11.718750
209,-11.718750
210,-19.531250
211,-23.437500
212,-27.343750
213,-31.250000
214,-35.156250
215,-39.062500
216,-42.968750
217,-46.875000
218,-50.781250
219,-54.687500
220,-58.593750
221,-62.500000
222,-70.312500
223,-74.218750
224,-78.125000
225,-82.031250
226,-85.937500
227,-89.843750
228,-93.750000
229,-97.656250
230,-101.562500
231,-105.468750
232,-113.281250
233,-117.187500
234,-121.093750
235,-125.000000
236,-128.906250
237,-132.812500
238,-136.718750
239,-140.625000
240,-148.437500
241,-148.437500
242,-156.250000
243,-160.156250
244,-164.062500
245,-167.968750
246,-171.875000
247,-175.781250
248,-179.687500
249,-183.593750
250,-187.500000
251,-191.406250
252,-195.312500
253,-199.218750
254,-203.125000
255,-207.031250
256,-210.937500
257,-214.843750
258,-218.750000
259,-222.656250
260,-226.562500
261,-226.562500
262,-234.375000
263,-234.375000
264,-238.281250
265,-242.187500
266,-246.093750
267,-250.000000
268,-253.906250
269,-253.906250
270,-257.812500
271,-261.718750
272,-265.625000
273,-269.531250
274,-269.531250
275,-273.437500
276,-277.343750
277,-281.250000
278,-281.250000
279,-285.156250
280,-289.062500
281,-289.062500
282,-292.968750
283,-296.875000
284,-296.875000
285,-300.781250
286,-300.781250
287,-304.687500
288,-304.687500
289,-308.593750
290,-308.593750
291,-312.500000
292,-312.500000
293,-316.406250
294,-316.406250
295,-320.312500
296,-320.312500
297,-324.218750
298,-324.218750
299,-324.218750
300,-328.125000
301,-328.125000
302,-328.125000
303,-332.031250
304,-332.031250
305,-332.031250
306,-332.031250
307,-335.937500
308,-335.937500
309,-335.937500
310,-335.937500
311,-339.843750
312,-339.843750
313,-339.843750
314,-339.843750
315,-335.937500
316,-339.843750
317,-339.843750
318,-339.843750
319,-339.843750
320,-339.843750
321,-339.843750
322,-339.843750
323,-339.843750
324,-339.843750
325,-339.843750
326,-339.843750
327,-335.937500
328,-339.843750
329,-335.937500
330,-335.937500
331,-335.937500
332,-332.031250
333,-332.031250
334,-332.031250
335,-332.031250
336,-328.125000
337,-328.125000
338,-328.125000
339,-328.125000
340,-324.218750
341,-324.218750
342,-320.312500
343,-320.312500
344,-320.312500
345,-316.406250
346,-316.406250
347,-312.500000
348,-312.500000
349,-308.593750
350,-308.593750
351,-304.687500
352,-304.687500
353,-300.781250
354,-300.781250
355,-296.875000
356,-292.968750
357,-292.968750
358,-289.062500
359,-285.156250
360,-285.156250
361,-281.250000
362,-281.250000
363,-277.343750
364,-273.437500
365,-269.531250
366,-269.531250
367,-265.625000
368,-261.718750
369,-257.812500
370,-253.906250
371,-253.906250
372,-250.000000
373,-246.093750
374,-242.187500
375,-238.281250
376,-234.375000
377,-230.468750
378,-226.562500
379,-222.656250
380,-222.656250
381,-218.750000
382,-210.937500
383,-210.937500
384,-207.031250
385,-203.125000
386,-199.218750
387,-195.312500
388,-191.406250
389,-183.593750
390,-179.687500
391,-179.687500
392,-171.875000
393,-171.875000
394,-164.062500
395,-160.156250
396,-156.250000
397,-152.343750
398,-148.437500
399,-144.531250
400,-140.625000
401,-136.718750
402,-128.906250
403,-125.000000
404,-121.093750
405,-117.187500
406,-113.281250
407,-109.375000
408,-105.468750
409,-105.468750
410,-93.750000
411,-89.843750
412,-85.937500
413,-82.031250
414,-78.125000
415,-74.218750
416,-70.312500
417,-66.406250
418,-62.500000
419,-54.687500
420,-50.781250
421,-46.875000
422,-42.968750
423,-39.062500
424,-35.156250
425,-31.250000
426,-27.343750
427,-23.437500
428,-19.531250
429,-15.625000
430,-11.718750
431,-7.812500
432,-3.906250
433,0.000000
434,3.906250
435,7.812500
436,11.718750
437,15.625000
438,19.531250
439,23.437500
440,27.343750
441,31.250000
442,35.156250
443,39.062500
444,42.968750
445,46.875000
446,50.781250
447,54.687500
448,54.687500
449,62.500000
450,62.500000
451,66.406250
452,70.312500
453,74.218750
454,74.218750
455,78.125000
456,82.031250
457,85.937500
458,89.843750
459,93.750000
460,93.750000
461,97.656250
462,101.562500
463,105.468750
464,109.375000
465,109.375000
466,113.281250
467,113.281250
468,117.187500
469,121.093750
470,121.093750
471,125.000000
472,125.000000
473,128.906250
474,132.812500
475,132.812500
476,136.718750
477,136.718750
478,140.625000
479,144.531250
480,144.531250
481,144.531250
482,148.437500
483,148.437500
484,152.343750
485,152.343750
486,156.250000
487,156.250000
488,156.250000
489,160.156250
490,160.156250
491,164.062500
492,164.062500
493,164.062500
494,167.968750
495,167.968750
496,167.968750
497,167.968750
498,171.875000
499,171.875000
500,171.875000
501,171.875000
502,175.781250
503,175.781250
504,175.781250
505,179.687500
506,179.687500
507,179.687500
508,179.687500
509,179.687500
510,183.593750
511,179.687500
512,183.593750
513,183.593750
514,183.593750
515,183.593750
516,183.593750
517,183.593750
518,183.593750
519,183.593750
520,187.500000
521,187.500000
522,187.500000
523,187.500000
524,187.500000
525,187.500000
526,187.500000
527,187.500000
528,187.500000
529,187.500000
530,187.500000
531,187.500000
532,187.500000
533,187.500000
534,187.500000
535,187.500000
536,187.500000
537,183.593750
538,183.593750
539,183.593750
540,183.593750
541,183.593750
542,183.593750
543,183.593750
544,183.593750
545,179.687500
546,179.687500
547,179.687500
548,179.687500
549,179.687500
550,179.687500
551,175.781250
552,175.781250
553,175.781250
554,175.781250
555,171.875000
556,171.875000
557,171.875000
558,167.968750
559,167.968750
560,167.968750
561,167.968750
562,164.062500
563,164.062500
564,164.062500
565,160.156250
566,160.156250
567,156.250000
568,156.250000
569,156.250000
570,152.343750
571,152.343750
572,148.437500
573,148.437500
574,144.531250
575,144.531250
576,140.625000
577,140.625000
578,136.718750
579,136.718750
580,132.812500
581,132.812500
582,128.906250
583,125.000000
584,125.000000
585,121.093750
586,121.093750
587,117.187500
588,113.281250
589,113.281250
590,109.375000
591,105.468750
592,105.468750
593,101.562500
594,97.656250
595,97.656250
596,93.750000
597,89.843750
598,85.937500
599,85.937500
600,82.031250
601,78.125000
602,74.218750
603,70.312500
604,66.406250
605,66.406250
606,62.500000
607,58.593750
608,54.687500
609,50.781250
610,46.875000
611,42.968750
612,39.062500
613,35.156250
614,31.250000
615,27.343750
616,23.437500
617,19.531250
618,15.625000
619,15.625000
620,7.812500
621,3.906250
622,0.000000
623,-3.906250
624,-7.812500
625,-11.718750
626,-15.625000
627,-19.531250
628,-23.437500
629,-27.343750
630,-31.250000
631,-35.156250
632,-39.062500
633,-42.968750
634,-46.875000
635,-50.781250
636,-58.593750
637,-62.500000
638,-66.406250
639,-70.312500
640,-74.218750
641,-78.125000
642,-82.031250
643,-89.843750
644,-93.750000
645,-97.656250
646,-101.562500
647,-105.468750
648,-109.375000
649,-113.281250
650,-117.187500
651,-121.093750
652,-128.906250
653,-128.906250
654,-136.718750
655,-140.625000
656,-140.625000
657,-144.531250
658,-152.343750
659,-156.250000
660,-160.156250
661,-164.062500
662,-167.968750
663,-171.875000
664,-175.781250
665,-179.687500
666,-183.593750
667,-187.500000
668,-191.406250
669,-195.312500
670,-199.218750
671,-203.125000
672,-207.031250
673,-210.937500
674,-214.843750
675,-218.750000
676,-222.656250
677,-226.562500
678,-230.468750
679,-234.375000
680,-238.281250
681,-242.187500
682,-242.187500
683,-246.093750
684,-250.000000
685,-253.906250
686,-257.812500
687,-257.812500
688,-261.718750
689,-265.625000
690,-269.531250
691,-273.437500
692,-273.437500
693,-277.343750
694,-281.250000
695,-281.250000
696,-285.156250
697,-289.062500
698,-289.062500
699,-292.968750
700,-296.875000
701,-296.875000
702,-300.781250
703,-304.687500
704,-304.687500
705,-304.687500
706,-308.593750
707,-312.500000
708,-312.500000
709,-316.406250
710,-316.406250
711,-316.406250
712,-320.312500
713,-320.312500
714,-324.218750
715,-324.218750
716,-324.218750
717,-328.125000
718,-328.125000
719,-328.125000
720,-328.125000
721,-332.031250
722,-332.031250
723,-332.031250
724,-335.937500
725,-335.937500
726,-335.937500
727,-335.937500
728,-335.937500
729,-335.937500
730,-339.843750
731,-339.843750
732,-339.843750
733,-339.843750
734,-339.843750
735,-339.843750
736,-339.843750
737,-339.843750
738,-339.843750
739,-339.843750
740,-339.843750
741,-339.843750
742,-335.937500
743,-339.843750
744,-335.937500
745,-335.937500
746,-335.937500
747,-335.937500
748,-335.937500
749,-332.031250
750,-332.031250
751,-332.031250
752,-332.031250
753,-328.125000
754,-328.125000
755,-328.125000
756,-324.218750
757,-324.218750
758,-324.218750
759,-320.312500
760,-320.312500
761,-316.406250
762,-316.406250
763,-316.406250
764,-316.406250
765,-312.500000
766,-308.593750
767,-308.593750
768,-304.687500
769,-304.687500
770,-300.781250
771,-296.875000
772,-296.875000
773,-292.968750
774,-292.968750
775,-289.062500
776,-285.156250
777,-281.250000
778,-281.250000
779,-277.343750
780,-273.437500
781,-273.437500
782,-269.531250
783,-265.625000
784,-261.718750
785,-257.812500
786,-257.812500
787,-253.906250
788,-250.000000
789,-246.093750
790,-246.093750
791,-242.187500
792,-238.281250
793,-234.375000
794,-230.468750
795,-226.562500
796,-218.750000
797,-218.750000
798,-214.843750
799,-210.937500
800,-207.031250
801,-203.125000
802,-199.218750
803,-195.312500
804,-191.406250
805,-187.500000
806,-183.593750
807,-179.687500
808,-175.781250
809,-171.875000
810,-167.968750
811,-164.062500
812,-160.156250
813,-156.250000
814,-152.343750
815,-144.531250
816,-144.531250
817,-136.718750
818,-132.812500
819,-128.906250
820,-125.000000
821,-121.093750
822,-117.187500
823,-113.281250
824,-109.375000
825,-101.562500
826,-97.656250
827,-93.750000
828,-89.843750
829,-85.937500
830,-82.031250
831,-78.125000
832,-74.218750
833,-70.312500
834,-62.500000
835,-58.593750
836,-54.687500
837,-50.781250
838,-46.875000
839,-42.968750
840,-39.062500
841,-35.156250
842,-31.250000
843,-23.437500
844,-23.437500
845,-19.531250
846,-11.718750
847,-7.812500
848,-7.812500
849,0.000000
850,3.906250
851,7.812500
852,11.718750
853,15.625000
854,19.531250
855,23.437500
856,27.343750
857,31.250000
858,35.156250
859,39.062500
860,39.062500
861,42.968750
862,46.875000
863,50.781250
864,54.687500
865,58.593750
866,62.500000
867,66.406250
868,66.406250
869,70.312500
870,74.218750
871,78.125000
872,82.031250
873,85.937500
874,85.937500
875,89.843750
876,93.750000
877,97.656250
878,101.562500
879,101.562500
880,105.468750
881,109.375000
882,109.375000
883,113.281250
884,117.187500
885,117.187500
886,121.093750
887,125.000000
888,125.000000
889,128.906250
890,128.906250
891,132.812500
892,132.812500
893,136.718750
894,136.718750
895,140.625000
896,144.531250
897,144.531250
898,148.437500
899,148.437500
900,148.437500
901,152.343750
902,152.343750
903,156.250000
904,156.250000
905,160.156250
906,160.156250
907,160.156250
908,164.062500
909,164.062500
910,167.968750
911,167.968750
912,167.968750
913,167.968750
914,171.875000
915,171.875000
916,171.875000
917,171.875000
918,175.781250
919,175.781250
920,175.781250
921,175.781250
922,179.687500
923,179.687500
924,179.687500
925,179.687500
926,183.593750
927,183.593750
928,183.593750
929,183.593750
930,183.593750
931,183.593750
932,183.593750
933,183.593750
934,187.500000
935,187.500000
936,187.500000
937,187.500000
938,187.500000
939,187.500000
940,187.500000
941,187.500000
942,187.500000
943,187.500000
944,187.500000
945,187.500000
946,187.500000
947,187.500000
948,187.500000
949,187.500000
950,187.500000
951,187.500000
952,187.500000
953,187.500000
954,183.593750
955,183.593750
956,183.593750
957,183.593750
958,183.593750
959,183.593750
960,183.593750
961,183.593750
962,179.687500
963,179.687500
964,179.687500
965,179.687500
966,179.687500
967,175.781250
968,175.781250
969,175.781250
970,175.781250
971,171.875000
972,171.875000
973,171.875000
974,171.875000
975,171.875000
976,167.968750
977,167.968750
978,167.968750
979,164.062500
980,164.062500
981,164.062500
982,160.156250
983,160.156250
984,156.250000
985,156.250000
986,156.250000
987,152.343750
988,152.343750
989,152.343750
990,148.437500
991,144.531250
992,144.531250
993,140.625000
994,140.625000
995,136.718750
996,136.718750
997,132.812500
998,128.906250
999,128.906250
1000,128.906250
1001,125.000000
1002,125.000000
1003,121.093750
1004,117.187500
1005,113.281250
1006,113.281250
1007,109.375000
1008,105.468750
1009,105.468750
1010,101.562500
1011,97.656250
1012,93.750000
1013,89.843750
1014,89.843750
1015,85.937500
1016,82.031250
1017,78.125000
1018,74.218750
1019,74.218750
1020,70.312500
1021,66.406250
1022,62.500000
1023,58.593750
1024,54.687500
1025,54.687500
1026,50.781250
1027,46.875000
1028,42.968750
1029,39.062500
1030,35.156250
1031,31.250000
1032,27.343750
1033,23.437500
1034,19.531250
1035,15.625000
1036,11.718750
1037,7.812500
1038,3.906250
1039,0.000000
1040,-3.906250
1041,-7.812500
1042,-11.718750
1043,-15.625000
1044,-19.531250
1045,-23.437500
1046,-27.343750
1047,-31.250000
1048,-39.062500
1049,-39.062500
1050,-42.968750
1051,-46.875000
1052,-54.687500
1053,-58.593750
1054,-62.500000
1055,-66.406250
1056,-70.312500
1057,-74.218750
1058,-78.125000
1059,-85.937500
1060,-85.937500
1061,-89.843750
1062,-97.656250
1063,-101.562500
1064,-105.468750
1065,-109.375000
1066,-113.281250
1067,-117.187500
1068,-121.093750
1069,-128.906250
1070,-132.812500
1071,-132.812500
1072,-140.625000
1073,-144.531250
1074,-148.437500
1075,-152.343750
1076,-156.250000
1077,-160.156250
1078,-164.062500
1079,-167.968750
1080,-171.875000
1081,-175.781250
1082,-179.687500
1083,-187.500000
1084,-187.500000
1085,-191.406250
1086,-195.312500
1087,-199.218750
1088,-203.125000
1089,-207.031250
1090,-210.937500
1091,-214.843750
1092,-218.750000
1093,-222.656250
1094,-226.562500
1095,-230.468750
1096,-234.375000
1097,-238.281250
1098,-242.187500
1099,-246.093750
1100,-246.093750
1101,-250.000000
1102,-253.906250
1103,-257.812500
1104,-261.718750
1105,-265.625000
1106,-265.625000
1107,-269.531250
1108,-273.437500
1109,-273.437500
1110,-277.343750
1111,-281.250000
1112,-285.156250
1113,-285.156250
1114,-289.062500
1115,-292.968750
1116,-292.968750
1117,-296.875000
1118,-296.875000
1119,-300.781250
1120,-304.687500
1121,-304.687500
1122,-308.593750
1123,-308.593750
1124,-312.500000
1125,-312.500000
1126,-316.406250
1127,-316.406250
1128,-320.312500
1129,-320.312500
1130,-324.218750
1131,-324.218750
1132,-324.218750
1133,-324.218750
1134,-328.125000
1135,-328.125000
1136,-328.125000
1137,-332.031250
1138,-332.031250
1139,-332.031250
1140,-335.937500
1141,-335.937500
1142,-335.937500
1143,-335.937500
1144,-335.937500
1145,-335.937500
1146,-335.937500
1147,-339.843750
1148,-339.843750
1149,-339.843750
1150,-339.843750
1151,-339.843750
1152,-339.843750
1153,-339.843750
1154,-339.843750
1155,-339.843750
1156,-339.843750
1157,-339.843750
1158,-339.843750
1159,-339.843750
1160,-335.937500
1161,-335.937500
1162,-335.937500
1163,-335.937500
1164,-335.937500
1165,-335.937500
1166,-332.031250
1167,-332.031250
1168,-332.031250
1169,-332.031250
1170,-328.125000
1171,-328.125000
1172,-328.125000
1173,-324.218750
1174,-324.218750
1175,-324.218750
1176,-320.312500
1177,-320.312500
1178,-316.406250
1179,-316.406250
1180,-316.406250
1181,-312.500000
1182,-312.500000
1183,-308.593750
1184,-304.687500
1185,-304.687500
1186,-300.781250
1187,-300.781250
1188,-296.875000
1189,-296.875000
1190,-292.968750
1191,-289.062500
1192,-289.062500
1193,-285.156250
1194,-285.156250
1195,-281.250000
1196,-277.343750
1197,-273.437500
1198,-273.437500
1199,-269.531250
1200,-265.625000
1201,-261.718750
1202,-261.718750
1203,-257.812500
1204,-253.906250
1205,-250.000000
1206,-246.093750
1207,-242.187500
1208,-242.187500
1209,-238.281250
1210,-234.375000
1211,-230.468750
1212,-226.562500
1213,-222.656250
1214,-218.750000
1215,-214.843750
1216,-210.937500
1217,-207.031250
1218,-203.125000
1219,-199.218750
1220,-195.312500
1221,-191.406250
1222,-187.500000
1223,-183.593750
1224,-179.687500
1225,-175.781250
1226,-171.875000
1227,-167.968750
1228,-164.062500
1229,-160.156250
1230,-156.250000
1231,-152.343750
1232,-144.531250
1233,-140.625000
1234,-136.718750
1235,-132.812500
1236,-128.906250
1237,-125.000000
1238,-121.093750
1239,-117.187500
1240,-113.281250
1241,-109.375000
1242,-101.562500
1243,-97.656250
1244,-93.750000
1245,-89.843750
1246,-85.937500
1247,-78.125000
1248,-78.125000
1249,-70.312500
1250,-66.406250
1251,-62.500000
1252,-58.593750
1253,-54.687500
1254,-50.781250
1255,-46.875000
1256,-42.968750
1257,-39.062500
1258,-35.156250
1259,-27.343750
1260,-23.437500
1261,-19.531250
1262,-15.625000
1263,-11.718750
1264,-7.812500
1265,-7.812500
1266,0.000000
1267,3.906250
1268,7.812500
1269,11.718750
1270,15.625000
1271,19.531250
1272,23.437500
1273,27.343750
1274,31.250000
1275,35.156250
1276,35.156250
1277,42.968750
1278,42.968750
1279,46.875000
1280,50.781250
1281,54.687500
1282,58.593750
1283,62.500000
1284,62.500000
1285,70.312500
1286,70.312500
1287,74.218750
1288,78.125000
1289,82.031250
1290,85.937500
1291,89.843750
1292,89.843750
1293,93.750000
1294,97.656250
1295,101.562500
1296,101.562500
1297,105.468750
1298,109.375000
1299,109.375000
1300,113.281250
1301,117.187500
1302,117.187500
1303,121.093750
1304,125.000000
1305,125.000000
1306,128.906250
1307,128.906250
1308,132.812500
1309,132.812500
1310,136.718750
1311,140.625000
1312,140.625000
1313,144.531250
1314,144.531250
1315,148.437500
1316,148.437500
1317,148.437500
1318,152.343750
1319,156.250000
1320,156.250000
1321,156.250000
1322,160.156250
1323,160.156250
1324,160.156250
1325,164.062500
1326,164.062500
1327,167.968750
1328,167.968750
1329,167.968750
1330,167.968750
1331,171.875000
1332,171.875000
1333,171.875000
1334,175.781250
1335,175.781250
1336,175.781250
1337,175.781250
1338,179.687500
1339,179.687500
1340,179.687500
1341,179.687500
1342,179.687500
1343,179.687500
1344,183.593750
1345,183.593750
1346,183.593750
1347,183.593750
1348,183.593750
1349,183.593750
1350,183.593750
1351,187.500000
1352,187.500000
1353,187.500000
1354,187.500000
1355,183.593750
1356,187.500000
1357,187.500000
1358,187.500000
1359,187.500000
1360,187.500000
1361,187.500000
1362,187.500000
1363,187.500000
1364,187.500000
1365,187.500000
1366,183.593750
1367,187.500000
1368,187.500000
1369,187.500000
1370,183.593750
1371,187.500000
1372,187.500000
1373,183.593750
1374,183.593750
1375,183.593750
1376,183.593750
1377,183.593750
1378,183.593750
1379,183.593750
1380,179.687500
1381,179.687500
1382,179.687500
1383,179.687500
1384,179.687500
1385,175.781250
1386,175.781250
1387,175.781250
1388,175.781250
1389,171.875000
1390,171.875000
1391,171.875000
1392,167.968750
1393,167.968750
1394,167.968750
1395,167.968750
1396,164.062500
1397,164.062500
1398,164.062500
1399,164.062500
1400,160.156250
1401,156.250000
1402,156.250000
1403,156.250000
1404,152.343750
1405,152.343750
1406,148.437500
1407,148.437500
1408,148.437500
1409,144.531250
1410,140.625000
1411,140.625000
1412,136.718750
1413,136.718750
1414,132.812500
1415,132.812500
1416,128.906250
1417,125.000000
1418,125.000000
1419,121.093750
1420,121.093750
1421,117.187500
1422,113.281250
1423,113.281250
1424,109.375000
1425,105.468750
1426,105.468750
1427,101.562500
1428,97.656250
1429,93.750000
1430,93.750000
1431,89.843750
1432,85.937500
1433,82.031250
1434,78.125000
1435,78.125000
1436,74.218750
1437,70.312500
1438,66.406250
1439,62.500000
1440,58.593750
1441,54.687500
1442,50.781250
1443,50.781250
1444,46.875000
1445,42.968750
1446,39.062500
1447,35.156250
1448,31.250000
1449,27.343750
1450,23.437500
1451,19.531250
1452,15.625000
1453,11.718750
1454,7.812500
1455,3.906250
1456,0.000000
1457,-3.906250
1458,-7.812500
1459,-11.718750
1460,-15.625000
1461,-19.531250
1462,-23.437500
1463,-27.343750
1464,-31.250000
1465,-35.156250
1466,-39.062500
1467,-42.968750
1468,-50.781250
1469,-54.687500
1470,-58.593750
1471,-62.500000
1472,-66.406250
1473,-70.312500
1474,-74.218750
1475,-78.125000
1476,-85.937500
1477,-85.937500
1478,-93.750000
1479,-97.656250
1480,-101.562500
1481,-105.468750
1482,-109.375000
1483,-113.281250
1484,-117.187500
1485,-121.093750
1486,-125.000000
1487,-136.718750
1488,-136.718750
1489,-140.625000
1490,-144.531250
1491,-148.437500
1492,-152.343750
1493,-156.250000
1494,-160.156250
1495,-164.062500
1496,-167.968750
1497,-171.875000
1498,-175.781250
1499,-179.687500
1500,-183.593750
1501,-187.500000
1502,-191.406250
1503,-195.312500
1504,-199.218750
1505,-203.125000
1506,-207.031250
1507,-210.937500
1508,-214.843750
1509,-218.750000
1510,-222.656250
1511,-226.562500
1512,-230.468750
1513,-234.375000
1514,-238.281250
1515,-238.281250
1516,-242.187500
1517,-250.000000
1518,-250.000000
1519,-253.906250
1520,-257.812500
1521,-261.718750
1522,-261.718750
1523,-265.625000
1524,-269.531250
1525,-273.437500
1526,-277.343750
1527,-277.343750
1528,-281.250000
1529,-281.250000
1530,-285.156250
1531,-289.062500
1532,-289.062500
1533,-292.968750
1534,-296.875000
1535,-296.875000
1536,-300.781250
1537,-304.687500
1538,-304.687500
1539,-308.593750
1540,-308.593750
1541,-308.593750
1542,-312.500000
1543,-316.406250
1544,-316.406250
1545,-316.406250
1546,-320.312500
1547,-320.312500
1548,-324.218750
1549,-324.218750
1550,-324.218750
1551,-328.125000
1552,-328.125000
1553,-328.125000
1554,-332.031250
1555,-332.031250
1556,-332.031250
1557,-332.031250
1558,-335.937500
1559,-335.937500
1560,-335.937500
1561,-335.937500
1562,-335.937500
1563,-335.937500
1564,-335.937500
1565,-335.937500
1566,-339.843750
1567,-335.937500
1568,-339.843750
1569,-339.843750
1570,-339.843750
1571,-339.843750
1572,-339.843750
1573,-335.937500
1574,-339.843750
1575,-339.843750
1576,-335.937500
1577,-335.937500
1578,-335.937500
1579,-335.937500
1580,-335.937500
1581,-332.031250
1582,-332.031250
1583,-332.031250
1584,-332.031250
1585,-332.031250
1586,-328.125000
1587,-328.125000
1588,-328.125000
1589,-324.218750
1590,-324.218750
1591,-324.218750
1592,-320.312500
1593,-320.312500
1594,-320.312500
1595,-316.406250
1596,-316.406250
1597,-312.500000
1598,-312.500000
1599,-308.593750
1600,-308.593750
1601,-304.687500
1602,-304.687500
1603,-300.781250
1604,-300.781250
1605,-296.875000
1606,-292.968750
1607,-292.968750
1608,-289.062500
1609,-285.156250
1610,-285.156250
1611,-281.250000
1612,-277.343750
1613,-277.343750
1614,-273.437500
1615,-269.531250
1616,-265.625000
1617,-265.625000
1618,-261.718750
1619,-257.812500
1620,-257.812500
1621,-253.906250
1622,-250.000000
1623,-246.093750
1624,-242.187500
1625,-242.187500
1626,-234.375000
1627,-230.468750
1628,-226.562500
1629,-226.562500
1630,-222.656250
1631,-218.750000
1632,-214.843750
1633,-210.937500
1634,-207.031250
1635,-203.125000
1636,-199.218750
1637,-195.312500
1638,-191.406250
1639,-187.500000
1640,-183.593750
1641,-179.687500
1642,-175.781250
1643,-167.968750
1644,-167.968750
1645,-160.156250
1646,-156.250000
1647,-156.250000
1648,-148.437500
1649,-144.531250
1650,-140.625000
1651,-136.718750
1652,-132.812500
1653,-128.906250
1654,-125.000000
1655,-121.093750
1656,-113.281250
1657,-109.375000
1658,-105.468750
1659,-101.562500
1660,-97.656250
1661,-93.750000
1662,-89.843750
1663,-85.937500
1664,-78.125000
1665,-74.218750
1666,-70.312500
1667,-66.406250
1668,-62.500000
1669,-58.593750
1670,-54.687500
1671,-50.781250
1672,-42.968750
1673,-42.968750
1674,-35.156250
1675,-31.250000
1676,-27.343750
1677,-23.437500
1678,-19.531250
1679,-15.625000
1680,-11.718750
1681,-7.812500
1682,-3.906250
1683,0.000000
1684,3.906250
1685,7.812500
1686,11.718750
1687,15.625000
1688,19.531250
1689,23.437500
1690,27.343750
1691,31.250000
1692,35.156250
1693,39.062500
1694,42.968750
1695,46.875000
1696,50.781250
1697,54.687500
1698,58.593750
1699,62.500000
1700,62.500000
1701,66.406250
1702,70.312500
1703,74.218750
1704,78.125000
1705,78.125000
1706,82.031250
1707,85.937500
1708,89.843750
1709,93.750000
1710,93.750000
1711,97.656250
1712,101.562500
1713,101.562500
1714,105.468750
1715,109.375000
1716,113.281250
1717,113.281250
1718,117.187500
1719,117.187500
1720,121.093750
1721,125.000000
1722,128.906250
1723,128.906250
1724,132.812500
1725,132.812500
1726,132.812500
1727,136.718750
1728,140.625000
1729,140.625000
1730,144.531250
1731,144.531250
1732,148.437500
1733,148.437500
1734,152.343750
1735,152.343750
1736,156.250000
1737,156.250000
1738,156.250000
1739,156.250000
1740,160.156250
1741,160.156250
1742,164.062500
1743,164.062500
1744,167.968750
1745,167.968750
1746,167.968750
1747,167.968750
1748,171.875000
1749,171.875000
1750,171.875000
1751,175.781250
1752,175.781250
1753,175.781250
1754,175.781250
1755,179.687500
1756,179.687500
1757,179.687500
1758,179.687500
1759,183.593750
1760,183.593750
1761,183.593750
1762,183.593750
1763,183.593750
1764,183.593750
1765,183.593750
1766,187.500000
1767,187.500000
1768,183.593750
1769,187.500000
1770,187.500000
1771,187.500000
1772,187.500000
1773,187.500000
1774,187.500000
1775,187.500000
1776,187.500000
1777,187.500000
1778,187.500000
1779,187.500000
1780,187.500000
1781,187.500000
1782,187.500000
1783,187.500000
1784,187.500000
1785,187.500000
1786,187.500000
1787,183.593750
1788,187.500000
1789,183.593750
1790,183.593750
1791,183.593750
1792,183.593750
1793,183.593750
1794,183.593750
1795,183.593750
1796,179.687500
1797,179.687500
1798,179.687500
1799,179.687500
1800,179.687500
1801,175.781250
1802,175.781250
1803,179.687500
1804,171.875000
1805,171.875000
1806,171.875000
1807,171.875000
1808,171.875000
1809,167.968750
1810,167.968750
1811,167.968750
1812,164.062500
1813,164.062500
1814,164.062500
1815,160.156250
1816,160.156250
1817,160.156250
1818,156.250000
1819,156.250000
1820,152.343750
1821,152.343750
1822,148.437500
1823,148.437500
1824,148.437500
1825,144.531250
1826,144.531250
1827,140.625000
1828,136.718750
1829,136.718750
1830,136.718750
1831,132.812500
1832,128.906250
1833,128.906250
1834,125.000000
1835,125.000000
1836,121.093750
1837,117.187500
1838,117.187500
1839,113.281250
1840,113.281250
1841,109.375000
1842,105.468750
1843,101.562500
1844,97.656250
1845,97.656250
1846,93.750000
1847,89.843750
1848,89.843750
1849,85.937500
1850,82.031250
1851,78.125000
1852,74.218750
1853,74.218750
1854,70.312500
1855,66.406250
1856,62.500000
1857,58.593750
1858,54.687500
1859,50.781250
1860,46.875000
1861,42.968750
1862,39.062500
1863,35.156250
1864,35.156250
1865,31.250000
1866,27.343750
1867,23.437500
1868,19.531250
1869,15.625000
1870,11.718750
1871,7.812500
1872,3.906250
1873,0.000000
1874,-3.906250
1875,-7.812500
1876,-15.625000
1877,-19.531250
1878,-19.531250
1879,-27.343750
1880,-31.250000
1881,-35.156250
1882,-39.062500
1883,-42.968750
1884,-46.875000
1885,-50.781250
1886,-54.687500
1887,-58.593750
1888,-62.500000
1889,-66.406250
1890,-74.218750
1891,-78.125000
1892,-82.031250
1893,-85.937500
1894,-89.843750
1895,-93.750000
1896,-97.656250
1897,-101.562500
1898,-105.468750
1899,-109.375000
1900,-117.187500
1901,-121.093750
1902,-125.000000
1903,-128.906250
1904,-132.812500
1905,-136.718750
1906,-140.625000
1907,-144.531250
1908,-148.437500
1909,-152.343750
1910,-156.250000
1911,-164.062500
1912,-167.968750
1913,-171.875000
1914,-175.781250
1915,-179.687500
1916,-183.593750
1917,-187.500000
1918,-191.406250
1919,-195.312500
1920,-199.218750
1921,-203.125000
1922,-207.031250
1923,-210.937500
1924,-214.843750
1925,-218.750000
1926,-222.656250
1927,-222.656250
1928,-226.562500
1929,-230.468750
1930,-234.375000
1931,-238.281250
1932,-242.187500
1933,-246.093750
1934,-246.093750
1935,-250.000000
1936,-257.812500
1937,-257.812500
1938,-261.718750
1939,-265.625000
1940,-269.531250
1941,-269.531250
1942,-273.437500
1943,-277.343750
1944,-281.250000
1945,-281.250000
1946,-285.156250
1947,-289.062500
1948,-289.062500
1949,-292.968750
1950,-296.875000
1951,-296.875000
1952,-300.781250
1953,-300.781250
1954,-304.687500
1955,-304.687500
1956,-308.593750
1957,-308.593750
1958,-312.500000
1959,-312.500000
1960,-316.406250
1961,-316.406250
1962,-316.406250
1963,-320.312500
1964,-320.312500
1965,-324.218750
1966,-324.218750
1967,-328.125000
1968,-328.125000
1969,-328.125000
1970,-332.031250
1971,-332.031250
1972,-332.031250
1973,-332.031250
1974,-332.031250
1975,-335.937500
1976,-335.937500
1977,-335.937500
1978,-335.937500
1979,-335.937500
1980,-339.843750
1981,-339.843750
1982,-339.843750
1983,-339.843750
1984,-339.843750
1985,-339.843750
1986,-339.843750
1987,-339.843750
1988,-339.843750
1989,-339.843750
1990,-339.843750
1991,-339.843750
1992,-339.843750
1993,-335.937500
1994,-335.937500
1995,-335.937500
1996,-335.937500
1997,-335.937500
1998,-335.937500
1999,-335.937500
2000,-332.031250
2001,-332.031250
2002,-332.031250
2003,-332.031250
2004,-328.125000
2005,-328.125000
2006,-328.125000
2007,-324.218750
2008,-324.218750
2009,-320.312500
2010,-320.312500
2011,-320.312500
2012,-316.406250
2013,-316.406250
2014,-312.500000
2015,-312.500000
2016,-312.500000
2017,-308.593750
2018,-304.687500
2019,-304.687500
2020,-300.781250
2021,-300.781250
2022,-296.875000
2023,-292.968750
2024,-292.968750
2025,-289.062500
2026,-285.156250
2027,-285.156250
2028,-281.250000
2029,-281.250000
2030,-277.343750
2031,-273.437500
2032,-269.531250
2033,-265.625000
2034,-265.625000
2035,-261.718750
2036,-257.812500
2037,-253.906250
2038,-250.000000
2039,-250.000000
2040,-246.093750
2041,-242.187500
2042,-238.281250
2043,-234.375000
2044,-230.468750
2045,-226.562500
2046,-222.656250
2047,-218.750000
2048,-214.843750
2049,-214.843750
2050,-210.937500
2051,-203.125000
2052,-203.125000
2053,-199.218750
2054,-195.312500
2055,-191.406250
2056,-187.500000
2057,-183.593750
2058,-175.781250
2059,-171.875000
2060,-171.875000
2061,-164.062500
2062,-160.156250
2063,-160.156250
2064,-152.343750
2065,-148.437500
2066,-144.531250
2067,-140.625000
2068,-136.718750
2069,-132.812500
2070,-125.000000
2071,-121.093750
2072,-117.187500
2073,-113.281250
2074,-109.375000
2075,-105.468750
2076,-101.562500
2077,-97.656250
2078,-93.750000
2079,-85.937500
2080,-82.031250
2081,-78.125000
2082,-74.218750
2083,-70.312500
2084,-66.406250
2085,-62.500000
2086,-54.687500
2087,-54.687500
2088,-46.875000
2089,-42.968750
2090,-39.062500
2091,-35.156250
2092,-31.250000
2093,-27.343750
2094,-23.437500
2095,-19.531250
2096,-15.625000
2097,-11.718750
2098,-7.812500
2099,-3.906250
2100,0.000000
2101,3.906250
2102,7.812500
2103,11.718750
2104,15.625000
2105,19.531250
2106,23.437500
2107,27.343750
2108,31.250000
2109,35.156250
2110,39.062500
2111,42.968750
2112,46.875000
2113,50.781250
2114,54.687500
2115,58.593750
2116,62.500000
2117,62.500000
2118,66.406250
2119,70.312500
2120,74.218750
2121,78.125000
2122,82.031250
2123,82.031250
2124,85.937500
2125,89.843750
2126,93.750000
2127,93.750000
2128,97.656250
2129,101.562500
2130,101.562500
2131,105.468750
2132,109.375000
2133,113.281250
2134,113.281250
2135,117.187500
2136,121.093750
2137,125.000000
2138,125.000000
2139,125.000000
2140,128.906250
2141,132.812500
2142,132.812500
2143,136.718750
2144,136.718750
2145,140.625000
2146,140.625000
2147,144.531250
2148,144.531250
2149,148.437500
2150,148.437500
2151,152.343750
2152,152.343750
2153,156.250000
2154,156.250000
2155,156.250000
2156,160.156250
2157,160.156250
2158,164.062500
2159,164.062500
2160,164.062500
2161,167.968750
2162,167.968750
2163,167.968750
2164,171.875000
2165,171.875000
2166,171.875000
2167,171.875000
2168,175.781250
2169,175.781250
2170,175.781250
2171,179.687500
2172,179.687500
2173,179.687500
2174,179.687500
2175,179.687500
2176,179.687500
2177,183.593750
2178,183.593750
2179,183.593750
2180,183.593750
2181,183.593750
2182,183.593750
2183,183.593750
2184,183.593750
2185,187.500000
2186,187.500000
2187,187.500000
2188,187.500000
2189,187.500000
2190,187.500000
2191,187.500000
2192,187.500000
2193,187.500000
2194,187.500000
2195,187.500000
2196,187.500000
2197,187.500000
2198,187.500000
2199,187.500000
2200,187.500000
2201,187.500000
2202,187.500000
2203,183.593750
2204,183.593750
2205,187.500000
2206,183.593750
2207,183.593750
2208,183.593750
2209,183.593750
2210,183.593750
2211,183.593750
2212,179.687500
2213,179.687500
2214,179.687500
2215,179.687500
2216,179.687500
2217,175.781250
2218,175.781250
2219,175.781250
2220,175.781250
2221,175.781250
2222,171.875000
2223,171.875000
2224,171.875000
2225,171.875000
2226,167.968750
2227,167.968750
2228,167.968750
2229,164.062500
2230,164.062500
2231,164.062500
2232,160.156250
2233,160.156250
2234,156.250000
2235,156.250000
2236,156.250000
2237,152.343750
2238,152.343750
2239,148.437500
2240,148.437500
2241,144.531250
2242,144.531250
2243,140.625000
2244,140.625000
2245,136.718750
2246,136.718750
2247,132.812500
2248,132.812500
2249,128.906250
2250,128.906250
2251,125.000000
2252,121.093750
2253,121.093750
2254,117.187500
2255,113.281250
2256,113.281250
2257,109.375000
2258,109.375000
2259,105.468750
2260,101.562500
2261,97.656250
2262,97.656250
2263,93.750000
2264,89.843750
2265,85.937500
2266,82.031250
2267,82.031250
2268,78.125000
2269,74.218750
2270,70.312500
2271,66.406250
2272,66.406250
2273,62.500000
2274,58.593750
2275,54.687500
2276,50.781250
2277,46.875000
2278,42.968750
2279,39.062500
2280,35.156250
2281,31.250000
2282,27.343750
2283,27.343750
2284,23.437500
2285,19.531250
2286,15.625000
2287,11.718750
2288,7.812500
2289,3.906250
2290,0.000000
2291,-7.812500
2292,-11.718750
2293,-15.625000
2294,-19.531250
2295,-23.437500
2296,-27.343750
2297,-31.250000
2298,-35.156250
2299,-39.062500
2300,-42.968750
2301,-46.875000
2302,-50.781250
2303,-54.687500
2304,-62.500000
2305,-62.500000
2306,-70.312500
2307,-74.218750
2308,-78.125000
2309,-82.031250
2310,-85.937500
2311,-89.843750
2312,-93.750000
2313,-97.656250
2314,-105.468750
2315,-109.375000
2316,-113.281250
2317,-117.187500
2318,-121.093750
2319,-125.000000
2320,-128.906250
2321,-132.812500
2322,-136.718750
2323,-144.531250
2324,-144.531250
2325,-152.343750
2326,-156.250000
2327,-160.156250
2328,-164.062500
2329,-167.968750
2330,-171.875000
2331,-175.781250
2332,-179.687500
2333,-183.593750
2334,-187.500000
2335,-191.406250
2336,-195.312500
2337,-199.218750
2338,-203.125000
2339,-207.031250
2340,-210.937500
2341,-214.843750
2342,-218.750000
2343,-222.656250
2344,-222.656250
2345,-230.468750
2346,-234.375000
2347,-238.281250
2348,-238.281250
2349,-242.187500
2350,-246.093750
2351,-250.000000
2352,-253.906250
2353,-257.812500
2354,-257.812500
2355,-261.718750
2356,-265.625000
2357,-269.531250
2358,-269.531250
2359,-273.437500
2360,-277.343750
2361,-277.343750
2362,-285.156250
2363,-285.156250
2364,-289.062500
2365,-289.062500
2366,-292.968750
2367,-292.968750
2368,-296.875000
2369,-300.781250
2370,-300.781250
2371,-304.687500
2372,-304.687500
2373,-308.593750
2374,-312.500000
2375,-312.500000
2376,-312.500000
2377,-316.406250
2378,-320.312500
2379,-320.312500
2380,-320.312500
2381,-324.218750
2382,-324.218750
2383,-328.125000
2384,-328.125000
2385,-328.125000
2386,-328.125000
2387,-335.937500
2388,-332.031250
2389,-332.031250
2390,-332.031250
2391,-332.031250
2392,-335.937500
2393,-335.937500
2394,-335.937500
2395,-335.937500
2396,-335.937500
2397,-335.937500
2398,-339.843750
2399,-339.843750
2400,-339.843750
2401,-339.843750
2402,-339.843750
2403,-339.843750
2404,-339.843750
2405,-339.843750
2406,-339.843750
2407,-339.843750
2408,-339.843750
2409,-335.937500
2410,-339.843750
2411,-335.937500
2412,-335.937500
2413,-335.937500
2414,-335.937500
2415,-335.937500
2416,-335.937500
2417,-332.031250
2418,-332.031250
2419,-332.031250
2420,-328.125000
2421,-328.125000
2422,-328.125000
2423,-324.218750
2424,-324.218750
2425,-324.218750
2426,-324.218750
2427,-320.312500
2428,-320.312500
2429,-316.406250
2430,-316.406250
2431,-312.500000
2432,-312.500000
2433,-308.593750
2434,-308.593750
2435,-304.687500
2436,-300.781250
2437,-300.781250
2438,-300.781250
2439,-292.968750
2440,-292.968750
2441,-292.968750
2442,-289.062500
2443,-289.062500
2444,-285.156250
2445,-281.250000
2446,-281.250000
2447,-277.343750
2448,-273.437500
2449,-269.531250
2450,-269.531250
2451,-265.625000
2452,-261.718750
2453,-257.812500
2454,-253.906250
2455,-253.906250
2456,-250.000000
2457,-246.093750
2458,-242.187500
2459,-238.281250
2460,-234.375000
2461,-230.468750
2462,-226.562500
2463,-222.656250
2464,-218.750000
2465,-214.843750
2466,-210.937500
2467,-207.031250
2468,-203.125000
2469,-203.125000
2470,-195.312500
2471,-195.312500
2472,-187.500000
2473,-183.593750
2474,-179.687500
2475,-175.781250
2476,-171.875000
2477,-167.968750
2478,-164.062500
2479,-160.156250
2480,-156.250000
2481,-152.343750
2482,-148.437500
2483,-144.531250
2484,-140.625000
2485,-136.718750
2486,-132.812500
2487,-125.000000
2488,-121.093750
2489,-117.187500
2490,-113.281250
2491,-109.375000
2492,-105.468750
2493,-101.562500
2494,-97.656250
2495,-89.843750
2496,-85.937500
2497,-82.031250
2498,-78.125000
2499,-74.218750
2500,-70.312500
2501,-66.406250
2502,-62.500000
2503,-58.593750
2504,-54.687500
2505,-46.875000
2506,-42.968750
2507,-39.062500
2508,-35.156250
2509,-31.250000
2510,-27.343750
2511,-23.437500
2512,-19.531250
2513,-15.625000
2514,-11.718750
2515,-7.812500
2516,-3.906250
2517,0.000000
2518,3.906250
2519,7.812500
2520,11.718750
2521,15.625000
2522,19.531250
2523,23.437500
2524,27.343750
2525,31.250000
2526,35.156250
2527,39.062500
2528,42.968750
2529,46.875000
2530,50.781250
2531,54.687500
2532,58.593750
2533,62.500000
2534,66.406250
2535,66.406250
2536,70.312500
2537,74.218750
2538,78.125000
2539,82.031250
2540,85.937500
2541,85.937500
2542,89.843750
2543,93.750000
2544,97.656250
2545,97.656250
2546,97.656250
2547,105.468750
2548,109.375000
2549,109.375000
2550,109.375000
2551,113.281250
2552,117.187500
2553,121.093750
2554,121.093750
2555,125.000000
2556,125.000000
2557,128.906250
2558,132.812500
2559,132.812500
2560,136.718750
2561,136.718750
2562,140.625000
2563,140.625000
2564,144.531250
2565,144.531250
2566,148.437500
2567,148.437500
2568,152.343750
2569,152.343750
2570,152.343750
2571,156.250000
2572,156.250000
2573,160.156250
2574,160.156250
2575,164.062500
2576,164.062500
2577,164.062500
2578,167.968750
2579,167.968750
2580,167.968750
2581,167.968750
2582,171.875000
2583,171.875000
2584,171.875000
2585,175.781250
2586,175.781250
2587,175.781250
2588,175.781250
2589,179.687500
2590,179.687500
2591,179.687500
2592,179.687500
2593,179.687500
2594,183.593750
2595,183.593750
2596,183.593750
2597,183.593750
2598,183.593750
2599,183.593750
2600,183.593750
2601,187.500000
2602,183.593750
2603,187.500000
2604,187.500000
2605,187.500000
2606,187.500000
2607,187.500000
2608,187.500000
2609,187.500000
2610,187.500000
2611,187.500000
2612,187.500000
2613,187.500000
2614,187.500000
2615,187.500000
2616,187.500000
2617,187.500000
2618,187.500000
2619,187.500000
2620,183.593750
2621,187.500000
2622,183.593750
2623,183.593750
2624,183.593750
2625,183.593750
2626,183.593750
2627,183.593750
2628,179.687500
2629,179.687500
2630,179.687500
2631,179.687500
2632,179.687500
2633,179.687500
2634,175.781250
2635,175.781250
2636,175.781250
2637,175.781250
2638,175.781250
2639,171.875000
2640,171.875000
2641,171.875000
2642,167.968750
2643,167.968750
2644,167.968750
2645,164.062500
2646,164.062500
2647,164.062500
2648,164.062500
2649,160.156250
2650,160.156250
2651,156.250000
2652,156.250000
2653,152.343750
2654,152.343750
2655,152.343750
2656,148.437500
2657,148.437500
2658,144.531250
2659,144.531250
2660,140.625000
2661,140.625000
2662,136.718750
2663,136.718750
2664,132.812500
2665,132.812500
2666,128.906250
2667,128.906250
2668,125.000000
2669,121.093750
2670,121.093750
2671,117.187500
2672,113.281250
2673,113.281250
2674,109.375000
2675,105.468750
2676,101.562500
2677,101.562500
2678,97.656250
2679,93.750000
2680,89.843750
2681,89.843750
2682,85.937500
2683,82.031250
2684,78.125000
2685,78.125000
2686,74.218750
2687,70.312500
2688,66.406250
2689,62.500000
2690,58.593750
2691,58.593750
2692,54.687500
2693,50.781250
2694,46.875000
2695,42.968750
2696,39.062500
2697,35.156250
2698,31.250000
2699,27.343750
2700,23.437500
2701,19.531250
2702,15.625000
2703,11.718750
2704,7.812500
2705,3.906250
2706,0.000000
2707,-3.906250
2708,-7.812500
2709,-11.718750
2710,-15.625000
2711,-19.531250
2712,-23.437500
2713,-31.250000
2714,-31.250000
2715,-35.156250
2716,-39.062500
2717,-46.875000
2718,-50.781250
2719,-54.687500
2720,-58.593750
2721,-62.500000
2722,-66.406250
2723,-70.312500
2724,-74.218750
2725,-78.125000
2726,-82.031250
2727,-85.937500
2728,-93.750000
2729,-93.750000
2730,-101.562500
2731,-105.468750
2732,-109.375000
2733,-113.281250
2734,-117.187500
2735,-121.093750
2736,-125.000000
2737,-128.906250
2738,-136.718750
2739,-140.625000
2740,-144.531250
2741,-148.437500
2742,-152.343750
2743,-152.343750
2744,-160.156250
2745,-164.062500
2746,-167.968750
2747,-171.875000
2748,-175.781250
2749,-179.687500
2750,-183.593750
2751,-187.500000
2752,-191.406250
2753,-195.312500
2754,-199.218750
2755,-203.125000
2756,-207.031250
2757,-210.937500
2758,-214.843750
2759,-218.750000
2760,-222.656250
2761,-226.562500
2762,-230.468750
2763,-234.375000
2764,-238.281250
2765,-238.281250
2766,-246.093750
2767,-246.093750
2768,-250.000000
2769,-253.906250
2770,-257.812500
2771,-261.718750
2772,-261.718750
2773,-265.625000
2774,-269.531250
2775,-273.437500
2776,-273.437500
2777,-277.343750
2778,-277.343750
2779,-285.156250
2780,-285.156250
2781,-289.062500
2782,-292.968750
2783,-292.968750
2784,-296.875000
2785,-296.875000
2786,-300.781250
2787,-300.781250
2788,-304.687500
2789,-304.687500
2790,-308.593750
2791,-312.500000
2792,-312.500000
2793,-316.406250
2794,-316.406250
2795,-316.406250
2796,-320.312500
2797,-320.312500
2798,-324.218750
2799,-324.218750
2800,-324.218750
2801,-328.125000
2802,-328.125000
2803,-328.125000
2804,-332.031250
2805,-332.031250
2806,-332.031250
2807,-332.031250
2808,-335.937500
2809,-335.937500
2810,-335.937500
2811,-335.937500
2812,-335.937500
2813,-335.937500
2814,-335.937500
2815,-339.843750
2816,-339.843750
2817,-339.843750
2818,-339.843750
2819,-343.750000
2820,-339.843750
2821,-339.843750
2822,-339.843750
2823,-339.843750
2824,-339.843750
2825,-339.843750
2826,-339.843750
2827,-339.843750
2828,-335.937500
2829,-335.937500
2830,-339.843750
2831,-335.937500
2832,-335.937500
2833,-335.937500
2834,-332.031250
2835,-332.031250
2836,-332.031250
2837,-328.125000
2838,-328.125000
2839,-328.125000
2840,-328.125000
2841,-324.218750
2842,-324.218750
2843,-320.312500
2844,-320.312500
2845,-320.312500
2846,-316.406250
2847,-316.406250
2848,-312.500000
2849,-312.500000
2850,-308.593750
2851,-308.593750
2852,-304.687500
2853,-304.687500
2854,-300.781250
2855,-296.875000
2856,-296.875000
2857,-292.968750
2858,-292.968750
2859,-289.062500
2860,-285.156250
2861,-285.156250
2862,-281.250000
2863,-277.343750
2864,-273.437500
2865,-273.437500
2866,-269.531250
2867,-265.625000
2868,-261.718750
2869,-261.718750
2870,-257.812500
2871,-253.906250
2872,-250.000000
2873,-250.000000
2874,-246.093750
2875,-242.187500
2876,-238.281250
2877,-234.375000
2878,-230.468750
2879,-226.562500
2880,-226.562500
2881,-218.750000
2882,-214.843750
2883,-210.937500
2884,-207.031250
2885,-203.125000
2886,-199.218750
2887,-195.312500
2888,-191.406250
2889,-187.500000
2890,-183.593750
2891,-179.687500
2892,-175.781250
2893,-171.875000
2894,-167.968750
2895,-164.062500
2896,-160.156250
2897,-156.250000
2898,-152.343750
2899,-148.437500
2900,-144.531250
2901,-140.625000
2902,-132.812500
2903,-128.906250
2904,-125.000000
2905,-121.093750
2906,-117.187500
2907,-113.281250
2908,-105.468750
2909,-101.562500
2910,-101.562500
2911,-93.750000
2912,-89.843750
2913,-85.937500
2914,-82.031250
2915,-78.125000
2916,-74.218750
2917,-70.312500
2918,-62.500000
2919,-62.500000
2920,-54.687500
2921,-50.781250
2922,-46.875000
2923,-42.968750
2924,-39.062500
2925,-35.156250
2926,-31.250000
2927,-27.343750
2928,-23.437500
2929,-15.625000
2930,-11.718750
2931,-7.812500
2932,-3.906250
2933,0.000000
2934,3.906250
2935,7.812500
2936,11.718750
2937,15.625000
2938,19.531250
2939,19.531250
2940,27.343750
2941,27.343750
2942,35.156250
2943,35.156250
2944,42.968750
2945,42.968750
2946,46.875000
2947,50.781250
2948,54.687500
2949,58.593750
2950,62.500000
2951,66.406250
2952,66.406250
2953,70.312500
2954,74.218750
2955,78.125000
2956,82.031250
2957,85.937500
2958,85.937500
2959,89.843750
2960,93.750000
2961,97.656250
2962,97.656250
2963,101.562500
2964,105.468750
2965,105.468750
2966,109.375000
2967,113.281250
2968,117.187500
2969,117.187500
2970,121.093750
2971,121.093750
2972,125.000000
2973,128.906250
2974,128.906250
2975,128.906250
2976,132.812500
2977,136.718750
2978,136.718750
2979,140.625000
2980,144.531250
2981,144.531250
2982,144.531250
2983,148.437500
2984,148.437500
2985,152.343750
2986,152.343750
2987,156.250000
2988,156.250000
2989,156.250000
2990,160.156250
2991,160.156250
2992,160.156250
2993,164.062500
2994,167.968750
2995,167.968750
2996,167.968750
2997,167.968750
2998,171.875000
2999,171.875000
3000,171.875000
3001,175.781250
3002,175.781250
3003,175.781250
3004,179.687500
3005,179.687500
3006,179.687500
3007,179.687500
3008,179.687500
3009,179.687500
3010,183.593750
3011,183.593750
3012,183.593750
3013,183.593750
3014,183.593750
3015,183.593750
3016,183.593750
3017,183.593750
3018,183.593750
3019,187.500000
3020,187.500000
3021,187.500000
3022,187.500000
3023,187.500000
3024,187.500000
3025,187.500000
3026,187.500000
3027,187.500000
3028,187.500000
3029,183.593750
3030,187.500000
3031,187.500000
3032,187.500000
3033,187.500000
3034,187.500000
3035,187.500000
3036,183.593750
3037,187.500000
3038,183.593750
3039,183.593750
3040,183.593750
3041,183.593750
3042,183.593750
3043,183.593750
3044,183.593750
3045,183.593750
3046,179.687500
3047,179.687500
3048,179.687500
3049,179.687500
3050,179.687500
3051,175.781250
3052,175.781250
3053,175.781250
3054,171.875000
3055,175.781250
3056,171.875000
3057,171.875000
3058,171.875000
3059,167.968750
3060,167.968750
3061,167.968750
3062,167.968750
3063,164.062500
3064,164.062500
3065,160.156250
3066,160.156250
3067,160.156250
3068,156.250000
3069,156.250000
3070,156.250000
3071,152.343750
3072,152.343750
3073,148.437500
3074,148.437500
3075,144.531250
3076,144.531250
3077,140.625000
3078,140.625000
3079,140.625000
3080,136.718750
3081,132.812500
3082,128.906250
3083,128.906250
3084,125.000000
3085,125.000000
3086,121.093750
3087,121.093750
3088,117.187500
3089,113.281250
3090,109.375000
3091,109.375000
3092,105.468750
3093,101.562500
3094,101.562500
3095,97.656250
3096,93.750000
3097,93.750000
3098,89.843750
3099,85.937500
3100,82.031250
3101,78.125000
3102,78.125000
3103,74.218750
3104,70.312500
3105,66.406250
3106,62.500000
3107,58.593750
3108,54.687500
3109,54.687500
3110,50.781250
3111,46.875000
3112,42.968750
3113,39.062500
3114,35.156250
3115,31.250000
3116,27.343750
3117,23.437500
3118,19.531250
3119,15.625000
3120,11.718750
3121,7.812500
3122,3.906250
3123,0.000000
3124,-3.906250
3125,-7.812500
3126,-11.718750
3127,-15.625000
3128,-19.531250
3129,-23.437500
3130,-27.343750
3131,-31.250000
3132,-35.156250
3133,-39.062500
3134,-42.968750
3135,-50.781250
3136,-54.687500
3137,-58.593750
3138,-62.500000
3139,-66.406250
3140,-70.312500
3141,-74.218750
3142,-78.125000
3143,-82.031250
3144,-85.937500
3145,-93.750000
3146,-97.656250
3147,-101.562500
3148,-105.468750
3149,-109.375000
3150,-113.281250
3151,-117.187500
3152,-121.093750
3153,-128.906250
3154,-132.812500
3155,-136.718750
3156,-140.625000
3157,-144.531250
3158,-148.437500
3159,-152.343750
3160,-156.250000
3161,-160.156250
3162,-164.062500
3163,-167.968750
3164,-171.875000
3165,-175.781250
3166,-179.687500
3167,-183.593750
3168,-187.500000
3169,-191.406250
3170,-195.312500
3171,-199.218750
3172,-203.125000
3173,-207.031250
3174,-210.937500
3175,-214.843750
3176,-222.656250
3177,-222.656250
3178,-226.562500
3179,-230.468750
3180,-234.375000
3181,-238.281250
3182,-242.187500
3183,-242.187500
3184,-246.093750
3185,-250.000000
3186,-253.906250
3187,-257.812500
3188,-261.718750
3189,-261.718750
3190,-265.625000
3191,-269.531250
3192,-273.437500
3193,-277.343750
3194,-277.343750
3195,-281.250000
3196,-285.156250
3197,-285.156250
3198,-289.062500
3199,-292.968750
3200,-292.968750
3201,-296.875000
3202,-300.781250
3203,-300.781250
3204,-304.687500
3205,-304.687500
3206,-308.593750
3207,-308.593750
3208,-312.500000
3209,-312.500000
3210,-312.500000
3211,-316.406250
3212,-316.406250
3213,-324.218750
3214,-320.312500
3215,-324.218750
3216,-324.218750
3217,-328.125000
3218,-328.125000
3219,-328.125000
3220,-332.031250
3221,-332.031250
3222,-332.031250
3223,-335.937500
3224,-335.937500
3225,-335.937500
3226,-335.937500
3227,-335.937500
3228,-335.937500
3229,-335.937500
3230,-339.843750
3231,-339.843750
3232,-339.843750
3233,-339.843750
3234,-339.843750
3235,-339.843750
3236,-339.843750
3237,-339.843750
3238,-339.843750
3239,-339.843750
3240,-339.843750
3241,-339.843750
3242,-335.937500
3243,-339.843750
3244,-339.843750
3245,-335.937500
3246,-335.937500
3247,-335.937500
3248,-335.937500
3249,-335.937500
3250,-335.937500
3251,-332.031250
3252,-332.031250
3253,-332.031250
3254,-332.031250
3255,-328.125000
3256,-328.125000
3257,-324.218750
3258,-324.218750
3259,-324.218750
3260,-320.312500
3261,-320.312500
3262,-320.312500
3263,-316.406250
3264,-312.500000
3265,-312.500000
3266,-312.500000
3267,-308.593750
3268,-308.593750
3269,-304.687500
3270,-304.687500
3271,-300.781250
3272,-300.781250
3273,-296.875000
3274,-292.968750
3275,-289.062500
3276,-289.062500
3277,-285.156250
3278,-285.156250
3279,-281.250000
3280,-277.343750
3281,-273.437500
3282,-273.437500
3283,-269.531250
3284,-265.625000
3285,-265.625000
3286,-261.718750
3287,-257.812500
3288,-253.906250
3289,-250.000000
3290,-246.093750
3291,-246.093750
3292,-242.187500
3293,-238.281250
3294,-234.375000
3295,-230.468750
3296,-226.562500
3297,-222.656250
3298,-218.750000
3299,-214.843750
3300,-210.937500
3301,-207.031250
3302,-203.125000
3303,-199.218750
3304,-195.312500
3305,-191.406250
3306,-187.500000
3307,-183.593750
3308,-179.687500
3309,-175.781250
3310,-171.875000
3311,-167.968750
3312,-164.062500
3313,-160.156250
3314,-156.250000
3315,-148.437500
3316,-148.437500
3317,-144.531250
3318,-136.718750
3319,-132.812500
3320,-128.906250
3321,-125.000000
3322,-121.093750
3323,-113.281250
3324,-113.281250
3325,-105.468750
3326,-101.562500
3327,-97.656250
3328,-93.750000
3329,-89.843750
3330,-85.937500
3331,-82.031250
3332,-78.125000
3333,-74.218750
3334,-70.312500
3335,-62.500000
3336,-58.593750
3337,-54.687500
3338,-50.781250
3339,-46.875000
3340,-42.968750
3341,-39.062500
3342,-35.156250
3343,-31.250000
3344,-27.343750
3345,-19.531250
3346,-15.625000
3347,-11.718750
3348,-11.718750
3349,-3.906250
3350,0.000000
3351,3.906250
3352,7.812500
3353,11.718750
3354,15.625000
3355,19.531250
3356,23.437500
3357,23.437500
3358,31.250000
3359,35.156250
3360,39.062500
3361,42.968750
3362,42.968750
3363,46.875000
3364,50.781250
3365,54.687500
3366,58.593750
3367,62.500000
3368,66.406250
3369,70.312500
3370,70.312500
3371,74.218750
3372,78.125000
3373,82.031250
3374,85.937500
3375,85.937500
3376,89.843750
3377,93.750000
3378,97.656250
3379,101.562500
3380,101.562500
3381,105.468750
3382,109.375000
3383,109.375000
3384,113.281250
3385,117.187500
3386,117.187500
3387,121.093750
3388,121.093750
3389,125.000000
3390,128.906250
3391,128.906250
3392,132.812500
3393,136.718750
3394,136.718750
3395,140.625000
3396,140.625000
3397,144.531250
3398,144.531250
3399,144.531250
3400,148.437500
3401,148.437500
3402,152.343750
3403,152.343750
3404,156.250000
3405,156.250000
3406,160.156250
3407,160.156250
3408,164.062500
3409,164.062500
3410,164.062500
3411,164.062500
3412,167.968750
3413,167.968750
3414,167.968750
3415,171.875000
3416,171.875000
3417,171.875000
3418,171.875000
3419,175.781250
3420,175.781250
3421,175.781250
3422,175.781250
3423,175.781250
3424,179.687500
3425,179.687500
3426,179.687500
3427,183.593750
3428,183.593750
3429,183.593750
3430,183.593750
3431,183.593750
3432,183.593750
3433,183.593750
3434,183.593750
3435,183.593750
3436,187.500000
3437,187.500000
3438,183.593750
3439,187.500000
3440,187.500000
3441,187.500000
3442,187.500000
3443,187.500000
3444,187.500000
3445,187.500000
3446,187.500000
3447,187.500000
3448,187.500000
3449,187.500000
3450,187.500000
3451,187.500000
3452,187.500000
3453,187.500000
3454,187.500000
3455,183.593750
3456,183.593750
3457,187.500000
3458,183.593750
3459,183.593750
3460,183.593750
3461,183.593750
3462,183.593750
3463,179.687500
3464,179.687500
3465,179.687500
3466,179.687500
3467,179.687500
3468,175.781250
3469,175.781250
3470,175.781250
3471,175.781250
3472,171.875000
3473,171.875000
3474,171.875000
3475,171.875000
3476,167.968750
3477,167.968750
3478,167.968750
3479,164.062500
3480,164.062500
3481,164.062500
3482,160.156250
3483,160.156250
3484,160.156250
3485,156.250000
3486,156.250000
3487,152.343750
3488,152.343750
3489,152.343750
3490,148.437500
3491,148.437500
3492,144.531250
3493,140.625000
3494,140.625000
3495,140.625000
3496,136.718750
3497,136.718750
3498,132.812500
3499,128.906250
3500,128.906250
3501,125.000000
3502,125.000000
3503,121.093750
3504,117.187500
3505,117.187500
3506,113.281250
3507,109.375000
3508,109.375000
3509,105.468750
3510,101.562500
3511,101.562500
3512,97.656250
3513,93.750000
3514,93.750000
3515,85.937500
3516,85.937500
3517,82.031250
3518,78.125000
3519,78.125000
3520,74.218750
3521,70.312500
3522,66.406250
3523,62.500000
3524,58.593750
3525,54.687500
3526,50.781250
3527,50.781250
3528,46.875000
3529,42.968750
3530,39.062500
3531,35.156250
3532,31.250000
3533,27.343750
3534,23.437500
3535,19.531250
3536,15.625000
3537,11.718750
3538,7.812500
3539,3.906250
3540,0.000000
3541,-3.906250
3542,-7.812500
3543,-11.718750
3544,-15.625000
3545,-23.437500
3546,-27.343750
3547,-31.250000
3548,-35.156250
3549,-39.062500
3550,-42.968750
3551,-46.875000
3552,-50.781250
3553,-54.687500
3554,-58.593750
3555,-62.500000
3556,-66.406250
3557,-70.312500
3558,-78.125000
3559,-78.125000
3560,-85.937500
3561,-89.843750
3562,-93.750000
3563,-97.656250
3564,-101.562500
3565,-105.468750
3566,-113.281250
3567,-113.281250
3568,-121.093750
3569,-125.000000
3570,-128.906250
3571,-132.812500
3572,-136.718750
3573,-140.625000
3574,-144.531250
3575,-148.437500
3576,-152.343750
3577,-160.156250
3578,-160.156250
3579,-164.062500
3580,-167.968750
3581,-171.875000
3582,-179.687500
3583,-183.593750
3584,-187.500000
3585,-187.500000
3586,-195.312500
3587,-195.312500
3588,-203.125000
3589,-207.031250
3590,-210.937500
3591,-214.843750
3592,-218.750000
3593,-218.750000
3594,-222.656250
3595,-226.562500
3596,-230.468750
3597,-234.375000
3598,-238.281250
3599,-242.187500
3600,-246.093750
3601,-250.000000
3602,-253.906250
3603,-253.906250
3604,-257.812500
3605,-261.718750
3606,-265.625000
3607,-269.531250
3608,-269.531250
3609,-273.437500
3610,-277.343750
3611,-281.250000
3612,-281.250000
3613,-285.156250
3614,-289.062500
3615,-289.062500
3616,-292.968750
3617,-296.875000
3618,-296.875000
3619,-300.781250
3620,-300.781250
3621,-304.687500
3622,-304.687500
3623,-308.593750
3624,-312.500000
3625,-312.500000
3626,-312.500000
3627,-316.406250
3628,-316.406250
3629,-320.312500
3630,-320.312500
3631,-324.218750
3632,-324.218750
3633,-324.218750
3634,-328.125000
3635,-328.125000
3636,-328.125000
3637,-328.125000
3638,-332.031250
3639,-332.031250
3640,-332.031250
3641,-335.937500
3642,-335.937500
3643,-335.937500
3644,-335.937500
3645,-335.937500
3646,-335.937500
3647,-335.937500
3648,-339.843750
3649,-339.843750
3650,-339.843750
3651,-339.843750
3652,-339.843750
3653,-339.843750
3654,-339.843750
3655,-339.843750
3656,-339.843750
3657,-339.843750
3658,-339.843750
3659,-339.843750
3660,-335.937500
3661,-339.843750
3662,-335.937500
3663,-335.937500
3664,-335.937500
3665,-335.937500
3666,-335.937500
3667,-335.937500
3668,-332.031250
3669,-332.031250
3670,-328.125000
3671,-328.125000
3672,-328.125000
3673,-328.125000
3674,-324.218750
3675,-324.218750
3676,-324.218750
3677,-320.312500
3678,-320.312500
3679,-320.312500
3680,-316.406250
3681,-316.406250
3682,-312.500000
3683,-312.500000
3684,-308.593750
3685,-304.687500
3686,-300.781250
3687,-304.687500
3688,-300.781250
3689,-296.875000
3690,-296.875000
3691,-292.968750
3692,-289.062500
3693,-289.062500
3694,-285.156250
3695,-281.250000
3696,-277.343750
3697,-277.343750
3698,-273.437500
3699,-269.531250
3700,-265.625000
3701,-265.625000
3702,-261.718750
3703,-257.812500
3704,-253.906250
3705,-253.906250
3706,-250.000000
3707,-246.093750
3708,-242.187500
3709,-238.281250
3710,-234.375000
3711,-230.468750
3712,-226.562500
3713,-226.562500
3714,-222.656250
3715,-218.750000
3716,-214.843750
3717,-210.937500
3718,-207.031250
3719,-203.125000
3720,-199.218750
3721,-195.312500
3722,-191.406250
3723,-187.500000
3724,-183.593750
3725,-179.687500
3726,-175.781250
3727,-171.875000
3728,-167.968750
3729,-164.062500
3730,-160.156250
3731,-156.250000
3732,-148.437500
3733,-144.531250
3734,-140.625000
3735,-136.718750
3736,-132.812500
3737,-128.906250
3738,-125.000000
3739,-117.187500
3740,-117.187500
3741,-109.375000
3742,-105.468750
3743,-101.562500
3744,-97.656250
3745,-93.750000
3746,-89.843750
3747,-85.937500
3748,-82.031250
3749,-74.218750
3750,-70.312500
3751,-66.406250
3752,-62.500000
3753,-54.687500
3754,-54.687500
3755,-50.781250
3756,-46.875000
3757,-39.062500
3758,-35.156250
3759,-31.250000
3760,-27.343750
3761,-23.437500
3762,-19.531250
3763,-15.625000
3764,-11.718750
3765,-7.812500
3766,-3.906250
3767,0.000000
3768,7.812500
3769,7.812500
3770,11.718750
3771,15.625000
3772,19.531250
3773,23.437500
3774,27.343750
3775,31.250000
3776,35.156250
3777,39.062500
3778,42.968750
3779,46.875000
3780,50.781250
3781,54.687500
3782,58.593750
3783,58.593750
3784,62.500000
3785,66.406250
3786,70.312500
3787,74.218750
3788,78.125000
3789,78.125000
3790,82.031250
3791,85.937500
3792,89.843750
3793,89.843750
3794,97.656250
3795,97.656250
3796,101.562500
3797,101.562500
3798,105.468750
3799,109.375000
3800,113.281250
3801,113.281250
3802,117.187500
3803,117.187500
3804,121.093750
3805,125.000000
3806,125.000000
3807,128.906250
3808,132.812500
3809,132.812500
3810,136.718750
3811,136.718750
3812,140.625000
3813,140.625000
3814,144.531250
3815,144.531250
3816,148.437500
3817,148.437500
3818,152.343750
3819,152.343750
3820,152.343750
3821,156.250000
3822,156.250000
3823,160.156250
3824,160.156250
3825,160.156250
3826,164.062500
3827,164.062500
3828,164.062500
3829,167.968750
3830,167.968750
3831,167.968750
3832,171.875000
3833,171.875000
3834,171.875000
3835,171.875000
3836,175.781250
3837,175.781250
3838,175.781250
3839,179.687500
3840,179.687500
3841,179.687500
3842,179.687500
3843,183.593750
3844,183.593750
3845,183.593750
3846,183.593750
3847,183.593750
3848,183.593750
3849,183.593750
3850,183.593750
3851,187.500000
3852,183.593750
3853,187.500000
3854,187.500000
3855,183.593750
3856,187.500000
3857,187.500000
3858,187.500000
3859,187.500000
3860,187.500000
3861,187.500000
3862,187.500000
3863,187.500000
3864,187.500000
3865,187.500000
3866,187.500000
3867,187.500000
3868,187.500000
3869,187.500000
3870,187.500000
3871,187.500000
3872,183.593750
3873,183.593750
3874,183.593750
3875,183.593750
3876,183.593750
3877,183.593750
3878,183.593750
3879,183.593750
3880,183.593750
3881,179.687500
3882,179.687500
3883,179.687500
3884,179.687500
3885,179.687500
3886,175.781250
3887,175.781250
3888,175.781250
3889,175.781250
3890,175.781250
3891,171.875000
3892,167.968750
3893,167.968750
3894,167.968750
3895,167.968750
3896,164.062500
3897,164.062500
3898,164.062500
3899,160.156250
3900,160.156250
3901,156.250000
3902,156.250000
3903,156.250000
3904,152.343750
3905,152.343750
3906,152.343750
3907,148.437500
3908,144.531250
3909,144.531250
3910,144.531250
3911,140.625000
3912,140.625000
3913,136.718750
3914,136.718750
3915,132.812500
3916,128.906250
3917,128.906250
3918,125.000000
3919,125.000000
3920,121.093750
3921,117.187500
3922,117.187500
3923,113.281250
3924,109.375000
3925,105.468750
3926,105.468750
3927,101.562500
3928,97.656250
3929,93.750000
3930,93.750000
3931,89.843750
3932,85.937500
3933,85.937500
3934,82.031250
3935,78.125000
3936,74.218750
3937,70.312500
3938,70.312500
3939,66.406250
3940,62.500000
3941,58.593750
3942,54.687500
3943,50.781250
3944,46.875000
3945,39.062500
3946,39.062500
3947,35.156250
3948,35.156250
3949,31.250000
3950,27.343750
3951,23.437500
3952,19.531250
3953,15.625000
3954,11.718750
3955,7.812500
3956,3.906250
3957,0.000000
3958,-3.906250
3959,-7.812500
3960,-11.718750
3961,-19.531250
3962,-23.437500
3963,-27.343750
3964,-31.250000
3965,-35.156250
3966,-39.062500
3967,-42.968750
3968,-46.875000
3969,-50.781250
3970,-54.687500
3971,-58.593750
3972,-66.406250
3973,-70.312500
3974,-74.218750
3975,-78.125000
3976,-82.031250
3977,-85.937500
3978,-89.843750
3979,-93.750000
3980,-97.656250
3981,-101.562500
3982,-109.375000
3983,-109.375000
3984,-117.187500
3985,-121.093750
3986,-125.000000
3987,-128.906250
3988,-132.812500
3989,-140.625000
3990,-140.625000
3991,-148.437500
3992,-152.343750
3993,-156.250000
3994,-156.250000
3995,-164.062500
3996,-167.968750
3997,-171.875000
3998,-175.781250
3999,-179.687500
4000,-183.593750
4001,-187.500000
4002,-191.406250
4003,-195.312500
4004,-199.218750
4005,-203.125000
4006,-207.031250
4007,-210.937500
4008,-214.843750
4009,-218.750000
4010,-222.656250
4011,-222.656250
4012,-230.468750
4013,-234.375000
4014,-238.281250
4015,-238.281250
4016,-242.187500
4017,-246.093750
4018,-250.000000
4019,-253.906250
4020,-253.906250
4021,-261.718750
4022,-261.718750
4023,-265.625000
4024,-269.531250
4025,-269.531250
4026,-273.437500
4027,-277.343750
4028,-281.250000
4029,-281.250000
4030,-285.156250
4031,-289.062500
4032,-289.062500
4033,-292.968750
4034,-296.875000
4035,-296.875000
4036,-300.781250
4037,-300.781250
4038,-304.687500
4039,-304.687500
4040,-308.593750
4041,-312.500000
4042,-312.500000
4043,-312.500000
4044,-316.406250
4045,-316.406250
4046,-320.312500
4047,-320.312500
4048,-324.218750
4049,-324.218750
4050,-324.218750
4051,-328.125000
4052,-328.125000
4053,-328.125000
4054,-332.031250
4055,-332.031250
4056,-332.031250
4057,-332.031250
4058,-332.031250
4059,-335.937500
4060,-335.937500
4061,-335.937500
4062,-335.937500
4063,-339.843750
4064,-339.843750
4065,-339.843750
4066,-339.843750
4067,-339.843750
4068,-339.843750
4069,-339.843750
4070,-339.843750
4071,-339.843750
4072,-339.843750
4073,-339.843750
4074,-339.843750
4075,-339.843750
4076,-339.843750
4077,-335.937500
4078,-335.937500
4079,-335.937500
4080,-335.937500
4081,-335.937500
4082,-335.937500
4083,-335.937500
4084,-332.031250
4085,-332.031250
4086,-332.031250
4087,-332.031250
4088,-328.125000
4089,-328.125000
4090,-324.218750
4091,-324.218750
4092,-324.218750
4093,-324.218750
4094,-320.312500
4095,-320.312500
4096,-316.406250
4097,-316.406250
4098,-316.406250
4099,-312.500000
4100,-312.500000
4101,-308.593750
4102,-304.687500
4103,-304.687500
4104,-304.687500
4105,-300.781250
4106,-296.875000
4107,-296.875000
4108,-292.968750
4109,-289.062500
4110,-289.062500
4111,-285.156250
4112,-281.250000
4113,-281.250000
4114,-277.343750
4115,-273.437500
4116,-273.437500
4117,-269.531250
4118,-265.625000
4119,-261.718750
4120,-257.812500
4121,-253.906250
4122,-253.906250
4123,-250.000000
4124,-246.093750
4125,-242.187500
4126,-238.281250
4127,-234.375000
4128,-230.468750
4129,-230.468750
4130,-226.562500
4131,-222.656250
4132,-218.750000
4133,-214.843750
4134,-210.937500
4135,-207.031250
4136,-203.125000
4137,-199.218750
4138,-195.312500
4139,-191.406250
4140,-187.500000
4141,-183.593750
4142,-175.781250
4143,-171.875000
4144,-167.968750
4145,-164.062500
4146,-160.156250
4147,-156.250000
4148,-152.343750
4149,-148.437500
4150,-144.531250
4151,-140.625000
4152,-136.718750
4153,-132.812500
4154,-125.000000
4155,-121.093750
4156,-117.187500
4157,-113.281250
4158,-109.375000
4159,-105.468750
4160,-101.562500
4161,-97.656250
4162,-93.750000
4163,-85.937500
4164,-82.031250
4165,-78.125000
4166,-74.218750
4167,-70.312500
4168,-66.406250
4169,-62.500000
4170,-58.593750
4171,-54.687500
4172,-50.781250
4173,-42.968750
4174,-39.062500
4175,-35.156250
4176,-31.250000
4177,-27.343750
4178,-23.437500
4179,-19.531250
4180,-15.625000
4181,-11.718750
4182,-7.812500
4183,-3.906250
4184,0.000000
4185,3.906250
4186,7.812500
4187,11.718750
4188,15.625000
4189,19.531250
4190,23.437500
4191,27.343750
4192,31.250000
4193,35.156250
4194,39.062500
4195,42.968750
4196,46.875000
4197,50.781250
4198,54.687500
4199,58.593750
4200,58.593750
4201,62.500000
4202,66.406250
4203,70.312500
4204,74.218750
4205,78.125000
4206,78.125000
4207,82.031250
4208,85.937500
4209,89.843750
4210,93.750000
4211,93.750000
4212,97.656250
4213,101.562500
4214,105.468750
4215,105.468750
4216,109.375000
4217,113.281250
4218,113.281250
4219,117.187500
4220,121.093750
4221,121.093750
4222,125.000000
4223,128.906250
4224,128.906250
4225,132.812500
4226,132.812500
4227,136.718750
4228,136.718750
4229,140.625000
4230,140.625000
4231,148.437500
4232,144.531250
4233,148.437500
4234,148.437500
4235,152.343750
4236,152.343750
4237,152.343750
4238,156.250000
4239,160.156250
4240,160.156250
4241,160.156250
4242,164.062500
4243,164.062500
4244,164.062500
4245,167.968750
4246,167.968750
4247,167.968750
4248,171.875000
4249,171.875000
4250,171.875000
4251,171.875000
4252,175.781250
4253,175.781250
4254,175.781250
4255,175.781250
4256,179.687500
4257,179.687500
4258,179.687500
4259,179.687500
4260,179.687500
4261,179.687500
4262,183.593750
4263,183.593750
4264,183.593750
4265,183.593750
4266,183.593750
4267,183.593750
4268,187.500000
4269,183.593750
4270,183.593750
4271,187.500000
4272,187.500000
4273,187.500000
4274,187.500000
4275,187.500000
4276,187.500000
4277,187.500000
4278,187.500000
4279,187.500000
4280,187.500000
4281,187.500000
4282,187.500000
4283,187.500000
4284,187.500000
4285,187.500000
4286,187.500000
4287,187.500000
4288,183.593750
4289,187.500000
4290,183.593750
4291,183.593750
4292,183.593750
4293,183.593750
4294,183.593750
4295,183.593750
4296,183.593750
4297,179.687500
4298,179.687500
4299,179.687500
4300,179.687500
4301,179.687500
4302,175.781250
4303,175.781250
4304,175.781250
4305,175.781250
4306,171.875000
4307,171.875000
4308,171.875000
4309,171.875000
4310,167.968750
4311,167.968750
4312,167.968750
4313,164.062500
4314,164.062500
4315,164.062500
4316,160.156250
4317,160.156250
4318,156.250000
4319,156.250000
4320,156.250000
4321,152.343750
4322,152.343750
4323,148.437500
4324,148.437500
4325,144.531250
4326,144.531250
4327,140.625000
4328,140.625000
4329,140.625000
4330,136.718750
4331,132.812500
4332,132.812500
4333,128.906250
4334,128.906250
4335,125.000000
4336,121.093750
4337,121.093750
4338,117.187500
4339,113.281250
4340,113.281250
4341,109.375000
4342,109.375000
4343,105.468750
4344,101.562500
4345,97.656250
4346,97.656250
4347,93.750000
4348,89.843750
4349,89.843750
4350,82.031250
4351,82.031250
4352,78.125000
4353,74.218750
4354,70.312500
4355,66.406250
4356,66.406250
4357,62.500000
4358,58.593750
4359,54.687500
4360,50.781250
4361,46.875000
4362,42.968750
4363,39.062500
4364,35.156250
4365,31.250000
4366,27.343750
4367,27.343750
4368,19.531250
4369,15.625000
4370,11.718750
4371,11.718750
4372,7.812500
4373,0.000000
4374,-3.906250
4375,-7.812500
4376,-11.718750
4377,-11.718750
4378,-19.531250
4379,-23.437500
4380,-27.343750
4381,-31.250000
4382,-35.156250
4383,-39.062500
4384,-42.968750
4385,-46.875000
4386,-54.687500
4387,-58.593750
4388,-62.500000
4389,-66.406250
4390,-70.312500
4391,-74.218750
4392,-78.125000
4393,-82.031250
4394,-85.937500
4395,-89.843750
4396,-97.656250
4397,-101.562500
4398,-105.468750
4399,-109.375000
4400,-113.281250
4401,-117.187500
4402,-121.093750
4403,-125.000000
4404,-128.906250
4405,-132.812500
4406,-140.625000
4407,-144.531250
4408,-148.437500
4409,-152.343750
4410,-156.250000
4411,-160.156250
4412,-164.062500
4413,-167.968750
4414,-171.875000
4415,-175.781250
4416,-179.687500
4417,-183.593750
4418,-187.500000
4419,-191.406250
4420,-195.312500
4421,-199.218750
4422,-203.125000
4423,-207.031250
4424,-210.937500
4425,-214.843750
4426,-218.750000
4427,-222.656250
4428,-226.562500
4429,-230.468750
4430,-234.375000
4431,-238.281250
4432,-242.187500
4433,-246.093750
4434,-246.093750
4435,-250.000000
4436,-253.906250
4437,-257.812500
4438,-261.718750
4439,-261.718750
4440,-265.625000
4441,-269.531250
4442,-273.437500
4443,-273.437500
4444,-277.343750
4445,-281.250000
4446,-285.156250
4447,-285.156250
4448,-289.062500
4449,-289.062500
4450,-292.968750
4451,-296.875000
4452,-296.875000
4453,-300.781250
4454,-304.687500
4455,-304.687500
4456,-304.687500
4457,-308.593750
4458,-308.593750
4459,-312.500000
4460,-316.406250
4461,-316.406250
4462,-316.406250
4463,-320.312500
4464,-320.312500
4465,-324.218750
4466,-324.218750
4467,-324.218750
4468,-328.125000
4469,-328.125000
4470,-328.125000
4471,-332.031250
4472,-332.031250
4473,-332.031250
4474,-332.031250
4475,-335.937500
4476,-335.937500
4477,-335.937500
4478,-335.937500
4479,-335.937500
4480,-335.937500
4481,-339.843750
4482,-335.937500
4483,-339.843750
4484,-339.843750
4485,-339.843750
4486,-339.843750
4487,-339.843750
4488,-339.843750
4489,-339.843750
4490,-339.843750
4491,-339.843750
4492,-339.843750
4493,-335.937500
4494,-335.937500
4495,-335.937500
4496,-335.937500
4497,-335.937500
4498,-335.937500
4499,-335.937500
4500,-332.031250
4501,-332.031250
4502,-332.031250
4503,-332.031250
4504,-328.125000
4505,-328.125000
4506,-328.125000
4507,-328.125000
4508,-324.218750
4509,-324.218750
4510,-324.218750
4511,-320.312500
4512,-320.312500
4513,-316.406250
4514,-316.406250
4515,-312.500000
4516,-312.500000
4517,-308.593750
4518,-308.593750
4519,-304.687500
4520,-304.687500
4521,-300.781250
4522,-300.781250
4523,-296.875000
4524,-292.968750
4525,-292.968750
4526,-289.062500
4527,-285.156250
4528,-285.156250
4529,-281.250000
4530,-277.343750
4531,-277.343750
4532,-273.437500
4533,-269.531250
4534,-269.531250
4535,-265.625000
4536,-261.718750
4537,-257.812500
4538,-253.906250
4539,-250.000000
4540,-246.093750
4541,-246.093750
4542,-242.187500
4543,-238.281250
4544,-234.375000
4545,-230.468750
4546,-226.562500
4547,-222.656250
4548,-218.750000
4549,-214.843750
4550,-210.937500
4551,-207.031250
4552,-207.031250
4553,-199.218750
4554,-195.312500
4555,-191.406250
4556,-187.500000
4557,-187.500000
4558,-179.687500
4559,-175.781250
4560,-171.875000
4561,-167.968750
4562,-164.062500
4563,-160.156250
4564,-156.250000
4565,-152.343750
4566,-148.437500
4567,-144.531250
4568,-140.625000
4569,-136.718750
4570,-132.812500
4571,-125.000000
4572,-121.093750
4573,-117.187500
4574,-113.281250
4575,-109.375000
4576,-105.468750
4577,-101.562500
4578,-97.656250
4579,-89.843750
4580,-85.937500
4581,-82.031250
4582,-78.125000
4583,-74.218750
4584,-70.312500
4585,-66.406250
4586,-58.593750
4587,-54.687500
4588,-54.687500
4589,-46.875000
4590,-42.968750
4591,-39.062500
4592,-35.156250
4593,-31.250000
4594,-27.343750
4595,-23.437500
4596,-19.531250
4597,-15.625000
4598,-11.718750
4599,-7.812500
4600,-3.906250
4601,0.000000
4602,3.906250
4603,7.812500
4604,15.625000
4605,15.625000
4606,23.437500
4607,23.437500
4608,27.343750
4609,35.156250
4610,35.156250
4611,39.062500
4612,42.968750
4613,46.875000
4614,50.781250
4615,54.687500
4616,58.593750
4617,62.500000
4618,62.500000
4619,66.406250
4620,70.312500
4621,74.218750
4622,78.125000
4623,82.031250
4624,82.031250
4625,85.937500
4626,89.843750
4627,93.750000
4628,93.750000
4629,97.656250
4630,101.562500
4631,105.468750
4632,105.468750
4633,109.375000
4634,113.281250
4635,113.281250
4636,117.187500
4637,121.093750
4638,121.093750
4639,125.000000
4640,128.906250
4641,128.906250
4642,132.812500
4643,132.812500
4644,136.718750
4645,140.625000
4646,140.625000
4647,144.531250
4648,144.531250
4649,144.531250
4650,148.437500
4651,148.437500
4652,152.343750
4653,152.343750
4654,156.250000
4655,156.250000
4656,160.156250
4657,160.156250
4658,160.156250
4659,164.062500
4660,164.062500
4661,164.062500
4662,167.968750
4663,167.968750
4664,167.968750
4665,171.875000
4666,171.875000
4667,171.875000
4668,175.781250
4669,175.781250
4670,175.781250
4671,175.781250
4672,179.687500
4673,179.687500
4674,179.687500
4675,179.687500
4676,179.687500
4677,183.593750
4678,183.593750
4679,183.593750
4680,183.593750
4681,183.593750
4682,183.593750
4683,183.593750
4684,187.500000
4685,183.593750
4686,187.500000
4687,187.500000
4688,187.500000
4689,187.500000
4690,187.500000
4691,183.593750
4692,187.500000
4693,187.500000
4694,187.500000
4695,187.500000
4696,187.500000
4697,187.500000
4698,187.500000
4699,187.500000
4700,187.500000
4701,187.500000
4702,187.500000
4703,187.500000
4704,187.500000
4705,183.593750
4706,183.593750
4707,183.593750
4708,183.593750
4709,183.593750
4710,183.593750
4711,183.593750
4712,183.593750
4713,183.593750
4714,183.593750
4715,179.687500
4716,179.687500
4717,179.687500
4718,175.781250
4719,175.781250
4720,175.781250
4721,175.781250
4722,175.781250
4723,171.875000
4724,171.875000
4725,171.875000
4726,171.875000
4727,167.968750
4728,171.875000
4729,164.062500
4730,164.062500
4731,164.062500
4732,164.062500
4733,160.156250
4734,160.156250
4735,156.250000
4736,156.250000
4737,156.250000
4738,152.343750
4739,152.343750
4740,148.437500
4741,148.437500
4742,144.531250
4743,144.531250
4744,140.625000
4745,140.625000
4746,136.718750
4747,136.718750
4748,132.812500
4749,132.812500
4750,128.906250
4751,125.000000
4752,125.000000
4753,121.093750
4754,121.093750
4755,117.187500
4756,113.281250
4757,113.281250
4758,109.375000
4759,105.468750
4760,105.468750
4761,101.562500
4762,97.656250
4763,93.750000
4764,89.843750
4765,89.843750
4766,85.937500
4767,82.031250
4768,78.125000
4769,78.125000
4770,74.218750
4771,70.312500
4772,70.312500
4773,62.500000
4774,58.593750
4775,58.593750
4776,54.687500
4777,50.781250
4778,46.875000
4779,42.968750
4780,39.062500
4781,35.156250
4782,31.250000
4783,27.343750
4784,23.437500
4785,19.531250
4786,15.625000
4787,11.718750
4788,7.812500
4789,3.906250
4790,0.000000
4791,-3.906250
4792,-7.812500
4793,-11.718750
4794,-15.625000
4795,-19.531250
4796,-23.437500
4797,-27.343750
4798,-31.250000
4799,-35.156250
4800,-39.062500
4801,-46.875000
4802,-50.781250
4803,-54.687500
4804,-58.593750
4805,-62.500000
4806,-66.406250
4807,-70.312500
4808,-74.218750
4809,-78.125000
4810,-82.031250
4811,-89.843750
4812,-93.750000
4813,-97.656250
4814,-101.562500
4815,-105.468750
4816,-109.375000
4817,-113.281250
4818,-121.093750
4819,-121.093750
4820,-128.906250
4821,-132.812500
4822,-136.718750
4823,-140.625000
4824,-144.531250
4825,-148.437500
4826,-152.343750
4827,-156.250000
4828,-160.156250
4829,-164.062500
4830,-167.968750
4831,-175.781250
4832,-175.781250
4833,-183.593750
4834,-187.500000
4835,-191.406250
4836,-195.312500
4837,-195.312500
4838,-203.125000
4839,-207.031250
4840,-207.031250
4841,-210.937500
4842,-214.843750
4843,-222.656250
4844,-222.656250
4845,-226.562500
4846,-230.468750
4847,-234.375000
4848,-238.281250
4849,-242.187500
4850,-246.093750
4851,-246.093750
4852,-250.000000
4853,-253.906250
4854,-257.812500
4855,-261.718750
4856,-265.625000
4857,-265.625000
4858,-269.531250
4859,-273.437500
4860,-273.437500
4861,-277.343750
4862,-281.250000
4863,-285.156250
4864,-285.156250
4865,-289.062500
4866,-292.968750
4867,-292.968750
4868,-296.875000
4869,-300.781250
4870,-300.781250
4871,-304.687500
4872,-304.687500
4873,-308.593750
4874,-308.593750
4875,-312.500000
4876,-312.500000
4877,-316.406250
4878,-316.406250
4879,-320.312500
4880,-320.312500
4881,-324.218750
4882,-324.218750
4883,-324.218750
4884,-324.218750
4885,-328.125000
4886,-328.125000
4887,-332.031250
4888,-332.031250
4889,-332.031250
4890,-335.937500
4891,-335.937500
4892,-335.937500
4893,-335.937500
4894,-335.937500
4895,-339.843750
4896,-339.843750
4897,-339.843750
4898,-339.843750
4899,-339.843750
4900,-339.843750
4901,-339.843750
4902,-339.843750
4903,-339.843750
4904,-339.843750
4905,-339.843750
4906,-339.843750
4907,-339.843750
4908,-339.843750
4909,-339.843750
4910,-335.937500
4911,-339.843750
4912,-339.843750
4913,-335.937500
4914,-335.937500
4915,-335.937500
4916,-335.937500
4917,-332.031250
4918,-332.031250
4919,-332.031250
4920,-332.031250
4921,-328.125000
4922,-328.125000
4923,-328.125000
4924,-328.125000
4925,-324.218750
4926,-324.218750
4927,-324.218750
4928,-320.312500
4929,-320.312500
4930,-316.406250
4931,-316.406250
4932,-312.500000
4933,-312.500000
4934,-308.593750
4935,-308.593750
4936,-304.687500
4937,-304.687500
4938,-300.781250
4939,-300.781250
4940,-296.875000
4941,-292.968750
4942,-292.968750
4943,-289.062500
4944,-285.156250
4945,-285.156250
4946,-281.250000
4947,-277.343750
4948,-277.343750
4949,-273.437500
4950,-269.531250
4951,-265.625000
4952,-265.625000
4953,-261.718750
4954,-257.812500
4955,-253.906250
4956,-253.906250
4957,-246.093750
4958,-246.093750
4959,-242.187500
4960,-238.281250
4961,-234.375000
4962,-230.468750
4963,-226.562500
4964,-226.562500
4965,-218.750000
4966,-214.843750
4967,-210.937500
4968,-207.031250
4969,-207.031250
4970,-199.218750
4971,-195.312500
4972,-191.406250
4973,-187.500000
4974,-183.593750
4975,-179.687500
4976,-175.781250
4977,-171.875000
4978,-167.968750
4979,-164.062500
4980,-160.156250
4981,-156.250000
4982,-152.343750
4983,-148.437500
4984,-144.531250
4985,-140.625000
4986,-136.718750
4987,-128.906250
4988,-125.000000
4989,-121.093750
4990,-117.187500
4991,-113.281250
4992,-109.375000
4993,-105.468750
4994,-97.656250
4995,-93.750000
4996,-89.843750
4997,-85.937500
4998,-82.031250
4999,-78.125000
5000,-74.218750
5001,-70.312500
5002,-66.406250
5003,-58.593750
5004,-54.687500
5005,-50.781250
5006,-46.875000
5007,-42.968750
5008,-39.062500
5009,-35.156250
5010,-31.250000
5011,-27.343750
5012,-23.437500
5013,-19.531250
5014,-11.718750
5015,-7.812500
5016,-7.812500
5017,0.000000
5018,0.000000
5019,7.812500
5020,11.718750
5021,15.625000
5022,19.531250
5023,19.531250
5024,27.343750
5025,31.250000
5026,35.156250
5027,39.062500
5028,39.062500
5029,46.875000
5030,46.875000
5031,50.781250
5032,54.687500
5033,58.593750
5034,62.500000
5035,66.406250
5036,66.406250
5037,70.312500
5038,74.218750
5039,78.125000
5040,82.031250
5041,85.937500
5042,85.937500
5043,89.843750
5044,93.750000
5045,97.656250
5046,97.656250
5047,101.562500
5048,105.468750
5049,109.375000
5050,109.375000
5051,113.281250
5052,117.187500
5053,117.187500
5054,121.093750
5055,125.000000
5056,125.000000
5057,128.906250
5058,128.906250
5059,132.812500
5060,136.718750
5061,136.718750
5062,136.718750
5063,140.625000
5064,144.531250
5065,144.531250
5066,148.437500
5067,148.437500
5068,152.343750
5069,152.343750
5070,152.343750
5071,156.250000
5072,156.250000
5073,160.156250
5074,160.156250
5075,160.156250
5076,164.062500
5077,164.062500
5078,164.062500
5079,167.968750
5080,167.968750
5081,167.968750
5082,171.875000
5083,171.875000
5084,171.875000
5085,171.875000
5086,175.781250
5087,175.781250
5088,175.781250
5089,175.781250
5090,179.687500
5091,179.687500
5092,179.687500
5093,179.687500
5094,179.687500
5095,183.593750
5096,183.593750
5097,183.593750
5098,183.593750
5099,183.593750
5100,183.593750
5101,183.593750
5102,183.593750
5103,187.500000
5104,187.500000
5105,187.500000
5106,187.500000
5107,187.500000
5108,187.500000
5109,187.500000
5110,187.500000
5111,187.500000
5112,187.500000
5113,187.500000
5114,187.500000
5115,187.500000
5116,187.500000
5117,187.500000
5118,187.500000
5119,187.500000
5120,187.500000
5121,187.500000
5122,187.500000
5123,183.593750
5124,183.593750
5125,183.593750
5126,183.593750
5127,183.593750
5128,183.593750
5129,183.593750
5130,183.593750
5131,179.687500
5132,179.687500
5133,179.687500
5134,179.687500
5135,179.687500
5136,175.781250
5137,175.781250
5138,175.781250
5139,171.875000
5140,171.875000
5141,171.875000
5142,171.875000
5143,167.968750
5144,167.968750
5145,167.968750
5146,167.968750
5147,164.062500
5148,164.062500
5149,160.156250
5150,160.156250
5151,160.156250
5152,156.250000
5153,156.250000
5154,156.250000
5155,152.343750
5156,152.343750
5157,148.437500
5158,144.531250
5159,144.531250
5160,144.531250
5161,140.625000
5162,140.625000
5163,136.718750
5164,136.718750
5165,136.718750
5166,128.906250
5167,128.906250
5168,125.000000
5169,125.000000
5170,121.093750
5171,117.187500
5172,117.187500
5173,113.281250
5174,109.375000
5175,109.375000
5176,105.468750
5177,105.468750
5178,101.562500
5179,97.656250
5180,93.750000
5181,93.750000
5182,89.843750
5183,85.937500
5184,82.031250
5185,78.125000
5186,78.125000
5187,74.218750
5188,70.312500
5189,66.406250
5190,62.500000
5191,58.593750
5192,62.500000
5193,50.781250
5194,50.781250
5195,46.875000
5196,42.968750
5197,39.062500
5198,35.156250
5199,31.250000
5200,27.343750
5201,23.437500
5202,19.531250
5203,15.625000
5204,11.718750
5205,7.812500
5206,3.906250
5207,0.000000
5208,-3.906250
5209,-7.812500
5210,-11.718750
5211,-15.625000
5212,-19.531250
5213,-23.437500
5214,-27.343750
5215,-31.250000
5216,-39.062500
5217,-42.968750
5218,-46.875000
5219,-50.781250
5220,-54.687500
5221,-58.593750
5222,-62.500000
5223,-66.406250
5224,-70.312500
5225,-74.218750
5226,-82.031250
5227,-85.937500
5228,-89.843750
5229,-93.750000
5230,-97.656250
5231,-101.562500
5232,-105.468750
5233,-109.375000
5234,-113.281250
5235,-117.187500
5236,-125.000000
5237,-125.000000
5238,-132.812500
5239,-136.718750
5240,-140.625000
5241,-144.531250
5242,-148.437500
5243,-152.343750
5244,-156.250000
5245,-160.156250
5246,-164.062500
5247,-167.968750
5248,-175.781250
5249,-175.781250
5250,-183.593750
5251,-187.500000
5252,-191.406250
5253,-195.312500
5254,-195.312500
5255,-203.125000
5256,-203.125000
5257,-210.937500
5258,-210.937500
5259,-214.843750
5260,-222.656250
5261,-222.656250
5262,-226.562500
5263,-230.468750
5264,-234.375000
5265,-238.281250
5266,-242.187500
5267,-246.093750
5268,-246.093750
5269,-250.000000
5270,-253.906250
5271,-257.812500
5272,-261.718750
5273,-265.625000
5274,-265.625000
5275,-269.531250
5276,-273.437500
5277,-277.343750
5278,-281.250000
5279,-281.250000
5280,-285.156250
5281,-289.062500
5282,-289.062500
5283,-292.968750
5284,-296.875000
5285,-296.875000
5286,-300.781250
5287,-300.781250
5288,-304.687500
5289,-304.687500
5290,-308.593750
5291,-308.593750
5292,-312.500000
5293,-316.406250
5294,-316.406250
5295,-320.312500
5296,-320.312500
5297,-320.312500
5298,-324.218750
5299,-324.218750
5300,-324.218750
5301,-328.125000
5302,-328.125000
5303,-328.125000
5304,-332.031250
5305,-332.031250
5306,-332.031250
5307,-332.031250
5308,-335.937500
5309,-335.937500
5310,-335.937500
5311,-335.937500
5312,-335.937500
5313,-335.937500
5314,-339.843750
5315,-339.843750
5316,-339.843750
5317,-339.843750
5318,-339.843750
5319,-339.843750
5320,-339.843750
5321,-339.843750
5322,-339.843750
5323,-339.843750
5324,-339.843750
5325,-339.843750
5326,-339.843750
5327,-339.843750
5328,-339.843750
5329,-335.937500
5330,-335.937500
5331,-335.937500
5332,-335.937500
5333,-335.937500
5334,-335.937500
5335,-332.031250
5336,-332.031250
5337,-332.031250
5338,-332.031250
5339,-328.125000
5340,-328.125000
5341,-328.125000
5342,-324.218750
5343,-324.218750
5344,-320.312500
5345,-320.312500
5346,-320.312500
5347,-316.406250
5348,-316.406250
5349,-312.500000
5350,-312.500000
5351,-308.593750
5352,-308.593750
5353,-304.687500
5354,-304.687500
5355,-300.781250
5356,-300.781250
5357,-296.875000
5358,-292.968750
5359,-292.968750
5360,-289.062500
5361,-285.156250
5362,-285.156250
5363,-281.250000
5364,-277.343750
5365,-273.437500
5366,-273.437500
5367,-269.531250
5368,-265.625000
5369,-261.718750
5370,-261.718750
5371,-257.812500
5372,-253.906250
5373,-250.000000
5374,-246.093750
5375,-246.093750
5376,-238.281250
5377,-238.281250
5378,-234.375000
5379,-230.468750
5380,-226.562500
5381,-222.656250
5382,-218.750000
5383,-214.843750
5384,-210.937500
5385,-207.031250
5386,-203.125000
5387,-199.218750
5388,-195.312500
5389,-191.406250
5390,-187.500000
5391,-183.593750
5392,-179.687500
5393,-175.781250
5394,-171.875000
5395,-167.968750
5396,-164.062500
5397,-160.156250
5398,-156.250000
5399,-152.343750
5400,-144.531250
5401,-140.625000
5402,-136.718750
5403,-132.812500
5404,-128.906250
5405,-125.000000
5406,-121.093750
5407,-117.187500
5408,-113.281250
5409,-105.468750
5410,-101.562500
5411,-97.656250
5412,-93.750000
5413,-89.843750
5414,-85.937500
5415,-82.031250
5416,-78.125000
5417,-74.218750
5418,-70.312500
5419,-62.500000
5420,-58.593750
5421,-54.687500
5422,-50.781250
5423,-46.875000
5424,-42.968750
5425,-39.062500
5426,-35.156250
5427,-31.250000
5428,-27.343750
5429,-19.531250
5430,-15.625000
5431,-11.718750
5432,-7.812500
5433,-3.906250
5434,0.000000
5435,3.906250
5436,7.812500
5437,11.718750
5438,15.625000
5439,19.531250
5440,23.437500
5441,27.343750
5442,31.250000
5443,35.156250
5444,39.062500
5445,42.968750
5446,46.875000
5447,46.875000
5448,54.687500
5449,54.687500
5450,58.593750
5451,62.500000
5452,66.406250
5453,70.312500
5454,70.312500
5455,74.218750
5456,78.125000
5457,82.031250
5458,85.937500
5459,89.843750
5460,89.843750
5461,93.750000
5462,97.656250
5463,97.656250
5464,101.562500
5465,105.468750
5466,109.375000
5467,109.375000
5468,113.281250
5469,117.187500
5470,117.187500
5471,121.093750
5472,125.000000
5473,125.000000
5474,128.906250
5475,128.906250
5476,132.812500
5477,132.812500
5478,136.718750
5479,136.718750
5480,140.625000
5481,144.531250
5482,144.531250
5483,148.437500
5484,148.437500
5485,152.343750
5486,152.343750
5487,156.250000
5488,156.250000
5489,156.250000
5490,160.156250
5491,160.156250
5492,160.156250
5493,164.062500
5494,164.062500
5495,167.968750
5496,167.968750
5497,167.968750
5498,171.875000
5499,171.875000
5500,171.875000
5501,171.875000
5502,175.781250
5503,175.781250
5504,175.781250
5505,175.781250
5506,179.687500
5507,179.687500
5508,179.687500
5509,179.687500
5510,179.687500
5511,179.687500
5512,183.593750
5513,183.593750
5514,183.593750
5515,183.593750
5516,183.593750
5517,183.593750
5518,183.593750
5519,187.500000
5520,187.500000
5521,187.500000
5522,187.500000
5523,187.500000
5524,187.500000
5525,187.500000
5526,187.500000
5527,187.500000
5528,187.500000
5529,187.500000
5530,187.500000
5531,187.500000
5532,187.500000
5533,183.593750
5534,187.500000
5535,187.500000
5536,187.500000
5537,183.593750
5538,183.593750
5539,187.500000
5540,183.593750
5541,183.593750
5542,183.593750
5543,183.593750
5544,183.593750
5545,183.593750
5546,179.687500
5547,179.687500
5548,179.687500
5549,179.687500
5550,179.687500
5551,179.687500
5552,175.781250
5553,175.781250
5554,175.781250
5555,175.781250
5556,175.781250
5557,171.875000
5558,171.875000
5559,171.875000
5560,167.968750
5561,167.968750
5562,167.968750
5563,164.062500
5564,164.062500
5565,164.062500
5566,160.156250
5567,160.156250
5568,160.156250
5569,156.250000
5570,156.250000
5571,156.250000
5572,152.343750
5573,152.343750
5574,148.437500
5575,144.531250
5576,144.531250
5577,144.531250
5578,140.625000
5579,140.625000
5580,136.718750
5581,136.718750
5582,132.812500
5583,128.906250
5584,128.906250
5585,125.000000
5586,125.000000
5587,121.093750
5588,117.187500
5589,117.187500
5590,113.281250
5591,109.375000
5592,109.375000
5593,105.468750
5594,101.562500
5595,101.562500
5596,97.656250
5597,93.750000
5598,89.843750
5599,89.843750
5600,85.937500
5601,82.031250
5602,78.125000
5603,74.218750
5604,74.218750
5605,70.312500
5606,66.406250
5607,62.500000
5608,58.593750
5609,54.687500
5610,50.781250
5611,50.781250
5612,42.968750
5613,39.062500
5614,35.156250
5615,35.156250
5616,31.250000
5617,27.343750
5618,23.437500
5619,19.531250
5620,15.625000
5621,11.718750
5622,7.812500
5623,3.906250
5624,0.000000
5625,-3.906250
5626,-7.812500
5627,-15.625000
5628,-15.625000
5629,-19.531250
5630,-23.437500
5631,-31.250000
5632,-35.156250
5633,-39.062500
5634,-42.968750
5635,-46.875000
5636,-50.781250
5637,-54.687500
5638,-58.593750
5639,-62.500000
5640,-70.312500
5641,-74.218750
5642,-78.125000
5643,-82.031250
5644,-85.937500
5645,-89.843750
5646,-93.750000
5647,-97.656250
5648,-101.562500
5649,-105.468750
5650,-113.281250
5651,-113.281250
5652,-121.093750
5653,-125.000000
5654,-128.906250
5655,-132.812500
5656,-136.718750
5657,-140.625000
5658,-144.531250
5659,-148.437500
5660,-152.343750
5661,-160.156250
5662,-164.062500
5663,-167.968750
5664,-171.875000
5665,-175.781250
5666,-179.687500
5667,-183.593750
5668,-187.500000
5669,-191.406250
5670,-195.312500
5671,-199.218750
5672,-203.125000
5673,-207.031250
5674,-210.937500
5675,-214.843750
5676,-218.750000
5677,-222.656250
5678,-226.562500
5679,-230.468750
5680,-234.375000
5681,-234.375000
5682,-238.281250
5683,-242.187500
5684,-246.093750
5685,-250.000000
5686,-253.906250
5687,-257.812500
5688,-257.812500
5689,-261.718750
5690,-265.625000
5691,-269.531250
5692,-269.531250
5693,-273.437500
5694,-277.343750
5695,-277.343750
5696,-281.250000
5697,-285.156250
5698,-289.062500
5699,-289.062500
5700,-292.968750
5701,-296.875000
5702,-296.875000
5703,-300.781250
5704,-300.781250
5705,-304.687500
5706,-304.687500
5707,-308.593750
5708,-308.593750
5709,-312.500000
5710,-312.500000
5711,-316.406250
5712,-316.406250
5713,-320.312500
5714,-320.312500
5715,-324.218750
5716,-324.218750
5717,-324.218750
5718,-328.125000
5719,-328.125000
5720,-328.125000
5721,-332.031250
5722,-332.031250
5723,-332.031250
5724,-335.937500
5725,-335.937500
5726,-335.937500
5727,-335.937500
5728,-335.937500
5729,-335.937500
5730,-339.843750
5731,-339.843750
5732,-339.843750
5733,-339.843750
5734,-339.843750
5735,-339.843750
5736,-339.843750
5737,-339.843750
5738,-339.843750
5739,-339.843750
5740,-339.843750
5741,-339.843750
5742,-339.843750
5743,-339.843750
5744,-339.843750
5745,-335.937500
5746,-335.937500
5747,-335.937500
5748,-335.937500
5749,-335.937500
5750,-335.937500
5751,-332.031250
5752,-332.031250
5753,-332.031250
5754,-332.031250
5755,-332.031250
5756,-328.125000
5757,-328.125000
5758,-324.218750
5759,-324.218750
5760,-324.218750
5761,-320.312500
5762,-320.312500
5763,-320.312500
5764,-316.406250
5765,-316.406250
5766,-312.500000
5767,-308.593750
5768,-308.593750
5769,-304.687500
5770,-304.687500
5771,-304.687500
5772,-300.781250
5773,-296.875000
5774,-296.875000
5775,-292.968750
5776,-289.062500
5777,-289.062500
5778,-285.156250
5779,-281.250000
5780,-281.250000
5781,-277.343750
5782,-273.437500
5783,-273.437500
5784,-269.531250
5785,-265.625000
5786,-261.718750
5787,-257.812500
5788,-253.906250
5789,-253.906250
5790,-250.000000
5791,-246.093750
5792,-242.187500
5793,-238.281250
5794,-234.375000
5795,-234.375000
5796,-230.468750
5797,-222.656250
5798,-222.656250
5799,-218.750000
5800,-214.843750
5801,-210.937500
5802,-207.031250
5803,-203.125000
5804,-199.218750
5805,-195.312500
5806,-191.406250
5807,-187.500000
5808,-183.593750
5809,-179.687500
5810,-175.781250
5811,-171.875000
5812,-167.968750
5813,-160.156250
5814,-156.250000
5815,-152.343750
5816,-148.437500
5817,-144.531250
5818,-140.625000
5819,-136.718750
5820,-128.906250
5821,-128.906250
5822,-125.000000
5823,-121.093750
5824,-113.281250
5825,-109.375000
5826,-105.468750
5827,-101.562500
5828,-97.656250
5829,-93.750000
5830,-85.937500
5831,-82.031250
5832,-78.125000
5833,-74.218750
5834,-70.312500
5835,-66.406250
5836,-62.500000
5837,-58.593750
5838,-54.687500
5839,-50.781250
5840,-42.968750
5841,-39.062500
5842,-35.156250
5843,-31.250000
5844,-27.343750
5845,-23.437500
5846,-19.531250
5847,-15.625000
5848,-11.718750
5849,-7.812500
5850,-3.906250
5851,0.000000
5852,3.906250
5853,7.812500
5854,11.718750
5855,15.625000
5856,19.531250
5857,23.437500
5858,27.343750
5859,31.250000
5860,35.156250
5861,39.062500
5862,42.968750
5863,46.875000
5864,50.781250
5865,54.687500
5866,58.593750
5867,58.593750
5868,62.500000
5869,66.406250
5870,70.312500
5871,74.218750
5872,78.125000
5873,78.125000
5874,82.031250
5875,85.937500
5876,89.843750
5877,89.843750
5878,93.750000
5879,97.656250
5880,101.562500
5881,101.562500
5882,105.468750
5883,109.375000
5884,113.281250
5885,113.281250
5886,117.187500
5887,121.093750
5888,121.093750
5889,125.000000
5890,125.000000
5891,128.906250
5892,132.812500
5893,132.812500
5894,136.718750
5895,136.718750
5896,140.625000
5897,140.625000
5898,144.531250
5899,144.531250
5900,148.437500
5901,148.437500
5902,152.343750
5903,152.343750
5904,156.250000
5905,156.250000
5906,156.250000
5907,160.156250
5908,160.156250
5909,164.062500
5910,164.062500
5911,164.062500
5912,167.968750
5913,167.968750
5914,167.968750
5915,171.875000
5916,171.875000
5917,171.875000
5918,171.875000
5919,171.875000
5920,175.781250
5921,175.781250
5922,175.781250
5923,179.687500
5924,179.687500
5925,179.687500
5926,179.687500
5927,179.687500
5928,179.687500
5929,179.687500
5930,183.593750
5931,183.593750
5932,187.500000
5933,183.593750
5934,183.593750
5935,183.593750
5936,187.500000
5937,187.500000
5938,187.500000
5939,187.500000
5940,187.500000
5941,187.500000
5942,187.500000
5943,187.500000
5944,187.500000
5945,187.500000
5946,187.500000
5947,187.500000
5948,187.500000
5949,187.500000
5950,187.500000
5951,187.500000
5952,187.500000
5953,187.500000
5954,187.500000
5955,187.500000
5956,183.593750
5957,183.593750
5958,183.593750
5959,183.593750
5960,183.593750
5961,183.593750
5962,183.593750
5963,183.593750
5964,179.687500
5965,179.687500
5966,179.687500
5967,179.687500
5968,179.687500
5969,179.687500
5970,175.781250
5971,175.781250
5972,175.781250
5973,175.781250
5974,171.875000
5975,171.875000
5976,171.875000
5977,171.875000
5978,167.968750
5979,167.968750
5980,167.968750
5981,164.062500
5982,164.062500
5983,164.062500
5984,160.156250
5985,160.156250
5986,156.250000
5987,156.250000
5988,152.343750
5989,152.343750
5990,148.437500
5991,148.437500
5992,148.437500
5993,144.531250
5994,144.531250
5995,140.625000
5996,140.625000
5997,136.718750
5998,136.718750
5999,132.812500
6000,128.906250
6001,128.906250
6002,125.000000
6003,125.000000
6004,121.093750
6005,117.187500
6006,113.281250
6007,113.281250
6008,109.375000
6009,109.375000
6010,105.468750
6011,101.562500
6012,97.656250
6013,97.656250
6014,93.750000
6015,89.843750
6016,85.937500
6017,85.937500
6018,82.031250
6019,78.125000
6020,74.218750
6021,74.218750
6022,66.406250
6023,66.406250
6024,62.500000
6025,58.593750
6026,54.687500
6027,50.781250
6028,46.875000
6029,42.968750
6030,42.968750
6031,39.062500
6032,35.156250
6033,27.343750
6034,27.343750
6035,19.531250
6036,19.531250
6037,15.625000
6038,11.718750
6039,3.906250
6040,3.906250
6041,0.000000
6042,-3.906250
6043,-11.718750
6044,-11.718750
6045,-19.531250
6046,-23.437500
6047,-27.343750
6048,-31.250000
6049,-35.156250
6050,-39.062500
6051,-42.968750
6052,-46.875000
6053,-50.781250
6054,-54.687500
6055,-58.593750
6056,-62.500000
6057,-70.312500
6058,-74.218750
6059,-78.125000
6060,-82.031250
6061,-85.937500
6062,-89.843750
6063,-93.750000
6064,-97.656250
6065,-101.562500
6066,-109.375000
6067,-113.281250
6068,-117.187500
6069,-121.093750
6070,-125.000000
6071,-128.906250
6072,-132.812500
6073,-140.625000
6074,-140.625000
6075,-144.531250
6076,-148.437500
6077,-156.250000
6078,-160.156250
6079,-164.062500
6080,-167.968750
6081,-171.875000
6082,-175.781250
6083,-183.593750
6084,-183.593750
6085,-187.500000
6086,-191.406250
6087,-195.312500
6088,-199.218750
6089,-203.125000
6090,-207.031250
6091,-210.937500
6092,-214.843750
6093,-218.750000
6094,-222.656250
6095,-226.562500
6096,-230.468750
6097,-234.375000
6098,-234.375000
6099,-238.281250
6100,-242.187500
6101,-246.093750
6102,-250.000000
6103,-253.906250
6104,-257.812500
6105,-257.812500
6106,-261.718750
6107,-265.625000
6108,-269.531250
6109,-273.437500
6110,-273.437500
6111,-277.343750
6112,-281.250000
6113,-281.250000
6114,-285.156250
6115,-289.062500
6116,-289.062500
6117,-292.968750
6118,-296.875000
6119,-296.875000
6120,-300.781250
6121,-300.781250
6122,-304.687500
6123,-308.593750
6124,-308.593750
6125,-312.500000
6126,-312.500000
6127,-316.406250
6128,-316.406250
6129,-320.312500
6130,-320.312500
6131,-320.312500
6132,-324.218750
6133,-324.218750
6134,-324.218750
6135,-328.125000
6136,-328.125000
6137,-328.125000
6138,-332.031250
6139,-332.031250
6140,-332.031250
6141,-332.031250
6142,-335.937500
6143,-335.937500
6144,-335.937500
6145,-335.937500
6146,-335.937500
6147,-339.843750
6148,-339.843750
6149,-339.843750
6150,-339.843750
6151,-339.843750
6152,-339.843750
6153,-339.843750
6154,-339.843750
6155,-339.843750
6156,-339.843750
6157,-339.843750
6158,-339.843750
6159,-339.843750
6160,-339.843750
6161,-339.843750
6162,-339.843750
6163,-335.937500
6164,-335.937500
6165,-335.937500
6166,-335.937500
6167,-335.937500
6168,-332.031250
6169,-332.031250
6170,-332.031250
6171,-332.031250
6172,-328.125000
6173,-328.125000
6174,-328.125000
6175,-328.125000
6176,-324.218750
6177,-324.218750
6178,-320.312500
6179,-320.312500
6180,-316.406250
6181,-316.406250
6182,-316.406250
6183,-312.500000
6184,-312.500000
6185,-308.593750
6186,-308.593750
6187,-304.687500
6188,-300.781250
6189,-300.781250
6190,-296.875000
6191,-296.875000
6192,-292.968750
6193,-289.062500
6194,-289.062500
6195,-285.156250
6196,-285.156250
6197,-281.250000
6198,-277.343750
6199,-273.437500
6200,-269.531250
6201,-265.625000
6202,-265.625000
6203,-261.718750
6204,-257.812500
6205,-257.812500
6206,-253.906250
6207,-250.000000
6208,-246.093750
6209,-242.187500
6210,-238.281250
6211,-234.375000
6212,-230.468750
6213,-226.562500
6214,-222.656250
6215,-218.750000
6216,-214.843750
6217,-214.843750
6218,-207.031250
6219,-207.031250
6220,-203.125000
6221,-199.218750
6222,-191.406250
6223,-191.406250
6224,-187.500000
6225,-179.687500
6226,-175.781250
6227,-171.875000
6228,-167.968750
6229,-164.062500
6230,-160.156250
6231,-156.250000
6232,-152.343750
6233,-148.437500
6234,-144.531250
6235,-140.625000
6236,-136.718750
6237,-132.812500
6238,-125.000000
6239,-121.093750
6240,-117.187500
6241,-113.281250
6242,-109.375000
6243,-105.468750
6244,-101.562500
6245,-97.656250
6246,-89.843750
6247,-85.937500
6248,-82.031250
6249,-78.125000
6250,-74.218750
6251,-70.312500
6252,-66.406250
6253,-62.500000
6254,-58.593750
6255,-54.687500
6256,-50.781250
6257,-42.968750
6258,-39.062500
6259,-35.156250
6260,-31.250000
6261,-27.343750
6262,-23.437500
6263,-19.531250
6264,-15.625000
6265,-11.718750
6266,-7.812500
6267,-3.906250
6268,0.000000
6269,3.906250
6270,7.812500
6271,15.625000
6272,15.625000
6273,19.531250
6274,23.437500
6275,31.250000
6276,31.250000
6277,35.156250
6278,39.062500
6279,42.968750
6280,46.875000
6281,50.781250
6282,54.687500
6283,58.593750
6284,62.500000
6285,62.500000
6286,66.406250
6287,70.312500
6288,74.218750
6289,78.125000
6290,82.031250
6291,82.031250
6292,85.937500
6293,89.843750
6294,93.750000
6295,97.656250
6296,97.656250
6297,101.562500
6298,105.468750
6299,105.468750
6300,109.375000
6301,113.281250
6302,113.281250
6303,117.187500
6304,121.093750
6305,121.093750
6306,125.000000
6307,128.906250
6308,128.906250
6309,132.812500
6310,132.812500
6311,136.718750
6312,136.718750
6313,140.625000
6314,140.625000
6315,144.531250
6316,144.531250
6317,148.437500
6318,148.437500
6319,152.343750
6320,152.343750
6321,156.250000
6322,156.250000
6323,156.250000
6324,160.156250
6325,160.156250
6326,164.062500
6327,164.062500
6328,164.062500
6329,164.062500
6330,167.968750
6331,171.875000
6332,171.875000
6333,171.875000
6334,171.875000
6335,175.781250
6336,175.781250
6337,175.781250
6338,175.781250
6339,175.781250
6340,179.687500
6341,179.687500
6342,179.687500
6343,179.687500
6344,179.687500
6345,183.593750
6346,183.593750
6347,183.593750
6348,183.593750
6349,183.593750
6350,183.593750
6351,183.593750
6352,183.593750
6353,187.500000
6354,187.500000
6355,187.500000
6356,187.500000
6357,187.500000
6358,187.500000
6359,187.500000
6360,187.500000
6361,187.500000
6362,187.500000
6363,187.500000
6364,187.500000
6365,187.500000
6366,187.500000
6367,187.500000
6368,187.500000
6369,187.500000
6370,187.500000
6371,187.500000
6372,183.593750
6373,183.593750
6374,183.593750
6375,183.593750
6376,183.593750
6377,183.593750
6378,179.687500
6379,183.593750
6380,179.687500
6381,179.687500
6382,179.687500
6383,179.687500
6384,179.687500
6385,175.781250
6386,175.781250
6387,175.781250
6388,175.781250
6389,171.875000
6390,171.875000
6391,171.875000
6392,171.875000
6393,167.968750
6394,167.968750
6395,167.968750
6396,167.968750
6397,164.062500
6398,164.062500
6399,164.062500
6400,160.156250
6401,160.156250
6402,156.250000
6403,156.250000
6404,156.250000
6405,152.343750
6406,152.343750
6407,148.437500
6408,148.437500
6409,148.437500
6410,144.531250
6411,140.625000
6412,140.625000
6413,136.718750
6414,136.718750
6415,132.812500
6416,132.812500
6417,128.906250
6418,128.906250
6419,125.000000
6420,121.093750
6421,117.187500
6422,117.187500
6423,113.281250
6424,113.281250
6425,109.375000
6426,109.375000
6427,105.468750
6428,101.562500
6429,101.562500
6430,97.656250
6431,93.750000
6432,89.843750
6433,85.937500
6434,82.031250
6435,78.125000
6436,78.125000
6437,74.218750
6438,70.312500
6439,66.406250
6440,66.406250
6441,62.500000
6442,58.593750
6443,54.687500
6444,50.781250
6445,46.875000
6446,42.968750
6447,39.062500
6448,35.156250
6449,31.250000
6450,27.343750
6451,23.437500
6452,19.531250
6453,15.625000
6454,11.718750
6455,7.812500
6456,3.906250
6457,0.000000
6458,-3.906250
6459,-7.812500
6460,-11.718750
6461,-15.625000
6462,-19.531250
6463,-23.437500
6464,-27.343750
6465,-31.250000
6466,-35.156250
6467,-39.062500
6468,-42.968750
6469,-46.875000
6470,-50.781250
6471,-54.687500
6472,-62.500000
6473,-66.406250
6474,-70.312500
6475,-70.312500
6476,-78.125000
6477,-82.031250
6478,-85.937500
6479,-89.843750
6480,-93.750000
6481,-101.562500
6482,-105.468750
6483,-109.375000
6484,-113.281250
6485,-117.187500
6486,-121.093750
6487,-125.000000
6488,-128.906250
6489,-132.812500
6490,-136.718750
6491,-144.531250
6492,-148.437500
6493,-152.343750
6494,-156.250000
6495,-160.156250
6496,-164.062500
6497,-167.968750
6498,-171.875000
6499,-175.781250
6500,-179.687500
6501,-183.593750
6502,-187.500000
6503,-191.406250
6504,-195.312500
6505,-199.218750
6506,-207.031250
6507,-207.031250
6508,-210.937500
6509,-214.843750
6510,-218.750000
6511,-222.656250
6512,-226.562500
6513,-230.468750
6514,-234.375000
6515,-238.281250
6516,-242.187500
6517,-242.187500
6518,-246.093750
6519,-250.000000
6520,-253.906250
6521,-257.812500
6522,-261.718750
6523,-261.718750
6524,-265.625000
6525,-269.531250
6526,-273.437500
6527,-277.343750
6528,-277.343750
6529,-281.250000
6530,-285.156250
6531,-285.156250
6532,-289.062500
6533,-289.062500
6534,-292.968750
6535,-296.875000
6536,-300.781250
6537,-300.781250
6538,-304.687500
6539,-304.687500
6540,-308.593750
6541,-308.593750
6542,-312.500000
6543,-312.500000
6544,-316.406250
6545,-316.406250
6546,-320.312500
6547,-320.312500
6548,-320.312500
6549,-324.218750
6550,-324.218750
6551,-328.125000
6552,-328.125000
6553,-328.125000
6554,-328.125000
6555,-332.031250
6556,-332.031250
6557,-332.031250
6558,-332.031250
6559,-335.937500
6560,-335.937500
6561,-335.937500
6562,-335.937500
6563,-339.843750
6564,-339.843750
6565,-335.937500
6566,-339.843750
6567,-339.843750
6568,-339.843750
6569,-339.843750
6570,-339.843750
6571,-339.843750
6572,-339.843750
6573,-339.843750
6574,-339.843750
6575,-339.843750
6576,-339.843750
6577,-339.843750
6578,-339.843750
6579,-339.843750
6580,-335.937500
6581,-335.937500
6582,-335.937500
6583,-335.937500
6584,-335.937500
6585,-332.031250
6586,-332.031250
6587,-332.031250
6588,-332.031250
6589,-328.125000
6590,-328.125000
6591,-324.218750
6592,-324.218750
6593,-324.218750
6594,-324.218750
6595,-320.312500
6596,-320.312500
6597,-316.406250
6598,-316.406250
6599,-312.500000
6600,-312.500000
6601,-308.593750
6602,-308.593750
6603,-304.687500
6604,-304.687500
6605,-300.781250
6606,-300.781250
6607,-296.875000
6608,-292.968750
6609,-292.968750
6610,-289.062500
6611,-285.156250
6612,-285.156250
6613,-281.250000
6614,-277.343750
6615,-277.343750
6616,-273.437500
6617,-269.531250
6618,-265.625000
6619,-265.625000
6620,-261.718750
6621,-257.812500
6622,-253.906250
6623,-250.000000
6624,-250.000000
6625,-246.093750
6626,-242.187500
6627,-238.281250
6628,-234.375000
6629,-230.468750
6630,-226.562500
6631,-222.656250
6632,-218.750000
6633,-214.843750
6634,-210.937500
6635,-207.031250
6636,-203.125000
6637,-199.218750
6638,-195.312500
6639,-191.406250
6640,-187.500000
6641,-183.593750
6642,-179.687500
6643,-175.781250
6644,-171.875000
6645,-167.968750
6646,-164.062500
6647,-160.156250
6648,-156.250000
6649,-152.343750
6650,-148.437500
6651,-144.531250
6652,-140.625000
6653,-132.812500
6654,-128.906250
6655,-125.000000
6656,-121.093750
6657,-117.187500
6658,-113.281250
6659,-109.375000
6660,-105.468750
6661,-101.562500
6662,-93.750000
6663,-89.843750
6664,-85.937500
6665,-82.031250
6666,-78.125000
6667,-74.218750
6668,-70.312500
6669,-66.406250
6670,-58.593750
6671,-54.687500
6672,-50.781250
6673,-46.875000
6674,-42.968750
6675,-39.062500
6676,-35.156250
6677,-31.250000
6678,-27.343750
6679,-23.437500
6680,-19.531250
6681,-11.718750
6682,-11.718750
6683,-7.812500
6684,0.000000
6685,0.000000
6686,7.812500
6687,11.718750
6688,15.625000
6689,19.531250
6690,19.531250
6691,27.343750
6692,27.343750
6693,31.250000
6694,35.156250
6695,39.062500
6696,42.968750
6697,46.875000
6698,50.781250
6699,54.687500
6700,58.593750
6701,62.500000
6702,66.406250
6703,66.406250
6704,70.312500
6705,74.218750
6706,78.125000
6707,82.031250
6708,85.937500
6709,85.937500
6710,89.843750
6711,93.750000
6712,97.656250
6713,97.656250
6714,101.562500
6715,105.468750
6716,105.468750
6717,109.375000
6718,113.281250
6719,117.187500
6720,117.187500
6721,121.093750
6722,121.093750
6723,125.000000
6724,128.906250
6725,128.906250
6726,132.812500
6727,132.812500
6728,136.718750
6729,140.625000
6730,140.625000
6731,140.625000
6732,144.531250
6733,144.531250
6734,148.437500
6735,148.437500
6736,152.343750
6737,152.343750
6738,156.250000
6739,156.250000
6740,156.250000
6741,160.156250
6742,160.156250
6743,164.062500
6744,164.062500
6745,164.062500
6746,167.968750
6747,167.968750
6748,167.968750
6749,171.875000
6750,171.875000
6751,171.875000
6752,175.781250
6753,175.781250
6754,175.781250
6755,175.781250
6756,175.781250
6757,179.687500
6758,179.687500
6759,179.687500
6760,179.687500
6761,179.687500
6762,179.687500
6763,183.593750
6764,183.593750
6765,183.593750
6766,183.593750
6767,183.593750
6768,183.593750
6769,183.593750
6770,183.593750
6771,187.500000
6772,183.593750
6773,187.500000
6774,187.500000
6775,187.500000
6776,187.500000
6777,187.500000
6778,187.500000
6779,187.500000
6780,187.500000
6781,187.500000
6782,187.500000
6783,187.500000
6784,187.500000
6785,187.500000
6786,187.500000
6787,183.593750
6788,187.500000
6789,187.500000
6790,187.500000
6791,183.593750
6792,183.593750
6793,183.593750
6794,183.593750
6795,179.687500
6796,179.687500
6797,179.687500
6798,179.687500
6799,179.687500
6800,179.687500
6801,179.687500
6802,175.781250
6803,175.781250
6804,175.781250
6805,175.781250
6806,175.781250
6807,171.875000
6808,171.875000
6809,171.875000
6810,171.875000
6811,167.968750
6812,167.968750
6813,167.968750
6814,164.062500
6815,164.062500
6816,164.062500
6817,160.156250
6818,160.156250
6819,156.250000
6820,156.250000
6821,152.343750
6822,152.343750
6823,152.343750
6824,148.437500
6825,148.437500
6826,144.531250
6827,144.531250
6828,140.625000
6829,140.625000
6830,136.718750
6831,136.718750
6832,132.812500
6833,128.906250
6834,128.906250
6835,125.000000
6836,125.000000
6837,121.093750
6838,121.093750
6839,117.187500
6840,113.281250
6841,109.375000
6842,109.375000
6843,105.468750
6844,105.468750
6845,101.562500
6846,97.656250
6847,93.750000
6848,93.750000
6849,89.843750
6850,85.937500
6851,82.031250
6852,78.125000
6853,74.218750
6854,74.218750
6855,70.312500
6856,66.406250
6857,62.500000
6858,58.593750
6859,54.687500
6860,54.687500
6861,50.781250
6862,46.875000
6863,42.968750
6864,39.062500
6865,35.156250
6866,31.250000
6867,27.343750
6868,23.437500
6869,19.531250
6870,15.625000
6871,11.718750
6872,7.812500
6873,3.906250
6874,0.000000
6875,-3.906250
6876,-7.812500
6877,-11.718750
6878,-15.625000
6879,-19.531250
6880,-23.437500
6881,-27.343750
6882,-35.156250
6883,-35.156250
6884,-42.968750
6885,-42.968750
6886,-50.781250
6887,-54.687500
6888,-58.593750
6889,-62.500000
6890,-66.406250
6891,-70.312500
6892,-74.218750
6893,-78.125000
6894,-85.937500
6895,-89.843750
6896,-93.750000
6897,-97.656250
6898,-101.562500
6899,-105.468750
6900,-109.375000
6901,-113.281250
6902,-121.093750
6903,-125.000000
6904,-128.906250
6905,-132.812500
6906,-136.718750
6907,-140.625000
6908,-144.531250
6909,-148.437500
6910,-152.343750
6911,-156.250000
6912,-160.156250
6913,-164.062500
6914,-167.968750
6915,-175.781250
6916,-179.687500
6917,-183.593750
6918,-187.500000
6919,-191.406250
6920,-195.312500
6921,-199.218750
6922,-203.125000
6923,-207.031250
6924,-207.031250
6925,-210.937500
6926,-214.843750
6927,-218.750000
6928,-222.656250
6929,-226.562500
6930,-230.468750
6931,-234.375000
6932,-238.281250
6933,-242.187500
6934,-246.093750
6935,-250.000000
6936,-250.000000
6937,-253.906250
6938,-257.812500
6939,-261.718750
6940,-265.625000
6941,-265.625000
6942,-269.531250
6943,-273.437500
6944,-277.343750
6945,-277.343750
6946,-281.250000
6947,-285.156250
6948,-289.062500
6949,-289.062500
6950,-292.968750
6951,-292.968750
6952,-296.875000
6953,-300.781250
6954,-300.781250
6955,-304.687500
6956,-304.687500
6957,-308.593750
6958,-308.593750
6959,-312.500000
6960,-312.500000
6961,-316.406250
6962,-316.406250
6963,-320.312500
6964,-320.312500
6965,-324.218750
6966,-324.218750
6967,-324.218750
6968,-328.125000
6969,-328.125000
6970,-328.125000
6971,-332.031250
6972,-332.031250
6973,-332.031250
6974,-335.937500
6975,-335.937500
6976,-335.937500
6977,-335.937500
6978,-335.937500
6979,-339.843750
6980,-335.937500
6981,-339.843750
6982,-339.843750
6983,-339.843750
6984,-339.843750
6985,-339.843750
6986,-339.843750
6987,-339.843750
6988,-339.843750
6989,-339.843750
6990,-339.843750
6991,-339.843750
6992,-339.843750
6993,-339.843750
6994,-339.843750
6995,-339.843750
6996,-335.937500
6997,-335.937500
6998,-335.937500
6999,-335.937500
7000,-335.937500
7001,-335.937500
7002,-332.031250
7003,-332.031250
7004,-332.031250
7005,-332.031250
7006,-328.125000
7007,-328.125000
7008,-328.125000
7009,-324.218750
7010,-324.218750
7011,-320.312500
7012,-320.312500
7013,-320.312500
7014,-316.406250
7015,-316.406250
7016,-312.500000
7017,-312.500000
7018,-308.593750
7019,-308.593750
7020,-304.687500
7021,-304.687500
7022,-300.781250
7023,-300.781250
7024,-296.875000
7025,-296.875000
7026,-292.968750
7027,-289.062500
7028,-285.156250
7029,-285.156250
7030,-281.250000
7031,-277.343750
7032,-277.343750
7033,-273.437500
7034,-269.531250
7035,-269.531250
7036,-265.625000
7037,-261.718750
7038,-257.812500
7039,-253.906250
7040,-250.000000
7041,-246.093750
7042,-246.093750
7043,-242.187500
7044,-238.281250
7045,-234.375000
7046,-230.468750
7047,-226.562500
7048,-222.656250
7049,-218.750000
7050,-214.843750
7051,-210.937500
7052,-207.031250
7053,-203.125000
7054,-199.218750
7055,-195.312500
7056,-191.406250
7057,-187.500000
7058,-183.593750
7059,-179.687500
7060,-175.781250
7061,-171.875000
7062,-167.968750
7063,-164.062500
7064,-160.156250
7065,-156.250000
7066,-152.343750
7067,-144.531250
7068,-144.531250
7069,-136.718750
7070,-132.812500
7071,-128.906250
7072,-125.000000
7073,-121.093750
7074,-117.187500
7075,-113.281250
7076,-109.375000
7077,-101.562500
7078,-97.656250
7079,-97.656250
7080,-89.843750
7081,-85.937500
7082,-82.031250
7083,-78.125000
7084,-74.218750
7085,-66.406250
7086,-66.406250
7087,-58.593750
7088,-54.687500
7089,-50.781250
7090,-46.875000
7091,-42.968750
7092,-39.062500
7093,-35.156250
7094,-31.250000
7095,-27.343750
7096,-23.437500
7097,-19.531250
7098,-15.625000
7099,-11.718750
7100,-3.906250
7101,0.000000
7102,3.906250
7103,7.812500
7104,11.718750
7105,15.625000
7106,19.531250
7107,23.437500
7108,27.343750
7109,31.250000
7110,35.156250
7111,39.062500
7112,39.062500
7113,42.968750
7114,46.875000
7115,50.781250
7116,54.687500
7117,58.593750
7118,62.500000
7119,66.406250
7120,66.406250
7121,70.312500
7122,74.218750
7123,78.125000
7124,82.031250
7125,85.937500
7126,85.937500
7127,89.843750
7128,93.750000
7129,97.656250
7130,101.562500
7131,101.562500
7132,105.468750
7133,109.375000
7134,109.375000
7135,113.281250
7136,117.187500
7137,117.187500
7138,121.093750
7139,121.093750
7140,125.000000
7141,128.906250
7142,128.906250
7143,132.812500
7144,132.812500
7145,136.718750
7146,136.718750
7147,140.625000
7148,140.625000
7149,144.531250
7150,144.531250
7151,148.437500
7152,148.437500
7153,152.343750
7154,152.343750
7155,156.250000
7156,156.250000
7157,156.250000
7158,160.156250
7159,160.156250
7160,160.156250
7161,164.062500
7162,164.062500
7163,167.968750
7164,167.968750
7165,167.968750
7166,171.875000
7167,171.875000
7168,171.875000
7169,175.781250
7170,175.781250
7171,175.781250
7172,175.781250
7173,175.781250
7174,175.781250
7175,179.687500
7176,179.687500
7177,179.687500
7178,183.593750
7179,183.593750
7180,183.593750
7181,183.593750
7182,183.593750
7183,183.593750
7184,183.593750
7185,183.593750
7186,183.593750
7187,187.500000
7188,187.500000
7189,187.500000
7190,187.500000
7191,187.500000
7192,187.500000
7193,187.500000
7194,187.500000
7195,187.500000
7196,187.500000
7197,187.500000
7198,187.500000
7199,187.500000
7200,187.500000
7201,187.500000
7202,187.500000
7203,187.500000
7204,187.500000
7205,187.500000
7206,183.593750
7207,183.593750
7208,183.593750
7209,183.593750
7210,183.593750
7211,183.593750
7212,183.593750
7213,183.593750
7214,179.687500
7215,179.687500
7216,179.687500
7217,179.687500
7218,179.687500
7219,175.781250
7220,175.781250
7221,175.781250
7222,175.781250
7223,171.875000
7224,171.875000
7225,171.875000
7226,171.875000
7227,167.968750
7228,167.968750
7229,167.968750
7230,164.062500
7231,164.062500
7232,164.062500
7233,160.156250
7234,160.156250
7235,156.250000
7236,156.250000
7237,156.250000
7238,156.250000
7239,152.343750
7240,148.437500
7241,148.437500
7242,148.437500
7243,144.531250
7244,144.531250
7245,140.625000
7246,136.718750
7247,136.718750
7248,132.812500
7249,132.812500
7250,128.906250
7251,128.906250
7252,125.000000
7253,121.093750
7254,121.093750
7255,117.187500
7256,117.187500
7257,113.281250
7258,113.281250
7259,105.468750
7260,105.468750
7261,101.562500
7262,101.562500
7263,97.656250
7264,93.750000
7265,89.843750
7266,89.843750
7267,85.937500
7268,82.031250
7269,78.125000
7270,74.218750
7271,74.218750
7272,70.312500
7273,66.406250
7274,62.500000
7275,58.593750
7276,54.687500
7277,50.781250
7278,46.875000
7279,42.968750
7280,42.968750
7281,39.062500
7282,35.156250
7283,31.250000
7284,27.343750
7285,23.437500
7286,19.531250
7287,15.625000
7288,11.718750
7289,7.812500
7290,3.906250
7291,0.000000
7292,-3.906250
7293,-7.812500
7294,-11.718750
7295,-19.531250
7296,-19.531250
7297,-27.343750
7298,-31.250000
7299,-35.156250
7300,-39.062500
7301,-42.968750
7302,-46.875000
7303,-50.781250
7304,-54.687500
7305,-58.593750
7306,-62.500000
7307,-66.406250
7308,-74.218750
7309,-78.125000
7310,-78.125000
7311,-85.937500
7312,-89.843750
7313,-93.750000
7314,-97.656250
7315,-101.562500
7316,-105.468750
7317,-109.375000
7318,-113.281250
7319,-121.093750
7320,-125.000000
7321,-128.906250
7322,-132.812500
7323,-136.718750
7324,-140.625000
7325,-144.531250
7326,-148.437500
7327,-152.343750
7328,-160.156250
7329,-160.156250
7330,-164.062500
7331,-171.875000
7332,-175.781250
7333,-179.687500
7334,-179.687500
7335,-187.500000
7336,-191.406250
7337,-195.312500
7338,-199.218750
7339,-203.125000
7340,-207.031250
7341,-207.031250
7342,-214.843750
7343,-214.843750
7344,-222.656250
7345,-226.562500
7346,-226.562500
7347,-230.468750
7348,-234.375000
7349,-238.281250
7350,-242.187500
7351,-246.093750
7352,-250.000000
7353,-253.906250
7354,-253.906250
7355,-257.812500
7356,-261.718750
7357,-265.625000
7358,-265.625000
7359,-269.531250
7360,-273.437500
7361,-277.343750
7362,-277.343750
7363,-281.250000
7364,-285.156250
7365,-289.062500
7366,-289.062500
7367,-292.968750
7368,-292.968750
7369,-296.875000
7370,-300.781250
7371,-300.781250
7372,-304.687500
7373,-304.687500
7374,-308.593750
7375,-308.593750
7376,-312.500000
7377,-312.500000
7378,-316.406250
7379,-316.406250
7380,-320.312500
7381,-320.312500
7382,-320.312500
7383,-324.218750
7384,-324.218750
7385,-328.125000
7386,-328.125000
7387,-328.125000
7388,-328.125000
7389,-332.031250
7390,-332.031250
7391,-332.031250
7392,-332.031250
7393,-335.937500
7394,-335.937500
7395,-335.937500
7396,-335.937500
7397,-335.937500
7398,-339.843750
7399,-339.843750
7400,-339.843750
7401,-339.843750
7402,-339.843750
7403,-339.843750
7404,-339.843750
7405,-339.843750
7406,-339.843750
7407,-339.843750
7408,-339.843750
7409,-339.843750
7410,-339.843750
7411,-339.843750
7412,-339.843750
7413,-335.937500
7414,-335.937500
7415,-335.937500
7416,-335.937500
7417,-332.031250
7418,-332.031250
7419,-332.031250
7420,-332.031250
7421,-332.031250
7422,-332.031250
7423,-328.125000
7424,-328.125000
7425,-324.218750
7426,-324.218750
7427,-324.218750
7428,-320.312500
7429,-320.312500
7430,-320.312500
7431,-316.406250
7432,-316.406250
7433,-312.500000
7434,-312.500000
7435,-308.593750
7436,-308.593750
7437,-304.687500
7438,-304.687500
7439,-300.781250
7440,-296.875000
7441,-296.875000
7442,-292.968750
7443,-292.968750
7444,-289.062500
7445,-285.156250
7446,-285.156250
7447,-281.250000
7448,-277.343750
7449,-273.437500
7450,-273.437500
7451,-269.531250
7452,-265.625000
7453,-261.718750
7454,-257.812500
7455,-257.812500
7456,-253.906250
7457,-250.000000
7458,-246.093750
7459,-246.093750
7460,-238.281250
7461,-238.281250
7462,-234.375000
7463,-230.468750
7464,-226.562500
7465,-222.656250
7466,-218.750000
7467,-214.843750
7468,-210.937500
7469,-207.031250
7470,-203.125000
7471,-199.218750
7472,-195.312500
7473,-191.406250
7474,-187.500000
7475,-183.593750
7476,-179.687500
7477,-175.781250
7478,-171.875000
7479,-167.968750
7480,-164.062500
7481,-156.250000
7482,-152.343750
7483,-148.437500
7484,-144.531250
7485,-140.625000
7486,-136.718750
7487,-132.812500
7488,-128.906250
7489,-125.000000
7490,-121.093750
7491,-117.187500
7492,-109.375000
7493,-105.468750
7494,-101.562500
7495,-97.656250
7496,-93.750000
7497,-89.843750
7498,-85.937500
7499,-82.031250
7500,-78.125000
7501,-70.312500
7502,-66.406250
7503,-62.500000
7504,-58.593750
7505,-54.687500
7506,-50.781250
7507,-46.875000
7508,-42.968750
7509,-35.156250
7510,-35.156250
7511,-27.343750
7512,-23.437500
7513,-19.531250
7514,-15.625000
7515,-11.718750
7516,-7.812500
7517,-3.906250
7518,0.000000
7519,3.906250
7520,7.812500
7521,11.718750
7522,15.625000
7523,19.531250
7524,23.437500
7525,27.343750
7526,31.250000
7527,35.156250
7528,39.062500
7529,42.968750
7530,46.875000
7531,50.781250
7532,54.687500
7533,54.687500
7534,58.593750
7535,62.500000
7536,66.406250
7537,70.312500
7538,74.218750
7539,78.125000
7540,78.125000
7541,82.031250
7542,85.937500
7543,89.843750
7544,89.843750
7545,93.750000
7546,97.656250
7547,101.562500
7548,105.468750
7549,105.468750
7550,109.375000
7551,113.281250
7552,113.281250
7553,117.187500
7554,117.187500
7555,121.093750
7556,125.000000
7557,125.000000
7558,128.906250
7559,128.906250
7560,132.812500
7561,136.718750
7562,136.718750
7563,140.625000
7564,140.625000
7565,144.531250
7566,144.531250
7567,148.437500
7568,148.437500
7569,148.437500
7570,152.343750
7571,152.343750
7572,156.250000
7573,156.250000
7574,160.156250
7575,160.156250
7576,164.062500
7577,164.062500
7578,164.062500
7579,164.062500
7580,167.968750
7581,167.968750
7582,171.875000
7583,171.875000
7584,171.875000
7585,171.875000
7586,175.781250
7587,175.781250
7588,175.781250
7589,175.781250
7590,179.687500
7591,179.687500
7592,179.687500
7593,179.687500
7594,179.687500
7595,183.593750
7596,183.593750
7597,183.593750
7598,183.593750
7599,183.593750
7600,183.593750
7601,183.593750
7602,183.593750
7603,187.500000
7604,187.500000
7605,187.500000
7606,187.500000
7607,187.500000
7608,187.500000
7609,187.500000
7610,187.500000
7611,187.500000
7612,187.500000
7613,187.500000
7614,187.500000
7615,187.500000
7616,187.500000
7617,187.500000
7618,187.500000
7619,187.500000
7620,187.500000
7621,187.500000
7622,187.500000
7623,183.593750
7624,183.593750
7625,183.593750
7626,183.593750
7627,183.593750
7628,183.593750
7629,183.593750
7630,183.593750
7631,179.687500
7632,179.687500
7633,179.687500
7634,179.687500
7635,179.687500
7636,175.781250
7637,175.781250
7638,175.781250
7639,175.781250
7640,171.875000
7641,171.875000
7642,171.875000
7643,171.875000
7644,171.875000
7645,167.968750
7646,167.968750
7647,164.062500
7648,164.062500
7649,164.062500
7650,160.156250
7651,160.156250
7652,160.156250
7653,156.250000
7654,156.250000
7655,152.343750
7656,152.343750
7657,148.437500
7658,148.437500
7659,144.531250
7660,144.531250
7661,144.531250
7662,140.625000
7663,136.718750
7664,136.718750
7665,132.812500
7666,132.812500
7667,128.906250
7668,128.906250
7669,125.000000
7670,121.093750
7671,121.093750
7672,117.187500
7673,113.281250
7674,113.281250
7675,109.375000
7676,109.375000
7677,105.468750
7678,101.562500
7679,97.656250
7680,97.656250
7681,93.750000
7682,89.843750
7683,85.937500
7684,82.031250
7685,82.031250
7686,78.125000
7687,74.218750
7688,70.312500
7689,66.406250
7690,66.406250
7691,62.500000
7692,58.593750
7693,54.687500
7694,50.781250
7695,46.875000
7696,42.968750
7697,39.062500
7698,35.156250
7699,35.156250
7700,31.250000
7701,27.343750
7702,19.531250
7703,15.625000
7704,15.625000
7705,11.718750
7706,3.906250
7707,0.000000
7708,0.000000
7709,-3.906250
7710,-11.718750
7711,-15.625000
7712,-19.531250
7713,-23.437500
7714,-27.343750
7715,-31.250000
7716,-35.156250
7717,-39.062500
7718,-42.968750
7719,-46.875000
7720,-50.781250
7721,-54.687500
7722,-58.593750
7723,-66.406250
7724,-70.312500
7725,-74.218750
7726,-78.125000
7727,-82.031250
7728,-85.937500
7729,-89.843750
7730,-93.750000
7731,-97.656250
7732,-105.468750
7733,-109.375000
7734,-113.281250
7735,-117.187500
7736,-121.093750
7737,-125.000000
7738,-128.906250
7739,-132.812500
7740,-140.625000
7741,-144.531250
7742,-148.437500
7743,-152.343750
7744,-156.250000
7745,-160.156250
7746,-164.062500
7747,-167.968750
7748,-171.875000
7749,-175.781250
7750,-179.687500
7751,-183.593750
7752,-187.500000
7753,-191.406250
7754,-195.312500
7755,-199.218750
7756,-203.125000
7757,-207.031250
7758,-210.937500
7759,-214.843750
7760,-218.750000
7761,-222.656250
7762,-226.562500
7763,-230.468750
7764,-234.375000
7765,-238.281250
7766,-238.281250
7767,-242.187500
7768,-246.093750
7769,-250.000000
7770,-250.000000
7771,-257.812500
7772,-257.812500
7773,-261.718750
7774,-265.625000
7775,-269.531250
7776,-273.437500
7777,-273.437500
7778,-277.343750
7779,-281.250000
7780,-281.250000
7781,-285.156250
7782,-289.062500
7783,-289.062500
7784,-292.968750
7785,-296.875000
7786,-296.875000
7787,-296.875000
7788,-304.687500
7789,-304.687500
7790,-308.593750
7791,-308.593750
7792,-312.500000
7793,-312.500000
7794,-312.500000
7795,-316.406250
7796,-320.312500
7797,-320.312500
7798,-320.312500
7799,-324.218750
7800,-324.218750
7801,-324.218750
7802,-328.125000
7803,-328.125000
7804,-328.125000
7805,-332.031250
7806,-332.031250
7807,-332.031250
7808,-332.031250
7809,-335.937500
7810,-335.937500
7811,-335.937500
7812,-335.937500
7813,-339.843750
7814,-339.843750
7815,-339.843750
7816,-339.843750
7817,-339.843750
7818,-339.843750
7819,-339.843750
7820,-339.843750
7821,-339.843750
7822,-339.843750
7823,-339.843750
7824,-339.843750
7825,-339.843750
7826,-339.843750
7827,-339.843750
7828,-339.843750
7829,-335.937500
7830,-335.937500
7831,-335.937500
7832,-335.937500
7833,-335.937500
7834,-335.937500
7835,-332.031250
7836,-332.031250
7837,-332.031250
7838,-328.125000
7839,-328.125000
7840,-328.125000
7841,-328.125000
7842,-324.218750
7843,-324.218750
7844,-324.218750
7845,-320.312500
7846,-320.312500
7847,-320.312500
7848,-316.406250
7849,-312.500000
7850,-312.500000
7851,-312.500000
7852,-308.593750
7853,-304.687500
7854,-304.687500
7855,-300.781250
7856,-300.781250
7857,-296.875000
7858,-296.875000
7859,-292.968750
7860,-289.062500
7861,-289.062500
7862,-285.156250
7863,-285.156250
7864,-277.343750
7865,-277.343750
7866,-273.437500
7867,-269.531250
7868,-269.531250
7869,-265.625000
7870,-261.718750
7871,-257.812500
7872,-257.812500
7873,-253.906250
7874,-250.000000
7875,-246.093750
7876,-242.187500
7877,-238.281250
7878,-238.281250
7879,-230.468750
7880,-226.562500
7881,-222.656250
7882,-222.656250
7883,-218.750000
7884,-214.843750
7885,-210.937500
7886,-207.031250
7887,-203.125000
7888,-199.218750
7889,-195.312500
7890,-191.406250
7891,-187.500000
7892,-183.593750
7893,-175.781250
7894,-175.781250
7895,-171.875000
7896,-164.062500
7897,-160.156250
7898,-156.250000
7899,-152.343750
7900,-148.437500
7901,-144.531250
7902,-140.625000
7903,-136.718750
7904,-132.812500
7905,-128.906250
7906,-121.093750
7907,-117.187500
7908,-113.281250
7909,-109.375000
7910,-105.468750
7911,-101.562500
7912,-97.656250
7913,-93.750000
7914,-89.843750
7915,-82.031250
7916,-78.125000
7917,-74.218750
7918,-70.312500
7919,-66.406250
7920,-62.500000
7921,-58.593750
7922,-54.687500
7923,-50.781250
7924,-42.968750
7925,-42.968750
7926,-39.062500
7927,-31.250000
7928,-27.343750
7929,-23.437500
7930,-19.531250
7931,-15.625000
7932,-11.718750
7933,-7.812500
7934,-3.906250
7935,0.000000
7936,3.906250
7937,7.812500
7938,11.718750
7939,15.625000
7940,19.531250
7941,23.437500
7942,27.343750
7943,31.250000
7944,35.156250
7945,39.062500
7946,42.968750
7947,46.875000
7948,50.781250
7949,54.687500
7950,54.687500
7951,62.500000
7952,62.500000
7953,66.406250
7954,70.312500
7955,74.218750
7956,78.125000
7957,82.031250
7958,82.031250
7959,85.937500
7960,89.843750
7961,93.750000
7962,93.750000
7963,97.656250
7964,101.562500
7965,105.468750
7966,105.468750
7967,109.375000
7968,113.281250
7969,117.187500
7970,117.187500
7971,121.093750
7972,121.093750
7973,125.000000
7974,125.000000
7975,128.906250
7976,132.812500
7977,132.812500
7978,136.718750
7979,136.718750
7980,140.625000
7981,140.625000
7982,144.531250
7983,144.531250
7984,148.437500
7985,148.437500
7986,152.343750
7987,152.343750
7988,156.250000
7989,156.250000
7990,156.250000
7991,160.156250
7992,160.156250
7993,164.062500
7994,164.062500
7995,164.062500
7996,167.968750
7997,167.968750
7998,167.968750
7999,167.968750
8000,171.875000
8001,171.875000
8002,171.875000
8003,175.781250
8004,175.781250
8005,175.781250
8006,175.781250
8007,179.687500
8008,179.687500
8009,179.687500
8010,179.687500
8011,179.687500
8012,179.687500
8013,183.593750
8014,183.593750
8015,183.593750
8016,183.593750
8017,183.593750
8018,187.500000
8019,183.593750
8020,187.500000
8021,187.500000
8022,187.500000
8023,187.500000
8024,187.500000
8025,187.500000
8026,187.500000
8027,187.500000
8028,187.500000
8029,187.500000
8030,187.500000
8031,187.500000
8032,187.500000
8033,187.500000
8034,187.500000
8035,187.500000
8036,187.500000
8037,187.500000
8038,187.500000
8039,183.593750
8040,183.593750
8041,183.593750
8042,183.593750
8043,183.593750
8044,183.593750
8045,183.593750
8046,183.593750
8047,179.687500
8048,179.687500
8049,179.687500
8050,179.687500
8051,179.687500
8052,175.781250
8053,175.781250
8054,175.781250
8055,175.781250
8056,175.781250
8057,171.875000
8058,171.875000
8059,171.875000
8060,167.968750
8061,167.968750
8062,167.968750
8063,167.968750
8064,164.062500
8065,164.062500
8066,160.156250
8067,160.156250
8068,160.156250
8069,156.250000
8070,156.250000
8071,156.250000
8072,152.343750
8073,152.343750
8074,148.437500
8075,148.437500
8076,148.437500
8077,144.531250
8078,140.625000
8079,140.625000
8080,136.718750
8081,132.812500
8082,132.812500
8083,128.906250
8084,128.906250
8085,125.000000
8086,125.000000
8087,121.093750
8088,121.093750
8089,117.187500
8090,113.281250
8091,113.281250
8092,109.375000
8093,105.468750
8094,105.468750
8095,101.562500
8096,97.656250
8097,93.750000
8098,93.750000
8099,89.843750
8100,85.937500
8101,82.031250
8102,82.031250
8103,78.125000
8104,74.218750
8105,70.312500
8106,70.312500
8107,62.500000
8108,62.500000
8109,58.593750
8110,54.687500
8111,50.781250
8112,46.875000
8113,42.968750
8114,39.062500
8115,35.156250
8116,31.250000
8117,27.343750
8118,23.437500
8119,19.531250
8120,15.625000
8121,11.718750
8122,7.812500
8123,3.906250
8124,0.000000
8125,-3.906250
8126,-7.812500
8127,-11.718750
8128,-15.625000
8129,-19.531250
8130,-23.437500
8131,-27.343750
8132,-31.250000
8133,-35.156250
8134,-39.062500
8135,-42.968750
8136,-46.875000
8137,-54.687500
8138,-58.593750
8139,-62.500000
8140,-66.406250
8141,-70.312500
8142,-74.218750
8143,-78.125000
8144,-82.031250
8145,-85.937500
8146,-93.750000
8147,-97.656250
8148,-101.562500
8149,-105.468750
8150,-109.375000
8151,-113.281250
8152,-117.187500
8153,-121.093750
8154,-125.000000
8155,-128.906250
8156,-132.812500
8157,-140.625000
8158,-140.625000
8159,-148.437500
8160,-152.343750
8161,-156.250000
8162,-160.156250
8163,-164.062500
8164,-167.968750
8165,-171.875000
8166,-175.781250
8167,-179.687500
8168,-183.593750
8169,-187.500000
8170,-191.406250
8171,-195.312500
8172,-199.218750
8173,-203.125000
8174,-207.031250
8175,-210.937500
8176,-214.843750
8177,-218.750000
8178,-222.656250
8179,-226.562500
8180,-230.468750
8181,-234.375000
8182,-234.375000
8183,-242.187500
8184,-242.187500
8185,-246.093750
8186,-250.000000
8187,-253.906250
8188,-257.812500
8189,-257.812500
8190,-261.718750
8191,-265.625000
8192,-269.531250
8193,-273.437500
8194,-273.437500
8195,-277.343750
8196,-281.250000
8197,-281.250000
8198,-285.156250
8199,-289.062500
8200,-289.062500
8201,-292.968750
8202,-296.875000
8203,-296.875000
8204,-300.781250
8205,-300.781250
8206,-304.687500
8207,-304.687500
8208,-308.593750
8209,-312.500000
8210,-312.500000
8211,-312.500000
8212,-316.406250
8213,-320.312500
8214,-320.312500
8215,-320.312500
8216,-324.218750
8217,-324.218750
8218,-328.125000
8219,-328.125000
8220,-328.125000
8221,-332.031250
8222,-332.031250
8223,-332.031250
8224,-332.031250
8225,-332.031250
8226,-335.937500
8227,-335.937500
8228,-335.937500
8229,-335.937500
8230,-335.937500
8231,-335.937500
8232,-339.843750
8233,-339.843750
8234,-339.843750
8235,-339.843750
8236,-339.843750
8237,-339.843750
8238,-339.843750
8239,-339.843750
8240,-339.843750
8241,-339.843750
8242,-339.843750
8243,-339.843750
8244,-335.937500
8245,-335.937500
8246,-335.937500
8247,-335.937500
8248,-335.937500
8249,-335.937500
8250,-335.937500
8251,-332.031250
8252,-332.031250
8253,-332.031250
8254,-332.031250
8255,-328.125000
8256,-328.125000
8257,-328.125000
8258,-328.125000
8259,-324.218750
8260,-324.218750
8261,-320.312500
8262,-320.312500
8263,-320.312500
8264,-316.406250
8265,-316.406250
8266,-312.500000
8267,-312.500000
8268,-308.593750
8269,-308.593750
8270,-304.687500
8271,-304.687500
8272,-300.781250
8273,-300.781250
8274,-296.875000
8275,-292.968750
8276,-292.968750
8277,-289.062500
8278,-285.156250
8279,-285.156250
8280,-281.250000
8281,-277.343750
8282,-273.437500
8283,-273.437500
8284,-269.531250
8285,-265.625000
8286,-265.625000
8287,-261.718750
8288,-257.812500
8289,-253.906250
8290,-250.000000
8291,-246.093750
8292,-246.093750
8293,-242.187500
8294,-238.281250
8295,-234.375000
8296,-230.468750
8297,-226.562500
8298,-222.656250
8299,-218.750000
8300,-214.843750
8301,-210.937500
8302,-210.937500
8303,-207.031250
8304,-203.125000
8305,-195.312500
8306,-195.312500
8307,-187.500000
8308,-183.593750
8309,-179.687500
8310,-179.687500
8311,-171.875000
8312,-167.968750
8313,-164.062500
8314,-160.156250
8315,-156.250000
8316,-152.343750
8317,-148.437500
8318,-144.531250
8319,-140.625000
8320,-132.812500
8321,-132.812500
8322,-125.000000
8323,-121.093750
8324,-117.187500
8325,-113.281250
8326,-109.375000
8327,-105.468750
8328,-101.562500
8329,-93.750000
8330,-89.843750
8331,-85.937500
8332,-82.031250
8333,-78.125000
8334,-74.218750
8335,-70.312500
8336,-66.406250
8337,-62.500000
8338,-58.593750
8339,-50.781250
8340,-46.875000
8341,-46.875000
8342,-39.062500
8343,-35.156250
8344,-31.250000
8345,-27.343750
8346,-23.437500
8347,-19.531250
8348,-15.625000
8349,-7.812500
8350,-3.906250
8351,0.000000
8352,0.000000
8353,3.906250
8354,11.718750
8355,15.625000
8356,15.625000
8357,19.531250
8358,23.437500
8359,27.343750
8360,31.250000
8361,35.156250
8362,39.062500
8363,42.968750
8364,46.875000
8365,50.781250
8366,54.687500
8367,58.593750
8368,62.500000
8369,62.500000
8370,66.406250
8371,70.312500
8372,74.218750
8373,78.125000
8374,82.031250
8375,82.031250
8376,85.937500
8377,89.843750
8378,93.750000
8379,93.750000
8380,97.656250
8381,101.562500
8382,105.468750
8383,105.468750
8384,109.375000
8385,113.281250
8386,113.281250
8387,117.187500
8388,121.093750
8389,121.093750
8390,125.000000
8391,128.906250
8392,128.906250
8393,132.812500
8394,132.812500
8395,136.718750
8396,136.718750
8397,140.625000
8398,144.531250
8399,144.531250
8400,148.437500
8401,148.437500
8402,148.437500
8403,152.343750
8404,152.343750
8405,156.250000
8406,156.250000
8407,156.250000
8408,160.156250
8409,160.156250
8410,164.062500
8411,164.062500
8412,167.968750
8413,167.968750
8414,167.968750
8415,167.968750
8416,171.875000
8417,171.875000
8418,171.875000
8419,175.781250
8420,175.781250
8421,175.781250
8422,175.781250
8423,175.781250
8424,179.687500
8425,179.687500
8426,179.687500
8427,179.687500
8428,179.687500
8429,183.593750
8430,183.593750
8431,183.593750
8432,183.593750
8433,183.593750
8434,187.500000
8435,183.593750
8436,187.500000
8437,183.593750
8438,183.593750
8439,187.500000
8440,187.500000
8441,187.500000
8442,187.500000
8443,187.500000
8444,187.500000
8445,187.500000
8446,187.500000
8447,187.500000
8448,187.500000
8449,187.500000
8450,187.500000
8451,187.500000
8452,187.500000
8453,187.500000
8454,183.593750
8455,183.593750
8456,183.593750
8457,183.593750
8458,183.593750
8459,183.593750
8460,183.593750
8461,183.593750
8462,183.593750
8463,183.593750
8464,179.687500
8465,179.687500
8466,179.687500
8467,179.687500
8468,179.687500
8469,179.687500
8470,175.781250
8471,175.781250
8472,175.781250
8473,175.781250
8474,171.875000
8475,171.875000
8476,171.875000
8477,167.968750
8478,167.968750
8479,167.968750
8480,167.968750
8481,164.062500
8482,164.062500
8483,164.062500
8484,160.156250
8485,160.156250
8486,156.250000
8487,156.250000
8488,156.250000
8489,152.343750
8490,152.343750
8491,148.437500
8492,148.437500
8493,144.531250
8494,144.531250
8495,140.625000
8496,140.625000
8497,136.718750
8498,136.718750
8499,132.812500
8500,132.812500
8501,128.906250
8502,125.000000
8503,125.000000
8504,121.093750
8505,121.093750
8506,117.187500
8507,113.281250
8508,113.281250
8509,109.375000
8510,105.468750
8511,105.468750
8512,101.562500
8513,97.656250
8514,97.656250
8515,93.750000
8516,89.843750
8517,85.937500
8518,82.031250
8519,78.125000
8520,78.125000
8521,74.218750
8522,70.312500
8523,66.406250
8524,62.500000
8525,62.500000
8526,54.687500
8527,54.687500
8528,50.781250
8529,46.875000
8530,42.968750
8531,39.062500
8532,35.156250
8533,31.250000
8534,27.343750
8535,23.437500
8536,19.531250
8537,15.625000
8538,11.718750
8539,7.812500
8540,3.906250
8541,0.000000
8542,-3.906250
8543,-7.812500
8544,-11.718750
8545,-15.625000
8546,-19.531250
8547,-23.437500
8548,-27.343750
8549,-31.250000
8550,-35.156250
8551,-39.062500
8552,-42.968750
8553,-50.781250
8554,-54.687500
8555,-58.593750
8556,-62.500000
8557,-66.406250
8558,-70.312500
8559,-74.218750
8560,-78.125000
8561,-82.031250
8562,-85.937500
8563,-89.843750
8564,-97.656250
8565,-97.656250
8566,-105.468750
8567,-109.375000
8568,-113.281250
8569,-117.187500
8570,-121.093750
8571,-125.000000
8572,-128.906250
8573,-136.718750
8574,-140.625000
8575,-144.531250
8576,-148.437500
8577,-152.343750
8578,-156.250000
8579,-160.156250
8580,-164.062500
8581,-167.968750
8582,-171.875000
8583,-175.781250
8584,-179.687500
8585,-183.593750
8586,-187.500000
8587,-191.406250
8588,-195.312500
8589,-199.218750
8590,-203.125000
8591,-207.031250
8592,-210.937500
8593,-214.843750
8594,-218.750000
8595,-222.656250
8596,-226.562500
8597,-230.468750
8598,-234.375000
8599,-238.281250
8600,-242.187500
8601,-246.093750
8602,-246.093750
8603,-250.000000
8604,-253.906250
8605,-257.812500
8606,-257.812500
8607,-261.718750
8608,-265.625000
8609,-269.531250
8610,-273.437500
8611,-277.343750
8612,-277.343750
8613,-281.250000
8614,-281.250000
8615,-285.156250
8616,-289.062500
8617,-289.062500
8618,-292.968750
8619,-296.875000
8620,-296.875000
8621,-300.781250
8622,-300.781250
8623,-304.687500
8624,-308.593750
8625,-308.593750
8626,-312.500000
8627,-312.500000
8628,-316.406250
8629,-316.406250
8630,-316.406250
8631,-320.312500
8632,-320.312500
8633,-324.218750
8634,-324.218750
8635,-324.218750
8636,-328.125000
8637,-328.125000
8638,-328.125000
8639,-332.031250
8640,-332.031250
8641,-332.031250
8642,-332.031250
8643,-335.937500
8644,-335.937500
8645,-335.937500
8646,-335.937500
8647,-335.937500
8648,-335.937500
8649,-339.843750
8650,-339.843750
8651,-335.937500
8652,-339.843750
8653,-339.843750
8654,-339.843750
8655,-339.843750
8656,-339.843750
8657,-339.843750
8658,-339.843750
8659,-339.843750
8660,-339.843750
8661,-335.937500
8662,-335.937500
8663,-335.937500
8664,-335.937500
8665,-335.937500
8666,-335.937500
8667,-335.937500
8668,-332.031250
8669,-332.031250
8670,-332.031250
8671,-332.031250
8672,-328.125000
8673,-328.125000
8674,-328.125000
8675,-324.218750
8676,-324.218750
8677,-324.218750
8678,-320.312500
8679,-320.312500
8680,-316.406250
8681,-316.406250
8682,-316.406250
8683,-312.500000
8684,-312.500000
8685,-308.593750
8686,-308.593750
8687,-304.687500
8688,-300.781250
8689,-300.781250
8690,-296.875000
8691,-296.875000
8692,-292.968750
8693,-289.062500
8694,-289.062500
8695,-285.156250
8696,-281.250000
8697,-281.250000
8698,-277.343750
8699,-273.437500
8700,-273.437500
8701,-269.531250
8702,-265.625000
8703,-261.718750
8704,-257.812500
8705,-257.812500
8706,-253.906250
8707,-250.000000
8708,-246.093750
8709,-242.187500
8710,-238.281250
8711,-234.375000
8712,-234.375000
8713,-230.468750
8714,-226.562500
8715,-222.656250
8716,-218.750000
8717,-214.843750
8718,-210.937500
8719,-207.031250
8720,-203.125000
8721,-199.218750
8722,-195.312500
8723,-191.406250
8724,-187.500000
8725,-183.593750
8726,-179.687500
8727,-175.781250
8728,-171.875000
8729,-167.968750
8730,-164.062500
8731,-156.250000
8732,-152.343750
8733,-152.343750
8734,-144.531250
8735,-140.625000
8736,-136.718750
8737,-132.812500
8738,-128.906250
8739,-125.000000
8740,-121.093750
8741,-113.281250
8742,-109.375000
8743,-105.468750
8744,-101.562500
8745,-97.656250
8746,-93.750000
8747,-89.843750
8748,-85.937500
8749,-82.031250
8750,-78.125000
8751,-70.312500
8752,-66.406250
8753,-62.500000
8754,-58.593750
8755,-54.687500
8756,-50.781250
8757,-46.875000
8758,-42.968750
8759,-39.062500
8760,-35.156250
8761,-27.343750
8762,-23.437500
8763,-19.531250
8764,-15.625000
8765,-11.718750
8766,-7.812500
8767,-3.906250
8768,0.000000
8769,3.906250
8770,7.812500
8771,11.718750
8772,15.625000
8773,19.531250
8774,23.437500
8775,27.343750
8776,31.250000
8777,35.156250
8778,39.062500
8779,42.968750
8780,46.875000
8781,46.875000
8782,50.781250
8783,54.687500
8784,58.593750
8785,62.500000
8786,66.406250
8787,70.312500
8788,74.218750
8789,74.218750
8790,78.125000
8791,82.031250
8792,85.937500
8793,89.843750
8794,89.843750
8795,93.750000
8796,97.656250
8797,101.562500
8798,101.562500
8799,105.468750
8800,109.375000
8801,109.375000
8802,113.281250
8803,117.187500
8804,117.187500
8805,121.093750
8806,125.000000
8807,125.000000
8808,128.906250
8809,132.812500
8810,132.812500
8811,136.718750
8812,136.718750
8813,140.625000
8814,140.625000
8815,144.531250
8816,144.531250
8817,148.437500
8818,148.437500
8819,152.343750
8820,152.343750
8821,156.250000
8822,156.250000
8823,160.156250
8824,160.156250
8825,160.156250
8826,164.062500
8827,164.062500
8828,164.062500
8829,164.062500
8830,167.968750
8831,167.968750
8832,167.968750
8833,171.875000
8834,171.875000
8835,171.875000
8836,175.781250
8837,175.781250
8838,175.781250
8839,175.781250
8840,175.781250
8841,179.687500
8842,179.687500
8843,179.687500
8844,179.687500
8845,183.593750
8846,183.593750
8847,183.593750
8848,183.593750
8849,183.593750
8850,183.593750
8851,183.593750
8852,183.593750
8853,187.500000
8854,187.500000
8855,187.500000
8856,187.500000
8857,187.500000
8858,187.500000
8859,187.500000
8860,187.500000
8861,187.500000
8862,187.500000
8863,191.406250
8864,187.500000
8865,187.500000
8866,187.500000
8867,187.500000
8868,187.500000
8869,187.500000
8870,187.500000
8871,187.500000
8872,187.500000
8873,187.500000
8874,183.593750
8875,183.593750
8876,183.593750
8877,183.593750
8878,183.593750
8879,183.593750
8880,183.593750
8881,179.687500
8882,179.687500
8883,179.687500
8884,179.687500
8885,179.687500
8886,179.687500
8887,175.781250
8888,175.781250
8889,175.781250
8890,175.781250
8891,175.781250
8892,171.875000
8893,171.875000
8894,167.968750
8895,167.968750
8896,167.968750
8897,167.968750
8898,164.062500
8899,164.062500
8900,160.156250
8901,160.156250
8902,160.156250
8903,156.250000
8904,156.250000
8905,156.250000
8906,152.343750
8907,148.437500
8908,148.437500
8909,148.437500
8910,144.531250
8911,144.531250
8912,140.625000
8913,140.625000
8914,136.718750
8915,136.718750
8916,132.812500
8917,132.812500
8918,128.906250
8919,125.000000
8920,125.000000
8921,121.093750
8922,121.093750
8923,117.187500
8924,113.281250
8925,113.281250
8926,109.375000
8927,105.468750
8928,105.468750
8929,101.562500
8930,97.656250
8931,93.750000
8932,93.750000
8933,89.843750
8934,85.937500
8935,82.031250
8936,78.125000
8937,78.125000
8938,74.218750
8939,70.312500
8940,66.406250
8941,62.500000
8942,62.500000
8943,54.687500
8944,54.687500
8945,50.781250
8946,46.875000
8947,42.968750
8948,39.062500
8949,35.156250
8950,31.250000
8951,27.343750
8952,23.437500
8953,19.531250
8954,15.625000
8955,11.718750
8956,7.812500
8957,3.906250
8958,0.000000
8959,-3.906250
8960,-7.812500
8961,-11.718750
8962,-15.625000
8963,-19.531250
8964,-23.437500
8965,-27.343750
8966,-35.156250
8967,-39.062500
8968,-42.968750
8969,-46.875000
8970,-50.781250
8971,-54.687500
8972,-58.593750
8973,-62.500000
8974,-66.406250
8975,-70.312500
8976,-74.218750
8977,-78.125000
8978,-85.937500
8979,-89.843750
8980,-93.750000
8981,-97.656250
8982,-101.562500
8983,-105.468750
8984,-109.375000
8985,-113.281250
8986,-117.187500
8987,-121.093750
8988,-128.906250
8989,-132.812500
8990,-136.718750
8991,-140.625000
8992,-144.531250
8993,-148.437500
8994,-152.343750
8995,-156.250000
8996,-160.156250
8997,-164.062500
8998,-167.968750
8999,-171.875000
9000,-175.781250
9001,-179.687500
9002,-183.593750
9003,-187.500000
9004,-191.406250
9005,-195.312500
9006,-203.125000
9007,-203.125000
9008,-207.031250
9009,-210.937500
9010,-214.843750
9011,-218.750000
9012,-222.656250
9013,-226.562500
9014,-230.468750
9015,-234.375000
9016,-238.281250
9017,-238.281250
9018,-246.093750
9019,-246.093750
9020,-250.000000
9021,-253.906250
9022,-257.812500
9023,-261.718750
9024,-265.625000
9025,-265.625000
9026,-269.531250
9027,-273.437500
9028,-277.343750
9029,-277.343750
9030,-281.250000
9031,-285.156250
9032,-285.156250
9033,-289.062500
9034,-292.968750
9035,-292.968750
9036,-296.875000
9037,-296.875000
9038,-300.781250
9039,-304.687500
9040,-304.687500
9041,-308.593750
9042,-308.593750
9043,-312.500000
9044,-312.500000
9045,-316.406250
9046,-316.406250
9047,-316.406250
9048,-320.312500
9049,-320.312500
9050,-320.312500
9051,-324.218750
9052,-324.218750
9053,-328.125000
9054,-328.125000
9055,-328.125000
9056,-328.125000
9057,-332.031250
9058,-332.031250
9059,-332.031250
9060,-332.031250
9061,-335.937500
9062,-335.937500
9063,-335.937500
9064,-335.937500
9065,-339.843750
9066,-335.937500
9067,-339.843750
9068,-339.843750
9069,-339.843750
9070,-339.843750
9071,-339.843750
9072,-339.843750
9073,-339.843750
9074,-339.843750
9075,-339.843750
9076,-339.843750
9077,-335.937500
9078,-335.937500
9079,-335.937500
9080,-335.937500
9081,-335.937500
9082,-335.937500
9083,-335.937500
9084,-335.937500
9085,-332.031250
9086,-332.031250
9087,-332.031250
9088,-332.031250
9089,-328.125000
9090,-328.125000
9091,-328.125000
9092,-324.218750
9093,-324.218750
9094,-324.218750
9095,-320.312500
9096,-320.312500
9097,-316.406250
9098,-316.406250
9099,-316.406250
9100,-312.500000
9101,-312.500000
9102,-308.593750
9103,-308.593750
9104,-304.687500
9105,-300.781250
9106,-300.781250
9107,-296.875000
9108,-292.968750
9109,-292.968750
9110,-289.062500
9111,-289.062500
9112,-285.156250
9113,-281.250000
9114,-281.250000
9115,-277.343750
9116,-273.437500
9117,-269.531250
9118,-265.625000
9119,-265.625000
9120,-261.718750
9121,-257.812500
9122,-253.906250
9123,-253.906250
9124,-246.093750
9125,-246.093750
9126,-242.187500
9127,-238.281250
9128,-234.375000
9129,-234.375000
9130,-230.468750
9131,-226.562500
9132,-222.656250
9133,-218.750000
9134,-214.843750
9135,-210.937500
9136,-207.031250
9137,-203.125000
9138,-199.218750
9139,-195.312500
9140,-191.406250
9141,-187.500000
9142,-183.593750
9143,-179.687500
9144,-175.781250
9145,-171.875000
9146,-167.968750
9147,-164.062500
9148,-160.156250
9149,-152.343750
9150,-148.437500
9151,-144.531250
9152,-140.625000
9153,-136.718750
9154,-132.812500
9155,-128.906250
9156,-125.000000
9157,-117.187500
9158,-113.281250
9159,-109.375000
9160,-105.468750
9161,-101.562500
9162,-97.656250
9163,-93.750000
9164,-89.843750
9165,-85.937500
9166,-82.031250
9167,-74.218750
9168,-70.312500
9169,-66.406250
9170,-62.500000
9171,-58.593750
9172,-54.687500
9173,-50.781250
9174,-46.875000
9175,-42.968750
9176,-39.062500
9177,-35.156250
9178,-31.250000
9179,-23.437500
9180,-19.531250
9181,-15.625000
9182,-11.718750
9183,-7.812500
9184,-3.906250
9185,0.000000
9186,3.906250
9187,7.812500
9188,11.718750
9189,15.625000
9190,19.531250
9191,23.437500
9192,27.343750
9193,31.250000
9194,35.156250
9195,39.062500
9196,42.968750
9197,46.875000
9198,50.781250
9199,54.687500
9200,54.687500
9201,58.593750
9202,62.500000
9203,66.406250
9204,70.312500
9205,74.218750
9206,78.125000
9207,78.125000
9208,82.031250
9209,85.937500
9210,89.843750
9211,89.843750
9212,93.750000
9213,97.656250
9214,97.656250
9215,101.562500
9216,105.468750
9217,109.375000
9218,109.375000
9219,113.281250
9220,117.187500
9221,117.187500
9222,121.093750
9223,125.000000
9224,125.000000
9225,128.906250
9226,128.906250
9227,132.812500
9228,132.812500
9229,136.718750
9230,140.625000
9231,140.625000
9232,144.531250
9233,144.531250
9234,148.437500
9235,148.437500
9236,148.437500
9237,148.437500
9238,156.250000
9239,156.250000
9240,156.250000
9241,160.156250
9242,160.156250
9243,160.156250
9244,164.062500
9245,164.062500
9246,164.062500
9247,167.968750
9248,167.968750
9249,167.968750
9250,171.875000
9251,171.875000
9252,171.875000
9253,171.875000
9254,175.781250
9255,175.781250
9256,175.781250
9257,179.687500
9258,179.687500
9259,179.687500
9260,179.687500
9261,179.687500
9262,183.593750
9263,183.593750
9264,183.593750
9265,183.593750
9266,183.593750
9267,183.593750
9268,183.593750
9269,183.593750
9270,187.500000
9271,183.593750
9272,187.500000
9273,187.500000
9274,187.500000
9275,187.500000
9276,187.500000
9277,187.500000
9278,187.500000
9279,187.500000
9280,187.500000
9281,187.500000
9282,187.500000
9283,187.500000
9284,187.500000
9285,187.500000
9286,183.593750
9287,187.500000
9288,187.500000
9289,183.593750
9290,183.593750
9291,183.593750
9292,183.593750
9293,183.593750
9294,183.593750
9295,183.593750
9296,183.593750
9297,183.593750
9298,179.687500
9299,179.687500
9300,179.687500
9301,179.687500
9302,179.687500
9303,175.781250
9304,175.781250
9305,175.781250
9306,175.781250
9307,171.875000
9308,171.875000
9309,171.875000
9310,171.875000
9311,167.968750
9312,167.968750
9313,167.968750
9314,167.968750
9315,164.062500
9316,164.062500
9317,160.156250
9318,160.156250
9319,160.156250
9320,156.250000
9321,156.250000
9322,152.343750
9323,152.343750
9324,152.343750
9325,148.437500
9326,148.437500
9327,144.531250
9328,140.625000
9329,140.625000
9330,140.625000
9331,136.718750
9332,132.812500
9333,132.812500
9334,132.812500
9335,128.906250
9336,125.000000
9337,125.000000
9338,121.093750
9339,117.187500
9340,117.187500
9341,113.281250
9342,109.375000
9343,109.375000
9344,105.468750
9345,101.562500
9346,101.562500
9347,97.656250
9348,93.750000
9349,89.843750
9350,89.843750
9351,85.937500
9352,82.031250
9353,78.125000
9354,74.218750
9355,74.218750
9356,70.312500
9357,66.406250
9358,62.500000
9359,58.593750
9360,54.687500
9361,50.781250
9362,46.875000
9363,42.968750
9364,39.062500
9365,39.062500
9366,35.156250
9367,31.250000
9368,27.343750
9369,23.437500
9370,19.531250
9371,15.625000
9372,11.718750
9373,7.812500
9374,3.906250
9375,0.000000
9376,-3.906250
9377,-7.812500
9378,-11.718750
9379,-19.531250
9380,-19.531250
9381,-27.343750
9382,-31.250000
9383,-35.156250
9384,-39.062500
9385,-42.968750
9386,-46.875000
9387,-50.781250
9388,-54.687500
9389,-58.593750
9390,-62.500000
9391,-70.312500
9392,-74.218750
9393,-74.218750
9394,-78.125000
9395,-85.937500
9396,-89.843750
9397,-93.750000
9398,-97.656250
9399,-101.562500
9400,-105.468750
9401,-109.375000
9402,-117.187500
9403,-121.093750
9404,-125.000000
9405,-128.906250
9406,-132.812500
9407,-136.718750
9408,-140.625000
9409,-144.531250
9410,-148.437500
9411,-152.343750
9412,-160.156250
9413,-164.062500
9414,-167.968750
9415,-171.875000
9416,-175.781250
9417,-179.687500
9418,-183.593750
9419,-187.500000
9420,-191.406250
9421,-195.312500
9422,-199.218750
9423,-203.125000
9424,-207.031250
9425,-210.937500
9426,-214.843750
9427,-218.750000
9428,-222.656250
9429,-226.562500
9430,-226.562500
9431,-230.468750
9432,-238.281250
9433,-238.281250
9434,-242.187500
9435,-246.093750
9436,-250.000000
9437,-250.000000
9438,-253.906250
9439,-257.812500
9440,-261.718750
9441,-265.625000
9442,-265.625000
9443,-273.437500
9444,-273.437500
9445,-277.343750
9446,-277.343750
9447,-281.250000
9448,-285.156250
9449,-285.156250
9450,-289.062500
9451,-292.968750
9452,-292.968750
9453,-296.875000
9454,-300.781250
9455,-300.781250
9456,-304.687500
9457,-304.687500
9458,-308.593750
9459,-308.593750
9460,-312.500000
9461,-312.500000
9462,-316.406250
9463,-316.406250
9464,-320.312500
9465,-320.312500
9466,-320.312500
9467,-324.218750
9468,-324.218750
9469,-324.218750
9470,-328.125000
9471,-328.125000
9472,-332.031250
9473,-332.031250
9474,-332.031250
9475,-332.031250
9476,-335.937500
9477,-335.937500
9478,-335.937500
9479,-335.937500
9480,-335.937500
9481,-335.937500
9482,-335.937500
9483,-335.937500
9484,-339.843750
9485,-339.843750
9486,-339.843750
9487,-339.843750
9488,-339.843750
9489,-339.843750
9490,-339.843750
9491,-339.843750
9492,-339.843750
9493,-339.843750
9494,-339.843750
9495,-335.937500
9496,-335.937500
9497,-335.937500
9498,-335.937500
9499,-335.937500
9500,-335.937500
9501,-332.031250
9502,-332.031250
9503,-332.031250
9504,-332.031250
9505,-328.125000
9506,-328.125000
9507,-328.125000
9508,-328.125000
9509,-324.218750
9510,-324.218750
9511,-320.312500
9512,-320.312500
9513,-316.406250
9514,-316.406250
9515,-316.406250
9516,-312.500000
9517,-312.500000
9518,-308.593750
9519,-308.593750
9520,-304.687500
9521,-304.687500
9522,-300.781250
9523,-296.875000
9524,-296.875000
9525,-296.875000
9526,-292.968750
9527,-289.062500
9528,-285.156250
9529,-285.156250
9530,-281.250000
9531,-277.343750
9532,-277.343750
9533,-273.437500
9534,-269.531250
9535,-269.531250
9536,-265.625000
9537,-261.718750
9538,-257.812500
9539,-253.906250
9540,-250.000000
9541,-250.000000
9542,-246.093750
9543,-242.187500
9544,-238.281250
9545,-234.375000
9546,-230.468750
9547,-226.562500
9548,-222.656250
9549,-218.750000
9550,-218.750000
9551,-214.843750
9552,-210.937500
9553,-203.125000
9554,-203.125000
9555,-199.218750
9556,-195.312500
9557,-191.406250
9558,-187.500000
9559,-179.687500
9560,-175.781250
9561,-171.875000
9562,-167.968750
9563,-164.062500
9564,-160.156250
9565,-156.250000
9566,-152.343750
9567,-148.437500
9568,-144.531250
9569,-140.625000
9570,-136.718750
9571,-132.812500
9572,-125.000000
9573,-121.093750
9574,-117.187500
9575,-113.281250
9576,-109.375000
9577,-105.468750
9578,-101.562500
9579,-97.656250
9580,-89.843750
9581,-85.937500
9582,-82.031250
9583,-78.125000
9584,-74.218750
9585,-70.312500
9586,-66.406250
9587,-62.500000
9588,-54.687500
9589,-50.781250
9590,-50.781250
9591,-42.968750
9592,-39.062500
9593,-35.156250
9594,-31.250000
9595,-27.343750
9596,-23.437500
9597,-19.531250
9598,-15.625000
9599,-11.718750
9600,-7.812500
9601,-3.906250
9602,0.000000
9603,3.906250
9604,7.812500
9605,11.718750
9606,15.625000
9607,19.531250
9608,23.437500
9609,27.343750
9610,31.250000
9611,35.156250
9612,39.062500
9613,42.968750
9614,46.875000
9615,50.781250
9616,54.687500
9617,58.593750
9618,62.500000
9619,62.500000
9620,66.406250
9621,70.312500
9622,74.218750
9623,78.125000
9624,82.031250
9625,82.031250
9626,85.937500
9627,89.843750
9628,93.750000
9629,93.750000
9630,97.656250
9631,101.562500
9632,105.468750
9633,105.468750
9634,109.375000
9635,113.281250
9636,113.281250
9637,117.187500
9638,121.093750
9639,121.093750
9640,125.000000
9641,128.906250
9642,128.906250
9643,132.812500
9644,132.812500
9645,136.718750
9646,136.718750
9647,140.625000
9648,140.625000
9649,144.531250
9650,148.437500
9651,148.437500
9652,148.437500
9653,152.343750
9654,152.343750
9655,156.250000
9656,156.250000
9657,160.156250
9658,160.156250
9659,160.156250
9660,160.156250
9661,164.062500
9662,164.062500
9663,167.968750
9664,167.968750
9665,167.968750
9666,167.968750
9667,171.875000
9668,171.875000
9669,171.875000
9670,175.781250
9671,175.781250
9672,175.781250
9673,179.687500
9674,179.687500
9675,179.687500
9676,179.687500
9677,179.687500
9678,179.687500
9679,183.593750
9680,183.593750
9681,183.593750
9682,183.593750
9683,183.593750
9684,183.593750
9685,183.593750
9686,183.593750
9687,183.593750
9688,187.500000
9689,187.500000
9690,187.500000
9691,183.593750
9692,187.500000
9693,187.500000
9694,187.500000
9695,187.500000
9696,187.500000
9697,187.500000
9698,187.500000
9699,187.500000
9700,187.500000
9701,187.500000
9702,187.500000
9703,187.500000
9704,187.500000
9705,187.500000
9706,187.500000
9707,183.593750
9708,187.500000
9709,183.593750
9710,183.593750
9711,183.593750
9712,183.593750
9713,183.593750
9714,183.593750
9715,179.687500
9716,179.687500
9717,179.687500
9718,179.687500
9719,179.687500
9720,179.687500
9721,175.781250
9722,175.781250
9723,175.781250
9724,175.781250
9725,171.875000
9726,171.875000
9727,171.875000
9728,167.968750
9729,167.968750
9730,167.968750
9731,164.062500
9732,164.062500
9733,164.062500
9734,160.156250
9735,160.156250
9736,160.156250
9737,156.250000
9738,156.250000
9739,152.343750
9740,152.343750
9741,148.437500
9742,148.437500
9743,144.531250
9744,144.531250
9745,144.531250
9746,140.625000
9747,140.625000
9748,136.718750
9749,132.812500
9750,132.812500
9751,128.906250
9752,128.906250
9753,125.000000
9754,121.093750
9755,121.093750
9756,117.187500
9757,117.187500
9758,113.281250
9759,109.375000
9760,105.468750
9761,105.468750
9762,101.562500
9763,97.656250
9764,97.656250
9765,93.750000
9766,89.843750
9767,89.843750
9768,85.937500
9769,82.031250
9770,78.125000
9771,74.218750
9772,70.312500
9773,66.406250
9774,66.406250
9775,62.500000
9776,58.593750
9777,54.687500
9778,50.781250
9779,46.875000
9780,42.968750
9781,39.062500
9782,35.156250
9783,31.250000
9784,31.250000
9785,27.343750
9786,19.531250
9787,19.531250
9788,15.625000
9789,7.812500
9790,3.906250
9791,3.906250
9792,-3.906250
9793,-7.812500
9794,-11.718750
9795,-15.625000
9796,-19.531250
9797,-23.437500
9798,-27.343750
9799,-31.250000
9800,-31.250000
9801,-39.062500
9802,-46.875000
9803,-46.875000
9804,-54.687500
9805,-58.593750
9806,-62.500000
9807,-66.406250
9808,-70.312500
9809,-74.218750
9810,-78.125000
9811,-82.031250
9812,-82.031250
9813,-89.843750
9814,-97.656250
9815,-101.562500
9816,-105.468750
9817,-109.375000
9818,-113.281250
9819,-117.187500
9820,-121.093750
9821,-125.000000
9822,-128.906250
9823,-132.812500
9824,-140.625000
9825,-144.531250
9826,-144.531250
9827,-152.343750
9828,-156.250000
9829,-160.156250
9830,-164.062500
9831,-167.968750
9832,-171.875000
9833,-175.781250
9834,-179.687500
9835,-183.593750
9836,-187.500000
9837,-191.406250
9838,-195.312500
9839,-199.218750
9840,-203.125000
9841,-207.031250
9842,-210.937500
9843,-214.843750
9844,-218.750000
9845,-222.656250
9846,-226.562500
9847,-230.468750
9848,-234.375000
9849,-238.281250
9850,-238.281250
9851,-242.187500
9852,-246.093750
9853,-250.000000
9854,-253.906250
9855,-257.812500
9856,-257.812500
9857,-261.718750
9858,-265.625000
9859,-269.531250
9860,-273.437500
9861,-273.437500
9862,-277.343750
9863,-281.250000
9864,-285.156250
9865,-285.156250
9866,-289.062500
9867,-292.968750
9868,-292.968750
9869,-296.875000
9870,-296.875000
9871,-300.781250
9872,-300.781250
9873,-304.687500
9874,-304.687500
9875,-308.593750
9876,-308.593750
9877,-312.500000
9878,-312.500000
9879,-316.406250
9880,-316.406250
9881,-320.312500
9882,-320.312500
9883,-324.218750
9884,-324.218750
9885,-324.218750
9886,-328.125000
9887,-328.125000
9888,-328.125000
9889,-332.031250
9890,-332.031250
9891,-332.031250
9892,-332.031250
9893,-335.937500
9894,-335.937500
9895,-335.937500
9896,-335.937500
9897,-335.937500
9898,-335.937500
9899,-339.843750
9900,-339.843750
9901,-339.843750
9902,-339.843750
9903,-339.843750
9904,-339.843750
9905,-339.843750
9906,-339.843750
9907,-339.843750
9908,-335.937500
9909,-339.843750
9910,-339.843750
9911,-339.843750
9912,-339.843750
9913,-335.937500
9914,-335.937500
9915,-335.937500
9916,-335.937500
9917,-335.937500
9918,-332.031250
9919,-332.031250
9920,-332.031250
9921,-332.031250
9922,-332.031250
9923,-328.125000
9924,-328.125000
9925,-328.125000
9926,-324.218750
9927,-324.218750
9928,-324.218750
9929,-320.312500
9930,-320.312500
9931,-316.406250
9932,-316.406250
9933,-316.406250
9934,-312.500000
9935,-308.593750
9936,-308.593750
9937,-304.687500
9938,-304.687500
9939,-300.781250
9940,-296.875000
9941,-296.875000
9942,-292.968750
9943,-292.968750
9944,-289.062500
9945,-289.062500
9946,-285.156250
9947,-285.156250
9948,-277.343750
9949,-277.343750
9950,-273.437500
9951,-269.531250
9952,-265.625000
9953,-261.718750
9954,-261.718750
9955,-257.812500
9956,-253.906250
9957,-250.000000
9958,-250.000000
9959,-246.093750
9960,-242.187500
9961,-238.281250
9962,-234.375000
9963,-230.468750
9964,-226.562500
9965,-222.656250
9966,-218.750000
9967,-214.843750
9968,-210.937500
9969,-207.031250
9970,-203.125000
9971,-199.218750
9972,-199.218750
9973,-191.406250
9974,-187.500000
9975,-187.500000
9976,-179.687500
9977,-175.781250
9978,-171.875000
9979,-167.968750
9980,-164.062500
9981,-160.156250
9982,-156.250000
9983,-152.343750
9984,-148.437500
9985,-144.531250
9986,-140.625000
9987,-136.718750
9988,-132.812500
9989,-125.000000
9990,-121.093750
9991,-117.187500
9992,-113.281250
9993,-109.375000
9994,-105.468750
9995,-101.562500
9996,-97.656250
9997,-89.843750
9998,-85.937500
9999,-82.031250
10000,-78.125000
