Channel              :,CH1
Frequency            :,1.980kHz
Period               :,0.505ms
PK-PK                :,246.1mV
Probe attenuation    :,1X
Voltage per ADC value:,0.122070mV
Time interval        :,1.00000us

index,CH1_Voltage(mV)
1,64.453125
2,64.453125
3,64.453125
4,66.406250
5,68.359375
6,70.312500
7,70.312500
8,72.265625
9,72.265625
10,74.218750
11,76.171875
12,76.171875
13,78.125000
14,78.125000
15,80.078125
16,80.078125
17,82.031250
18,82.031250
19,83.984375
20,85.937500
21,85.937500
22,85.937500
23,87.890625
24,89.843750
25,89.843750
26,91.796875
27,91.796875
28,91.796875
29,93.750000
30,93.750000
31,95.703125
32,95.703125
33,97.656250
34,97.656250
35,99.609375
36,99.609375
37,101.562500
38,101.562500
39,101.562500
40,103.515625
41,103.515625
42,103.515625
43,105.468750
44,105.468750
45,107.421875
46,107.421875
47,107.421875
48,107.421875
49,109.375000
50,109.375000
51,111.328125
52,111.328125
53,111.328125
54,111.328125
55,111.328125
56,113.281250
57,113.281250
58,113.281250
59,115.234375
60,115.234375
61,115.234375
62,115.234375
63,117.187500
64,117.187500
65,117.187500
66,117.187500
67,119.140625
68,119.140625
69,119.140625
70,119.140625
71,119.140625
72,119.140625
73,119.140625
74,121.093750
75,121.093750
76,121.093750
77,121.093750
78,121.093750
79,121.093750
80,121.093750
81,121.093750
82,121.093750
83,121.093750
84,121.093750
85,121.093750
86,121.093750
87,121.093750
88,121.093750
89,123.046875
90,123.046875
91,123.046875
92,121.093750
93,121.093750
94,121.093750
95,121.093750
96,123.046875
97,121.093750
98,123.046875
99,121.093750
100,121.093750
101,121.093750
102,121.093750
103,121.093750
104,121.093750
105,121.093750
106,119.140625
107,119.140625
108,119.140625
109,119.140625
110,119.140625
111,119.140625
112,119.140625
113,117.187500
114,117.187500
115,117.187500
116,117.187500
117,117.187500
118,117.187500
119,115.234375
120,115.234375
121,115.234375
122,113.281250
123,113.281250
124,113.281250
125,113.281250
126,113.281250
127,111.328125
128,111.328125
129,111.328125
130,109.375000
131,109.375000
132,109.375000
133,107.421875
134,107.421875
135,107.421875
136,105.468750
137,105.468750
138,103.515625
139,103.515625
140,103.515625
141,101.562500
142,101.562500
143,101.562500
144,99.609375
145,99.609375
146,97.656250
147,97.656250
148,95.703125
149,95.703125
150,95.703125
151,93.750000
152,93.750000
153,91.796875
154,89.843750
155,89.843750
156,87.890625
157,87.890625
158,87.890625
159,85.937500
160,85.937500
161,83.984375
162,83.984375
163,82.031250
164,80.078125
165,80.078125
166,78.125000
167,78.125000
168,76.171875
169,76.171875
170,74.218750
171,72.265625
172,70.312500
173,70.312500
174,68.359375
175,68.359375
176,66.406250
177,64.453125
178,64.453125
179,62.500000
180,62.500000
181,60.546875
182,58.593750
183,56.640625
184,56.640625
185,54.687500
186,52.734375
187,50.781250
188,50.781250
189,48.828125
190,48.828125
191,46.875000
192,44.921875
193,42.968750
194,42.968750
195,41.015625
196,39.062500
197,37.109375
198,37.109375
199,35.156250
200,33.203125
201,31.250000
202,31.250000
203,29.296875
204,27.343750
205,25.390625
206,23.437500
207,23.437500
208,21.484375
209,19.531250
210,19.531250
211,17.578125
212,15.625000
213,13.671875
214,13.671875
215,11.718750
216,9.765625
217,7.812500
218,5.859375
219,5.859375
220,3.906250
221,1.953125
222,0.000000
223,-1.953125
224,-1.953125
225,-3.906250
226,-5.859375
227,-7.812500
228,-9.765625
229,-11.718750
230,-13.671875
231,-13.671875
232,-15.625000
233,-17.578125
234,-17.578125
235,-19.531250
236,-21.484375
237,-23.437500
238,-25.390625
239,-25.390625
240,-27.343750
241,-29.296875
242,-31.250000
243,-33.203125
244,-33.203125
245,-35.156250
246,-37.109375
247,-39.062500
248,-39.062500
249,-41.015625
250,-42.968750
251,-44.921875
252,-46.875000
253,-46.875000
254,-48.828125
255,-50.781250
256,-50.781250
257,-52.734375
258,-54.687500
259,-56.640625
260,-56.640625
261,-58.593750
262,-58.593750
263,-60.546875
264,-62.500000
265,-64.453125
266,-64.453125
267,-66.406250
268,-68.359375
269,-68.359375
270,-70.312500
271,-72.265625
272,-74.218750
273,-74.218750
274,-76.171875
275,-76.171875
276,-78.125000
277,-80.078125
278,-80.078125
279,-82.031250
280,-83.984375
281,-83.984375
282,-85.937500
283,-85.937500
284,-85.937500
285,-87.890625
286,-89.843750
287,-89.843750
288,-91.796875
289,-93.750000
290,-93.750000
291,-95.703125
292,-95.703125
293,-95.703125
294,-97.656250
295,-99.609375
296,-99.609375
297,-99.609375
298,-101.562500
299,-101.562500
300,-103.515625
301,-103.515625
302,-105.468750
303,-105.468750
304,-105.468750
305,-107.421875
306,-107.421875
307,-109.375000
308,-109.375000
309,-109.375000
310,-111.328125
311,-111.328125
312,-111.328125
313,-113.281250
314,-113.281250
315,-113.281250
316,-115.234375
317,-115.234375
318,-115.234375
319,-115.234375
320,-117.187500
321,-117.187500
322,-117.187500
323,-117.187500
324,-117.187500
325,-119.140625
326,-119.140625
327,-119.140625
328,-119.140625
329,-119.140625
330,-119.140625
331,-121.093750
332,-121.093750
333,-121.093750
334,-121.093750
335,-121.093750
336,-121.093750
337,-121.093750
338,-121.093750
339,-123.046875
340,-121.093750
341,-121.093750
342,-121.093750
343,-121.093750
344,-121.093750
345,-121.093750
346,-121.093750
347,-121.093750
348,-121.093750
349,-121.093750
350,-121.093750
351,-121.093750
352,-121.093750
353,-121.093750
354,-121.093750
355,-119.140625
356,-119.140625
357,-119.140625
358,-119.140625
359,-119.140625
360,-117.187500
361,-117.187500
362,-117.187500
363,-117.187500
364,-115.234375
365,-115.234375
366,-115.234375
367,-115.234375
368,-115.234375
369,-115.234375
370,-113.281250
371,-113.281250
372,-113.281250
373,-111.328125
374,-109.375000
375,-109.375000
376,-109.375000
377,-109.375000
378,-107.421875
379,-107.421875
380,-107.421875
381,-105.468750
382,-105.468750
383,-103.515625
384,-103.515625
385,-101.562500
386,-101.562500
387,-101.562500
388,-99.609375
389,-97.656250
390,-97.656250
391,-97.656250
392,-95.703125
393,-95.703125
394,-93.750000
395,-93.750000
396,-91.796875
397,-89.843750
398,-89.843750
399,-89.843750
400,-87.890625
401,-85.937500
402,-85.937500
403,-83.984375
404,-83.984375
405,-82.031250
406,-80.078125
407,-80.078125
408,-78.125000
409,-78.125000
410,-76.171875
411,-74.218750
412,-72.265625
413,-72.265625
414,-70.312500
415,-70.312500
416,-68.359375
417,-66.406250
418,-66.406250
419,-64.453125
420,-62.500000
421,-60.546875
422,-60.546875
423,-58.593750
424,-56.640625
425,-56.640625
426,-54.687500
427,-52.734375
428,-50.781250
429,-50.781250
430,-48.828125
431,-46.875000
432,-44.921875
433,-44.921875
434,-42.968750
435,-41.015625
436,-39.062500
437,-39.062500
438,-37.109375
439,-35.156250
440,-33.203125
441,-31.250000
442,-31.250000
443,-29.296875
444,-27.343750
445,-25.390625
446,-25.390625
447,-23.437500
448,-21.484375
449,-19.531250
450,-17.578125
451,-17.578125
452,-15.625000
453,-13.671875
454,-11.718750
455,-11.718750
456,-9.765625
457,-7.812500
458,-5.859375
459,-5.859375
460,-3.906250
461,-1.953125
462,0.000000
463,1.953125
464,1.953125
465,3.906250
466,5.859375
467,7.812500
468,9.765625
469,9.765625
470,11.718750
471,13.671875
472,15.625000
473,15.625000
474,17.578125
475,19.531250
476,21.484375
477,21.484375
478,23.437500
479,25.390625
480,27.343750
481,29.296875
482,29.296875
483,31.250000
484,33.203125
485,35.156250
486,35.156250
487,37.109375
488,39.062500
489,41.015625
490,41.015625
491,42.968750
492,44.921875
493,44.921875
494,46.875000
495,48.828125
496,50.781250
497,50.781250
498,52.734375
499,52.734375
500,54.687500
501,56.640625
502,56.640625
503,58.593750
504,60.546875
505,62.500000
506,62.500000
507,64.453125
508,66.406250
509,66.406250
510,68.359375
511,68.359375
512,70.312500
513,70.312500
514,72.265625
515,74.218750
516,74.218750
517,76.171875
518,76.171875
519,78.125000
520,80.078125
521,80.078125
522,82.031250
523,82.031250
524,83.984375
525,85.937500
526,85.937500
527,85.937500
528,87.890625
529,89.843750
530,89.843750
531,91.796875
532,91.796875
533,91.796875
534,93.750000
535,93.750000
536,95.703125
537,95.703125
538,97.656250
539,97.656250
540,99.609375
541,99.609375
542,99.609375
543,101.562500
544,101.562500
545,103.515625
546,103.515625
547,105.468750
548,105.468750
549,105.468750
550,107.421875
551,107.421875
552,109.375000
553,107.421875
554,109.375000
555,109.375000
556,111.328125
557,111.328125
558,111.328125
559,113.281250
560,113.281250
561,113.281250
562,113.281250
563,113.281250
564,115.234375
565,115.234375
566,115.234375
567,115.234375
568,117.187500
569,117.187500
570,117.187500
571,117.187500
572,117.187500
573,117.187500
574,119.140625
575,119.140625
576,119.140625
577,119.140625
578,119.140625
579,121.093750
580,121.093750
581,121.093750
582,121.093750
583,121.093750
584,121.093750
585,121.093750
586,121.093750
587,121.093750
588,121.093750
589,121.093750
590,123.046875
591,123.046875
592,121.093750
593,121.093750
594,123.046875
595,123.046875
596,123.046875
597,123.046875
598,123.046875
599,123.046875
600,123.046875
601,123.046875
602,121.093750
603,121.093750
604,121.093750
605,121.093750
606,121.093750
607,121.093750
608,121.093750
609,121.093750
610,121.093750
611,119.140625
612,119.140625
613,119.140625
614,119.140625
615,119.140625
616,119.140625
617,119.140625
618,119.140625
619,117.187500
620,117.187500
621,117.187500
622,115.234375
623,115.234375
624,117.187500
625,115.234375
626,115.234375
627,115.234375
628,113.281250
629,113.281250
630,113.281250
631,111.328125
632,111.328125
633,111.328125
634,111.328125
635,109.375000
636,109.375000
637,109.375000
638,107.421875
639,107.421875
640,105.468750
641,105.468750
642,105.468750
643,105.468750
644,103.515625
645,103.515625
646,101.562500
647,101.562500
648,101.562500
649,99.609375
650,99.609375
651,97.656250
652,97.656250
653,97.656250
654,95.703125
655,93.750000
656,93.750000
657,93.750000
658,89.843750
659,91.796875
660,89.843750
661,89.843750
662,87.890625
663,85.937500
664,85.937500
665,85.937500
666,83.984375
667,83.984375
668,82.031250
669,80.078125
670,80.078125
671,78.125000
672,78.125000
673,76.171875
674,74.218750
675,74.218750
676,72.265625
677,72.265625
678,70.312500
679,68.359375
680,68.359375
681,66.406250
682,64.453125
683,64.453125
684,62.500000
685,62.500000
686,60.546875
687,58.593750
688,58.593750
689,56.640625
690,54.687500
691,54.687500
692,52.734375
693,50.781250
694,48.828125
695,48.828125
696,46.875000
697,44.921875
698,44.921875
699,42.968750
700,41.015625
701,41.015625
702,37.109375
703,37.109375
704,35.156250
705,33.203125
706,33.203125
707,31.250000
708,29.296875
709,27.343750
710,27.343750
711,25.390625
712,23.437500
713,21.484375
714,19.531250
715,19.531250
716,17.578125
717,15.625000
718,13.671875
719,13.671875
720,11.718750
721,9.765625
722,7.812500
723,7.812500
724,5.859375
725,3.906250
726,1.953125
727,0.000000
728,-1.953125
729,-1.953125
730,-3.906250
731,-5.859375
732,-7.812500
733,-9.765625
734,-9.765625
735,-13.671875
736,-13.671875
737,-15.625000
738,-17.578125
739,-19.531250
740,-19.531250
741,-21.484375
742,-23.437500
743,-25.390625
744,-25.390625
745,-29.296875
746,-29.296875
747,-31.250000
748,-31.250000
749,-33.203125
750,-35.156250
751,-37.109375
752,-39.062500
753,-39.062500
754,-41.015625
755,-42.968750
756,-42.968750
757,-44.921875
758,-46.875000
759,-48.828125
760,-50.781250
761,-50.781250
762,-52.734375
763,-54.687500
764,-54.687500
765,-56.640625
766,-58.593750
767,-60.546875
768,-60.546875
769,-62.500000
770,-64.453125
771,-66.406250
772,-66.406250
773,-68.359375
774,-68.359375
775,-70.312500
776,-72.265625
777,-72.265625
778,-74.218750
779,-76.171875
780,-76.171875
781,-78.125000
782,-78.125000
783,-80.078125
784,-82.031250
785,-83.984375
786,-83.984375
787,-85.937500
788,-85.937500
789,-87.890625
790,-87.890625
791,-89.843750
792,-89.843750
793,-91.796875
794,-91.796875
795,-93.750000
796,-93.750000
797,-95.703125
798,-97.656250
799,-97.656250
800,-99.609375
801,-99.609375
802,-99.609375
803,-101.562500
804,-101.562500
805,-103.515625
806,-103.515625
807,-105.468750
808,-105.468750
809,-105.468750
810,-107.421875
811,-107.421875
812,-107.421875
813,-109.375000
814,-109.375000
815,-111.328125
816,-111.328125
817,-111.328125
818,-113.281250
819,-113.281250
820,-113.281250
821,-115.234375
822,-115.234375
823,-115.234375
824,-115.234375
825,-117.187500
826,-117.187500
827,-117.187500
828,-117.187500
829,-117.187500
830,-117.187500
831,-119.140625
832,-119.140625
833,-119.140625
834,-119.140625
835,-119.140625
836,-119.140625
837,-121.093750
838,-121.093750
839,-121.093750
840,-121.093750
841,-121.093750
842,-121.093750
843,-121.093750
844,-121.093750
845,-121.093750
846,-121.093750
847,-121.093750
848,-121.093750
849,-121.093750
850,-121.093750
851,-121.093750
852,-121.093750
853,-121.093750
854,-121.093750
855,-121.093750
856,-121.093750
857,-119.140625
858,-121.093750
859,-119.140625
860,-119.140625
861,-119.140625
862,-119.140625
863,-119.140625
864,-119.140625
865,-119.140625
866,-117.187500
867,-117.187500
868,-117.187500
869,-117.187500
870,-115.234375
871,-115.234375
872,-115.234375
873,-115.234375
874,-113.281250
875,-113.281250
876,-113.281250
877,-111.328125
878,-111.328125
879,-111.328125
880,-109.375000
881,-109.375000
882,-109.375000
883,-109.375000
884,-107.421875
885,-107.421875
886,-105.468750
887,-105.468750
888,-103.515625
889,-103.515625
890,-101.562500
891,-101.562500
892,-99.609375
893,-99.609375
894,-97.656250
895,-97.656250
896,-95.703125
897,-95.703125
898,-93.750000
899,-93.750000
900,-91.796875
901,-91.796875
902,-89.843750
903,-89.843750
904,-89.843750
905,-87.890625
906,-85.937500
907,-83.984375
908,-83.984375
909,-83.984375
910,-82.031250
911,-82.031250
912,-80.078125
913,-78.125000
914,-76.171875
915,-76.171875
916,-74.218750
917,-72.265625
918,-72.265625
919,-70.312500
920,-70.312500
921,-68.359375
922,-66.406250
923,-64.453125
924,-64.453125
925,-62.500000
926,-60.546875
927,-60.546875
928,-58.593750
929,-56.640625
930,-54.687500
931,-54.687500
932,-52.734375
933,-50.781250
934,-48.828125
935,-48.828125
936,-46.875000
937,-44.921875
938,-44.921875
939,-42.968750
940,-42.968750
941,-41.015625
942,-37.109375
943,-37.109375
944,-35.156250
945,-33.203125
946,-33.203125
947,-31.250000
948,-29.296875
949,-27.343750
950,-25.390625
951,-25.390625
952,-23.437500
953,-21.484375
954,-19.531250
955,-19.531250
956,-17.578125
957,-15.625000
958,-13.671875
959,-13.671875
960,-11.718750
961,-9.765625
962,-7.812500
963,-5.859375
964,-5.859375
965,-3.906250
966,-1.953125
967,0.000000
968,1.953125
969,3.906250
970,5.859375
971,5.859375
972,7.812500
973,9.765625
974,11.718750
975,11.718750
976,13.671875
977,15.625000
978,17.578125
979,17.578125
980,21.484375
981,21.484375
982,21.484375
983,23.437500
984,25.390625
985,27.343750
986,29.296875
987,29.296875
988,31.250000
989,33.203125
990,35.156250
991,35.156250
992,37.109375
993,39.062500
994,39.062500
995,41.015625
996,42.968750
997,44.921875
998,44.921875
999,46.875000
1000,48.828125
1001,50.781250
1002,50.781250
1003,52.734375
1004,52.734375
1005,54.687500
1006,56.640625
1007,58.593750
1008,58.593750
1009,60.546875
1010,62.500000
1011,62.500000
1012,64.453125
1013,66.406250
1014,66.406250
1015,68.359375
1016,70.312500
1017,70.312500
1018,72.265625
1019,72.265625
1020,74.218750
1021,74.218750
1022,76.171875
1023,76.171875
1024,78.125000
1025,80.078125
1026,80.078125
1027,82.031250
1028,82.031250
1029,83.984375
1030,85.937500
1031,85.937500
1032,87.890625
1033,91.796875
1034,89.843750
1035,89.843750
1036,85.937500
1037,91.796875
1038,93.750000
1039,93.750000
1040,95.703125
1041,95.703125
1042,97.656250
1043,97.656250
1044,97.656250
1045,99.609375
1046,99.609375
1047,99.609375
1048,101.562500
1049,101.562500
1050,103.515625
1051,103.515625
1052,105.468750
1053,105.468750
1054,105.468750
1055,105.468750
1056,107.421875
1057,107.421875
1058,107.421875
1059,109.375000
1060,109.375000
1061,111.328125
1062,111.328125
1063,111.328125
1064,113.281250
1065,113.281250
1066,113.281250
1067,113.281250
1068,115.234375
1069,115.234375
1070,115.234375
1071,115.234375
1072,115.234375
1073,115.234375
1074,117.187500
1075,117.187500
1076,117.187500
1077,117.187500
1078,119.140625
1079,119.140625
1080,119.140625
1081,119.140625
1082,121.093750
1083,119.140625
1084,121.093750
1085,121.093750
1086,121.093750
1087,121.093750
1088,121.093750
1089,121.093750
1090,121.093750
1091,123.046875
1092,121.093750
1093,121.093750
1094,121.093750
1095,121.093750
1096,123.046875
1097,121.093750
1098,123.046875
1099,121.093750
1100,119.140625
1101,123.046875
1102,123.046875
1103,121.093750
1104,123.046875
1105,123.046875
1106,121.093750
1107,121.093750
1108,121.093750
1109,121.093750
1110,121.093750
1111,121.093750
1112,121.093750
1113,119.140625
1114,121.093750
1115,121.093750
1116,121.093750
1117,121.093750
1118,119.140625
1119,119.140625
1120,119.140625
1121,119.140625
1122,119.140625
1123,119.140625
1124,117.187500
1125,117.187500
1126,115.234375
1127,117.187500
1128,117.187500
1129,115.234375
1130,115.234375
1131,115.234375
1132,115.234375
1133,113.281250
1134,113.281250
1135,113.281250
1136,113.281250
1137,111.328125
1138,111.328125
1139,109.375000
1140,111.328125
1141,109.375000
1142,109.375000
1143,107.421875
1144,107.421875
1145,105.468750
1146,105.468750
1147,105.468750
1148,103.515625
1149,103.515625
1150,103.515625
1151,101.562500
1152,101.562500
1153,101.562500
1154,99.609375
1155,99.609375
1156,97.656250
1157,97.656250
1158,95.703125
1159,95.703125
1160,95.703125
1161,93.750000
1162,93.750000
1163,91.796875
1164,89.843750
1165,89.843750
1166,87.890625
1167,87.890625
1168,87.890625
1169,85.937500
1170,85.937500
1171,83.984375
1172,82.031250
1173,82.031250
1174,80.078125
1175,80.078125
1176,78.125000
1177,78.125000
1178,76.171875
1179,74.218750
1180,74.218750
1181,72.265625
1182,70.312500
1183,70.312500
1184,68.359375
1185,68.359375
1186,66.406250
1187,64.453125
1188,64.453125
1189,62.500000
1190,60.546875
1191,60.546875
1192,58.593750
1193,58.593750
1194,56.640625
1195,54.687500
1196,54.687500
1197,52.734375
1198,48.828125
1199,48.828125
1200,46.875000
1201,46.875000
1202,44.921875
1203,42.968750
1204,42.968750
1205,41.015625
1206,39.062500
1207,39.062500
1208,37.109375
1209,35.156250
1210,33.203125
1211,33.203125
1212,31.250000
1213,29.296875
1214,27.343750
1215,25.390625
1216,25.390625
1217,23.437500
1218,21.484375
1219,19.531250
1220,17.578125
1221,17.578125
1222,15.625000
1223,13.671875
1224,13.671875
1225,9.765625
1226,9.765625
1227,7.812500
1228,5.859375
1229,5.859375
1230,3.906250
1231,1.953125
1232,0.000000
1233,-1.953125
1234,-3.906250
1235,-3.906250
1236,-5.859375
1237,-7.812500
1238,-9.765625
1239,-9.765625
1240,-11.718750
1241,-13.671875
1242,-15.625000
1243,-17.578125
1244,-17.578125
1245,-19.531250
1246,-21.484375
1247,-23.437500
1248,-23.437500
1249,-25.390625
1250,-27.343750
1251,-29.296875
1252,-31.250000
1253,-33.203125
1254,-33.203125
1255,-35.156250
1256,-37.109375
1257,-39.062500
1258,-39.062500
1259,-41.015625
1260,-42.968750
1261,-44.921875
1262,-44.921875
1263,-46.875000
1264,-48.828125
1265,-48.828125
1266,-50.781250
1267,-52.734375
1268,-52.734375
1269,-54.687500
1270,-56.640625
1271,-58.593750
1272,-60.546875
1273,-60.546875
1274,-62.500000
1275,-64.453125
1276,-64.453125
1277,-66.406250
1278,-68.359375
1279,-68.359375
1280,-70.312500
1281,-72.265625
1282,-72.265625
1283,-74.218750
1284,-76.171875
1285,-76.171875
1286,-78.125000
1287,-80.078125
1288,-80.078125
1289,-82.031250
1290,-83.984375
1291,-83.984375
1292,-85.937500
1293,-85.937500
1294,-87.890625
1295,-87.890625
1296,-89.843750
1297,-89.843750
1298,-91.796875
1299,-93.750000
1300,-93.750000
1301,-95.703125
1302,-95.703125
1303,-95.703125
1304,-97.656250
1305,-97.656250
1306,-99.609375
1307,-99.609375
1308,-101.562500
1309,-101.562500
1310,-103.515625
1311,-103.515625
1312,-105.468750
1313,-105.468750
1314,-105.468750
1315,-107.421875
1316,-107.421875
1317,-109.375000
1318,-109.375000
1319,-109.375000
1320,-111.328125
1321,-111.328125
1322,-111.328125
1323,-113.281250
1324,-113.281250
1325,-113.281250
1326,-113.281250
1327,-115.234375
1328,-115.234375
1329,-117.187500
1330,-117.187500
1331,-117.187500
1332,-117.187500
1333,-117.187500
1334,-117.187500
1335,-117.187500
1336,-119.140625
1337,-117.187500
1338,-119.140625
1339,-119.140625
1340,-119.140625
1341,-121.093750
1342,-119.140625
1343,-121.093750
1344,-121.093750
1345,-121.093750
1346,-121.093750
1347,-121.093750
1348,-121.093750
1349,-121.093750
1350,-121.093750
1351,-121.093750
1352,-121.093750
1353,-121.093750
1354,-121.093750
1355,-121.093750
1356,-121.093750
1357,-121.093750
1358,-121.093750
1359,-121.093750
1360,-119.140625
1361,-121.093750
1362,-119.140625
1363,-119.140625
1364,-121.093750
1365,-119.140625
1366,-119.140625
1367,-119.140625
1368,-117.187500
1369,-117.187500
1370,-117.187500
1371,-117.187500
1372,-117.187500
1373,-117.187500
1374,-117.187500
1375,-115.234375
1376,-115.234375
1377,-115.234375
1378,-113.281250
1379,-113.281250
1380,-113.281250
1381,-113.281250
1382,-111.328125
1383,-111.328125
1384,-111.328125
1385,-109.375000
1386,-109.375000
1387,-109.375000
1388,-107.421875
1389,-107.421875
1390,-105.468750
1391,-105.468750
1392,-105.468750
1393,-105.468750
1394,-103.515625
1395,-101.562500
1396,-101.562500
1397,-101.562500
1398,-99.609375
1399,-99.609375
1400,-97.656250
1401,-97.656250
1402,-95.703125
1403,-93.750000
1404,-93.750000
1405,-93.750000
1406,-91.796875
1407,-89.843750
1408,-89.843750
1409,-87.890625
1410,-87.890625
1411,-85.937500
1412,-85.937500
1413,-83.984375
1414,-83.984375
1415,-82.031250
1416,-80.078125
1417,-80.078125
1418,-78.125000
1419,-78.125000
1420,-76.171875
1421,-74.218750
1422,-72.265625
1423,-72.265625
1424,-70.312500
1425,-70.312500
1426,-68.359375
1427,-66.406250
1428,-66.406250
1429,-64.453125
1430,-62.500000
1431,-60.546875
1432,-58.593750
1433,-58.593750
1434,-58.593750
1435,-56.640625
1436,-56.640625
1437,-52.734375
1438,-50.781250
1439,-50.781250
1440,-48.828125
1441,-46.875000
1442,-44.921875
1443,-44.921875
1444,-42.968750
1445,-41.015625
1446,-42.968750
1447,-39.062500
1448,-37.109375
1449,-35.156250
1450,-35.156250
1451,-33.203125
1452,-31.250000
1453,-29.296875
1454,-27.343750
1455,-27.343750
1456,-23.437500
1457,-23.437500
1458,-21.484375
1459,-21.484375
1460,-19.531250
1461,-17.578125
1462,-15.625000
1463,-13.671875
1464,-11.718750
1465,-11.718750
1466,-9.765625
1467,-7.812500
1468,-5.859375
1469,-5.859375
1470,-3.906250
1471,-1.953125
1472,0.000000
1473,1.953125
1474,3.906250
1475,3.906250
1476,5.859375
1477,7.812500
1478,9.765625
1479,11.718750
1480,11.718750
1481,13.671875
1482,15.625000
1483,17.578125
1484,17.578125
1485,19.531250
1486,21.484375
1487,23.437500
1488,23.437500
1489,25.390625
1490,27.343750
1491,27.343750
1492,29.296875
1493,31.250000
1494,33.203125
1495,35.156250
1496,35.156250
1497,37.109375
1498,39.062500
1499,39.062500
1500,41.015625
1501,42.968750
1502,42.968750
1503,44.921875
1504,46.875000
1505,46.875000
1506,50.781250
1507,50.781250
1508,52.734375
1509,54.687500
1510,54.687500
1511,56.640625
1512,56.640625
1513,58.593750
1514,60.546875
1515,62.500000
1516,62.500000
1517,64.453125
1518,68.359375
1519,66.406250
1520,68.359375
1521,68.359375
1522,70.312500
1523,70.312500
1524,72.265625
1525,74.218750
1526,76.171875
1527,76.171875
1528,76.171875
1529,78.125000
1530,80.078125
1531,80.078125
1532,82.031250
1533,82.031250
1534,83.984375
1535,85.937500
1536,85.937500
1537,85.937500
1538,87.890625
1539,89.843750
1540,89.843750
1541,89.843750
1542,91.796875
1543,91.796875
1544,93.750000
1545,95.703125
1546,95.703125
1547,95.703125
1548,97.656250
1549,97.656250
1550,97.656250
1551,99.609375
1552,99.609375
1553,101.562500
1554,101.562500
1555,103.515625
1556,103.515625
1557,105.468750
1558,105.468750
1559,105.468750
1560,107.421875
1561,107.421875
1562,107.421875
1563,109.375000
1564,109.375000
1565,109.375000
1566,109.375000
1567,111.328125
1568,111.328125
1569,111.328125
1570,113.281250
1571,113.281250
1572,113.281250
1573,113.281250
1574,115.234375
1575,115.234375
1576,115.234375
1577,117.187500
1578,117.187500
1579,117.187500
1580,117.187500
1581,117.187500
1582,119.140625
1583,117.187500
1584,119.140625
1585,119.140625
1586,119.140625
1587,119.140625
1588,121.093750
1589,121.093750
1590,121.093750
1591,121.093750
1592,121.093750
1593,121.093750
1594,121.093750
1595,121.093750
1596,121.093750
1597,121.093750
1598,121.093750
1599,121.093750
1600,121.093750
1601,121.093750
1602,121.093750
1603,121.093750
1604,121.093750
1605,123.046875
1606,121.093750
1607,123.046875
1608,123.046875
1609,123.046875
1610,121.093750
1611,123.046875
1612,121.093750
1613,121.093750
1614,121.093750
1615,121.093750
1616,121.093750
1617,121.093750
1618,121.093750
1619,121.093750
1620,121.093750
1621,121.093750
1622,121.093750
1623,119.140625
1624,119.140625
1625,119.140625
1626,119.140625
1627,119.140625
1628,119.140625
1629,117.187500
1630,117.187500
1631,117.187500
1632,117.187500
1633,115.234375
1634,115.234375
1635,115.234375
1636,115.234375
1637,115.234375
1638,113.281250
1639,113.281250
1640,113.281250
1641,111.328125
1642,111.328125
1643,111.328125
1644,111.328125
1645,109.375000
1646,109.375000
1647,109.375000
1648,109.375000
1649,107.421875
1650,107.421875
1651,105.468750
1652,105.468750
1653,105.468750
1654,103.515625
1655,103.515625
1656,101.562500
1657,101.562500
1658,101.562500
1659,99.609375
1660,99.609375
1661,97.656250
1662,97.656250
1663,97.656250
1664,95.703125
1665,95.703125
1666,93.750000
1667,91.796875
1668,91.796875
1669,91.796875
1670,89.843750
1671,89.843750
1672,87.890625
1673,87.890625
1674,85.937500
1675,83.984375
1676,83.984375
1677,82.031250
1678,82.031250
1679,80.078125
1680,80.078125
1681,78.125000
1682,78.125000
1683,76.171875
1684,74.218750
1685,74.218750
1686,72.265625
1687,72.265625
1688,70.312500
1689,68.359375
1690,68.359375
1691,66.406250
1692,66.406250
1693,64.453125
1694,62.500000
1695,60.546875
1696,60.546875
1697,58.593750
1698,56.640625
1699,56.640625
1700,54.687500
1701,52.734375
1702,52.734375
1703,50.781250
1704,48.828125
1705,48.828125
1706,46.875000
1707,44.921875
1708,42.968750
1709,42.968750
1710,41.015625
1711,41.015625
1712,39.062500
1713,37.109375
1714,35.156250
1715,35.156250
1716,33.203125
1717,31.250000
1718,29.296875
1719,27.343750
1720,27.343750
1721,25.390625
1722,23.437500
1723,21.484375
1724,19.531250
1725,19.531250
1726,17.578125
1727,15.625000
1728,13.671875
1729,13.671875
1730,11.718750
1731,9.765625
1732,7.812500
1733,5.859375
1734,5.859375
1735,3.906250
1736,1.953125
1737,0.000000
1738,0.000000
1739,-1.953125
1740,-3.906250
1741,-5.859375
1742,-5.859375
1743,-7.812500
1744,-9.765625
1745,-11.718750
1746,-13.671875
1747,-15.625000
1748,-15.625000
1749,-17.578125
1750,-19.531250
1751,-21.484375
1752,-23.437500
1753,-25.390625
1754,-25.390625
1755,-27.343750
1756,-29.296875
1757,-31.250000
1758,-31.250000
1759,-33.203125
1760,-35.156250
1761,-37.109375
1762,-37.109375
1763,-39.062500
1764,-41.015625
1765,-42.968750
1766,-42.968750
1767,-44.921875
1768,-46.875000
1769,-48.828125
1770,-48.828125
1771,-50.781250
1772,-52.734375
1773,-54.687500
1774,-54.687500
1775,-56.640625
1776,-58.593750
1777,-58.593750
1778,-60.546875
1779,-62.500000
1780,-62.500000
1781,-64.453125
1782,-66.406250
1783,-68.359375
1784,-68.359375
1785,-68.359375
1786,-72.265625
1787,-76.171875
1788,-74.218750
1789,-76.171875
1790,-76.171875
1791,-78.125000
1792,-78.125000
1793,-80.078125
1794,-80.078125
1795,-82.031250
1796,-83.984375
1797,-83.984375
1798,-83.984375
1799,-87.890625
1800,-87.890625
1801,-89.843750
1802,-89.843750
1803,-91.796875
1804,-91.796875
1805,-93.750000
1806,-91.796875
1807,-95.703125
1808,-99.609375
1809,-97.656250
1810,-97.656250
1811,-99.609375
1812,-101.562500
1813,-101.562500
1814,-101.562500
1815,-103.515625
1816,-103.515625
1817,-105.468750
1818,-105.468750
1819,-107.421875
1820,-107.421875
1821,-107.421875
1822,-109.375000
1823,-109.375000
1824,-109.375000
1825,-111.328125
1826,-111.328125
1827,-113.281250
1828,-113.281250
1829,-113.281250
1830,-113.281250
1831,-115.234375
1832,-115.234375
1833,-115.234375
1834,-115.234375
1835,-117.187500
1836,-117.187500
1837,-117.187500
1838,-117.187500
1839,-117.187500
1840,-117.187500
1841,-117.187500
1842,-119.140625
1843,-119.140625
1844,-119.140625
1845,-121.093750
1846,-123.046875
1847,-119.140625
1848,-119.140625
1849,-121.093750
1850,-121.093750
1851,-121.093750
1852,-121.093750
1853,-121.093750
1854,-121.093750
1855,-121.093750
1856,-121.093750
1857,-121.093750
1858,-121.093750
1859,-121.093750
1860,-121.093750
1861,-121.093750
1862,-121.093750
1863,-121.093750
1864,-121.093750
1865,-121.093750
1866,-121.093750
1867,-121.093750
1868,-119.140625
1869,-119.140625
1870,-119.140625
1871,-119.140625
1872,-119.140625
1873,-119.140625
1874,-119.140625
1875,-117.187500
1876,-117.187500
1877,-117.187500
1878,-117.187500
1879,-117.187500
1880,-115.234375
1881,-115.234375
1882,-115.234375
1883,-115.234375
1884,-115.234375
1885,-113.281250
1886,-111.328125
1887,-111.328125
1888,-111.328125
1889,-111.328125
1890,-111.328125
1891,-109.375000
1892,-109.375000
1893,-109.375000
1894,-107.421875
1895,-105.468750
1896,-105.468750
1897,-105.468750
1898,-103.515625
1899,-103.515625
1900,-103.515625
1901,-97.656250
1902,-101.562500
1903,-99.609375
1904,-97.656250
1905,-97.656250
1906,-97.656250
1907,-97.656250
1908,-95.703125
1909,-95.703125
1910,-95.703125
1911,-91.796875
1912,-93.750000
1913,-89.843750
1914,-87.890625
1915,-87.890625
1916,-85.937500
1917,-85.937500
1918,-85.937500
1919,-83.984375
1920,-82.031250
1921,-82.031250
1922,-80.078125
1923,-78.125000
1924,-78.125000
1925,-76.171875
1926,-74.218750
1927,-74.218750
1928,-72.265625
1929,-70.312500
1930,-70.312500
1931,-68.359375
1932,-66.406250
1933,-68.359375
1934,-64.453125
1935,-64.453125
1936,-60.546875
1937,-60.546875
1938,-58.593750
1939,-58.593750
1940,-56.640625
1941,-54.687500
1942,-52.734375
1943,-52.734375
1944,-50.781250
1945,-48.828125
1946,-46.875000
1947,-46.875000
1948,-44.921875
1949,-42.968750
1950,-41.015625
1951,-41.015625
1952,-39.062500
1953,-37.109375
1954,-35.156250
1955,-33.203125
1956,-33.203125
1957,-31.250000
1958,-29.296875
1959,-27.343750
1960,-27.343750
1961,-25.390625
1962,-23.437500
1963,-21.484375
1964,-19.531250
1965,-19.531250
1966,-17.578125
1967,-15.625000
1968,-13.671875
1969,-13.671875
1970,-11.718750
1971,-9.765625
1972,-7.812500
1973,-5.859375
1974,-5.859375
1975,-3.906250
1976,-1.953125
1977,0.000000
1978,1.953125
1979,1.953125
1980,3.906250
1981,5.859375
1982,7.812500
1983,7.812500
1984,11.718750
1985,11.718750
1986,13.671875
1987,15.625000
1988,17.578125
1989,17.578125
1990,19.531250
1991,21.484375
1992,23.437500
1993,23.437500
1994,25.390625
1995,27.343750
1996,29.296875
1997,29.296875
1998,31.250000
1999,33.203125
2000,35.156250
2001,35.156250
2002,37.109375
2003,37.109375
2004,39.062500
2005,41.015625
2006,42.968750
2007,44.921875
2008,44.921875
2009,46.875000
2010,48.828125
2011,48.828125
2012,50.781250
2013,50.781250
2014,52.734375
2015,54.687500
2016,56.640625
2017,56.640625
2018,58.593750
2019,60.546875
2020,60.546875
2021,62.500000
2022,64.453125
2023,64.453125
2024,66.406250
2025,66.406250
2026,68.359375
2027,70.312500
2028,70.312500
2029,72.265625
2030,74.218750
2031,74.218750
2032,76.171875
2033,76.171875
2034,78.125000
2035,78.125000
2036,80.078125
2037,82.031250
2038,82.031250
2039,83.984375
2040,85.937500
2041,85.937500
2042,85.937500
2043,87.890625
2044,87.890625
2045,89.843750
2046,89.843750
2047,91.796875
2048,91.796875
2049,93.750000
2050,93.750000
2051,95.703125
2052,95.703125
2053,95.703125
2054,97.656250
2055,97.656250
2056,99.609375
2057,99.609375
2058,101.562500
2059,101.562500
2060,103.515625
2061,103.515625
2062,103.515625
2063,105.468750
2064,105.468750
2065,105.468750
2066,107.421875
2067,107.421875
2068,107.421875
2069,109.375000
2070,109.375000
2071,109.375000
2072,111.328125
2073,111.328125
2074,111.328125
2075,113.281250
2076,113.281250
2077,113.281250
2078,113.281250
2079,115.234375
2080,115.234375
2081,115.234375
2082,117.187500
2083,117.187500
2084,117.187500
2085,117.187500
2086,117.187500
2087,117.187500
2088,117.187500
2089,119.140625
2090,119.140625
2091,119.140625
2092,119.140625
2093,119.140625
2094,121.093750
2095,121.093750
2096,121.093750
2097,121.093750
2098,121.093750
2099,121.093750
2100,121.093750
2101,121.093750
2102,121.093750
2103,121.093750
2104,123.046875
2105,121.093750
2106,123.046875
2107,123.046875
2108,121.093750
2109,121.093750
2110,123.046875
2111,123.046875
2112,123.046875
2113,121.093750
2114,123.046875
2115,121.093750
2116,123.046875
2117,123.046875
2118,123.046875
2119,121.093750
2120,121.093750
2121,121.093750
2122,121.093750
2123,121.093750
2124,121.093750
2125,121.093750
2126,121.093750
2127,121.093750
2128,119.140625
2129,119.140625
2130,119.140625
2131,119.140625
2132,119.140625
2133,119.140625
2134,119.140625
2135,117.187500
2136,117.187500
2137,117.187500
2138,117.187500
2139,115.234375
2140,115.234375
2141,115.234375
2142,115.234375
2143,113.281250
2144,113.281250
2145,113.281250
2146,113.281250
2147,111.328125
2148,111.328125
2149,109.375000
2150,109.375000
2151,109.375000
2152,109.375000
2153,109.375000
2154,107.421875
2155,105.468750
2156,107.421875
2157,105.468750
2158,105.468750
2159,103.515625
2160,103.515625
2161,101.562500
2162,101.562500
2163,101.562500
2164,99.609375
2165,99.609375
2166,97.656250
2167,97.656250
2168,97.656250
2169,95.703125
2170,95.703125
2171,93.750000
2172,93.750000
2173,91.796875
2174,91.796875
2175,89.843750
2176,89.843750
2177,87.890625
2178,85.937500
2179,85.937500
2180,85.937500
2181,83.984375
2182,83.984375
2183,82.031250
2184,80.078125
2185,80.078125
2186,78.125000
2187,78.125000
2188,76.171875
2189,74.218750
2190,76.171875
2191,72.265625
2192,72.265625
2193,70.312500
2194,70.312500
2195,68.359375
2196,66.406250
2197,64.453125
2198,64.453125
2199,62.500000
2200,62.500000
2201,60.546875
2202,58.593750
2203,56.640625
2204,56.640625
2205,54.687500
2206,54.687500
2207,52.734375
2208,50.781250
2209,48.828125
2210,48.828125
2211,46.875000
2212,44.921875
2213,44.921875
2214,42.968750
2215,41.015625
2216,39.062500
2217,39.062500
2218,37.109375
2219,35.156250
2220,33.203125
2221,31.250000
2222,31.250000
2223,29.296875
2224,27.343750
2225,27.343750
2226,25.390625
2227,23.437500
2228,21.484375
2229,21.484375
2230,19.531250
2231,17.578125
2232,15.625000
2233,13.671875
2234,11.718750
2235,11.718750
2236,9.765625
2237,7.812500
2238,7.812500
2239,5.859375
2240,3.906250
2241,1.953125
2242,1.953125
2243,-1.953125
2244,-1.953125
2245,-3.906250
2246,-5.859375
2247,-7.812500
2248,-7.812500
2249,-9.765625
2250,-11.718750
2251,-13.671875
2252,-15.625000
2253,-17.578125
2254,-17.578125
2255,-19.531250
2256,-21.484375
2257,-21.484375
2258,-25.390625
2259,-25.390625
2260,-27.343750
2261,-29.296875
2262,-31.250000
2263,-31.250000
2264,-33.203125
2265,-35.156250
2266,-37.109375
2267,-37.109375
2268,-39.062500
2269,-41.015625
2270,-42.968750
2271,-44.921875
2272,-44.921875
2273,-46.875000
2274,-48.828125
2275,-50.781250
2276,-50.781250
2277,-52.734375
2278,-54.687500
2279,-56.640625
2280,-56.640625
2281,-58.593750
2282,-58.593750
2283,-60.546875
2284,-62.500000
2285,-64.453125
2286,-64.453125
2287,-66.406250
2288,-68.359375
2289,-68.359375
2290,-70.312500
2291,-72.265625
2292,-72.265625
2293,-74.218750
2294,-76.171875
2295,-76.171875
2296,-78.125000
2297,-78.125000
2298,-80.078125
2299,-82.031250
2300,-82.031250
2301,-83.984375
2302,-85.937500
2303,-85.937500
2304,-87.890625
2305,-87.890625
2306,-89.843750
2307,-89.843750
2308,-91.796875
2309,-93.750000
2310,-93.750000
2311,-95.703125
2312,-95.703125
2313,-97.656250
2314,-97.656250
2315,-99.609375
2316,-99.609375
2317,-101.562500
2318,-101.562500
2319,-101.562500
2320,-101.562500
2321,-103.515625
2322,-105.468750
2323,-105.468750
2324,-105.468750
2325,-107.421875
2326,-107.421875
2327,-109.375000
2328,-109.375000
2329,-109.375000
2330,-111.328125
2331,-111.328125
2332,-111.328125
2333,-113.281250
2334,-113.281250
2335,-115.234375
2336,-115.234375
2337,-115.234375
2338,-115.234375
2339,-115.234375
2340,-115.234375
2341,-117.187500
2342,-117.187500
2343,-117.187500
2344,-117.187500
2345,-119.140625
2346,-119.140625
2347,-119.140625
2348,-119.140625
2349,-119.140625
2350,-119.140625
2351,-121.093750
2352,-121.093750
2353,-121.093750
2354,-121.093750
2355,-121.093750
2356,-121.093750
2357,-121.093750
2358,-121.093750
2359,-121.093750
2360,-121.093750
2361,-121.093750
2362,-121.093750
2363,-121.093750
2364,-121.093750
2365,-121.093750
2366,-121.093750
2367,-121.093750
2368,-121.093750
2369,-121.093750
2370,-121.093750
2371,-121.093750
2372,-121.093750
2373,-119.140625
2374,-121.093750
2375,-119.140625
2376,-119.140625
2377,-119.140625
2378,-119.140625
2379,-117.187500
2380,-119.140625
2381,-117.187500
2382,-117.187500
2383,-117.187500
2384,-117.187500
2385,-115.234375
2386,-115.234375
2387,-115.234375
2388,-115.234375
2389,-113.281250
2390,-113.281250
2391,-113.281250
2392,-111.328125
2393,-111.328125
2394,-111.328125
2395,-109.375000
2396,-109.375000
2397,-109.375000
2398,-107.421875
2399,-107.421875
2400,-107.421875
2401,-105.468750
2402,-105.468750
2403,-103.515625
2404,-103.515625
2405,-103.515625
2406,-101.562500
2407,-101.562500
2408,-99.609375
2409,-99.609375
2410,-97.656250
2411,-97.656250
2412,-95.703125
2413,-95.703125
2414,-93.750000
2415,-93.750000
2416,-91.796875
2417,-91.796875
2418,-89.843750
2419,-87.890625
2420,-87.890625
2421,-87.890625
2422,-85.937500
2423,-83.984375
2424,-83.984375
2425,-82.031250
2426,-80.078125
2427,-80.078125
2428,-78.125000
2429,-78.125000
2430,-76.171875
2431,-74.218750
2432,-74.218750
2433,-72.265625
2434,-70.312500
2435,-70.312500
2436,-68.359375
2437,-68.359375
2438,-66.406250
2439,-64.453125
2440,-62.500000
2441,-62.500000
2442,-60.546875
2443,-58.593750
2444,-56.640625
2445,-56.640625
2446,-54.687500
2447,-52.734375
2448,-52.734375
2449,-50.781250
2450,-48.828125
2451,-48.828125
2452,-46.875000
2453,-44.921875
2454,-42.968750
2455,-41.015625
2456,-39.062500
2457,-39.062500
2458,-37.109375
2459,-35.156250
2460,-35.156250
2461,-33.203125
2462,-31.250000
2463,-29.296875
2464,-27.343750
2465,-27.343750
2466,-25.390625
2467,-23.437500
2468,-21.484375
2469,-19.531250
2470,-19.531250
2471,-17.578125
2472,-15.625000
2473,-13.671875
2474,-13.671875
2475,-11.718750
2476,-9.765625
2477,-7.812500
2478,-5.859375
2479,-5.859375
2480,-3.906250
2481,-1.953125
2482,0.000000
2483,1.953125
2484,1.953125
2485,3.906250
2486,5.859375
2487,5.859375
2488,7.812500
2489,9.765625
2490,13.671875
2491,11.718750
2492,15.625000
2493,15.625000
2494,17.578125
2495,19.531250
2496,21.484375
2497,21.484375
2498,23.437500
2499,25.390625
2500,25.390625
2501,27.343750
2502,29.296875
2503,31.250000
2504,33.203125
2505,33.203125
2506,35.156250
2507,37.109375
2508,39.062500
2509,39.062500
2510,41.015625
2511,42.968750
2512,44.921875
2513,44.921875
2514,46.875000
2515,48.828125
2516,48.828125
2517,50.781250
2518,52.734375
2519,54.687500
2520,54.687500
2521,56.640625
2522,56.640625
2523,58.593750
2524,60.546875
2525,60.546875
2526,62.500000
2527,64.453125
2528,66.406250
2529,66.406250
2530,68.359375
2531,68.359375
2532,70.312500
2533,72.265625
2534,72.265625
2535,72.265625
2536,74.218750
2537,76.171875
2538,78.125000
2539,78.125000
2540,80.078125
2541,80.078125
2542,82.031250
2543,82.031250
2544,83.984375
2545,83.984375
2546,85.937500
2547,85.937500
2548,87.890625
2549,87.890625
2550,89.843750
2551,89.843750
2552,91.796875
2553,91.796875
2554,93.750000
2555,93.750000
2556,95.703125
2557,95.703125
2558,97.656250
2559,97.656250
2560,97.656250
2561,99.609375
2562,99.609375
2563,101.562500
2564,101.562500
2565,103.515625
2566,103.515625
2567,103.515625
2568,105.468750
2569,105.468750
2570,107.421875
2571,107.421875
2572,107.421875
2573,107.421875
2574,109.375000
2575,109.375000
2576,111.328125
2577,111.328125
2578,111.328125
2579,111.328125
2580,113.281250
2581,113.281250
2582,113.281250
2583,113.281250
2584,115.234375
2585,115.234375
2586,115.234375
2587,115.234375
2588,117.187500
2589,117.187500
2590,117.187500
2591,117.187500
2592,119.140625
2593,119.140625
2594,115.234375
2595,119.140625
2596,119.140625
2597,119.140625
2598,121.093750
2599,121.093750
2600,121.093750
2601,121.093750
2602,121.093750
2603,121.093750
2604,119.140625
2605,121.093750
2606,121.093750
2607,121.093750
2608,121.093750
2609,123.046875
2610,123.046875
2611,123.046875
2612,123.046875
2613,123.046875
2614,123.046875
2615,121.093750
2616,121.093750
2617,121.093750
2618,123.046875
2619,121.093750
2620,121.093750
2621,123.046875
2622,121.093750
2623,121.093750
2624,121.093750
2625,121.093750
2626,121.093750
2627,121.093750
2628,121.093750
2629,121.093750
2630,121.093750
2631,119.140625
2632,121.093750
2633,119.140625
2634,119.140625
2635,119.140625
2636,119.140625
2637,119.140625
2638,119.140625
2639,117.187500
2640,117.187500
2641,117.187500
2642,117.187500
2643,117.187500
2644,115.234375
2645,115.234375
2646,115.234375
2647,115.234375
2648,115.234375
2649,113.281250
2650,113.281250
2651,113.281250
2652,111.328125
2653,111.328125
2654,111.328125
2655,109.375000
2656,109.375000
2657,109.375000
2658,107.421875
2659,107.421875
2660,107.421875
2661,105.468750
2662,105.468750
2663,105.468750
2664,103.515625
2665,103.515625
2666,103.515625
2667,101.562500
2668,101.562500
2669,99.609375
2670,99.609375
2671,97.656250
2672,97.656250
2673,97.656250
2674,95.703125
2675,93.750000
2676,93.750000
2677,91.796875
2678,91.796875
2679,89.843750
2680,89.843750
2681,89.843750
2682,87.890625
2683,87.890625
2684,85.937500
2685,85.937500
2686,83.984375
2687,83.984375
2688,82.031250
2689,80.078125
2690,80.078125
2691,78.125000
2692,78.125000
2693,76.171875
2694,74.218750
2695,72.265625
2696,72.265625
2697,72.265625
2698,70.312500
2699,68.359375
2700,68.359375
2701,66.406250
2702,64.453125
2703,64.453125
2704,62.500000
2705,60.546875
2706,60.546875
2707,58.593750
2708,56.640625
2709,56.640625
2710,54.687500
2711,54.687500
2712,52.734375
2713,50.781250
2714,50.781250
2715,48.828125
2716,46.875000
2717,44.921875
2718,44.921875
2719,42.968750
2720,41.015625
2721,39.062500
2722,39.062500
2723,37.109375
2724,37.109375
2725,35.156250
2726,33.203125
2727,31.250000
2728,29.296875
2729,27.343750
2730,25.390625
2731,25.390625
2732,23.437500
2733,21.484375
2734,21.484375
2735,19.531250
2736,17.578125
2737,15.625000
2738,15.625000
2739,13.671875
2740,11.718750
2741,9.765625
2742,7.812500
2743,7.812500
2744,5.859375
2745,3.906250
2746,1.953125
2747,0.000000
2748,0.000000
2749,-1.953125
2750,-3.906250
2751,-5.859375
2752,-7.812500
2753,-7.812500
2754,-9.765625
2755,-11.718750
2756,-13.671875
2757,-15.625000
2758,-15.625000
2759,-17.578125
2760,-19.531250
2761,-21.484375
2762,-21.484375
2763,-23.437500
2764,-25.390625
2765,-27.343750
2766,-29.296875
2767,-31.250000
2768,-31.250000
2769,-33.203125
2770,-35.156250
2771,-37.109375
2772,-37.109375
2773,-39.062500
2774,-41.015625
2775,-42.968750
2776,-42.968750
2777,-44.921875
2778,-46.875000
2779,-48.828125
2780,-48.828125
2781,-50.781250
2782,-52.734375
2783,-54.687500
2784,-54.687500
2785,-56.640625
2786,-58.593750
2787,-58.593750
2788,-60.546875
2789,-62.500000
2790,-64.453125
2791,-64.453125
2792,-66.406250
2793,-66.406250
2794,-68.359375
2795,-70.312500
2796,-72.265625
2797,-72.265625
2798,-74.218750
2799,-76.171875
2800,-78.125000
2801,-78.125000
2802,-78.125000
2803,-80.078125
2804,-82.031250
2805,-82.031250
2806,-83.984375
2807,-83.984375
2808,-85.937500
2809,-87.890625
2810,-89.843750
2811,-89.843750
2812,-89.843750
2813,-91.796875
2814,-93.750000
2815,-93.750000
2816,-93.750000
2817,-95.703125
2818,-95.703125
2819,-97.656250
2820,-97.656250
2821,-99.609375
2822,-99.609375
2823,-101.562500
2824,-101.562500
2825,-103.515625
2826,-103.515625
2827,-105.468750
2828,-105.468750
2829,-105.468750
2830,-107.421875
2831,-107.421875
2832,-109.375000
2833,-109.375000
2834,-109.375000
2835,-111.328125
2836,-111.328125
2837,-111.328125
2838,-113.281250
2839,-113.281250
2840,-113.281250
2841,-113.281250
2842,-115.234375
2843,-115.234375
2844,-115.234375
2845,-117.187500
2846,-117.187500
2847,-117.187500
2848,-117.187500
2849,-119.140625
2850,-119.140625
2851,-119.140625
2852,-119.140625
2853,-119.140625
2854,-119.140625
2855,-119.140625
2856,-119.140625
2857,-121.093750
2858,-121.093750
2859,-121.093750
2860,-121.093750
2861,-121.093750
2862,-121.093750
2863,-121.093750
2864,-121.093750
2865,-121.093750
2866,-121.093750
2867,-121.093750
2868,-121.093750
2869,-121.093750
2870,-121.093750
2871,-121.093750
2872,-121.093750
2873,-121.093750
2874,-123.046875
2875,-121.093750
2876,-121.093750
2877,-121.093750
2878,-121.093750
2879,-119.140625
2880,-119.140625
2881,-119.140625
2882,-119.140625
2883,-119.140625
2884,-119.140625
2885,-119.140625
2886,-117.187500
2887,-117.187500
2888,-117.187500
2889,-117.187500
2890,-115.234375
2891,-115.234375
2892,-115.234375
2893,-113.281250
2894,-113.281250
2895,-115.234375
2896,-113.281250
2897,-113.281250
2898,-111.328125
2899,-111.328125
2900,-109.375000
2901,-109.375000
2902,-109.375000
2903,-107.421875
2904,-107.421875
2905,-107.421875
2906,-105.468750
2907,-105.468750
2908,-103.515625
2909,-103.515625
2910,-103.515625
2911,-101.562500
2912,-101.562500
2913,-99.609375
2914,-99.609375
2915,-97.656250
2916,-97.656250
2917,-95.703125
2918,-95.703125
2919,-93.750000
2920,-93.750000
2921,-91.796875
2922,-91.796875
2923,-89.843750
2924,-87.890625
2925,-87.890625
2926,-85.937500
2927,-85.937500
2928,-83.984375
2929,-83.984375
2930,-82.031250
2931,-80.078125
2932,-80.078125
2933,-78.125000
2934,-76.171875
2935,-76.171875
2936,-74.218750
2937,-74.218750
2938,-72.265625
2939,-70.312500
2940,-70.312500
2941,-68.359375
2942,-66.406250
2943,-66.406250
2944,-64.453125
2945,-62.500000
2946,-60.546875
2947,-60.546875
2948,-58.593750
2949,-58.593750
2950,-56.640625
2951,-54.687500
2952,-52.734375
2953,-52.734375
2954,-50.781250
2955,-48.828125
2956,-46.875000
2957,-46.875000
2958,-44.921875
2959,-42.968750
2960,-41.015625
2961,-39.062500
2962,-39.062500
2963,-37.109375
2964,-35.156250
2965,-35.156250
2966,-33.203125
2967,-31.250000
2968,-29.296875
2969,-29.296875
2970,-27.343750
2971,-25.390625
2972,-23.437500
2973,-21.484375
2974,-21.484375
2975,-19.531250
2976,-17.578125
2977,-15.625000
2978,-13.671875
2979,-11.718750
2980,-9.765625
2981,-9.765625
2982,-7.812500
2983,-5.859375
2984,-5.859375
2985,-3.906250
2986,-1.953125
2987,-1.953125
2988,0.000000
2989,1.953125
2990,3.906250
2991,5.859375
2992,7.812500
2993,7.812500
2994,9.765625
2995,11.718750
2996,13.671875
2997,15.625000
2998,17.578125
2999,17.578125
3000,19.531250
3001,21.484375
3002,21.484375
3003,23.437500
3004,25.390625
3005,25.390625
3006,27.343750
3007,29.296875
3008,31.250000
3009,33.203125
3010,33.203125
3011,35.156250
3012,35.156250
3013,39.062500
3014,39.062500
3015,41.015625
3016,42.968750
3017,44.921875
3018,44.921875
3019,46.875000
3020,48.828125
3021,48.828125
3022,50.781250
3023,52.734375
3024,52.734375
3025,54.687500
3026,56.640625
3027,58.593750
3028,58.593750
3029,60.546875
3030,60.546875
3031,62.500000
3032,64.453125
3033,64.453125
3034,66.406250
3035,68.359375
3036,68.359375
3037,70.312500
3038,70.312500
3039,72.265625
3040,74.218750
3041,74.218750
3042,76.171875
3043,78.125000
3044,80.078125
3045,80.078125
3046,80.078125
3047,80.078125
3048,82.031250
3049,83.984375
3050,83.984375
3051,85.937500
3052,85.937500
3053,87.890625
3054,87.890625
3055,89.843750
3056,89.843750
3057,91.796875
3058,91.796875
3059,93.750000
3060,91.796875
3061,95.703125
3062,95.703125
3063,97.656250
3064,97.656250
3065,97.656250
3066,99.609375
3067,99.609375
3068,101.562500
3069,101.562500
3070,103.515625
3071,103.515625
3072,103.515625
3073,105.468750
3074,105.468750
3075,105.468750
3076,107.421875
3077,107.421875
3078,109.375000
3079,109.375000
3080,109.375000
3081,109.375000
3082,111.328125
3083,111.328125
3084,111.328125
3085,111.328125
3086,113.281250
3087,113.281250
3088,113.281250
3089,115.234375
3090,115.234375
3091,115.234375
3092,115.234375
3093,115.234375
3094,117.187500
3095,117.187500
3096,117.187500
3097,117.187500
3098,119.140625
3099,119.140625
3100,119.140625
3101,119.140625
3102,119.140625
3103,119.140625
3104,119.140625
3105,121.093750
3106,121.093750
3107,121.093750
3108,121.093750
3109,121.093750
3110,121.093750
3111,121.093750
3112,121.093750
3113,121.093750
3114,121.093750
3115,123.046875
3116,123.046875
3117,121.093750
3118,121.093750
3119,121.093750
3120,123.046875
3121,123.046875
3122,123.046875
3123,123.046875
3124,123.046875
3125,121.093750
3126,121.093750
3127,121.093750
3128,123.046875
3129,121.093750
3130,121.093750
3131,121.093750
3132,121.093750
3133,121.093750
3134,121.093750
3135,121.093750
3136,121.093750
3137,121.093750
3138,119.140625
3139,119.140625
3140,119.140625
3141,119.140625
3142,119.140625
3143,119.140625
3144,119.140625
3145,117.187500
3146,117.187500
3147,117.187500
3148,115.234375
3149,115.234375
3150,115.234375
3151,115.234375
3152,115.234375
3153,113.281250
3154,113.281250
3155,113.281250
3156,113.281250
3157,111.328125
3158,111.328125
3159,111.328125
3160,111.328125
3161,109.375000
3162,109.375000
3163,107.421875
3164,107.421875
3165,107.421875
3166,105.468750
3167,105.468750
3168,105.468750
3169,103.515625
3170,103.515625
3171,101.562500
3172,101.562500
3173,101.562500
3174,99.609375
3175,99.609375
3176,97.656250
3177,97.656250
3178,97.656250
3179,95.703125
3180,95.703125
3181,93.750000
3182,91.796875
3183,91.796875
3184,91.796875
3185,89.843750
3186,89.843750
3187,87.890625
3188,87.890625
3189,85.937500
3190,83.984375
3191,83.984375
3192,83.984375
3193,82.031250
3194,82.031250
3195,80.078125
3196,78.125000
3197,78.125000
3198,76.171875
3199,74.218750
3200,74.218750
3201,72.265625
3202,72.265625
3203,70.312500
3204,70.312500
3205,68.359375
3206,66.406250
3207,64.453125
3208,64.453125
3209,62.500000
3210,62.500000
3211,60.546875
3212,58.593750
3213,56.640625
3214,56.640625
3215,56.640625
3216,54.687500
3217,52.734375
3218,50.781250
3219,50.781250
3220,48.828125
3221,46.875000
3222,44.921875
3223,44.921875
3224,42.968750
3225,41.015625
3226,41.015625
3227,39.062500
3228,37.109375
3229,35.156250
3230,33.203125
3231,33.203125
3232,31.250000
3233,29.296875
3234,27.343750
3235,27.343750
3236,25.390625
3237,23.437500
3238,21.484375
3239,21.484375
3240,19.531250
3241,17.578125
3242,15.625000
3243,15.625000
3244,13.671875
3245,11.718750
3246,9.765625
3247,7.812500
3248,7.812500
3249,3.906250
3250,3.906250
3251,1.953125
3252,1.953125
3253,0.000000
3254,-1.953125
3255,-3.906250
3256,-5.859375
3257,-7.812500
3258,-7.812500
3259,-9.765625
3260,-11.718750
3261,-13.671875
3262,-15.625000
3263,-15.625000
3264,-17.578125
3265,-19.531250
3266,-21.484375
3267,-21.484375
3268,-23.437500
3269,-25.390625
3270,-27.343750
3271,-27.343750
3272,-29.296875
3273,-31.250000
3274,-33.203125
3275,-35.156250
3276,-35.156250
3277,-37.109375
3278,-39.062500
3279,-41.015625
3280,-41.015625
3281,-42.968750
3282,-44.921875
3283,-46.875000
3284,-46.875000
3285,-48.828125
3286,-50.781250
3287,-52.734375
3288,-52.734375
3289,-54.687500
3290,-56.640625
3291,-58.593750
3292,-58.593750
3293,-60.546875
3294,-62.500000
3295,-62.500000
3296,-64.453125
3297,-64.453125
3298,-66.406250
3299,-68.359375
3300,-70.312500
3301,-72.265625
3302,-74.218750
3303,-74.218750
3304,-76.171875
3305,-76.171875
3306,-78.125000
3307,-78.125000
3308,-80.078125
3309,-80.078125
3310,-82.031250
3311,-83.984375
3312,-85.937500
3313,-85.937500
3314,-87.890625
3315,-87.890625
3316,-87.890625
3317,-89.843750
3318,-91.796875
3319,-91.796875
3320,-93.750000
3321,-93.750000
3322,-95.703125
3323,-97.656250
3324,-97.656250
3325,-99.609375
3326,-99.609375
3327,-99.609375
3328,-101.562500
3329,-101.562500
3330,-103.515625
3331,-103.515625
3332,-105.468750
3333,-105.468750
3334,-107.421875
3335,-107.421875
3336,-107.421875
3337,-109.375000
3338,-109.375000
3339,-109.375000
3340,-109.375000
3341,-111.328125
3342,-111.328125
3343,-111.328125
3344,-113.281250
3345,-113.281250
3346,-115.234375
3347,-115.234375
3348,-115.234375
3349,-115.234375
3350,-115.234375
3351,-117.187500
3352,-117.187500
3353,-117.187500
3354,-117.187500
3355,-119.140625
3356,-119.140625
3357,-119.140625
3358,-119.140625
3359,-119.140625
3360,-119.140625
3361,-119.140625
3362,-121.093750
3363,-121.093750
3364,-121.093750
3365,-121.093750
3366,-121.093750
3367,-121.093750
3368,-121.093750
3369,-121.093750
3370,-121.093750
3371,-121.093750
3372,-121.093750
3373,-121.093750
3374,-121.093750
3375,-121.093750
3376,-121.093750
3377,-121.093750
3378,-121.093750
3379,-121.093750
3380,-121.093750
3381,-121.093750
3382,-121.093750
3383,-121.093750
3384,-121.093750
3385,-119.140625
3386,-119.140625
3387,-119.140625
3388,-119.140625
3389,-119.140625
3390,-117.187500
3391,-117.187500
3392,-117.187500
3393,-117.187500
3394,-117.187500
3395,-117.187500
3396,-117.187500
3397,-113.281250
3398,-113.281250
3399,-113.281250
3400,-113.281250
3401,-115.234375
3402,-113.281250
3403,-111.328125
3404,-111.328125
3405,-109.375000
3406,-109.375000
3407,-109.375000
3408,-109.375000
3409,-107.421875
3410,-107.421875
3411,-105.468750
3412,-105.468750
3413,-103.515625
3414,-103.515625
3415,-103.515625
3416,-101.562500
3417,-99.609375
3418,-99.609375
3419,-99.609375
3420,-97.656250
3421,-97.656250
3422,-95.703125
3423,-95.703125
3424,-93.750000
3425,-93.750000
3426,-91.796875
3427,-89.843750
3428,-89.843750
3429,-89.843750
3430,-87.890625
3431,-85.937500
3432,-85.937500
3433,-83.984375
3434,-80.078125
3435,-82.031250
3436,-80.078125
3437,-80.078125
3438,-78.125000
3439,-78.125000
3440,-76.171875
3441,-74.218750
3442,-74.218750
3443,-72.265625
3444,-70.312500
3445,-70.312500
3446,-68.359375
3447,-68.359375
3448,-66.406250
3449,-64.453125
3450,-62.500000
3451,-62.500000
3452,-60.546875
3453,-58.593750
3454,-58.593750
3455,-56.640625
3456,-54.687500
3457,-54.687500
3458,-52.734375
3459,-50.781250
3460,-48.828125
3461,-48.828125
3462,-46.875000
3463,-44.921875
3464,-42.968750
3465,-41.015625
3466,-41.015625
3467,-39.062500
3468,-37.109375
3469,-35.156250
3470,-35.156250
3471,-33.203125
3472,-31.250000
3473,-29.296875
3474,-27.343750
3475,-27.343750
3476,-25.390625
3477,-23.437500
3478,-21.484375
3479,-21.484375
3480,-19.531250
3481,-17.578125
3482,-15.625000
3483,-15.625000
3484,-13.671875
3485,-11.718750
3486,-9.765625
3487,-7.812500
3488,-5.859375
3489,-5.859375
3490,-3.906250
3491,-1.953125
3492,0.000000
3493,1.953125
3494,1.953125
3495,3.906250
3496,5.859375
3497,5.859375
3498,7.812500
3499,9.765625
3500,11.718750
3501,13.671875
3502,13.671875
3503,15.625000
3504,17.578125
3505,19.531250
3506,21.484375
3507,21.484375
3508,23.437500
3509,25.390625
3510,27.343750
3511,27.343750
3512,29.296875
3513,31.250000
3514,33.203125
3515,33.203125
3516,35.156250
3517,37.109375
3518,39.062500
3519,39.062500
3520,41.015625
3521,42.968750
3522,44.921875
3523,44.921875
3524,46.875000
3525,48.828125
3526,48.828125
3527,50.781250
3528,52.734375
3529,52.734375
3530,54.687500
3531,56.640625
3532,58.593750
3533,58.593750
3534,60.546875
3535,60.546875
3536,62.500000
3537,64.453125
3538,64.453125
3539,66.406250
3540,68.359375
3541,68.359375
3542,70.312500
3543,72.265625
3544,72.265625
3545,74.218750
3546,74.218750
3547,76.171875
3548,78.125000
3549,78.125000
3550,80.078125
3551,80.078125
3552,82.031250
3553,82.031250
3554,83.984375
3555,83.984375
3556,85.937500
3557,85.937500
3558,87.890625
3559,87.890625
3560,89.843750
3561,89.843750
3562,91.796875
3563,91.796875
3564,93.750000
3565,93.750000
3566,95.703125
3567,95.703125
3568,95.703125
3569,97.656250
3570,99.609375
3571,99.609375
3572,99.609375
3573,101.562500
3574,101.562500
3575,101.562500
3576,103.515625
3577,103.515625
3578,105.468750
3579,105.468750
3580,107.421875
3581,107.421875
3582,107.421875
3583,107.421875
3584,109.375000
3585,109.375000
3586,111.328125
3587,111.328125
3588,111.328125
3589,111.328125
3590,113.281250
3591,113.281250
3592,113.281250
3593,113.281250
3594,115.234375
3595,115.234375
3596,115.234375
3597,115.234375
3598,117.187500
3599,117.187500
3600,117.187500
3601,117.187500
3602,117.187500
3603,117.187500
3604,117.187500
3605,119.140625
3606,119.140625
3607,119.140625
3608,119.140625
3609,121.093750
3610,121.093750
3611,121.093750
3612,121.093750
3613,121.093750
3614,121.093750
3615,121.093750
3616,121.093750
3617,121.093750
3618,121.093750
3619,121.093750
3620,123.046875
3621,121.093750
3622,123.046875
3623,121.093750
3624,121.093750
3625,121.093750
3626,123.046875
3627,123.046875
3628,123.046875
3629,123.046875
3630,123.046875
3631,123.046875
3632,121.093750
3633,121.093750
3634,121.093750
3635,121.093750
3636,121.093750
3637,121.093750
3638,121.093750
3639,121.093750
3640,121.093750
3641,121.093750
3642,121.093750
3643,121.093750
3644,121.093750
3645,119.140625
3646,119.140625
3647,119.140625
3648,119.140625
3649,117.187500
3650,117.187500
3651,117.187500
3652,117.187500
3653,117.187500
3654,117.187500
3655,115.234375
3656,115.234375
3657,115.234375
3658,115.234375
3659,113.281250
3660,113.281250
3661,113.281250
3662,113.281250
3663,111.328125
3664,111.328125
3665,111.328125
3666,109.375000
3667,109.375000
3668,109.375000
3669,107.421875
3670,107.421875
3671,105.468750
3672,105.468750
3673,105.468750
3674,103.515625
3675,103.515625
3676,103.515625
3677,101.562500
3678,101.562500
3679,99.609375
3680,99.609375
3681,97.656250
3682,97.656250
3683,97.656250
3684,95.703125
3685,95.703125
3686,93.750000
3687,93.750000
3688,91.796875
3689,91.796875
3690,89.843750
3691,89.843750
3692,87.890625
3693,87.890625
3694,85.937500
3695,85.937500
3696,83.984375
3697,83.984375
3698,82.031250
3699,80.078125
3700,80.078125
3701,78.125000
3702,78.125000
3703,78.125000
3704,76.171875
3705,74.218750
3706,72.265625
3707,72.265625
3708,70.312500
3709,70.312500
3710,68.359375
3711,66.406250
3712,66.406250
3713,64.453125
3714,64.453125
3715,62.500000
3716,60.546875
3717,58.593750
3718,58.593750
3719,56.640625
3720,54.687500
3721,54.687500
3722,52.734375
3723,50.781250
3724,48.828125
3725,48.828125
3726,46.875000
3727,44.921875
3728,44.921875
3729,42.968750
3730,41.015625
3731,41.015625
3732,39.062500
3733,37.109375
3734,35.156250
3735,33.203125
3736,33.203125
3737,31.250000
3738,29.296875
3739,29.296875
3740,27.343750
3741,25.390625
3742,23.437500
3743,21.484375
3744,21.484375
3745,19.531250
3746,17.578125
3747,15.625000
3748,15.625000
3749,13.671875
3750,11.718750
3751,9.765625
3752,7.812500
3753,7.812500
3754,5.859375
3755,3.906250
3756,1.953125
3757,1.953125
3758,0.000000
3759,-1.953125
3760,-3.906250
3761,-5.859375
3762,-7.812500
3763,-7.812500
3764,-9.765625
3765,-11.718750
3766,-13.671875
3767,-11.718750
3768,-15.625000
3769,-17.578125
3770,-21.484375
3771,-21.484375
3772,-21.484375
3773,-23.437500
3774,-25.390625
3775,-27.343750
3776,-29.296875
3777,-29.296875
3778,-31.250000
3779,-33.203125
3780,-35.156250
3781,-35.156250
3782,-37.109375
3783,-39.062500
3784,-41.015625
3785,-42.968750
3786,-42.968750
3787,-44.921875
3788,-46.875000
3789,-48.828125
3790,-48.828125
3791,-50.781250
3792,-52.734375
3793,-52.734375
3794,-54.687500
3795,-56.640625
3796,-56.640625
3797,-58.593750
3798,-60.546875
3799,-62.500000
3800,-62.500000
3801,-64.453125
3802,-66.406250
3803,-68.359375
3804,-68.359375
3805,-70.312500
3806,-72.265625
3807,-72.265625
3808,-74.218750
3809,-74.218750
3810,-76.171875
3811,-78.125000
3812,-78.125000
3813,-80.078125
3814,-82.031250
3815,-82.031250
3816,-83.984375
3817,-85.937500
3818,-85.937500
3819,-87.890625
3820,-87.890625
3821,-89.843750
3822,-89.843750
3823,-91.796875
3824,-91.796875
3825,-93.750000
3826,-95.703125
3827,-95.703125
3828,-95.703125
3829,-97.656250
3830,-99.609375
3831,-99.609375
3832,-101.562500
3833,-101.562500
3834,-101.562500
3835,-103.515625
3836,-103.515625
3837,-105.468750
3838,-105.468750
3839,-105.468750
3840,-107.421875
3841,-107.421875
3842,-109.375000
3843,-109.375000
3844,-109.375000
3845,-111.328125
3846,-111.328125
3847,-111.328125
3848,-113.281250
3849,-113.281250
3850,-113.281250
3851,-115.234375
3852,-115.234375
3853,-115.234375
3854,-115.234375
3855,-115.234375
3856,-117.187500
3857,-117.187500
3858,-117.187500
3859,-117.187500
3860,-117.187500
3861,-119.140625
3862,-119.140625
3863,-119.140625
3864,-119.140625
3865,-119.140625
3866,-119.140625
3867,-121.093750
3868,-121.093750
3869,-121.093750
3870,-121.093750
3871,-121.093750
3872,-121.093750
3873,-121.093750
3874,-121.093750
3875,-121.093750
3876,-121.093750
3877,-121.093750
3878,-121.093750
3879,-121.093750
3880,-121.093750
3881,-121.093750
3882,-121.093750
3883,-121.093750
3884,-121.093750
3885,-121.093750
3886,-121.093750
3887,-121.093750
3888,-119.140625
3889,-119.140625
3890,-119.140625
3891,-119.140625
3892,-119.140625
3893,-119.140625
3894,-119.140625
3895,-119.140625
3896,-117.187500
3897,-117.187500
3898,-117.187500
3899,-117.187500
3900,-117.187500
3901,-115.234375
3902,-115.234375
3903,-115.234375
3904,-113.281250
3905,-113.281250
3906,-113.281250
3907,-113.281250
3908,-111.328125
3909,-111.328125
3910,-109.375000
3911,-109.375000
3912,-109.375000
3913,-107.421875
3914,-107.421875
3915,-107.421875
3916,-105.468750
3917,-105.468750
3918,-103.515625
3919,-103.515625
3920,-101.562500
3921,-101.562500
3922,-101.562500
3923,-99.609375
3924,-99.609375
3925,-97.656250
3926,-97.656250
3927,-95.703125
3928,-95.703125
3929,-93.750000
3930,-93.750000
3931,-91.796875
3932,-91.796875
3933,-89.843750
3934,-87.890625
3935,-87.890625
3936,-85.937500
3937,-85.937500
3938,-83.984375
3939,-83.984375
3940,-82.031250
3941,-82.031250
3942,-80.078125
3943,-78.125000
3944,-78.125000
3945,-76.171875
3946,-74.218750
3947,-74.218750
3948,-72.265625
3949,-70.312500
3950,-70.312500
3951,-68.359375
3952,-68.359375
3953,-66.406250
3954,-64.453125
3955,-62.500000
3956,-62.500000
3957,-60.546875
3958,-58.593750
3959,-58.593750
3960,-56.640625
3961,-54.687500
3962,-52.734375
3963,-52.734375
3964,-50.781250
3965,-48.828125
3966,-46.875000
3967,-46.875000
3968,-44.921875
3969,-42.968750
3970,-42.968750
3971,-41.015625
3972,-39.062500
3973,-37.109375
3974,-35.156250
3975,-35.156250
3976,-33.203125
3977,-31.250000
3978,-31.250000
3979,-29.296875
3980,-27.343750
3981,-25.390625
3982,-23.437500
3983,-21.484375
3984,-19.531250
3985,-19.531250
3986,-17.578125
3987,-17.578125
3988,-15.625000
3989,-13.671875
3990,-11.718750
3991,-9.765625
3992,-7.812500
3993,-7.812500
3994,-5.859375
3995,-3.906250
3996,-1.953125
3997,0.000000
3998,0.000000
3999,1.953125
4000,3.906250
4001,5.859375
4002,7.812500
4003,7.812500
4004,9.765625
4005,11.718750
4006,13.671875
4007,13.671875
4008,15.625000
4009,17.578125
4010,19.531250
4011,21.484375
4012,21.484375
4013,23.437500
4014,25.390625
4015,25.390625
4016,27.343750
4017,29.296875
4018,31.250000
4019,33.203125
4020,33.203125
4021,35.156250
4022,37.109375
4023,39.062500
4024,39.062500
4025,41.015625
4026,42.968750
4027,42.968750
4028,44.921875
4029,46.875000
4030,48.828125
4031,48.828125
4032,50.781250
4033,52.734375
4034,52.734375
4035,54.687500
4036,56.640625
4037,56.640625
4038,58.593750
4039,60.546875
4040,62.500000
4041,62.500000
4042,64.453125
4043,64.453125
4044,66.406250
4045,68.359375
4046,68.359375
4047,70.312500
4048,70.312500
4049,72.265625
4050,74.218750
4051,74.218750
4052,76.171875
4053,76.171875
4054,78.125000
4055,80.078125
4056,80.078125
4057,82.031250
4058,82.031250
4059,83.984375
4060,85.937500
4061,85.937500
4062,85.937500
4063,87.890625
4064,87.890625
4065,89.843750
4066,91.796875
4067,91.796875
4068,91.796875
4069,93.750000
4070,95.703125
4071,93.750000
4072,95.703125
4073,97.656250
4074,97.656250
4075,97.656250
4076,99.609375
4077,99.609375
4078,101.562500
4079,101.562500
4080,103.515625
4081,103.515625
4082,103.515625
4083,105.468750
4084,105.468750
4085,105.468750
4086,107.421875
4087,107.421875
4088,107.421875
4089,107.421875
4090,109.375000
4091,109.375000
4092,111.328125
4093,111.328125
4094,111.328125
4095,111.328125
4096,113.281250
4097,113.281250
4098,113.281250
4099,113.281250
4100,115.234375
4101,115.234375
4102,117.187500
4103,117.187500
4104,117.187500
4105,117.187500
4106,117.187500
4107,117.187500
4108,117.187500
4109,119.140625
4110,119.140625
4111,119.140625
4112,119.140625
4113,121.093750
4114,121.093750
4115,121.093750
4116,121.093750
4117,121.093750
4118,121.093750
4119,121.093750
4120,121.093750
4121,121.093750
4122,121.093750
4123,121.093750
4124,121.093750
4125,121.093750
4126,123.046875
4127,121.093750
4128,123.046875
4129,123.046875
4130,121.093750
4131,121.093750
4132,121.093750
4133,121.093750
4134,121.093750
4135,121.093750
4136,121.093750
4137,121.093750
4138,121.093750
4139,121.093750
4140,121.093750
4141,121.093750
4142,121.093750
4143,121.093750
4144,121.093750
4145,121.093750
4146,121.093750
4147,119.140625
4148,121.093750
4149,119.140625
4150,119.140625
4151,119.140625
4152,119.140625
4153,119.140625
4154,119.140625
4155,117.187500
4156,117.187500
4157,117.187500
4158,117.187500
4159,115.234375
4160,115.234375
4161,115.234375
4162,115.234375
4163,113.281250
4164,113.281250
4165,113.281250
4166,113.281250
4167,111.328125
4168,111.328125
4169,111.328125
4170,111.328125
4171,109.375000
4172,111.328125
4173,109.375000
4174,107.421875
4175,107.421875
4176,107.421875
4177,105.468750
4178,105.468750
4179,103.515625
4180,103.515625
4181,103.515625
4182,101.562500
4183,101.562500
4184,101.562500
4185,99.609375
4186,99.609375
4187,97.656250
4188,97.656250
4189,95.703125
4190,95.703125
4191,93.750000
4192,93.750000
4193,91.796875
4194,91.796875
4195,89.843750
4196,89.843750
4197,87.890625
4198,87.890625
4199,85.937500
4200,85.937500
4201,83.984375
4202,83.984375
4203,82.031250
4204,82.031250
4205,80.078125
4206,78.125000
4207,78.125000
4208,78.125000
4209,76.171875
4210,74.218750
4211,74.218750
4212,72.265625
4213,70.312500
4214,68.359375
4215,68.359375
4216,66.406250
4217,66.406250
4218,64.453125
4219,64.453125
4220,62.500000
4221,60.546875
4222,58.593750
4223,58.593750
4224,56.640625
4225,54.687500
4226,52.734375
4227,52.734375
4228,50.781250
4229,50.781250
4230,48.828125
4231,46.875000
4232,44.921875
4233,44.921875
4234,42.968750
4235,41.015625
4236,39.062500
4237,39.062500
4238,37.109375
4239,35.156250
4240,31.250000
4241,33.203125
4242,31.250000
4243,29.296875
4244,27.343750
4245,27.343750
4246,25.390625
4247,23.437500
4248,21.484375
4249,21.484375
4250,19.531250
4251,17.578125
4252,15.625000
4253,13.671875
4254,13.671875
4255,11.718750
4256,9.765625
4257,9.765625
4258,7.812500
4259,5.859375
4260,3.906250
4261,1.953125
4262,0.000000
4263,-1.953125
4264,-1.953125
4265,-3.906250
4266,-5.859375
4267,-7.812500
4268,-7.812500
4269,-9.765625
4270,-11.718750
4271,-13.671875
4272,-13.671875
4273,-15.625000
4274,-17.578125
4275,-19.531250
4276,-21.484375
4277,-23.437500
4278,-23.437500
4279,-25.390625
4280,-27.343750
4281,-29.296875
4282,-29.296875
4283,-31.250000
4284,-33.203125
4285,-35.156250
4286,-35.156250
4287,-37.109375
4288,-39.062500
4289,-41.015625
4290,-42.968750
4291,-42.968750
4292,-44.921875
4293,-46.875000
4294,-48.828125
4295,-48.828125
4296,-50.781250
4297,-52.734375
4298,-52.734375
4299,-54.687500
4300,-56.640625
4301,-56.640625
4302,-58.593750
4303,-60.546875
4304,-62.500000
4305,-64.453125
4306,-64.453125
4307,-66.406250
4308,-66.406250
4309,-68.359375
4310,-70.312500
4311,-72.265625
4312,-72.265625
4313,-74.218750
4314,-74.218750
4315,-76.171875
4316,-76.171875
4317,-78.125000
4318,-80.078125
4319,-82.031250
4320,-82.031250
4321,-83.984375
4322,-85.937500
4323,-85.937500
4324,-85.937500
4325,-87.890625
4326,-89.843750
4327,-89.843750
4328,-91.796875
4329,-91.796875
4330,-93.750000
4331,-93.750000
4332,-95.703125
4333,-97.656250
4334,-97.656250
4335,-97.656250
4336,-99.609375
4337,-99.609375
4338,-101.562500
4339,-101.562500
4340,-103.515625
4341,-103.515625
4342,-103.515625
4343,-105.468750
4344,-105.468750
4345,-107.421875
4346,-107.421875
4347,-109.375000
4348,-109.375000
4349,-109.375000
4350,-111.328125
4351,-111.328125
4352,-111.328125
4353,-113.281250
4354,-113.281250
4355,-113.281250
4356,-113.281250
4357,-115.234375
4358,-115.234375
4359,-117.187500
4360,-117.187500
4361,-117.187500
4362,-117.187500
4363,-117.187500
4364,-117.187500
4365,-117.187500
4366,-119.140625
4367,-119.140625
4368,-119.140625
4369,-119.140625
4370,-119.140625
4371,-121.093750
4372,-119.140625
4373,-121.093750
4374,-121.093750
4375,-121.093750
4376,-121.093750
4377,-121.093750
4378,-121.093750
4379,-121.093750
4380,-121.093750
4381,-121.093750
4382,-121.093750
4383,-121.093750
4384,-121.093750
4385,-121.093750
4386,-121.093750
4387,-121.093750
4388,-121.093750
4389,-121.093750
4390,-121.093750
4391,-121.093750
4392,-121.093750
4393,-121.093750
4394,-119.140625
4395,-119.140625
4396,-119.140625
4397,-119.140625
4398,-119.140625
4399,-119.140625
4400,-117.187500
4401,-117.187500
4402,-117.187500
4403,-117.187500
4404,-117.187500
4405,-115.234375
4406,-115.234375
4407,-115.234375
4408,-115.234375
4409,-113.281250
4410,-113.281250
4411,-113.281250
4412,-113.281250
4413,-111.328125
4414,-111.328125
4415,-109.375000
4416,-109.375000
4417,-109.375000
4418,-107.421875
4419,-107.421875
4420,-107.421875
4421,-105.468750
4422,-105.468750
4423,-103.515625
4424,-103.515625
4425,-101.562500
4426,-101.562500
4427,-101.562500
4428,-99.609375
4429,-99.609375
4430,-97.656250
4431,-97.656250
4432,-95.703125
4433,-95.703125
4434,-93.750000
4435,-93.750000
4436,-91.796875
4437,-91.796875
4438,-89.843750
4439,-87.890625
4440,-87.890625
4441,-87.890625
4442,-85.937500
4443,-85.937500
4444,-83.984375
4445,-82.031250
4446,-80.078125
4447,-80.078125
4448,-78.125000
4449,-78.125000
4450,-76.171875
4451,-74.218750
4452,-74.218750
4453,-72.265625
4454,-70.312500
4455,-70.312500
4456,-68.359375
4457,-68.359375
4458,-66.406250
4459,-64.453125
4460,-62.500000
4461,-62.500000
4462,-60.546875
4463,-60.546875
4464,-58.593750
4465,-56.640625
4466,-56.640625
4467,-54.687500
4468,-52.734375
4469,-50.781250
4470,-48.828125
4471,-48.828125
4472,-46.875000
4473,-44.921875
4474,-42.968750
4475,-42.968750
4476,-41.015625
4477,-39.062500
4478,-37.109375
4479,-35.156250
4480,-35.156250
4481,-33.203125
4482,-31.250000
4483,-29.296875
4484,-27.343750
4485,-27.343750
4486,-25.390625
4487,-25.390625
4488,-21.484375
4489,-21.484375
4490,-19.531250
4491,-17.578125
4492,-15.625000
4493,-15.625000
4494,-13.671875
4495,-11.718750
4496,-9.765625
4497,-7.812500
4498,-5.859375
4499,-5.859375
4500,-3.906250
4501,-1.953125
4502,0.000000
4503,0.000000
4504,1.953125
4505,3.906250
4506,5.859375
4507,5.859375
4508,7.812500
4509,9.765625
4510,11.718750
4511,13.671875
4512,15.625000
4513,15.625000
4514,17.578125
4515,19.531250
4516,19.531250
4517,21.484375
4518,23.437500
4519,25.390625
4520,27.343750
4521,27.343750
4522,29.296875
4523,31.250000
4524,31.250000
4525,33.203125
4526,35.156250
4527,37.109375
4528,39.062500
4529,39.062500
4530,41.015625
4531,42.968750
4532,44.921875
4533,44.921875
4534,46.875000
4535,48.828125
4536,48.828125
4537,50.781250
4538,54.687500
4539,52.734375
4540,54.687500
4541,54.687500
4542,56.640625
4543,58.593750
4544,60.546875
4545,62.500000
4546,62.500000
4547,64.453125
4548,64.453125
4549,66.406250
4550,66.406250
4551,68.359375
4552,70.312500
4553,70.312500
4554,72.265625
4555,70.312500
4556,74.218750
4557,76.171875
4558,78.125000
4559,78.125000
4560,80.078125
4561,80.078125
4562,80.078125
4563,82.031250
4564,83.984375
4565,83.984375
4566,85.937500
4567,87.890625
4568,83.984375
4569,87.890625
4570,89.843750
4571,89.843750
4572,89.843750
4573,91.796875
4574,93.750000
4575,93.750000
4576,95.703125
4577,95.703125
4578,97.656250
4579,97.656250
4580,99.609375
4581,99.609375
4582,99.609375
4583,101.562500
4584,101.562500
4585,101.562500
4586,103.515625
4587,103.515625
4588,105.468750
4589,105.468750
4590,105.468750
4591,107.421875
4592,107.421875
4593,107.421875
4594,109.375000
4595,109.375000
4596,109.375000
4597,111.328125
4598,111.328125
4599,111.328125
4600,111.328125
4601,113.281250
4602,113.281250
4603,113.281250
4604,115.234375
4605,115.234375
4606,115.234375
4607,115.234375
4608,117.187500
4609,117.187500
4610,117.187500
4611,117.187500
4612,117.187500
4613,117.187500
4614,119.140625
4615,119.140625
4616,119.140625
4617,119.140625
4618,119.140625
4619,119.140625
4620,121.093750
4621,121.093750
4622,121.093750
4623,121.093750
4624,121.093750
4625,121.093750
4626,121.093750
4627,121.093750
4628,119.140625
4629,121.093750
4630,121.093750
4631,121.093750
4632,121.093750
4633,121.093750
4634,121.093750
4635,121.093750
4636,123.046875
4637,123.046875
4638,123.046875
4639,123.046875
4640,121.093750
4641,121.093750
4642,121.093750
4643,121.093750
4644,121.093750
4645,121.093750
4646,121.093750
4647,121.093750
4648,121.093750
4649,121.093750
4650,121.093750
4651,119.140625
4652,121.093750
4653,119.140625
4654,119.140625
4655,119.140625
4656,119.140625
4657,119.140625
4658,119.140625
4659,117.187500
4660,117.187500
4661,117.187500
4662,117.187500
4663,115.234375
4664,115.234375
4665,115.234375
4666,115.234375
4667,115.234375
4668,113.281250
4669,113.281250
4670,113.281250
4671,111.328125
4672,111.328125
4673,111.328125
4674,109.375000
4675,109.375000
4676,109.375000
4677,109.375000
4678,109.375000
4679,107.421875
4680,107.421875
4681,105.468750
4682,105.468750
4683,105.468750
4684,103.515625
4685,103.515625
4686,103.515625
4687,101.562500
4688,101.562500
4689,99.609375
4690,99.609375
4691,99.609375
4692,97.656250
4693,95.703125
4694,95.703125
4695,95.703125
4696,93.750000
4697,93.750000
4698,91.796875
4699,91.796875
4700,91.796875
4701,89.843750
4702,87.890625
4703,87.890625
4704,87.890625
4705,85.937500
4706,83.984375
4707,83.984375
4708,82.031250
4709,80.078125
4710,80.078125
4711,78.125000
4712,78.125000
4713,76.171875
4714,76.171875
4715,74.218750
4716,72.265625
4717,72.265625
4718,72.265625
4719,70.312500
4720,68.359375
4721,66.406250
4722,66.406250
4723,64.453125
4724,62.500000
4725,62.500000
4726,60.546875
4727,58.593750
4728,58.593750
4729,56.640625
4730,54.687500
4731,54.687500
4732,52.734375
4733,52.734375
4734,50.781250
4735,48.828125
4736,46.875000
4737,44.921875
4738,44.921875
4739,42.968750
4740,41.015625
4741,39.062500
4742,37.109375
4743,37.109375
4744,35.156250
4745,35.156250
4746,33.203125
4747,31.250000
4748,29.296875
4749,27.343750
4750,27.343750
4751,25.390625
4752,23.437500
4753,21.484375
4754,21.484375
4755,19.531250
4756,17.578125
4757,15.625000
4758,15.625000
4759,13.671875
4760,11.718750
4761,9.765625
4762,7.812500
4763,7.812500
4764,5.859375
4765,3.906250
4766,1.953125
4767,1.953125
4768,0.000000
4769,-1.953125
4770,-3.906250
4771,-5.859375
4772,-7.812500
4773,-7.812500
4774,-9.765625
4775,-11.718750
4776,-13.671875
4777,-13.671875
4778,-15.625000
4779,-17.578125
4780,-19.531250
4781,-19.531250
4782,-21.484375
4783,-23.437500
4784,-25.390625
4785,-27.343750
4786,-27.343750
4787,-29.296875
4788,-31.250000
4789,-33.203125
4790,-35.156250
4791,-35.156250
4792,-37.109375
4793,-39.062500
4794,-41.015625
4795,-42.968750
4796,-42.968750
4797,-44.921875
4798,-46.875000
4799,-46.875000
4800,-48.828125
4801,-50.781250
4802,-50.781250
4803,-52.734375
4804,-54.687500
4805,-56.640625
4806,-58.593750
4807,-58.593750
4808,-60.546875
4809,-62.500000
4810,-62.500000
4811,-64.453125
4812,-66.406250
4813,-68.359375
4814,-68.359375
4815,-70.312500
4816,-70.312500
4817,-72.265625
4818,-74.218750
4819,-74.218750
4820,-76.171875
4821,-78.125000
4822,-78.125000
4823,-80.078125
4824,-82.031250
4825,-82.031250
4826,-83.984375
4827,-83.984375
4828,-85.937500
4829,-87.890625
4830,-87.890625
4831,-87.890625
4832,-89.843750
4833,-91.796875
4834,-91.796875
4835,-93.750000
4836,-93.750000
4837,-93.750000
4838,-97.656250
4839,-97.656250
4840,-97.656250
4841,-97.656250
4842,-99.609375
4843,-101.562500
4844,-103.515625
4845,-101.562500
4846,-103.515625
4847,-103.515625
4848,-105.468750
4849,-105.468750
4850,-107.421875
4851,-107.421875
4852,-107.421875
4853,-109.375000
4854,-109.375000
4855,-111.328125
4856,-111.328125
4857,-113.281250
4858,-111.328125
4859,-113.281250
4860,-113.281250
4861,-113.281250
4862,-113.281250
4863,-115.234375
4864,-115.234375
4865,-115.234375
4866,-117.187500
4867,-117.187500
4868,-117.187500
4869,-117.187500
4870,-117.187500
4871,-119.140625
4872,-119.140625
4873,-119.140625
4874,-119.140625
4875,-119.140625
4876,-121.093750
4877,-119.140625
4878,-121.093750
4879,-121.093750
4880,-121.093750
4881,-121.093750
4882,-121.093750
4883,-121.093750
4884,-121.093750
4885,-121.093750
4886,-121.093750
4887,-121.093750
4888,-121.093750
4889,-121.093750
4890,-121.093750
4891,-121.093750
4892,-121.093750
4893,-121.093750
4894,-121.093750
4895,-121.093750
4896,-121.093750
4897,-121.093750
4898,-121.093750
4899,-119.140625
4900,-119.140625
4901,-119.140625
4902,-119.140625
4903,-119.140625
4904,-119.140625
4905,-119.140625
4906,-119.140625
4907,-117.187500
4908,-117.187500
4909,-119.140625
4910,-113.281250
4911,-115.234375
4912,-115.234375
4913,-115.234375
4914,-115.234375
4915,-113.281250
4916,-113.281250
4917,-113.281250
4918,-111.328125
4919,-111.328125
4920,-111.328125
4921,-109.375000
4922,-109.375000
4923,-107.421875
4924,-107.421875
4925,-107.421875
4926,-105.468750
4927,-105.468750
4928,-103.515625
4929,-103.515625
4930,-103.515625
4931,-101.562500
4932,-101.562500
4933,-99.609375
4934,-99.609375
4935,-97.656250
4936,-97.656250
4937,-95.703125
4938,-95.703125
4939,-95.703125
4940,-93.750000
4941,-91.796875
4942,-91.796875
4943,-91.796875
4944,-89.843750
4945,-87.890625
4946,-85.937500
4947,-85.937500
4948,-85.937500
4949,-83.984375
4950,-82.031250
4951,-82.031250
4952,-80.078125
4953,-78.125000
4954,-78.125000
4955,-76.171875
4956,-74.218750
4957,-74.218750
4958,-72.265625
4959,-70.312500
4960,-70.312500
4961,-68.359375
4962,-66.406250
4963,-66.406250
4964,-64.453125
4965,-62.500000
4966,-62.500000
4967,-60.546875
4968,-58.593750
4969,-58.593750
4970,-56.640625
4971,-54.687500
4972,-54.687500
4973,-52.734375
4974,-50.781250
4975,-50.781250
4976,-48.828125
4977,-46.875000
4978,-44.921875
4979,-42.968750
4980,-41.015625
4981,-41.015625
4982,-39.062500
4983,-37.109375
4984,-37.109375
4985,-35.156250
4986,-33.203125
4987,-31.250000
4988,-29.296875
4989,-29.296875
4990,-27.343750
4991,-25.390625
4992,-25.390625
4993,-23.437500
4994,-21.484375
4995,-19.531250
4996,-17.578125
4997,-17.578125
4998,-15.625000
4999,-13.671875
5000,-11.718750
5001,-9.765625
5002,-7.812500
5003,-7.812500
5004,-5.859375
5005,-3.906250
5006,-1.953125
5007,-1.953125
5008,0.000000
5009,1.953125
5010,3.906250
5011,7.812500
5012,5.859375
5013,7.812500
5014,7.812500
5015,11.718750
5016,11.718750
5017,13.671875
5018,15.625000
5019,17.578125
5020,19.531250
5021,19.531250
5022,21.484375
5023,23.437500
5024,25.390625
5025,27.343750
5026,27.343750
5027,29.296875
5028,31.250000
5029,31.250000
5030,33.203125
5031,35.156250
5032,37.109375
5033,37.109375
5034,39.062500
5035,41.015625
5036,42.968750
5037,42.968750
5038,44.921875
5039,46.875000
5040,46.875000
5041,48.828125
5042,50.781250
5043,50.781250
5044,52.734375
5045,54.687500
5046,56.640625
5047,54.687500
5048,58.593750
5049,58.593750
5050,60.546875
5051,62.500000
5052,64.453125
5053,64.453125
5054,66.406250
5055,66.406250
5056,68.359375
5057,68.359375
5058,70.312500
5059,72.265625
5060,72.265625
5061,74.218750
5062,76.171875
5063,76.171875
5064,78.125000
5065,78.125000
5066,80.078125
5067,82.031250
5068,82.031250
5069,83.984375
5070,83.984375
5071,85.937500
5072,85.937500
5073,87.890625
5074,87.890625
5075,89.843750
5076,89.843750
5077,91.796875
5078,91.796875
5079,93.750000
5080,93.750000
5081,93.750000
5082,95.703125
5083,97.656250
5084,97.656250
5085,97.656250
5086,99.609375
5087,99.609375
5088,101.562500
5089,101.562500
5090,101.562500
5091,103.515625
5092,103.515625
5093,103.515625
5094,105.468750
5095,107.421875
5096,107.421875
5097,107.421875
5098,109.375000
5099,107.421875
5100,109.375000
5101,109.375000
5102,111.328125
5103,111.328125
5104,111.328125
5105,111.328125
5106,113.281250
5107,113.281250
5108,113.281250
5109,115.234375
5110,115.234375
5111,115.234375
5112,115.234375
5113,115.234375
5114,117.187500
5115,117.187500
5116,117.187500
5117,117.187500
5118,119.140625
5119,119.140625
5120,119.140625
5121,119.140625
5122,119.140625
5123,119.140625
5124,119.140625
5125,119.140625
5126,121.093750
5127,121.093750
5128,121.093750
5129,121.093750
5130,121.093750
5131,121.093750
5132,121.093750
5133,121.093750
5134,121.093750
5135,121.093750
5136,121.093750
5137,123.046875
5138,123.046875
5139,121.093750
5140,121.093750
5141,121.093750
5142,123.046875
5143,121.093750
5144,121.093750
5145,121.093750
5146,123.046875
5147,123.046875
5148,121.093750
5149,121.093750
5150,121.093750
5151,121.093750
5152,121.093750
5153,121.093750
5154,121.093750
5155,119.140625
5156,121.093750
5157,121.093750
5158,119.140625
5159,119.140625
5160,119.140625
5161,119.140625
5162,119.140625
5163,119.140625
5164,117.187500
5165,117.187500
5166,117.187500
5167,117.187500
5168,115.234375
5169,115.234375
5170,115.234375
5171,115.234375
5172,115.234375
5173,113.281250
5174,113.281250
5175,113.281250
5176,113.281250
5177,111.328125
5178,111.328125
5179,111.328125
5180,111.328125
5181,109.375000
5182,109.375000
5183,109.375000
5184,107.421875
5185,107.421875
5186,105.468750
5187,105.468750
5188,105.468750
5189,105.468750
5190,103.515625
5191,103.515625
5192,101.562500
5193,101.562500
5194,99.609375
5195,99.609375
5196,99.609375
5197,97.656250
5198,97.656250
5199,95.703125
5200,95.703125
5201,93.750000
5202,93.750000
5203,91.796875
5204,91.796875
5205,89.843750
5206,89.843750
5207,87.890625
5208,87.890625
5209,85.937500
5210,85.937500
5211,83.984375
5212,83.984375
5213,82.031250
5214,82.031250
5215,80.078125
5216,78.125000
5217,78.125000
5218,78.125000
5219,76.171875
5220,74.218750
5221,74.218750
5222,72.265625
5223,70.312500
5224,70.312500
5225,68.359375
5226,66.406250
5227,66.406250
5228,64.453125
5229,64.453125
5230,62.500000
5231,60.546875
5232,60.546875
5233,58.593750
5234,56.640625
5235,56.640625
5236,54.687500
5237,52.734375
5238,50.781250
5239,50.781250
5240,48.828125
5241,46.875000
5242,46.875000
5243,44.921875
5244,42.968750
5245,41.015625
5246,41.015625
5247,39.062500
5248,39.062500
5249,35.156250
5250,35.156250
5251,33.203125
5252,31.250000
5253,29.296875
5254,29.296875
5255,27.343750
5256,25.390625
5257,23.437500
5258,23.437500
5259,21.484375
5260,19.531250
5261,17.578125
5262,17.578125
5263,15.625000
5264,13.671875
5265,11.718750
5266,9.765625
5267,7.812500
5268,7.812500
5269,5.859375
5270,3.906250
5271,1.953125
5272,0.000000
5273,0.000000
5274,-1.953125
5275,-3.906250
5276,-5.859375
5277,-7.812500
5278,-7.812500
5279,-9.765625
5280,-11.718750
5281,-13.671875
5282,-13.671875
5283,-15.625000
5284,-17.578125
5285,-19.531250
5286,-19.531250
5287,-21.484375
5288,-23.437500
5289,-25.390625
5290,-27.343750
5291,-27.343750
5292,-29.296875
5293,-31.250000
5294,-33.203125
5295,-35.156250
5296,-35.156250
5297,-37.109375
5298,-39.062500
5299,-41.015625
5300,-41.015625
5301,-42.968750
5302,-44.921875
5303,-46.875000
5304,-46.875000
5305,-48.828125
5306,-50.781250
5307,-52.734375
5308,-52.734375
5309,-54.687500
5310,-56.640625
5311,-56.640625
5312,-58.593750
5313,-60.546875
5314,-62.500000
5315,-62.500000
5316,-68.359375
5317,-66.406250
5318,-66.406250
5319,-68.359375
5320,-70.312500
5321,-72.265625
5322,-72.265625
5323,-74.218750
5324,-74.218750
5325,-76.171875
5326,-76.171875
5327,-78.125000
5328,-80.078125
5329,-80.078125
5330,-82.031250
5331,-83.984375
5332,-83.984375
5333,-85.937500
5334,-85.937500
5335,-87.890625
5336,-87.890625
5337,-89.843750
5338,-91.796875
5339,-91.796875
5340,-93.750000
5341,-93.750000
5342,-95.703125
5343,-95.703125
5344,-95.703125
5345,-97.656250
5346,-99.609375
5347,-99.609375
5348,-101.562500
5349,-101.562500
5350,-101.562500
5351,-103.515625
5352,-103.515625
5353,-105.468750
5354,-105.468750
5355,-107.421875
5356,-107.421875
5357,-109.375000
5358,-109.375000
5359,-109.375000
5360,-111.328125
5361,-109.375000
5362,-109.375000
5363,-113.281250
5364,-113.281250
5365,-113.281250
5366,-113.281250
5367,-113.281250
5368,-115.234375
5369,-117.187500
5370,-117.187500
5371,-117.187500
5372,-117.187500
5373,-117.187500
5374,-117.187500
5375,-117.187500
5376,-119.140625
5377,-119.140625
5378,-119.140625
5379,-119.140625
5380,-119.140625
5381,-119.140625
5382,-119.140625
5383,-121.093750
5384,-121.093750
5385,-121.093750
5386,-121.093750
5387,-121.093750
5388,-121.093750
5389,-121.093750
5390,-121.093750
5391,-121.093750
5392,-121.093750
5393,-121.093750
5394,-121.093750
5395,-121.093750
5396,-121.093750
5397,-121.093750
5398,-121.093750
5399,-121.093750
5400,-121.093750
5401,-121.093750
5402,-121.093750
5403,-121.093750
5404,-119.140625
5405,-119.140625
5406,-119.140625
5407,-119.140625
5408,-119.140625
5409,-119.140625
5410,-119.140625
5411,-119.140625
5412,-117.187500
5413,-117.187500
5414,-117.187500
5415,-117.187500
5416,-115.234375
5417,-115.234375
5418,-115.234375
5419,-115.234375
5420,-113.281250
5421,-113.281250
5422,-113.281250
5423,-111.328125
5424,-111.328125
5425,-111.328125
5426,-109.375000
5427,-109.375000
5428,-107.421875
5429,-107.421875
5430,-107.421875
5431,-105.468750
5432,-105.468750
5433,-105.468750
5434,-103.515625
5435,-103.515625
5436,-101.562500
5437,-101.562500
5438,-99.609375
5439,-99.609375
5440,-97.656250
5441,-97.656250
5442,-95.703125
5443,-95.703125
5444,-95.703125
5445,-93.750000
5446,-91.796875
5447,-91.796875
5448,-89.843750
5449,-89.843750
5450,-87.890625
5451,-87.890625
5452,-85.937500
5453,-83.984375
5454,-83.984375
5455,-82.031250
5456,-82.031250
5457,-80.078125
5458,-78.125000
5459,-78.125000
5460,-76.171875
5461,-74.218750
5462,-74.218750
5463,-72.265625
5464,-72.265625
5465,-70.312500
5466,-68.359375
5467,-68.359375
5468,-66.406250
5469,-64.453125
5470,-62.500000
5471,-62.500000
5472,-60.546875
5473,-58.593750
5474,-58.593750
5475,-56.640625
5476,-54.687500
5477,-52.734375
5478,-50.781250
5479,-50.781250
5480,-48.828125
5481,-48.828125
5482,-46.875000
5483,-44.921875
5484,-42.968750
5485,-42.968750
5486,-41.015625
5487,-39.062500
5488,-37.109375
5489,-37.109375
5490,-35.156250
5491,-33.203125
5492,-31.250000
5493,-29.296875
5494,-29.296875
5495,-27.343750
5496,-25.390625
5497,-23.437500
5498,-21.484375
5499,-21.484375
5500,-19.531250
5501,-17.578125
5502,-15.625000
5503,-15.625000
5504,-13.671875
5505,-11.718750
5506,-9.765625
5507,-9.765625
5508,-7.812500
5509,-5.859375
5510,-3.906250
5511,-1.953125
5512,-1.953125
5513,0.000000
5514,1.953125
5515,3.906250
5516,5.859375
5517,5.859375
5518,7.812500
5519,9.765625
5520,11.718750
5521,13.671875
5522,13.671875
5523,15.625000
5524,17.578125
5525,19.531250
5526,19.531250
5527,21.484375
5528,23.437500
5529,23.437500
5530,27.343750
5531,27.343750
5532,29.296875
5533,31.250000
5534,31.250000
5535,33.203125
5536,35.156250
5537,37.109375
5538,39.062500
5539,39.062500
5540,41.015625
5541,42.968750
5542,44.921875
5543,44.921875
5544,46.875000
5545,46.875000
5546,48.828125
5547,50.781250
5548,50.781250
5549,52.734375
5550,54.687500
5551,54.687500
5552,56.640625
5553,56.640625
5554,58.593750
5555,60.546875
5556,62.500000
5557,62.500000
5558,64.453125
5559,66.406250
5560,66.406250
5561,68.359375
5562,68.359375
5563,70.312500
5564,72.265625
5565,72.265625
5566,74.218750
5567,76.171875
5568,76.171875
5569,78.125000
5570,80.078125
5571,80.078125
5572,80.078125
5573,82.031250
5574,83.984375
5575,83.984375
5576,85.937500
5577,85.937500
5578,87.890625
5579,87.890625
5580,89.843750
5581,89.843750
5582,91.796875
5583,91.796875
5584,93.750000
5585,95.703125
5586,95.703125
5587,95.703125
5588,97.656250
5589,97.656250
5590,97.656250
5591,99.609375
5592,99.609375
5593,101.562500
5594,101.562500
5595,103.515625
5596,103.515625
5597,103.515625
5598,105.468750
5599,105.468750
5600,105.468750
5601,107.421875
5602,107.421875
5603,107.421875
5604,109.375000
5605,109.375000
5606,109.375000
5607,111.328125
5608,111.328125
5609,111.328125
5610,111.328125
5611,113.281250
5612,113.281250
5613,113.281250
5614,113.281250
5615,115.234375
5616,115.234375
5617,115.234375
5618,117.187500
5619,117.187500
5620,117.187500
5621,117.187500
5622,117.187500
5623,117.187500
5624,119.140625
5625,119.140625
5626,119.140625
5627,119.140625
5628,119.140625
5629,119.140625
5630,123.046875
5631,121.093750
5632,121.093750
5633,121.093750
5634,121.093750
5635,121.093750
5636,121.093750
5637,121.093750
5638,121.093750
5639,121.093750
5640,121.093750
5641,121.093750
5642,123.046875
5643,123.046875
5644,123.046875
5645,123.046875
5646,123.046875
5647,123.046875
5648,123.046875
5649,121.093750
5650,121.093750
5651,123.046875
5652,123.046875
5653,121.093750
5654,121.093750
5655,121.093750
5656,121.093750
5657,121.093750
5658,121.093750
5659,121.093750
5660,121.093750
5661,121.093750
5662,121.093750
5663,119.140625
5664,119.140625
5665,119.140625
5666,119.140625
5667,119.140625
5668,119.140625
5669,117.187500
5670,117.187500
5671,117.187500
5672,117.187500
5673,117.187500
5674,115.234375
5675,115.234375
5676,115.234375
5677,115.234375
5678,115.234375
5679,113.281250
5680,113.281250
5681,111.328125
5682,111.328125
5683,111.328125
5684,111.328125
5685,109.375000
5686,109.375000
5687,109.375000
5688,109.375000
5689,107.421875
5690,107.421875
5691,105.468750
5692,105.468750
5693,105.468750
5694,103.515625
5695,103.515625
5696,101.562500
5697,99.609375
5698,101.562500
5699,99.609375
5700,99.609375
5701,97.656250
5702,97.656250
5703,97.656250
5704,95.703125
5705,95.703125
5706,93.750000
5707,93.750000
5708,91.796875
5709,91.796875
5710,89.843750
5711,89.843750
5712,87.890625
5713,87.890625
5714,85.937500
5715,85.937500
5716,85.937500
5717,83.984375
5718,82.031250
5719,82.031250
5720,80.078125
5721,82.031250
5722,78.125000
5723,76.171875
5724,76.171875
5725,74.218750
5726,74.218750
5727,72.265625
5728,72.265625
5729,70.312500
5730,68.359375
5731,70.312500
5732,66.406250
5733,64.453125
5734,64.453125
5735,62.500000
5736,60.546875
5737,60.546875
5738,58.593750
5739,56.640625
5740,56.640625
5741,54.687500
5742,52.734375
5743,52.734375
5744,50.781250
5745,48.828125
5746,46.875000
5747,46.875000
5748,44.921875
5749,42.968750
5750,41.015625
5751,41.015625
5752,39.062500
5753,37.109375
5754,37.109375
5755,35.156250
5756,33.203125
5757,31.250000
5758,31.250000
5759,29.296875
5760,27.343750
5761,25.390625
5762,23.437500
5763,23.437500
5764,21.484375
5765,19.531250
5766,17.578125
5767,17.578125
5768,15.625000
5769,13.671875
5770,11.718750
5771,9.765625
5772,7.812500
5773,7.812500
5774,5.859375
5775,3.906250
5776,3.906250
5777,1.953125
5778,0.000000
5779,-1.953125
5780,-3.906250
5781,-5.859375
5782,-5.859375
5783,-7.812500
5784,-9.765625
5785,-11.718750
5786,-11.718750
5787,-13.671875
5788,-15.625000
5789,-17.578125
5790,-19.531250
5791,-21.484375
5792,-21.484375
5793,-23.437500
5794,-25.390625
5795,-27.343750
5796,-27.343750
5797,-29.296875
5798,-31.250000
5799,-31.250000
5800,-33.203125
5801,-35.156250
5802,-37.109375
5803,-39.062500
5804,-41.015625
5805,-42.968750
5806,-42.968750
5807,-44.921875
5808,-46.875000
5809,-46.875000
5810,-48.828125
5811,-50.781250
5812,-52.734375
5813,-54.687500
5814,-54.687500
5815,-56.640625
5816,-58.593750
5817,-58.593750
5818,-60.546875
5819,-62.500000
5820,-62.500000
5821,-66.406250
5822,-66.406250
5823,-68.359375
5824,-68.359375
5825,-70.312500
5826,-70.312500
5827,-72.265625
5828,-74.218750
5829,-74.218750
5830,-76.171875
5831,-78.125000
5832,-78.125000
5833,-80.078125
5834,-80.078125
5835,-82.031250
5836,-83.984375
5837,-83.984375
5838,-85.937500
5839,-85.937500
5840,-87.890625
5841,-89.843750
5842,-89.843750
5843,-91.796875
5844,-91.796875
5845,-93.750000
5846,-93.750000
5847,-95.703125
5848,-95.703125
5849,-97.656250
5850,-97.656250
5851,-99.609375
5852,-99.609375
5853,-101.562500
5854,-103.515625
5855,-103.515625
5856,-103.515625
5857,-103.515625
5858,-105.468750
5859,-105.468750
5860,-107.421875
5861,-107.421875
5862,-107.421875
5863,-109.375000
5864,-109.375000
5865,-111.328125
5866,-111.328125
5867,-111.328125
5868,-113.281250
5869,-113.281250
5870,-113.281250
5871,-113.281250
5872,-115.234375
5873,-115.234375
5874,-115.234375
5875,-115.234375
5876,-115.234375
5877,-117.187500
5878,-117.187500
5879,-117.187500
5880,-117.187500
5881,-119.140625
5882,-119.140625
5883,-119.140625
5884,-119.140625
5885,-119.140625
5886,-119.140625
5887,-121.093750
5888,-121.093750
5889,-121.093750
5890,-121.093750
5891,-121.093750
5892,-121.093750
5893,-121.093750
5894,-121.093750
5895,-121.093750
5896,-121.093750
5897,-121.093750
5898,-121.093750
5899,-121.093750
5900,-121.093750
5901,-121.093750
5902,-121.093750
5903,-121.093750
5904,-121.093750
5905,-121.093750
5906,-121.093750
5907,-121.093750
5908,-121.093750
5909,-121.093750
5910,-119.140625
5911,-119.140625
5912,-119.140625
5913,-119.140625
5914,-119.140625
5915,-119.140625
5916,-117.187500
5917,-117.187500
5918,-117.187500
5919,-117.187500
5920,-117.187500
5921,-115.234375
5922,-115.234375
5923,-115.234375
5924,-113.281250
5925,-113.281250
5926,-113.281250
5927,-113.281250
5928,-111.328125
5929,-111.328125
5930,-111.328125
5931,-109.375000
5932,-109.375000
5933,-107.421875
5934,-107.421875
5935,-107.421875
5936,-107.421875
5937,-105.468750
5938,-105.468750
5939,-103.515625
5940,-103.515625
5941,-101.562500
5942,-101.562500
5943,-99.609375
5944,-99.609375
5945,-97.656250
5946,-97.656250
5947,-95.703125
5948,-95.703125
5949,-95.703125
5950,-93.750000
5951,-93.750000
5952,-91.796875
5953,-91.796875
5954,-89.843750
5955,-87.890625
5956,-85.937500
5957,-85.937500
5958,-85.937500
5959,-83.984375
5960,-82.031250
5961,-82.031250
5962,-80.078125
5963,-80.078125
5964,-78.125000
5965,-76.171875
5966,-76.171875
5967,-74.218750
5968,-72.265625
5969,-70.312500
5970,-70.312500
5971,-68.359375
5972,-68.359375
5973,-66.406250
5974,-64.453125
5975,-64.453125
5976,-62.500000
5977,-60.546875
5978,-58.593750
5979,-58.593750
5980,-56.640625
5981,-54.687500
5982,-54.687500
5983,-52.734375
5984,-50.781250
5985,-48.828125
5986,-46.875000
5987,-46.875000
5988,-44.921875
5989,-42.968750
5990,-42.968750
5991,-41.015625
5992,-39.062500
5993,-39.062500
5994,-37.109375
5995,-35.156250
5996,-33.203125
5997,-33.203125
5998,-31.250000
5999,-29.296875
6000,-29.296875
6001,-25.390625
6002,-23.437500
6003,-23.437500
6004,-21.484375
6005,-19.531250
6006,-17.578125
6007,-17.578125
6008,-15.625000
6009,-13.671875
6010,-11.718750
6011,-9.765625
6012,-9.765625
6013,-7.812500
6014,-5.859375
6015,-3.906250
6016,-3.906250
6017,-1.953125
6018,0.000000
6019,1.953125
6020,3.906250
6021,3.906250
6022,5.859375
6023,7.812500
6024,9.765625
6025,11.718750
6026,11.718750
6027,13.671875
6028,15.625000
6029,17.578125
6030,19.531250
6031,19.531250
6032,21.484375
6033,23.437500
6034,25.390625
6035,25.390625
6036,27.343750
6037,29.296875
6038,29.296875
6039,31.250000
6040,33.203125
6041,35.156250
6042,37.109375
6043,37.109375
6044,39.062500
6045,41.015625
6046,42.968750
6047,42.968750
6048,44.921875
6049,44.921875
6050,46.875000
6051,48.828125
6052,50.781250
6053,50.781250
6054,52.734375
6055,54.687500
6056,54.687500
6057,56.640625
6058,58.593750
6059,58.593750
6060,60.546875
6061,62.500000
6062,64.453125
6063,64.453125
6064,66.406250
6065,66.406250
6066,68.359375
6067,70.312500
6068,72.265625
6069,72.265625
6070,72.265625
6071,74.218750
6072,76.171875
6073,76.171875
6074,78.125000
6075,78.125000
6076,80.078125
6077,80.078125
6078,82.031250
6079,83.984375
6080,83.984375
6081,85.937500
6082,85.937500
6083,87.890625
6084,87.890625
6085,89.843750
6086,89.843750
6087,91.796875
6088,91.796875
6089,93.750000
6090,89.843750
6091,93.750000
6092,95.703125
6093,97.656250
6094,97.656250
6095,97.656250
6096,99.609375
6097,99.609375
6098,101.562500
6099,101.562500
6100,101.562500
6101,103.515625
6102,103.515625
6103,105.468750
6104,105.468750
6105,105.468750
6106,107.421875
6107,107.421875
6108,107.421875
6109,109.375000
6110,109.375000
6111,109.375000
6112,111.328125
6113,111.328125
6114,111.328125
6115,111.328125
6116,113.281250
6117,113.281250
6118,115.234375
6119,115.234375
6120,115.234375
6121,115.234375
6122,117.187500
6123,115.234375
6124,117.187500
6125,117.187500
6126,117.187500
6127,117.187500
6128,119.140625
6129,119.140625
6130,119.140625
6131,119.140625
6132,119.140625
6133,119.140625
6134,119.140625
6135,119.140625
6136,121.093750
6137,121.093750
6138,121.093750
6139,121.093750
6140,121.093750
6141,121.093750
6142,121.093750
6143,121.093750
6144,121.093750
6145,121.093750
6146,123.046875
6147,123.046875
6148,123.046875
6149,123.046875
6150,123.046875
6151,121.093750
6152,123.046875
6153,121.093750
6154,121.093750
6155,119.140625
6156,121.093750
6157,121.093750
6158,123.046875
6159,121.093750
6160,121.093750
6161,121.093750
6162,121.093750
6163,121.093750
6164,121.093750
6165,121.093750
6166,121.093750
6167,119.140625
6168,119.140625
6169,121.093750
6170,119.140625
6171,119.140625
6172,119.140625
6173,117.187500
6174,117.187500
6175,117.187500
6176,117.187500
6177,117.187500
6178,117.187500
6179,115.234375
6180,115.234375
6181,115.234375
6182,115.234375
6183,113.281250
6184,113.281250
6185,113.281250
6186,113.281250
6187,111.328125
6188,111.328125
6189,111.328125
6190,109.375000
6191,109.375000
6192,107.421875
6193,107.421875
6194,107.421875
6195,107.421875
6196,107.421875
6197,105.468750
6198,105.468750
6199,103.515625
6200,103.515625
6201,101.562500
6202,101.562500
6203,101.562500
6204,99.609375
6205,99.609375
6206,99.609375
6207,97.656250
6208,97.656250
6209,95.703125
6210,95.703125
6211,93.750000
6212,93.750000
6213,91.796875
6214,91.796875
6215,89.843750
6216,89.843750
6217,87.890625
6218,87.890625
6219,85.937500
6220,85.937500
6221,83.984375
6222,83.984375
6223,82.031250
6224,82.031250
6225,80.078125
6226,80.078125
6227,78.125000
6228,78.125000
6229,76.171875
6230,74.218750
6231,74.218750
6232,72.265625
6233,72.265625
6234,70.312500
6235,68.359375
6236,66.406250
6237,66.406250
6238,64.453125
6239,64.453125
6240,62.500000
6241,60.546875
6242,60.546875
6243,58.593750
6244,56.640625
6245,54.687500
6246,54.687500
6247,52.734375
6248,50.781250
6249,50.781250
6250,48.828125
6251,46.875000
6252,46.875000
6253,44.921875
6254,42.968750
6255,42.968750
6256,39.062500
6257,39.062500
6258,37.109375
6259,35.156250
6260,35.156250
6261,33.203125
6262,31.250000
6263,29.296875
6264,29.296875
6265,27.343750
6266,25.390625
6267,25.390625
6268,23.437500
6269,21.484375
6270,19.531250
6271,17.578125
6272,17.578125
6273,15.625000
6274,13.671875
6275,11.718750
6276,11.718750
6277,9.765625
6278,7.812500
6279,5.859375
6280,3.906250
6281,1.953125
6282,1.953125
6283,0.000000
6284,-1.953125
6285,-3.906250
6286,-3.906250
6287,-5.859375
6288,-7.812500
6289,-9.765625
6290,-11.718750
6291,-11.718750
6292,-13.671875
6293,-15.625000
6294,-17.578125
6295,-19.531250
6296,-19.531250
6297,-21.484375
6298,-23.437500
6299,-25.390625
6300,-27.343750
6301,-29.296875
6302,-29.296875
6303,-31.250000
6304,-33.203125
6305,-33.203125
6306,-35.156250
6307,-37.109375
6308,-39.062500
6309,-39.062500
6310,-41.015625
6311,-42.968750
6312,-44.921875
6313,-44.921875
6314,-46.875000
6315,-50.781250
6316,-50.781250
6317,-52.734375
6318,-52.734375
6319,-54.687500
6320,-56.640625
6321,-56.640625
6322,-58.593750
6323,-60.546875
6324,-62.500000
6325,-62.500000
6326,-64.453125
6327,-66.406250
6328,-66.406250
6329,-68.359375
6330,-70.312500
6331,-72.265625
6332,-72.265625
6333,-74.218750
6334,-74.218750
6335,-76.171875
6336,-76.171875
6337,-78.125000
6338,-80.078125
6339,-82.031250
6340,-82.031250
6341,-83.984375
6342,-83.984375
6343,-85.937500
6344,-85.937500
6345,-87.890625
6346,-87.890625
6347,-89.843750
6348,-91.796875
6349,-91.796875
6350,-93.750000
6351,-93.750000
6352,-95.703125
6353,-95.703125
6354,-95.703125
6355,-97.656250
6356,-97.656250
6357,-99.609375
6358,-99.609375
6359,-101.562500
6360,-101.562500
6361,-103.515625
6362,-103.515625
6363,-105.468750
6364,-105.468750
6365,-107.421875
6366,-107.421875
6367,-107.421875
6368,-109.375000
6369,-109.375000
6370,-109.375000
6371,-111.328125
6372,-111.328125
6373,-111.328125
6374,-113.281250
6375,-113.281250
6376,-113.281250
6377,-113.281250
6378,-115.234375
6379,-115.234375
6380,-115.234375
6381,-117.187500
6382,-117.187500
6383,-117.187500
6384,-117.187500
6385,-117.187500
6386,-117.187500
6387,-119.140625
6388,-119.140625
6389,-119.140625
6390,-119.140625
6391,-119.140625
6392,-119.140625
6393,-121.093750
6394,-121.093750
6395,-121.093750
6396,-121.093750
6397,-121.093750
6398,-121.093750
6399,-121.093750
6400,-121.093750
6401,-121.093750
6402,-121.093750
6403,-121.093750
6404,-121.093750
6405,-121.093750
6406,-121.093750
6407,-123.046875
6408,-121.093750
6409,-121.093750
6410,-121.093750
6411,-121.093750
6412,-121.093750
6413,-119.140625
6414,-119.140625
6415,-119.140625
6416,-119.140625
6417,-119.140625
6418,-119.140625
6419,-117.187500
6420,-119.140625
6421,-119.140625
6422,-115.234375
6423,-117.187500
6424,-117.187500
6425,-117.187500
6426,-115.234375
6427,-115.234375
6428,-115.234375
6429,-115.234375
6430,-113.281250
6431,-113.281250
6432,-113.281250
6433,-111.328125
6434,-111.328125
6435,-111.328125
6436,-109.375000
6437,-109.375000
6438,-107.421875
6439,-107.421875
6440,-107.421875
6441,-105.468750
6442,-105.468750
6443,-105.468750
6444,-103.515625
6445,-101.562500
6446,-101.562500
6447,-101.562500
6448,-99.609375
6449,-99.609375
6450,-99.609375
6451,-97.656250
6452,-97.656250
6453,-95.703125
6454,-93.750000
6455,-93.750000
6456,-91.796875
6457,-91.796875
6458,-89.843750
6459,-89.843750
6460,-87.890625
6461,-87.890625
6462,-85.937500
6463,-85.937500
6464,-83.984375
6465,-82.031250
6466,-82.031250
6467,-80.078125
6468,-78.125000
6469,-78.125000
6470,-76.171875
6471,-76.171875
6472,-72.265625
6473,-72.265625
6474,-72.265625
6475,-68.359375
6476,-68.359375
6477,-68.359375
6478,-64.453125
6479,-64.453125
6480,-64.453125
6481,-60.546875
6482,-60.546875
6483,-60.546875
6484,-56.640625
6485,-56.640625
6486,-58.593750
6487,-54.687500
6488,-52.734375
6489,-50.781250
6490,-48.828125
6491,-48.828125
6492,-46.875000
6493,-44.921875
6494,-42.968750
6495,-42.968750
6496,-41.015625
6497,-39.062500
6498,-37.109375
6499,-37.109375
6500,-35.156250
6501,-33.203125
6502,-33.203125
6503,-31.250000
6504,-29.296875
6505,-27.343750
6506,-25.390625
6507,-23.437500
6508,-21.484375
6509,-21.484375
6510,-19.531250
6511,-19.531250
6512,-15.625000
6513,-15.625000
6514,-13.671875
6515,-11.718750
6516,-9.765625
6517,-9.765625
6518,-7.812500
6519,-5.859375
6520,-3.906250
6521,-1.953125
6522,-1.953125
6523,0.000000
6524,1.953125
6525,3.906250
6526,5.859375
6527,5.859375
6528,7.812500
6529,9.765625
6530,11.718750
6531,13.671875
6532,13.671875
6533,15.625000
6534,17.578125
6535,19.531250
6536,19.531250
6537,21.484375
6538,21.484375
6539,23.437500
6540,25.390625
6541,27.343750
6542,29.296875
6543,31.250000
6544,31.250000
6545,33.203125
6546,35.156250
6547,35.156250
6548,37.109375
6549,39.062500
6550,41.015625
6551,41.015625
6552,42.968750
6553,44.921875
6554,46.875000
6555,46.875000
6556,48.828125
6557,50.781250
6558,50.781250
6559,52.734375
6560,54.687500
6561,54.687500
6562,56.640625
6563,58.593750
6564,60.546875
6565,60.546875
6566,62.500000
6567,62.500000
6568,64.453125
6569,64.453125
6570,66.406250
6571,68.359375
6572,70.312500
6573,70.312500
6574,72.265625
6575,72.265625
6576,74.218750
6577,74.218750
6578,76.171875
6579,76.171875
6580,78.125000
6581,78.125000
6582,80.078125
6583,82.031250
6584,82.031250
6585,83.984375
6586,85.937500
6587,85.937500
6588,85.937500
6589,87.890625
6590,87.890625
6591,89.843750
6592,89.843750
6593,91.796875
6594,91.796875
6595,93.750000
6596,93.750000
6597,95.703125
6598,95.703125
6599,97.656250
6600,97.656250
6601,99.609375
6602,99.609375
6603,99.609375
6604,101.562500
6605,101.562500
6606,103.515625
6607,103.515625
6608,103.515625
6609,105.468750
6610,105.468750
6611,105.468750
6612,107.421875
6613,107.421875
6614,107.421875
6615,109.375000
6616,109.375000
6617,111.328125
6618,111.328125
6619,111.328125
6620,113.281250
6621,113.281250
6622,113.281250
6623,113.281250
6624,115.234375
6625,115.234375
6626,115.234375
6627,115.234375
6628,117.187500
6629,117.187500
6630,117.187500
6631,117.187500
6632,117.187500
6633,117.187500
6634,119.140625
6635,119.140625
6636,119.140625
6637,119.140625
6638,119.140625
6639,119.140625
6640,121.093750
6641,121.093750
6642,121.093750
6643,121.093750
6644,121.093750
6645,121.093750
6646,121.093750
6647,121.093750
6648,121.093750
6649,121.093750
6650,123.046875
6651,123.046875
6652,121.093750
6653,123.046875
6654,121.093750
6655,121.093750
6656,123.046875
6657,121.093750
6658,123.046875
6659,121.093750
6660,123.046875
6661,123.046875
6662,121.093750
6663,121.093750
6664,121.093750
6665,121.093750
6666,121.093750
6667,121.093750
6668,121.093750
6669,121.093750
6670,121.093750
6671,121.093750
6672,121.093750
6673,119.140625
6674,119.140625
6675,119.140625
6676,119.140625
6677,119.140625
6678,119.140625
6679,117.187500
6680,117.187500
6681,117.187500
6682,117.187500
6683,117.187500
6684,115.234375
6685,115.234375
6686,115.234375
6687,115.234375
6688,115.234375
6689,113.281250
6690,113.281250
6691,113.281250
6692,113.281250
6693,111.328125
6694,111.328125
6695,111.328125
6696,109.375000
6697,109.375000
6698,109.375000
6699,107.421875
6700,107.421875
6701,105.468750
6702,105.468750
6703,105.468750
6704,105.468750
6705,103.515625
6706,103.515625
6707,101.562500
6708,101.562500
6709,99.609375
6710,99.609375
6711,99.609375
6712,97.656250
6713,97.656250
6714,95.703125
6715,95.703125
6716,93.750000
6717,93.750000
6718,91.796875
6719,91.796875
6720,89.843750
6721,89.843750
6722,87.890625
6723,87.890625
6724,85.937500
6725,85.937500
6726,83.984375
6727,83.984375
6728,82.031250
6729,82.031250
6730,80.078125
6731,78.125000
6732,78.125000
6733,76.171875
6734,76.171875
6735,74.218750
6736,74.218750
6737,72.265625
6738,72.265625
6739,70.312500
6740,68.359375
6741,68.359375
6742,66.406250
6743,64.453125
6744,64.453125
6745,62.500000
6746,60.546875
6747,60.546875
6748,58.593750
6749,56.640625
6750,56.640625
6751,54.687500
6752,52.734375
6753,50.781250
6754,50.781250
6755,48.828125
6756,48.828125
6757,46.875000
6758,44.921875
6759,42.968750
6760,42.968750
6761,41.015625
6762,39.062500
6763,39.062500
6764,37.109375
6765,35.156250
6766,33.203125
6767,31.250000
6768,31.250000
6769,29.296875
6770,27.343750
6771,25.390625
6772,25.390625
6773,23.437500
6774,21.484375
6775,19.531250
6776,17.578125
6777,17.578125
6778,15.625000
6779,13.671875
6780,11.718750
6781,11.718750
6782,9.765625
6783,7.812500
6784,5.859375
6785,3.906250
6786,3.906250
6787,1.953125
6788,0.000000
6789,-1.953125
6790,-1.953125
6791,-5.859375
6792,-5.859375
6793,-7.812500
6794,-9.765625
6795,-11.718750
6796,-13.671875
6797,-13.671875
6798,-15.625000
6799,-17.578125
6800,-19.531250
6801,-19.531250
6802,-21.484375
6803,-23.437500
6804,-25.390625
6805,-27.343750
6806,-29.296875
6807,-29.296875
6808,-31.250000
6809,-31.250000
6810,-35.156250
6811,-35.156250
6812,-37.109375
6813,-39.062500
6814,-39.062500
6815,-41.015625
6816,-42.968750
6817,-44.921875
6818,-46.875000
6819,-46.875000
6820,-48.828125
6821,-50.781250
6822,-52.734375
6823,-52.734375
6824,-54.687500
6825,-56.640625
6826,-58.593750
6827,-58.593750
6828,-60.546875
6829,-62.500000
6830,-62.500000
6831,-64.453125
6832,-66.406250
6833,-66.406250
6834,-68.359375
6835,-70.312500
6836,-70.312500
6837,-72.265625
6838,-72.265625
6839,-74.218750
6840,-76.171875
6841,-78.125000
6842,-78.125000
6843,-80.078125
6844,-80.078125
6845,-82.031250
6846,-83.984375
6847,-83.984375
6848,-85.937500
6849,-85.937500
6850,-87.890625
6851,-87.890625
6852,-89.843750
6853,-89.843750
6854,-91.796875
6855,-93.750000
6856,-93.750000
6857,-95.703125
6858,-95.703125
6859,-97.656250
6860,-97.656250
6861,-99.609375
6862,-99.609375
6863,-101.562500
6864,-101.562500
6865,-101.562500
6866,-103.515625
6867,-105.468750
6868,-105.468750
6869,-105.468750
6870,-107.421875
6871,-107.421875
6872,-107.421875
6873,-109.375000
6874,-109.375000
6875,-111.328125
6876,-111.328125
6877,-111.328125
6878,-113.281250
6879,-113.281250
6880,-113.281250
6881,-113.281250
6882,-113.281250
6883,-115.234375
6884,-115.234375
6885,-117.187500
6886,-115.234375
6887,-117.187500
6888,-117.187500
6889,-117.187500
6890,-117.187500
6891,-119.140625
6892,-119.140625
6893,-119.140625
6894,-119.140625
6895,-119.140625
6896,-119.140625
6897,-119.140625
6898,-121.093750
6899,-119.140625
6900,-121.093750
6901,-121.093750
6902,-121.093750
6903,-121.093750
6904,-121.093750
6905,-121.093750
6906,-121.093750
6907,-121.093750
6908,-121.093750
6909,-121.093750
6910,-121.093750
6911,-121.093750
6912,-121.093750
6913,-121.093750
6914,-121.093750
6915,-121.093750
6916,-121.093750
6917,-121.093750
6918,-119.140625
6919,-119.140625
6920,-121.093750
6921,-119.140625
6922,-119.140625
6923,-119.140625
6924,-119.140625
6925,-119.140625
6926,-117.187500
6927,-117.187500
6928,-117.187500
6929,-117.187500
6930,-113.281250
6931,-115.234375
6932,-115.234375
6933,-115.234375
6934,-115.234375
6935,-113.281250
6936,-113.281250
6937,-113.281250
6938,-113.281250
6939,-111.328125
6940,-111.328125
6941,-109.375000
6942,-109.375000
6943,-109.375000
6944,-107.421875
6945,-107.421875
6946,-107.421875
6947,-105.468750
6948,-105.468750
6949,-103.515625
6950,-103.515625
6951,-103.515625
6952,-101.562500
6953,-101.562500
6954,-99.609375
6955,-99.609375
6956,-97.656250
6957,-95.703125
6958,-95.703125
6959,-95.703125
6960,-93.750000
6961,-91.796875
6962,-93.750000
6963,-91.796875
6964,-89.843750
6965,-87.890625
6966,-87.890625
6967,-85.937500
6968,-85.937500
6969,-83.984375
6970,-83.984375
6971,-82.031250
6972,-82.031250
6973,-80.078125
6974,-78.125000
6975,-78.125000
6976,-76.171875
6977,-74.218750
6978,-72.265625
6979,-72.265625
6980,-72.265625
6981,-70.312500
6982,-68.359375
6983,-66.406250
6984,-66.406250
6985,-64.453125
6986,-62.500000
6987,-60.546875
6988,-60.546875
6989,-58.593750
6990,-56.640625
6991,-56.640625
6992,-54.687500
6993,-52.734375
6994,-50.781250
6995,-48.828125
6996,-48.828125
6997,-46.875000
6998,-44.921875
6999,-44.921875
7000,-42.968750
7001,-41.015625
7002,-39.062500
7003,-39.062500
7004,-37.109375
7005,-35.156250
7006,-33.203125
7007,-33.203125
7008,-31.250000
7009,-29.296875
7010,-27.343750
7011,-25.390625
7012,-25.390625
7013,-23.437500
7014,-21.484375
7015,-19.531250
7016,-17.578125
7017,-17.578125
7018,-15.625000
7019,-13.671875
7020,-11.718750
7021,-9.765625
7022,-9.765625
7023,-7.812500
7024,-5.859375
7025,-3.906250
7026,-3.906250
7027,-1.953125
7028,0.000000
7029,1.953125
7030,3.906250
7031,3.906250
7032,5.859375
7033,7.812500
7034,9.765625
7035,9.765625
7036,11.718750
7037,13.671875
7038,15.625000
7039,17.578125
7040,17.578125
7041,19.531250
7042,21.484375
7043,23.437500
7044,25.390625
7045,25.390625
7046,27.343750
7047,29.296875
7048,29.296875
7049,31.250000
7050,33.203125
7051,35.156250
7052,37.109375
7053,37.109375
7054,39.062500
7055,41.015625
7056,41.015625
7057,42.968750
7058,44.921875
7059,44.921875
7060,46.875000
7061,48.828125
7062,50.781250
7063,50.781250
7064,52.734375
7065,54.687500
7066,54.687500
7067,56.640625
7068,58.593750
7069,58.593750
7070,60.546875
7071,62.500000
7072,64.453125
7073,64.453125
7074,66.406250
7075,66.406250
7076,68.359375
7077,70.312500
7078,70.312500
7079,72.265625
7080,74.218750
7081,74.218750
7082,74.218750
7083,76.171875
7084,76.171875
7085,78.125000
7086,78.125000
7087,80.078125
7088,82.031250
7089,82.031250
7090,83.984375
7091,83.984375
7092,85.937500
7093,85.937500
7094,87.890625
7095,87.890625
7096,89.843750
7097,91.796875
7098,91.796875
7099,93.750000
7100,93.750000
7101,93.750000
7102,95.703125
7103,95.703125
7104,97.656250
7105,97.656250
7106,99.609375
7107,99.609375
7108,99.609375
7109,101.562500
7110,101.562500
7111,103.515625
7112,103.515625
7113,105.468750
7114,105.468750
7115,105.468750
7116,105.468750
7117,107.421875
7118,107.421875
7119,109.375000
7120,109.375000
7121,109.375000
7122,111.328125
7123,111.328125
7124,111.328125
7125,113.281250
7126,113.281250
7127,113.281250
7128,113.281250
7129,113.281250
7130,115.234375
7131,115.234375
7132,115.234375
7133,115.234375
7134,117.187500
7135,117.187500
7136,117.187500
7137,117.187500
7138,117.187500
7139,119.140625
7140,119.140625
7141,119.140625
7142,119.140625
7143,121.093750
7144,121.093750
7145,119.140625
7146,119.140625
7147,121.093750
7148,121.093750
7149,121.093750
7150,121.093750
7151,121.093750
7152,121.093750
7153,121.093750
7154,123.046875
7155,121.093750
7156,121.093750
7157,121.093750
7158,123.046875
7159,121.093750
7160,123.046875
7161,123.046875
7162,123.046875
7163,123.046875
7164,123.046875
7165,123.046875
7166,123.046875
7167,121.093750
7168,123.046875
7169,123.046875
7170,121.093750
7171,121.093750
7172,121.093750
7173,121.093750
7174,121.093750
7175,121.093750
7176,121.093750
7177,119.140625
7178,121.093750
7179,119.140625
7180,119.140625
7181,119.140625
7182,119.140625
7183,117.187500
7184,119.140625
7185,117.187500
7186,117.187500
7187,117.187500
7188,117.187500
7189,115.234375
7190,115.234375
7191,115.234375
7192,115.234375
7193,115.234375
7194,113.281250
7195,113.281250
7196,113.281250
7197,111.328125
7198,111.328125
7199,113.281250
7200,111.328125
7201,109.375000
7202,109.375000
7203,107.421875
7204,107.421875
7205,107.421875
7206,107.421875
7207,105.468750
7208,105.468750
7209,105.468750
7210,103.515625
7211,103.515625
7212,101.562500
7213,101.562500
7214,99.609375
7215,99.609375
7216,99.609375
7217,97.656250
7218,97.656250
7219,95.703125
7220,95.703125
7221,93.750000
7222,93.750000
7223,91.796875
7224,91.796875
7225,91.796875
7226,89.843750
7227,87.890625
7228,87.890625
7229,87.890625
7230,85.937500
7231,85.937500
7232,83.984375
7233,82.031250
7234,82.031250
7235,80.078125
7236,78.125000
7237,78.125000
7238,78.125000
7239,76.171875
7240,74.218750
7241,74.218750
7242,72.265625
7243,70.312500
7244,70.312500
7245,68.359375
7246,68.359375
7247,66.406250
7248,66.406250
7249,64.453125
7250,62.500000
7251,60.546875
7252,60.546875
7253,58.593750
7254,56.640625
7255,56.640625
7256,54.687500
7257,52.734375
7258,52.734375
7259,50.781250
7260,48.828125
7261,46.875000
7262,46.875000
7263,44.921875
7264,42.968750
7265,41.015625
7266,41.015625
7267,39.062500
7268,39.062500
7269,37.109375
7270,35.156250
7271,33.203125
7272,31.250000
7273,29.296875
7274,29.296875
7275,27.343750
7276,25.390625
7277,25.390625
7278,23.437500
7279,21.484375
7280,19.531250
7281,17.578125
7282,17.578125
7283,15.625000
7284,13.671875
7285,11.718750
7286,11.718750
7287,9.765625
7288,7.812500
7289,5.859375
7290,3.906250
7291,1.953125
7292,1.953125
7293,0.000000
7294,0.000000
7295,-3.906250
7296,-3.906250
7297,-5.859375
7298,-7.812500
7299,-9.765625
7300,-11.718750
7301,-11.718750
7302,-13.671875
7303,-15.625000
7304,-17.578125
7305,-17.578125
7306,-19.531250
7307,-21.484375
7308,-23.437500
7309,-25.390625
7310,-27.343750
7311,-27.343750
7312,-29.296875
7313,-31.250000
7314,-31.250000
7315,-33.203125
7316,-35.156250
7317,-37.109375
7318,-39.062500
7319,-39.062500
7320,-41.015625
7321,-42.968750
7322,-44.921875
7323,-44.921875
7324,-46.875000
7325,-48.828125
7326,-50.781250
7327,-52.734375
7328,-52.734375
7329,-54.687500
7330,-54.687500
7331,-56.640625
7332,-58.593750
7333,-60.546875
7334,-60.546875
7335,-62.500000
7336,-64.453125
7337,-66.406250
7338,-66.406250
7339,-68.359375
7340,-70.312500
7341,-70.312500
7342,-72.265625
7343,-74.218750
7344,-74.218750
7345,-72.265625
7346,-78.125000
7347,-78.125000
7348,-80.078125
7349,-80.078125
7350,-82.031250
7351,-83.984375
7352,-83.984375
7353,-85.937500
7354,-85.937500
7355,-87.890625
7356,-89.843750
7357,-89.843750
7358,-91.796875
7359,-91.796875
7360,-93.750000
7361,-93.750000
7362,-95.703125
7363,-95.703125
7364,-95.703125
7365,-97.656250
7366,-97.656250
7367,-99.609375
7368,-101.562500
7369,-101.562500
7370,-103.515625
7371,-103.515625
7372,-103.515625
7373,-105.468750
7374,-105.468750
7375,-107.421875
7376,-107.421875
7377,-107.421875
7378,-109.375000
7379,-109.375000
7380,-109.375000
7381,-111.328125
7382,-111.328125
7383,-113.281250
7384,-113.281250
7385,-113.281250
7386,-113.281250
7387,-115.234375
7388,-115.234375
7389,-115.234375
7390,-115.234375
7391,-117.187500
7392,-117.187500
7393,-117.187500
7394,-117.187500
7395,-117.187500
7396,-119.140625
7397,-119.140625
7398,-119.140625
7399,-119.140625
7400,-119.140625
7401,-119.140625
7402,-121.093750
7403,-121.093750
7404,-121.093750
7405,-121.093750
7406,-121.093750
7407,-121.093750
7408,-121.093750
7409,-121.093750
7410,-121.093750
7411,-121.093750
7412,-121.093750
7413,-121.093750
7414,-121.093750
7415,-121.093750
7416,-121.093750
7417,-121.093750
7418,-121.093750
7419,-121.093750
7420,-121.093750
7421,-121.093750
7422,-121.093750
7423,-121.093750
7424,-119.140625
7425,-119.140625
7426,-119.140625
7427,-119.140625
7428,-119.140625
7429,-119.140625
7430,-119.140625
7431,-119.140625
7432,-117.187500
7433,-117.187500
7434,-117.187500
7435,-115.234375
7436,-115.234375
7437,-115.234375
7438,-115.234375
7439,-113.281250
7440,-113.281250
7441,-113.281250
7442,-113.281250
7443,-111.328125
7444,-111.328125
7445,-111.328125
7446,-109.375000
7447,-109.375000
7448,-109.375000
7449,-107.421875
7450,-107.421875
7451,-107.421875
7452,-105.468750
7453,-105.468750
7454,-103.515625
7455,-103.515625
7456,-101.562500
7457,-101.562500
7458,-101.562500
7459,-99.609375
7460,-99.609375
7461,-97.656250
7462,-97.656250
7463,-95.703125
7464,-93.750000
7465,-93.750000
7466,-91.796875
7467,-91.796875
7468,-89.843750
7469,-89.843750
7470,-87.890625
7471,-87.890625
7472,-85.937500
7473,-85.937500
7474,-83.984375
7475,-82.031250
7476,-82.031250
7477,-80.078125
7478,-80.078125
7479,-78.125000
7480,-78.125000
7481,-76.171875
7482,-74.218750
7483,-72.265625
7484,-72.265625
7485,-70.312500
7486,-68.359375
7487,-68.359375
7488,-66.406250
7489,-66.406250
7490,-64.453125
7491,-62.500000
7492,-60.546875
7493,-60.546875
7494,-58.593750
7495,-56.640625
7496,-54.687500
7497,-54.687500
7498,-52.734375
7499,-50.781250
7500,-48.828125
7501,-48.828125
7502,-46.875000
7503,-44.921875
7504,-44.921875
7505,-42.968750
7506,-41.015625
7507,-39.062500
7508,-37.109375
7509,-37.109375
7510,-35.156250
7511,-33.203125
7512,-31.250000
7513,-31.250000
7514,-29.296875
7515,-27.343750
7516,-25.390625
7517,-25.390625
7518,-23.437500
7519,-21.484375
7520,-19.531250
7521,-17.578125
7522,-17.578125
7523,-15.625000
7524,-13.671875
7525,-11.718750
7526,-9.765625
7527,-7.812500
7528,-7.812500
7529,-5.859375
7530,-3.906250
7531,-1.953125
7532,-1.953125
7533,0.000000
7534,1.953125
7535,3.906250
7536,3.906250
7537,5.859375
7538,7.812500
7539,9.765625
7540,9.765625
7541,11.718750
7542,13.671875
7543,15.625000
7544,17.578125
7545,17.578125
7546,21.484375
7547,21.484375
7548,23.437500
7549,25.390625
7550,25.390625
7551,27.343750
7552,29.296875
7553,29.296875
7554,31.250000
7555,33.203125
7556,35.156250
7557,35.156250
7558,37.109375
7559,39.062500
7560,41.015625
7561,41.015625
7562,42.968750
7563,44.921875
7564,44.921875
7565,46.875000
7566,48.828125
7567,50.781250
7568,50.781250
7569,52.734375
7570,54.687500
7571,54.687500
7572,56.640625
7573,58.593750
7574,58.593750
7575,60.546875
7576,62.500000
7577,62.500000
7578,64.453125
7579,66.406250
7580,66.406250
7581,68.359375
7582,70.312500
7583,70.312500
7584,72.265625
7585,72.265625
7586,74.218750
7587,76.171875
7588,76.171875
7589,78.125000
7590,78.125000
7591,80.078125
7592,80.078125
7593,82.031250
7594,82.031250
7595,83.984375
7596,85.937500
7597,85.937500
7598,87.890625
7599,87.890625
7600,89.843750
7601,89.843750
7602,89.843750
7603,91.796875
7604,91.796875
7605,93.750000
7606,93.750000
7607,95.703125
7608,95.703125
7609,97.656250
7610,97.656250
7611,99.609375
7612,99.609375
7613,101.562500
7614,99.609375
7615,101.562500
7616,103.515625
7617,103.515625
7618,105.468750
7619,105.468750
7620,105.468750
7621,105.468750
7622,107.421875
7623,107.421875
7624,109.375000
7625,109.375000
7626,109.375000
7627,111.328125
7628,111.328125
7629,113.281250
7630,111.328125
7631,111.328125
7632,113.281250
7633,113.281250
7634,113.281250
7635,113.281250
7636,115.234375
7637,115.234375
7638,117.187500
7639,117.187500
7640,117.187500
7641,117.187500
7642,117.187500
7643,117.187500
7644,119.140625
7645,119.140625
7646,119.140625
7647,119.140625
7648,119.140625
7649,119.140625
7650,121.093750
7651,121.093750
7652,121.093750
7653,121.093750
7654,121.093750
7655,121.093750
7656,121.093750
7657,121.093750
7658,121.093750
7659,119.140625
7660,121.093750
7661,123.046875
7662,119.140625
7663,123.046875
7664,123.046875
7665,121.093750
7666,123.046875
7667,121.093750
7668,123.046875
7669,121.093750
7670,121.093750
7671,121.093750
7672,123.046875
7673,121.093750
7674,121.093750
7675,121.093750
7676,121.093750
7677,121.093750
7678,121.093750
7679,121.093750
7680,121.093750
7681,121.093750
7682,121.093750
7683,119.140625
7684,119.140625
7685,119.140625
7686,119.140625
7687,119.140625
7688,119.140625
7689,117.187500
7690,117.187500
7691,117.187500
7692,117.187500
7693,117.187500
7694,115.234375
7695,115.234375
7696,115.234375
7697,115.234375
7698,115.234375
7699,113.281250
7700,113.281250
7701,113.281250
7702,111.328125
7703,111.328125
7704,111.328125
7705,111.328125
7706,109.375000
7707,109.375000
7708,109.375000
7709,107.421875
7710,107.421875
7711,105.468750
7712,105.468750
7713,105.468750
7714,103.515625
7715,103.515625
7716,103.515625
7717,101.562500
7718,101.562500
7719,99.609375
7720,99.609375
7721,99.609375
7722,101.562500
7723,97.656250
7724,95.703125
7725,95.703125
7726,95.703125
7727,93.750000
7728,93.750000
7729,91.796875
7730,91.796875
7731,89.843750
7732,87.890625
7733,87.890625
7734,87.890625
7735,85.937500
7736,85.937500
7737,82.031250
7738,82.031250
7739,82.031250
7740,80.078125
7741,78.125000
7742,78.125000
7743,76.171875
7744,76.171875
7745,74.218750
7746,74.218750
7747,72.265625
7748,70.312500
7749,68.359375
7750,68.359375
7751,66.406250
7752,66.406250
7753,64.453125
7754,64.453125
7755,62.500000
7756,62.500000
7757,60.546875
7758,58.593750
7759,56.640625
7760,54.687500
7761,54.687500
7762,52.734375
7763,50.781250
7764,50.781250
7765,48.828125
7766,46.875000
7767,46.875000
7768,44.921875
7769,42.968750
7770,41.015625
7771,41.015625
7772,39.062500
7773,37.109375
7774,35.156250
7775,35.156250
7776,33.203125
7777,33.203125
7778,31.250000
7779,29.296875
7780,27.343750
7781,25.390625
7782,25.390625
7783,23.437500
7784,21.484375
7785,19.531250
7786,19.531250
7787,17.578125
7788,15.625000
7789,13.671875
7790,11.718750
7791,9.765625
7792,9.765625
7793,7.812500
7794,5.859375
7795,3.906250
7796,3.906250
7797,1.953125
7798,0.000000
7799,-1.953125
7800,-3.906250
7801,-3.906250
7802,-5.859375
7803,-7.812500
7804,-9.765625
7805,-11.718750
7806,-11.718750
7807,-13.671875
7808,-15.625000
7809,-17.578125
7810,-19.531250
7811,-19.531250
7812,-21.484375
7813,-23.437500
7814,-25.390625
7815,-27.343750
7816,-27.343750
7817,-29.296875
7818,-29.296875
7819,-31.250000
7820,-33.203125
7821,-35.156250
7822,-37.109375
7823,-37.109375
7824,-39.062500
7825,-41.015625
7826,-42.968750
7827,-44.921875
7828,-46.875000
7829,-46.875000
7830,-48.828125
7831,-50.781250
7832,-52.734375
7833,-52.734375
7834,-54.687500
7835,-56.640625
7836,-56.640625
7837,-58.593750
7838,-60.546875
7839,-62.500000
7840,-62.500000
7841,-64.453125
7842,-66.406250
7843,-68.359375
7844,-68.359375
7845,-68.359375
7846,-70.312500
7847,-72.265625
7848,-74.218750
7849,-74.218750
7850,-76.171875
7851,-78.125000
7852,-78.125000
7853,-80.078125
7854,-80.078125
7855,-82.031250
7856,-83.984375
7857,-83.984375
7858,-85.937500
7859,-85.937500
7860,-87.890625
7861,-89.843750
7862,-89.843750
7863,-91.796875
7864,-91.796875
7865,-93.750000
7866,-93.750000
7867,-95.703125
7868,-95.703125
7869,-97.656250
7870,-97.656250
7871,-99.609375
7872,-99.609375
7873,-99.609375
7874,-101.562500
7875,-103.515625
7876,-103.515625
7877,-103.515625
7878,-105.468750
7879,-105.468750
7880,-107.421875
7881,-107.421875
7882,-107.421875
7883,-107.421875
7884,-109.375000
7885,-109.375000
7886,-111.328125
7887,-111.328125
7888,-111.328125
7889,-113.281250
7890,-113.281250
7891,-113.281250
7892,-115.234375
7893,-115.234375
7894,-115.234375
7895,-115.234375
7896,-117.187500
7897,-117.187500
7898,-117.187500
7899,-119.140625
7900,-117.187500
7901,-119.140625
7902,-119.140625
7903,-119.140625
7904,-119.140625
7905,-121.093750
7906,-121.093750
7907,-121.093750
7908,-119.140625
7909,-121.093750
7910,-121.093750
7911,-121.093750
7912,-121.093750
7913,-121.093750
7914,-121.093750
7915,-121.093750
7916,-121.093750
7917,-121.093750
7918,-121.093750
7919,-121.093750
7920,-123.046875
7921,-121.093750
7922,-119.140625
7923,-121.093750
7924,-121.093750
7925,-121.093750
7926,-121.093750
7927,-121.093750
7928,-119.140625
7929,-121.093750
7930,-119.140625
7931,-117.187500
7932,-119.140625
7933,-119.140625
7934,-119.140625
7935,-117.187500
7936,-119.140625
7937,-117.187500
7938,-117.187500
7939,-117.187500
7940,-115.234375
7941,-115.234375
7942,-115.234375
7943,-115.234375
7944,-115.234375
7945,-113.281250
7946,-113.281250
7947,-113.281250
7948,-111.328125
7949,-111.328125
7950,-111.328125
7951,-109.375000
7952,-109.375000
7953,-107.421875
7954,-107.421875
7955,-107.421875
7956,-107.421875
7957,-105.468750
7958,-105.468750
7959,-103.515625
7960,-103.515625
7961,-101.562500
7962,-101.562500
7963,-101.562500
7964,-99.609375
7965,-99.609375
7966,-97.656250
7967,-97.656250
7968,-95.703125
7969,-95.703125
7970,-93.750000
7971,-91.796875
7972,-91.796875
7973,-89.843750
7974,-89.843750
7975,-87.890625
7976,-87.890625
7977,-85.937500
7978,-85.937500
7979,-83.984375
7980,-82.031250
7981,-82.031250
7982,-80.078125
7983,-80.078125
7984,-78.125000
7985,-78.125000
7986,-76.171875
7987,-74.218750
7988,-72.265625
7989,-72.265625
7990,-70.312500
7991,-70.312500
7992,-68.359375
7993,-66.406250
7994,-66.406250
7995,-64.453125
7996,-62.500000
7997,-58.593750
7998,-60.546875
7999,-58.593750
8000,-58.593750
8001,-54.687500
8002,-54.687500
8003,-52.734375
8004,-50.781250
8005,-50.781250
8006,-48.828125
8007,-46.875000
8008,-44.921875
8009,-44.921875
8010,-42.968750
8011,-41.015625
8012,-39.062500
8013,-39.062500
8014,-37.109375
8015,-35.156250
8016,-33.203125
8017,-33.203125
8018,-31.250000
8019,-29.296875
8020,-29.296875
8021,-27.343750
8022,-23.437500
8023,-23.437500
8024,-21.484375
8025,-19.531250
8026,-15.625000
8027,-17.578125
8028,-15.625000
8029,-13.671875
8030,-11.718750
8031,-11.718750
8032,-9.765625
8033,-7.812500
8034,-5.859375
8035,-3.906250
8036,-1.953125
8037,-1.953125
8038,3.906250
8039,1.953125
8040,3.906250
8041,1.953125
8042,5.859375
8043,7.812500
8044,9.765625
8045,9.765625
8046,11.718750
8047,13.671875
8048,15.625000
8049,17.578125
8050,17.578125
8051,19.531250
8052,23.437500
8053,23.437500
8054,23.437500
8055,25.390625
8056,29.296875
8057,29.296875
8058,29.296875
8059,33.203125
8060,33.203125
8061,33.203125
8062,37.109375
8063,37.109375
8064,39.062500
8065,41.015625
8066,41.015625
8067,42.968750
8068,44.921875
8069,44.921875
8070,46.875000
8071,48.828125
8072,48.828125
8073,50.781250
8074,52.734375
8075,54.687500
8076,56.640625
8077,56.640625
8078,58.593750
8079,58.593750
8080,60.546875
8081,60.546875
8082,62.500000
8083,64.453125
8084,66.406250
8085,66.406250
8086,68.359375
8087,68.359375
8088,70.312500
8089,72.265625
8090,72.265625
8091,74.218750
8092,74.218750
8093,76.171875
8094,76.171875
8095,78.125000
8096,80.078125
8097,80.078125
8098,82.031250
8099,82.031250
8100,83.984375
8101,83.984375
8102,85.937500
8103,85.937500
8104,87.890625
8105,87.890625
8106,89.843750
8107,89.843750
8108,91.796875
8109,91.796875
8110,93.750000
8111,93.750000
8112,95.703125
8113,95.703125
8114,97.656250
8115,97.656250
8116,99.609375
8117,99.609375
8118,99.609375
8119,99.609375
8120,101.562500
8121,103.515625
8122,103.515625
8123,103.515625
8124,105.468750
8125,105.468750
8126,105.468750
8127,107.421875
8128,107.421875
8129,107.421875
8130,109.375000
8131,109.375000
8132,109.375000
8133,109.375000
8134,111.328125
8135,111.328125
8136,111.328125
8137,113.281250
8138,113.281250
8139,115.234375
8140,115.234375
8141,115.234375
8142,115.234375
8143,115.234375
8144,117.187500
8145,117.187500
8146,117.187500
8147,117.187500
8148,117.187500
8149,119.140625
8150,119.140625
8151,119.140625
8152,119.140625
8153,119.140625
8154,119.140625
8155,119.140625
8156,121.093750
8157,121.093750
8158,121.093750
8159,121.093750
8160,121.093750
8161,121.093750
8162,121.093750
8163,121.093750
8164,121.093750
8165,121.093750
8166,123.046875
8167,121.093750
8168,121.093750
8169,121.093750
8170,123.046875
8171,123.046875
8172,123.046875
8173,123.046875
8174,123.046875
8175,123.046875
8176,123.046875
8177,121.093750
8178,121.093750
8179,121.093750
8180,121.093750
8181,121.093750
8182,121.093750
8183,121.093750
8184,121.093750
8185,121.093750
8186,121.093750
8187,121.093750
8188,121.093750
8189,121.093750
8190,119.140625
8191,119.140625
8192,119.140625
8193,119.140625
8194,119.140625
8195,119.140625
8196,117.187500
8197,117.187500
8198,117.187500
8199,117.187500
8200,115.234375
8201,115.234375
8202,115.234375
8203,115.234375
8204,113.281250
8205,113.281250
8206,113.281250
8207,113.281250
8208,111.328125
8209,111.328125
8210,111.328125
8211,109.375000
8212,109.375000
8213,107.421875
8214,107.421875
8215,107.421875
8216,107.421875
8217,105.468750
8218,105.468750
8219,105.468750
8220,103.515625
8221,103.515625
8222,101.562500
8223,101.562500
8224,101.562500
8225,99.609375
8226,99.609375
8227,97.656250
8228,97.656250
8229,95.703125
8230,95.703125
8231,93.750000
8232,93.750000
8233,91.796875
8234,91.796875
8235,89.843750
8236,89.843750
8237,87.890625
8238,87.890625
8239,87.890625
8240,85.937500
8241,83.984375
8242,83.984375
8243,82.031250
8244,82.031250
8245,80.078125
8246,80.078125
8247,78.125000
8248,78.125000
8249,76.171875
8250,74.218750
8251,74.218750
8252,72.265625
8253,70.312500
8254,70.312500
8255,68.359375
8256,68.359375
8257,66.406250
8258,66.406250
8259,64.453125
8260,62.500000
8261,62.500000
8262,60.546875
8263,58.593750
8264,56.640625
8265,54.687500
8266,54.687500
8267,52.734375
8268,52.734375
8269,50.781250
8270,48.828125
8271,48.828125
8272,46.875000
8273,44.921875
8274,42.968750
8275,41.015625
8276,41.015625
8277,39.062500
8278,39.062500
8279,37.109375
8280,35.156250
8281,33.203125
8282,33.203125
8283,31.250000
8284,29.296875
8285,27.343750
8286,25.390625
8287,25.390625
8288,23.437500
8289,21.484375
8290,19.531250
8291,17.578125
8292,17.578125
8293,15.625000
8294,13.671875
8295,13.671875
8296,11.718750
8297,9.765625
8298,7.812500
8299,5.859375
8300,5.859375
8301,3.906250
8302,1.953125
8303,0.000000
8304,-1.953125
8305,-1.953125
8306,-3.906250
8307,-5.859375
8308,-7.812500
8309,-9.765625
8310,-9.765625
8311,-11.718750
8312,-13.671875
8313,-15.625000
8314,-17.578125
8315,-17.578125
8316,-19.531250
8317,-21.484375
8318,-23.437500
8319,-23.437500
8320,-25.390625
8321,-27.343750
8322,-29.296875
8323,-31.250000
8324,-31.250000
8325,-33.203125
8326,-35.156250
8327,-37.109375
8328,-37.109375
8329,-39.062500
8330,-41.015625
8331,-42.968750
8332,-42.968750
8333,-44.921875
8334,-46.875000
8335,-48.828125
8336,-50.781250
8337,-52.734375
8338,-52.734375
8339,-54.687500
8340,-56.640625
8341,-56.640625
8342,-58.593750
8343,-60.546875
8344,-60.546875
8345,-62.500000
8346,-64.453125
8347,-64.453125
8348,-66.406250
8349,-68.359375
8350,-68.359375
8351,-70.312500
8352,-72.265625
8353,-72.265625
8354,-74.218750
8355,-76.171875
8356,-76.171875
8357,-78.125000
8358,-80.078125
8359,-80.078125
8360,-82.031250
8361,-82.031250
8362,-83.984375
8363,-85.937500
8364,-85.937500
8365,-87.890625
8366,-87.890625
8367,-89.843750
8368,-89.843750
8369,-91.796875
8370,-93.750000
8371,-93.750000
8372,-95.703125
8373,-95.703125
8374,-97.656250
8375,-97.656250
8376,-99.609375
8377,-99.609375
8378,-101.562500
8379,-101.562500
8380,-101.562500
8381,-103.515625
8382,-103.515625
8383,-105.468750
8384,-105.468750
8385,-105.468750
8386,-107.421875
8387,-107.421875
8388,-109.375000
8389,-109.375000
8390,-109.375000
8391,-111.328125
8392,-111.328125
8393,-111.328125
8394,-113.281250
8395,-115.234375
8396,-113.281250
8397,-115.234375
8398,-117.187500
8399,-115.234375
8400,-115.234375
8401,-117.187500
8402,-117.187500
8403,-117.187500
8404,-119.140625
8405,-119.140625
8406,-119.140625
8407,-119.140625
8408,-119.140625
8409,-119.140625
8410,-119.140625
8411,-119.140625
8412,-121.093750
8413,-121.093750
8414,-121.093750
8415,-121.093750
8416,-121.093750
8417,-121.093750
8418,-121.093750
8419,-121.093750
8420,-121.093750
8421,-119.140625
8422,-121.093750
8423,-121.093750
8424,-121.093750
8425,-121.093750
8426,-121.093750
8427,-121.093750
8428,-121.093750
8429,-121.093750
8430,-121.093750
8431,-119.140625
8432,-119.140625
8433,-121.093750
8434,-119.140625
8435,-121.093750
8436,-119.140625
8437,-119.140625
8438,-119.140625
8439,-119.140625
8440,-119.140625
8441,-117.187500
8442,-117.187500
8443,-117.187500
8444,-117.187500
8445,-117.187500
8446,-115.234375
8447,-115.234375
8448,-115.234375
8449,-113.281250
8450,-113.281250
8451,-113.281250
8452,-113.281250
8453,-111.328125
8454,-111.328125
8455,-111.328125
8456,-111.328125
8457,-109.375000
8458,-109.375000
8459,-107.421875
8460,-105.468750
8461,-105.468750
8462,-105.468750
8463,-105.468750
8464,-103.515625
8465,-103.515625
8466,-101.562500
8467,-101.562500
8468,-99.609375
8469,-99.609375
8470,-97.656250
8471,-97.656250
8472,-97.656250
8473,-95.703125
8474,-93.750000
8475,-93.750000
8476,-91.796875
8477,-91.796875
8478,-89.843750
8479,-89.843750
8480,-87.890625
8481,-87.890625
8482,-85.937500
8483,-85.937500
8484,-83.984375
8485,-83.984375
8486,-82.031250
8487,-80.078125
8488,-80.078125
8489,-78.125000
8490,-76.171875
8491,-76.171875
8492,-74.218750
8493,-72.265625
8494,-72.265625
8495,-70.312500
8496,-68.359375
8497,-68.359375
8498,-66.406250
8499,-66.406250
8500,-64.453125
8501,-62.500000
8502,-62.500000
8503,-60.546875
8504,-58.593750
8505,-56.640625
8506,-54.687500
8507,-54.687500
8508,-52.734375
8509,-54.687500
8510,-50.781250
8511,-48.828125
8512,-46.875000
8513,-46.875000
8514,-44.921875
8515,-42.968750
8516,-41.015625
8517,-39.062500
8518,-39.062500
8519,-37.109375
8520,-35.156250
8521,-33.203125
8522,-33.203125
8523,-31.250000
8524,-29.296875
8525,-27.343750
8526,-27.343750
8527,-25.390625
8528,-23.437500
8529,-21.484375
8530,-19.531250
8531,-19.531250
8532,-17.578125
8533,-15.625000
8534,-13.671875
8535,-13.671875
8536,-11.718750
8537,-9.765625
8538,-7.812500
8539,-5.859375
8540,-3.906250
8541,-3.906250
8542,-1.953125
8543,0.000000
8544,1.953125
8545,1.953125
8546,3.906250
8547,5.859375
8548,7.812500
8549,9.765625
8550,9.765625
8551,11.718750
8552,13.671875
8553,15.625000
8554,17.578125
8555,17.578125
8556,19.531250
8557,21.484375
8558,23.437500
8559,23.437500
8560,25.390625
8561,27.343750
8562,29.296875
8563,29.296875
8564,31.250000
8565,33.203125
8566,35.156250
8567,37.109375
8568,37.109375
8569,39.062500
8570,41.015625
8571,41.015625
8572,42.968750
8573,42.968750
8574,44.921875
8575,46.875000
8576,48.828125
8577,50.781250
8578,50.781250
8579,52.734375
8580,54.687500
8581,54.687500
8582,56.640625
8583,56.640625
8584,58.593750
8585,60.546875
8586,62.500000
8587,62.500000
8588,64.453125
8589,64.453125
8590,66.406250
8591,68.359375
8592,68.359375
8593,70.312500
8594,72.265625
8595,72.265625
8596,74.218750
8597,74.218750
8598,76.171875
8599,78.125000
8600,78.125000
8601,80.078125
8602,80.078125
8603,82.031250
8604,82.031250
8605,83.984375
8606,85.937500
8607,85.937500
8608,85.937500
8609,87.890625
8610,87.890625
8611,89.843750
8612,91.796875
8613,91.796875
8614,91.796875
8615,93.750000
8616,93.750000
8617,95.703125
8618,95.703125
8619,97.656250
8620,97.656250
8621,97.656250
8622,99.609375
8623,101.562500
8624,101.562500
8625,101.562500
8626,103.515625
8627,103.515625
8628,103.515625
8629,105.468750
8630,105.468750
8631,105.468750
8632,107.421875
8633,107.421875
8634,109.375000
8635,109.375000
8636,109.375000
8637,109.375000
8638,111.328125
8639,111.328125
8640,111.328125
8641,113.281250
8642,113.281250
8643,113.281250
8644,115.234375
8645,115.234375
8646,115.234375
8647,115.234375
8648,117.187500
8649,115.234375
8650,117.187500
8651,117.187500
8652,117.187500
8653,117.187500
8654,119.140625
8655,119.140625
8656,119.140625
8657,119.140625
8658,119.140625
8659,119.140625
8660,121.093750
8661,119.140625
8662,121.093750
8663,121.093750
8664,121.093750
8665,121.093750
8666,121.093750
8667,121.093750
8668,121.093750
8669,121.093750
8670,121.093750
8671,121.093750
8672,121.093750
8673,121.093750
8674,121.093750
8675,121.093750
8676,123.046875
8677,123.046875
8678,123.046875
8679,123.046875
8680,123.046875
8681,121.093750
8682,121.093750
8683,121.093750
8684,121.093750
8685,121.093750
8686,121.093750
8687,121.093750
8688,121.093750
8689,121.093750
8690,121.093750
8691,121.093750
8692,121.093750
8693,121.093750
8694,119.140625
8695,119.140625
8696,119.140625
8697,119.140625
8698,119.140625
8699,119.140625
8700,119.140625
8701,117.187500
8702,117.187500
8703,117.187500
8704,117.187500
8705,115.234375
8706,115.234375
8707,115.234375
8708,115.234375
8709,115.234375
8710,113.281250
8711,113.281250
8712,111.328125
8713,111.328125
8714,111.328125
8715,111.328125
8716,111.328125
8717,109.375000
8718,109.375000
8719,107.421875
8720,107.421875
8721,107.421875
8722,107.421875
8723,105.468750
8724,105.468750
8725,103.515625
8726,103.515625
8727,101.562500
8728,101.562500
8729,99.609375
8730,99.609375
8731,99.609375
8732,99.609375
8733,97.656250
8734,97.656250
8735,95.703125
8736,93.750000
8737,93.750000
8738,93.750000
8739,91.796875
8740,91.796875
8741,89.843750
8742,89.843750
8743,87.890625
8744,87.890625
8745,85.937500
8746,85.937500
8747,82.031250
8748,82.031250
8749,82.031250
8750,82.031250
8751,80.078125
8752,78.125000
8753,76.171875
8754,76.171875
8755,74.218750
8756,74.218750
8757,72.265625
8758,72.265625
8759,70.312500
8760,70.312500
8761,68.359375
8762,66.406250
8763,64.453125
8764,64.453125
8765,62.500000
8766,62.500000
8767,60.546875
8768,58.593750
8769,56.640625
8770,56.640625
8771,54.687500
8772,52.734375
8773,50.781250
8774,50.781250
8775,48.828125
8776,48.828125
8777,46.875000
8778,44.921875
8779,44.921875
8780,42.968750
8781,41.015625
8782,39.062500
8783,37.109375
8784,37.109375
8785,35.156250
8786,33.203125
8787,31.250000
8788,31.250000
8789,29.296875
8790,27.343750
8791,29.296875
8792,23.437500
8793,23.437500
8794,21.484375
8795,19.531250
8796,17.578125
8797,17.578125
8798,15.625000
8799,13.671875
8800,13.671875
8801,9.765625
8802,9.765625
8803,7.812500
8804,5.859375
8805,3.906250
8806,3.906250
8807,1.953125
8808,0.000000
8809,-1.953125
8810,-5.859375
8811,-3.906250
8812,-5.859375
8813,-11.718750
8814,-9.765625
8815,-11.718750
8816,-11.718750
8817,-13.671875
8818,-15.625000
8819,-15.625000
8820,-17.578125
8821,-19.531250
8822,-21.484375
8823,-23.437500
8824,-23.437500
8825,-25.390625
8826,-27.343750
8827,-29.296875
8828,-29.296875
8829,-31.250000
8830,-33.203125
8831,-35.156250
8832,-37.109375
8833,-39.062500
8834,-39.062500
8835,-41.015625
8836,-42.968750
8837,-44.921875
8838,-44.921875
8839,-46.875000
8840,-48.828125
8841,-48.828125
8842,-50.781250
8843,-52.734375
8844,-54.687500
8845,-56.640625
8846,-56.640625
8847,-58.593750
8848,-60.546875
8849,-60.546875
8850,-62.500000
8851,-64.453125
8852,-64.453125
8853,-66.406250
8854,-68.359375
8855,-70.312500
8856,-70.312500
8857,-72.265625
8858,-74.218750
8859,-74.218750
8860,-76.171875
8861,-76.171875
8862,-78.125000
8863,-80.078125
8864,-80.078125
8865,-82.031250
8866,-82.031250
8867,-83.984375
8868,-85.937500
8869,-85.937500
8870,-87.890625
8871,-89.843750
8872,-89.843750
8873,-89.843750
8874,-91.796875
8875,-93.750000
8876,-93.750000
8877,-95.703125
8878,-95.703125
8879,-97.656250
8880,-97.656250
8881,-99.609375
8882,-99.609375
8883,-101.562500
8884,-101.562500
8885,-103.515625
8886,-103.515625
8887,-103.515625
8888,-105.468750
8889,-105.468750
8890,-107.421875
8891,-107.421875
8892,-107.421875
8893,-109.375000
8894,-109.375000
8895,-109.375000
8896,-111.328125
8897,-111.328125
8898,-111.328125
8899,-113.281250
8900,-113.281250
8901,-113.281250
8902,-115.234375
8903,-115.234375
8904,-115.234375
8905,-117.187500
8906,-117.187500
8907,-117.187500
8908,-117.187500
8909,-117.187500
8910,-119.140625
8911,-119.140625
8912,-119.140625
8913,-119.140625
8914,-119.140625
8915,-119.140625
8916,-119.140625
8917,-119.140625
8918,-121.093750
8919,-121.093750
8920,-121.093750
8921,-121.093750
8922,-121.093750
8923,-121.093750
8924,-121.093750
8925,-121.093750
8926,-121.093750
8927,-121.093750
8928,-121.093750
8929,-121.093750
8930,-121.093750
8931,-121.093750
8932,-121.093750
8933,-121.093750
8934,-121.093750
8935,-121.093750
8936,-121.093750
8937,-121.093750
8938,-121.093750
8939,-121.093750
8940,-119.140625
8941,-119.140625
8942,-119.140625
8943,-119.140625
8944,-119.140625
8945,-119.140625
8946,-117.187500
8947,-117.187500
8948,-117.187500
8949,-117.187500
8950,-117.187500
8951,-117.187500
8952,-115.234375
8953,-115.234375
8954,-115.234375
8955,-115.234375
8956,-113.281250
8957,-113.281250
8958,-111.328125
8959,-111.328125
8960,-111.328125
8961,-109.375000
8962,-109.375000
8963,-109.375000
8964,-107.421875
8965,-107.421875
8966,-107.421875
8967,-105.468750
8968,-105.468750
8969,-103.515625
8970,-103.515625
8971,-101.562500
8972,-101.562500
8973,-101.562500
8974,-99.609375
8975,-99.609375
8976,-97.656250
8977,-95.703125
8978,-95.703125
8979,-95.703125
8980,-93.750000
8981,-93.750000
8982,-91.796875
8983,-91.796875
8984,-89.843750
8985,-87.890625
8986,-87.890625
8987,-85.937500
8988,-85.937500
8989,-83.984375
8990,-83.984375
8991,-82.031250
8992,-80.078125
8993,-80.078125
8994,-78.125000
8995,-78.125000
8996,-76.171875
8997,-74.218750
8998,-74.218750
8999,-72.265625
9000,-72.265625
9001,-70.312500
9002,-68.359375
9003,-66.406250
9004,-66.406250
9005,-64.453125
9006,-62.500000
9007,-60.546875
9008,-60.546875
9009,-58.593750
9010,-56.640625
9011,-56.640625
9012,-54.687500
9013,-52.734375
9014,-52.734375
9015,-50.781250
9016,-48.828125
9017,-46.875000
9018,-44.921875
9019,-44.921875
9020,-42.968750
9021,-41.015625
9022,-41.015625
9023,-39.062500
9024,-37.109375
9025,-35.156250
9026,-33.203125
9027,-33.203125
9028,-31.250000
9029,-29.296875
9030,-27.343750
9031,-27.343750
9032,-25.390625
9033,-23.437500
9034,-21.484375
9035,-21.484375
9036,-19.531250
9037,-17.578125
9038,-15.625000
9039,-13.671875
9040,-13.671875
9041,-11.718750
9042,-9.765625
9043,-7.812500
9044,-7.812500
9045,-5.859375
9046,-3.906250
9047,-1.953125
9048,0.000000
9049,1.953125
9050,1.953125
9051,3.906250
9052,5.859375
9053,7.812500
9054,9.765625
9055,9.765625
9056,11.718750
9057,13.671875
9058,15.625000
9059,15.625000
9060,17.578125
9061,19.531250
9062,21.484375
9063,23.437500
9064,23.437500
9065,25.390625
9066,27.343750
9067,29.296875
9068,29.296875
9069,31.250000
9070,33.203125
9071,35.156250
9072,35.156250
9073,37.109375
9074,39.062500
9075,41.015625
9076,41.015625
9077,42.968750
9078,44.921875
9079,46.875000
9080,46.875000
9081,48.828125
9082,50.781250
9083,50.781250
9084,52.734375
9085,54.687500
9086,54.687500
9087,56.640625
9088,56.640625
9089,58.593750
9090,60.546875
9091,62.500000
9092,62.500000
9093,64.453125
9094,66.406250
9095,66.406250
9096,68.359375
9097,68.359375
9098,70.312500
9099,72.265625
9100,72.265625
9101,74.218750
9102,74.218750
9103,76.171875
9104,78.125000
9105,78.125000
9106,80.078125
9107,80.078125
9108,82.031250
9109,82.031250
9110,83.984375
9111,83.984375
9112,85.937500
9113,87.890625
9114,87.890625
9115,87.890625
9116,89.843750
9117,91.796875
9118,91.796875
9119,91.796875
9120,93.750000
9121,93.750000
9122,95.703125
9123,95.703125
9124,97.656250
9125,97.656250
9126,99.609375
9127,99.609375
9128,99.609375
9129,101.562500
9130,101.562500
9131,103.515625
9132,103.515625
9133,103.515625
9134,105.468750
9135,105.468750
9136,107.421875
9137,107.421875
9138,107.421875
9139,107.421875
9140,109.375000
9141,109.375000
9142,111.328125
9143,111.328125
9144,111.328125
9145,111.328125
9146,113.281250
9147,113.281250
9148,113.281250
9149,113.281250
9150,115.234375
9151,115.234375
9152,115.234375
9153,117.187500
9154,117.187500
9155,117.187500
9156,117.187500
9157,117.187500
9158,117.187500
9159,119.140625
9160,119.140625
9161,119.140625
9162,119.140625
9163,119.140625
9164,121.093750
9165,121.093750
9166,121.093750
9167,121.093750
9168,121.093750
9169,121.093750
9170,121.093750
9171,121.093750
9172,121.093750
9173,121.093750
9174,121.093750
9175,123.046875
9176,121.093750
9177,123.046875
9178,123.046875
9179,121.093750
9180,123.046875
9181,121.093750
9182,123.046875
9183,123.046875
9184,123.046875
9185,123.046875
9186,123.046875
9187,121.093750
9188,121.093750
9189,121.093750
9190,121.093750
9191,121.093750
9192,121.093750
9193,121.093750
9194,121.093750
9195,121.093750
9196,121.093750
9197,121.093750
9198,121.093750
9199,119.140625
9200,119.140625
9201,119.140625
9202,119.140625
9203,119.140625
9204,119.140625
9205,119.140625
9206,117.187500
9207,117.187500
9208,117.187500
9209,117.187500
9210,117.187500
9211,115.234375
9212,115.234375
9213,115.234375
9214,115.234375
9215,113.281250
9216,113.281250
9217,113.281250
9218,111.328125
9219,111.328125
9220,111.328125
9221,109.375000
9222,109.375000
9223,109.375000
9224,109.375000
9225,107.421875
9226,107.421875
9227,105.468750
9228,105.468750
9229,105.468750
9230,105.468750
9231,103.515625
9232,103.515625
9233,101.562500
9234,101.562500
9235,99.609375
9236,99.609375
9237,97.656250
9238,97.656250
9239,97.656250
9240,95.703125
9241,95.703125
9242,93.750000
9243,93.750000
9244,91.796875
9245,89.843750
9246,89.843750
9247,89.843750
9248,87.890625
9249,85.937500
9250,85.937500
9251,83.984375
9252,83.984375
9253,83.984375
9254,82.031250
9255,80.078125
9256,80.078125
9257,78.125000
9258,78.125000
9259,76.171875
9260,76.171875
9261,74.218750
9262,74.218750
9263,72.265625
9264,70.312500
9265,68.359375
9266,68.359375
9267,66.406250
9268,66.406250
9269,64.453125
9270,62.500000
9271,60.546875
9272,60.546875
9273,58.593750
9274,58.593750
9275,56.640625
9276,54.687500
9277,54.687500
9278,52.734375
9279,52.734375
9280,48.828125
9281,48.828125
9282,46.875000
9283,44.921875
9284,44.921875
9285,42.968750
9286,41.015625
9287,39.062500
9288,37.109375
9289,37.109375
9290,35.156250
9291,33.203125
9292,33.203125
9293,31.250000
9294,29.296875
9295,27.343750
9296,27.343750
9297,25.390625
9298,23.437500
9299,21.484375
9300,21.484375
9301,19.531250
9302,17.578125
9303,15.625000
9304,13.671875
9305,13.671875
9306,11.718750
9307,9.765625
9308,7.812500
9309,5.859375
9310,5.859375
9311,3.906250
9312,1.953125
9313,0.000000
9314,-1.953125
9315,-3.906250
9316,-3.906250
9317,-5.859375
9318,-5.859375
9319,-9.765625
9320,-9.765625
9321,-11.718750
9322,-13.671875
9323,-15.625000
9324,-15.625000
9325,-17.578125
9326,-19.531250
9327,-21.484375
9328,-21.484375
9329,-23.437500
9330,-25.390625
9331,-27.343750
9332,-29.296875
9333,-31.250000
9334,-31.250000
9335,-33.203125
9336,-35.156250
9337,-37.109375
9338,-37.109375
9339,-39.062500
9340,-41.015625
9341,-42.968750
9342,-42.968750
9343,-44.921875
9344,-46.875000
9345,-48.828125
9346,-48.828125
9347,-50.781250
9348,-52.734375
9349,-54.687500
9350,-54.687500
9351,-56.640625
9352,-58.593750
9353,-60.546875
9354,-60.546875
9355,-62.500000
9356,-62.500000
9357,-64.453125
9358,-66.406250
9359,-68.359375
9360,-68.359375
9361,-70.312500
9362,-72.265625
9363,-74.218750
9364,-74.218750
9365,-76.171875
9366,-76.171875
9367,-78.125000
9368,-78.125000
9369,-80.078125
9370,-82.031250
9371,-82.031250
9372,-83.984375
9373,-85.937500
9374,-85.937500
9375,-87.890625
9376,-87.890625
9377,-89.843750
9378,-89.843750
9379,-91.796875
9380,-93.750000
9381,-93.750000
9382,-95.703125
9383,-95.703125
9384,-95.703125
9385,-97.656250
9386,-97.656250
9387,-99.609375
9388,-99.609375
9389,-101.562500
9390,-101.562500
9391,-103.515625
9392,-103.515625
9393,-105.468750
9394,-105.468750
9395,-105.468750
9396,-107.421875
9397,-107.421875
9398,-107.421875
9399,-109.375000
9400,-109.375000
9401,-111.328125
9402,-111.328125
9403,-111.328125
9404,-113.281250
9405,-113.281250
9406,-113.281250
9407,-113.281250
9408,-115.234375
9409,-117.187500
9410,-115.234375
9411,-117.187500
9412,-117.187500
9413,-117.187500
9414,-117.187500
9415,-117.187500
9416,-117.187500
9417,-119.140625
9418,-119.140625
9419,-119.140625
9420,-119.140625
9421,-119.140625
9422,-121.093750
9423,-121.093750
9424,-121.093750
9425,-121.093750
9426,-121.093750
9427,-121.093750
9428,-121.093750
9429,-121.093750
9430,-121.093750
9431,-121.093750
9432,-121.093750
9433,-121.093750
9434,-121.093750
9435,-121.093750
9436,-121.093750
9437,-121.093750
9438,-121.093750
9439,-121.093750
9440,-121.093750
9441,-121.093750
9442,-121.093750
9443,-121.093750
9444,-121.093750
9445,-119.140625
9446,-119.140625
9447,-119.140625
9448,-119.140625
9449,-119.140625
9450,-117.187500
9451,-117.187500
9452,-117.187500
9453,-117.187500
9454,-117.187500
9455,-117.187500
9456,-115.234375
9457,-115.234375
9458,-115.234375
9459,-113.281250
9460,-113.281250
9461,-113.281250
9462,-113.281250
9463,-111.328125
9464,-111.328125
9465,-109.375000
9466,-111.328125
9467,-109.375000
9468,-107.421875
9469,-107.421875
9470,-107.421875
9471,-107.421875
9472,-105.468750
9473,-105.468750
9474,-105.468750
9475,-103.515625
9476,-101.562500
9477,-99.609375
9478,-99.609375
9479,-99.609375
9480,-99.609375
9481,-97.656250
9482,-97.656250
9483,-95.703125
9484,-95.703125
9485,-93.750000
9486,-93.750000
9487,-91.796875
9488,-89.843750
9489,-89.843750
9490,-87.890625
9491,-87.890625
9492,-85.937500
9493,-85.937500
9494,-83.984375
9495,-83.984375
9496,-82.031250
9497,-80.078125
9498,-80.078125
9499,-78.125000
9500,-76.171875
9501,-76.171875
9502,-74.218750
9503,-72.265625
9504,-72.265625
9505,-70.312500
9506,-68.359375
9507,-68.359375
9508,-66.406250
9509,-64.453125
9510,-64.453125
9511,-62.500000
9512,-60.546875
9513,-60.546875
9514,-58.593750
9515,-56.640625
9516,-54.687500
9517,-54.687500
9518,-52.734375
9519,-52.734375
9520,-50.781250
9521,-48.828125
9522,-46.875000
9523,-46.875000
9524,-44.921875
9525,-42.968750
9526,-41.015625
9527,-39.062500
9528,-39.062500
9529,-37.109375
9530,-35.156250
9531,-33.203125
9532,-33.203125
9533,-31.250000
9534,-29.296875
9535,-27.343750
9536,-27.343750
9537,-25.390625
9538,-23.437500
9539,-21.484375
9540,-19.531250
9541,-19.531250
9542,-17.578125
9543,-15.625000
9544,-13.671875
9545,-11.718750
9546,-11.718750
9547,-9.765625
9548,-7.812500
9549,-7.812500
9550,-3.906250
9551,-3.906250
9552,-1.953125
9553,0.000000
9554,0.000000
9555,1.953125
9556,3.906250
9557,5.859375
9558,7.812500
9559,7.812500
9560,9.765625
9561,11.718750
9562,13.671875
9563,15.625000
9564,15.625000
9565,19.531250
9566,19.531250
9567,21.484375
9568,21.484375
9569,23.437500
9570,25.390625
9571,27.343750
9572,29.296875
9573,29.296875
9574,31.250000
9575,33.203125
9576,35.156250
9577,35.156250
9578,37.109375
9579,39.062500
9580,41.015625
9581,41.015625
9582,42.968750
9583,42.968750
9584,44.921875
9585,46.875000
9586,48.828125
9587,48.828125
9588,50.781250
9589,52.734375
9590,54.687500
9591,54.687500
9592,56.640625
9593,58.593750
9594,58.593750
9595,60.546875
9596,62.500000
9597,62.500000
9598,64.453125
9599,64.453125
9600,66.406250
9601,62.500000
9602,68.359375
9603,70.312500
9604,72.265625
9605,72.265625
9606,74.218750
9607,76.171875
9608,76.171875
9609,76.171875
9610,78.125000
9611,80.078125
9612,80.078125
9613,82.031250
9614,82.031250
9615,83.984375
9616,85.937500
9617,85.937500
9618,87.890625
9619,87.890625
9620,89.843750
9621,89.843750
9622,89.843750
9623,91.796875
9624,91.796875
9625,93.750000
9626,93.750000
9627,95.703125
9628,97.656250
9629,97.656250
9630,97.656250
9631,97.656250
9632,99.609375
9633,99.609375
9634,101.562500
9635,101.562500
9636,103.515625
9637,103.515625
9638,105.468750
9639,103.515625
9640,105.468750
9641,105.468750
9642,107.421875
9643,107.421875
9644,109.375000
9645,109.375000
9646,109.375000
9647,109.375000
9648,111.328125
9649,111.328125
9650,111.328125
9651,111.328125
9652,113.281250
9653,113.281250
9654,113.281250
9655,113.281250
9656,115.234375
9657,115.234375
9658,115.234375
9659,115.234375
9660,117.187500
9661,117.187500
9662,119.140625
9663,117.187500
9664,119.140625
9665,119.140625
9666,119.140625
9667,119.140625
9668,119.140625
9669,119.140625
9670,121.093750
9671,119.140625
9672,119.140625
9673,121.093750
9674,121.093750
9675,121.093750
9676,121.093750
9677,121.093750
9678,121.093750
9679,121.093750
9680,121.093750
9681,121.093750
9682,121.093750
9683,121.093750
9684,123.046875
9685,123.046875
9686,123.046875
9687,121.093750
9688,121.093750
9689,121.093750
9690,121.093750
9691,123.046875
9692,121.093750
9693,121.093750
9694,121.093750
9695,121.093750
9696,121.093750
9697,121.093750
9698,121.093750
9699,121.093750
9700,121.093750
9701,121.093750
9702,119.140625
9703,121.093750
9704,119.140625
9705,119.140625
9706,119.140625
9707,119.140625
9708,119.140625
9709,117.187500
9710,117.187500
9711,117.187500
9712,117.187500
9713,117.187500
9714,117.187500
9715,115.234375
9716,115.234375
9717,113.281250
9718,115.234375
9719,113.281250
9720,115.234375
9721,113.281250
9722,113.281250
9723,111.328125
9724,111.328125
9725,111.328125
9726,111.328125
9727,109.375000
9728,109.375000
9729,109.375000
9730,107.421875
9731,107.421875
9732,105.468750
9733,105.468750
9734,105.468750
9735,103.515625
9736,103.515625
9737,101.562500
9738,101.562500
9739,99.609375
9740,99.609375
9741,99.609375
9742,97.656250
9743,97.656250
9744,95.703125
9745,95.703125
9746,95.703125
9747,93.750000
9748,93.750000
9749,91.796875
9750,91.796875
9751,89.843750
9752,89.843750
9753,87.890625
9754,87.890625
9755,85.937500
9756,85.937500
9757,83.984375
9758,82.031250
9759,82.031250
9760,82.031250
9761,80.078125
9762,78.125000
9763,76.171875
9764,76.171875
9765,76.171875
9766,74.218750
9767,72.265625
9768,72.265625
9769,70.312500
9770,68.359375
9771,68.359375
9772,66.406250
9773,64.453125
9774,64.453125
9775,62.500000
9776,60.546875
9777,60.546875
9778,58.593750
9779,56.640625
9780,56.640625
9781,54.687500
9782,54.687500
9783,52.734375
9784,50.781250
9785,48.828125
9786,48.828125
9787,46.875000
9788,44.921875
9789,44.921875
9790,42.968750
9791,41.015625
9792,39.062500
9793,39.062500
9794,37.109375
9795,35.156250
9796,33.203125
9797,31.250000
9798,31.250000
9799,29.296875
9800,27.343750
9801,27.343750
9802,25.390625
9803,23.437500
9804,21.484375
9805,19.531250
9806,19.531250
9807,17.578125
9808,15.625000
9809,13.671875
9810,13.671875
9811,11.718750
9812,9.765625
9813,7.812500
9814,5.859375
9815,5.859375
9816,3.906250
9817,1.953125
9818,0.000000
9819,0.000000
9820,-1.953125
9821,-3.906250
9822,-5.859375
9823,-7.812500
9824,-9.765625
9825,-9.765625
9826,-11.718750
9827,-13.671875
9828,-15.625000
9829,-17.578125
9830,-17.578125
9831,-19.531250
9832,-21.484375
9833,-23.437500
9834,-23.437500
9835,-25.390625
9836,-27.343750
9837,-29.296875
9838,-31.250000
9839,-31.250000
9840,-33.203125
9841,-35.156250
9842,-37.109375
9843,-39.062500
9844,-39.062500
9845,-41.015625
9846,-42.968750
9847,-42.968750
9848,-44.921875
9849,-46.875000
9850,-48.828125
9851,-48.828125
9852,-50.781250
9853,-52.734375
9854,-52.734375
9855,-54.687500
9856,-56.640625
9857,-58.593750
9858,-60.546875
9859,-60.546875
9860,-62.500000
9861,-62.500000
9862,-64.453125
9863,-66.406250
9864,-68.359375
9865,-68.359375
9866,-70.312500
9867,-72.265625
9868,-72.265625
9869,-74.218750
9870,-74.218750
9871,-76.171875
9872,-78.125000
9873,-80.078125
9874,-80.078125
9875,-82.031250
9876,-82.031250
9877,-83.984375
9878,-85.937500
9879,-85.937500
9880,-87.890625
9881,-87.890625
9882,-89.843750
9883,-89.843750
9884,-91.796875
9885,-93.750000
9886,-93.750000
9887,-93.750000
9888,-95.703125
9889,-95.703125
9890,-97.656250
9891,-97.656250
9892,-99.609375
9893,-99.609375
9894,-101.562500
9895,-103.515625
9896,-103.515625
9897,-103.515625
9898,-103.515625
9899,-105.468750
9900,-107.421875
9901,-107.421875
9902,-107.421875
9903,-109.375000
9904,-109.375000
9905,-109.375000
9906,-111.328125
9907,-111.328125
9908,-111.328125
9909,-113.281250
9910,-113.281250
9911,-113.281250
9912,-113.281250
9913,-115.234375
9914,-115.234375
9915,-117.187500
9916,-117.187500
9917,-117.187500
9918,-117.187500
9919,-117.187500
9920,-117.187500
9921,-119.140625
9922,-119.140625
9923,-119.140625
9924,-119.140625
9925,-119.140625
9926,-119.140625
9927,-119.140625
9928,-119.140625
9929,-121.093750
9930,-121.093750
9931,-121.093750
9932,-121.093750
9933,-121.093750
9934,-121.093750
9935,-121.093750
9936,-121.093750
9937,-121.093750
9938,-121.093750
9939,-121.093750
9940,-121.093750
9941,-121.093750
9942,-121.093750
9943,-121.093750
9944,-121.093750
9945,-121.093750
9946,-121.093750
9947,-121.093750
9948,-119.140625
9949,-121.093750
9950,-119.140625
9951,-119.140625
9952,-119.140625
9953,-119.140625
9954,-119.140625
9955,-117.187500
9956,-117.187500
9957,-117.187500
9958,-117.187500
9959,-117.187500
9960,-117.187500
9961,-117.187500
9962,-115.234375
9963,-115.234375
9964,-115.234375
9965,-113.281250
9966,-113.281250
9967,-113.281250
9968,-111.328125
9969,-111.328125
9970,-111.328125
9971,-109.375000
9972,-109.375000
9973,-111.328125
9974,-107.421875
9975,-107.421875
9976,-107.421875
9977,-105.468750
9978,-105.468750
9979,-105.468750
9980,-103.515625
9981,-103.515625
9982,-103.515625
9983,-101.562500
9984,-99.609375
9985,-99.609375
9986,-97.656250
9987,-97.656250
9988,-95.703125
9989,-95.703125
9990,-93.750000
9991,-93.750000
9992,-91.796875
9993,-91.796875
9994,-89.843750
9995,-87.890625
9996,-87.890625
9997,-85.937500
9998,-85.937500
9999,-83.984375
10000,-83.984375
