Channel              :,CH1
Frequency            :,1.980kHz
Period               :,0.505ms
PK-PK                :,150.4mV
Probe attenuation    :,1X
Voltage per ADC value:,0.122070mV
Time interval        :,1.00000us

index,CH1_Voltage(mV)
1,41.015625
2,41.015625
3,41.015625
4,42.968750
5,42.968750
6,42.968750
7,44.921875
8,44.921875
9,46.875000
10,46.875000
11,46.875000
12,48.828125
13,48.828125
14,50.781250
15,50.781250
16,50.781250
17,52.734375
18,52.734375
19,52.734375
20,54.687500
21,54.687500
22,54.687500
23,56.640625
24,56.640625
25,56.640625
26,58.593750
27,58.593750
28,58.593750
29,58.593750
30,60.546875
31,60.546875
32,60.546875
33,62.500000
34,62.500000
35,62.500000
36,64.453125
37,64.453125
38,64.453125
39,64.453125
40,66.406250
41,66.406250
42,66.406250
43,66.406250
44,66.406250
45,68.359375
46,68.359375
47,68.359375
48,70.312500
49,70.312500
50,70.312500
51,70.312500
52,70.312500
53,70.312500
54,72.265625
55,72.265625
56,72.265625
57,72.265625
58,72.265625
59,72.265625
60,74.218750
61,74.218750
62,74.218750
63,74.218750
64,74.218750
65,74.218750
66,76.171875
67,74.218750
68,76.171875
69,76.171875
70,76.171875
71,76.171875
72,76.171875
73,76.171875
74,76.171875
75,76.171875
76,76.171875
77,76.171875
78,76.171875
79,78.125000
80,78.125000
81,78.125000
82,78.125000
83,78.125000
84,78.125000
85,78.125000
86,78.125000
87,78.125000
88,78.125000
89,78.125000
90,78.125000
91,78.125000
92,78.125000
93,78.125000
94,78.125000
95,78.125000
96,76.171875
97,78.125000
98,78.125000
99,78.125000
100,78.125000
101,78.125000
102,78.125000
103,76.171875
104,76.171875
105,76.171875
106,76.171875
107,76.171875
108,76.171875
109,76.171875
110,76.171875
111,76.171875
112,76.171875
113,76.171875
114,76.171875
115,74.218750
116,74.218750
117,74.218750
118,74.218750
119,74.218750
120,74.218750
121,74.218750
122,72.265625
123,72.265625
124,72.265625
125,72.265625
126,72.265625
127,70.312500
128,70.312500
129,70.312500
130,70.312500
131,68.359375
132,68.359375
133,68.359375
134,68.359375
135,66.406250
136,68.359375
137,66.406250
138,66.406250
139,66.406250
140,64.453125
141,64.453125
142,64.453125
143,62.500000
144,64.453125
145,62.500000
146,62.500000
147,60.546875
148,60.546875
149,60.546875
150,60.546875
151,58.593750
152,58.593750
153,58.593750
154,56.640625
155,56.640625
156,56.640625
157,54.687500
158,54.687500
159,52.734375
160,52.734375
161,52.734375
162,52.734375
163,50.781250
164,50.781250
165,48.828125
166,48.828125
167,48.828125
168,46.875000
169,46.875000
170,46.875000
171,44.921875
172,44.921875
173,42.968750
174,42.968750
175,42.968750
176,41.015625
177,41.015625
178,39.062500
179,39.062500
180,39.062500
181,37.109375
182,37.109375
183,35.156250
184,35.156250
185,35.156250
186,33.203125
187,33.203125
188,31.250000
189,31.250000
190,29.296875
191,29.296875
192,27.343750
193,27.343750
194,25.390625
195,25.390625
196,25.390625
197,23.437500
198,23.437500
199,21.484375
200,21.484375
201,19.531250
202,19.531250
203,17.578125
204,17.578125
205,17.578125
206,15.625000
207,13.671875
208,13.671875
209,13.671875
210,11.718750
211,11.718750
212,9.765625
213,9.765625
214,7.812500
215,7.812500
216,5.859375
217,5.859375
218,3.906250
219,3.906250
220,1.953125
221,1.953125
222,0.000000
223,0.000000
224,-1.953125
225,-1.953125
226,-3.906250
227,-3.906250
228,-5.859375
229,-5.859375
230,-5.859375
231,-7.812500
232,-7.812500
233,-9.765625
234,-9.765625
235,-11.718750
236,-11.718750
237,-13.671875
238,-13.671875
239,-15.625000
240,-15.625000
241,-17.578125
242,-17.578125
243,-19.531250
244,-19.531250
245,-19.531250
246,-21.484375
247,-21.484375
248,-23.437500
249,-23.437500
250,-25.390625
251,-25.390625
252,-27.343750
253,-27.343750
254,-27.343750
255,-29.296875
256,-29.296875
257,-31.250000
258,-31.250000
259,-33.203125
260,-33.203125
261,-35.156250
262,-35.156250
263,-35.156250
264,-37.109375
265,-37.109375
266,-37.109375
267,-39.062500
268,-39.062500
269,-41.015625
270,-41.015625
271,-42.968750
272,-42.968750
273,-42.968750
274,-44.921875
275,-44.921875
276,-44.921875
277,-46.875000
278,-46.875000
279,-46.875000
280,-48.828125
281,-48.828125
282,-48.828125
283,-50.781250
284,-50.781250
285,-50.781250
286,-52.734375
287,-52.734375
288,-52.734375
289,-54.687500
290,-54.687500
291,-54.687500
292,-56.640625
293,-56.640625
294,-56.640625
295,-56.640625
296,-58.593750
297,-58.593750
298,-58.593750
299,-58.593750
300,-60.546875
301,-60.546875
302,-60.546875
303,-60.546875
304,-62.500000
305,-62.500000
306,-62.500000
307,-62.500000
308,-64.453125
309,-64.453125
310,-64.453125
311,-64.453125
312,-66.406250
313,-66.406250
314,-66.406250
315,-66.406250
316,-66.406250
317,-66.406250
318,-68.359375
319,-66.406250
320,-68.359375
321,-68.359375
322,-68.359375
323,-68.359375
324,-68.359375
325,-68.359375
326,-68.359375
327,-70.312500
328,-70.312500
329,-70.312500
330,-70.312500
331,-70.312500
332,-70.312500
333,-70.312500
334,-70.312500
335,-70.312500
336,-72.265625
337,-70.312500
338,-70.312500
339,-70.312500
340,-70.312500
341,-70.312500
342,-70.312500
343,-70.312500
344,-70.312500
345,-70.312500
346,-70.312500
347,-72.265625
348,-70.312500
349,-70.312500
350,-70.312500
351,-70.312500
352,-70.312500
353,-70.312500
354,-70.312500
355,-70.312500
356,-70.312500
357,-70.312500
358,-70.312500
359,-70.312500
360,-70.312500
361,-68.359375
362,-68.359375
363,-68.359375
364,-68.359375
365,-68.359375
366,-68.359375
367,-66.406250
368,-66.406250
369,-66.406250
370,-66.406250
371,-66.406250
372,-66.406250
373,-66.406250
374,-64.453125
375,-64.453125
376,-64.453125
377,-64.453125
378,-62.500000
379,-62.500000
380,-62.500000
381,-62.500000
382,-60.546875
383,-60.546875
384,-60.546875
385,-60.546875
386,-60.546875
387,-58.593750
388,-58.593750
389,-58.593750
390,-56.640625
391,-56.640625
392,-56.640625
393,-56.640625
394,-54.687500
395,-54.687500
396,-54.687500
397,-52.734375
398,-52.734375
399,-50.781250
400,-50.781250
401,-50.781250
402,-50.781250
403,-48.828125
404,-48.828125
405,-48.828125
406,-46.875000
407,-46.875000
408,-46.875000
409,-44.921875
410,-44.921875
411,-42.968750
412,-42.968750
413,-42.968750
414,-41.015625
415,-41.015625
416,-41.015625
417,-39.062500
418,-39.062500
419,-39.062500
420,-37.109375
421,-37.109375
422,-35.156250
423,-35.156250
424,-33.203125
425,-33.203125
426,-31.250000
427,-31.250000
428,-31.250000
429,-31.250000
430,-29.296875
431,-27.343750
432,-27.343750
433,-25.390625
434,-25.390625
435,-23.437500
436,-23.437500
437,-23.437500
438,-21.484375
439,-21.484375
440,-21.484375
441,-19.531250
442,-17.578125
443,-17.578125
444,-17.578125
445,-15.625000
446,-15.625000
447,-13.671875
448,-13.671875
449,-11.718750
450,-11.718750
451,-11.718750
452,-9.765625
453,-7.812500
454,-7.812500
455,-7.812500
456,-5.859375
457,-5.859375
458,-3.906250
459,-3.906250
460,-1.953125
461,0.000000
462,0.000000
463,0.000000
464,1.953125
465,3.906250
466,3.906250
467,3.906250
468,5.859375
469,5.859375
470,5.859375
471,7.812500
472,9.765625
473,9.765625
474,11.718750
475,11.718750
476,11.718750
477,13.671875
478,13.671875
479,15.625000
480,15.625000
481,17.578125
482,17.578125
483,19.531250
484,19.531250
485,19.531250
486,21.484375
487,23.437500
488,23.437500
489,25.390625
490,25.390625
491,25.390625
492,27.343750
493,27.343750
494,29.296875
495,29.296875
496,31.250000
497,31.250000
498,31.250000
499,33.203125
500,33.203125
501,35.156250
502,35.156250
503,37.109375
504,37.109375
505,39.062500
506,39.062500
507,39.062500
508,41.015625
509,41.015625
510,42.968750
511,42.968750
512,42.968750
513,44.921875
514,44.921875
515,46.875000
516,46.875000
517,46.875000
518,48.828125
519,48.828125
520,48.828125
521,50.781250
522,50.781250
523,50.781250
524,52.734375
525,52.734375
526,54.687500
527,54.687500
528,54.687500
529,54.687500
530,54.687500
531,56.640625
532,56.640625
533,58.593750
534,58.593750
535,58.593750
536,60.546875
537,60.546875
538,60.546875
539,62.500000
540,62.500000
541,62.500000
542,62.500000
543,64.453125
544,64.453125
545,64.453125
546,64.453125
547,66.406250
548,66.406250
549,66.406250
550,66.406250
551,68.359375
552,68.359375
553,68.359375
554,68.359375
555,70.312500
556,70.312500
557,70.312500
558,70.312500
559,70.312500
560,70.312500
561,72.265625
562,72.265625
563,72.265625
564,72.265625
565,72.265625
566,72.265625
567,74.218750
568,74.218750
569,74.218750
570,74.218750
571,74.218750
572,74.218750
573,74.218750
574,74.218750
575,74.218750
576,74.218750
577,76.171875
578,76.171875
579,76.171875
580,76.171875
581,76.171875
582,76.171875
583,76.171875
584,76.171875
585,76.171875
586,76.171875
587,76.171875
588,78.125000
589,78.125000
590,76.171875
591,78.125000
592,78.125000
593,78.125000
594,76.171875
595,76.171875
596,78.125000
597,78.125000
598,78.125000
599,76.171875
600,78.125000
601,78.125000
602,78.125000
603,78.125000
604,76.171875
605,76.171875
606,76.171875
607,76.171875
608,76.171875
609,76.171875
610,76.171875
611,76.171875
612,76.171875
613,76.171875
614,76.171875
615,74.218750
616,74.218750
617,74.218750
618,74.218750
619,74.218750
620,74.218750
621,74.218750
622,74.218750
623,74.218750
624,72.265625
625,72.265625
626,72.265625
627,72.265625
628,72.265625
629,70.312500
630,70.312500
631,70.312500
632,70.312500
633,70.312500
634,70.312500
635,68.359375
636,68.359375
637,68.359375
638,68.359375
639,68.359375
640,66.406250
641,66.406250
642,66.406250
643,64.453125
644,66.406250
645,64.453125
646,64.453125
647,62.500000
648,62.500000
649,62.500000
650,62.500000
651,60.546875
652,60.546875
653,60.546875
654,60.546875
655,58.593750
656,58.593750
657,58.593750
658,56.640625
659,56.640625
660,56.640625
661,54.687500
662,54.687500
663,54.687500
664,54.687500
665,52.734375
666,50.781250
667,50.781250
668,50.781250
669,50.781250
670,50.781250
671,48.828125
672,48.828125
673,46.875000
674,46.875000
675,44.921875
676,44.921875
677,42.968750
678,42.968750
679,42.968750
680,41.015625
681,41.015625
682,41.015625
683,39.062500
684,39.062500
685,37.109375
686,37.109375
687,37.109375
688,35.156250
689,35.156250
690,33.203125
691,33.203125
692,31.250000
693,31.250000
694,29.296875
695,29.296875
696,29.296875
697,27.343750
698,27.343750
699,25.390625
700,25.390625
701,23.437500
702,23.437500
703,23.437500
704,21.484375
705,21.484375
706,19.531250
707,19.531250
708,17.578125
709,19.531250
710,15.625000
711,15.625000
712,13.671875
713,13.671875
714,11.718750
715,11.718750
716,9.765625
717,9.765625
718,9.765625
719,7.812500
720,7.812500
721,5.859375
722,5.859375
723,3.906250
724,3.906250
725,1.953125
726,1.953125
727,0.000000
728,0.000000
729,0.000000
730,-1.953125
731,-3.906250
732,-3.906250
733,-3.906250
734,-5.859375
735,-7.812500
736,-7.812500
737,-7.812500
738,-9.765625
739,-11.718750
740,-11.718750
741,-11.718750
742,-13.671875
743,-13.671875
744,-15.625000
745,-15.625000
746,-17.578125
747,-17.578125
748,-17.578125
749,-19.531250
750,-19.531250
751,-21.484375
752,-23.437500
753,-23.437500
754,-23.437500
755,-25.390625
756,-25.390625
757,-27.343750
758,-27.343750
759,-27.343750
760,-29.296875
761,-29.296875
762,-31.250000
763,-31.250000
764,-33.203125
765,-33.203125
766,-33.203125
767,-33.203125
768,-35.156250
769,-37.109375
770,-37.109375
771,-37.109375
772,-39.062500
773,-39.062500
774,-39.062500
775,-41.015625
776,-41.015625
777,-42.968750
778,-42.968750
779,-42.968750
780,-44.921875
781,-44.921875
782,-44.921875
783,-46.875000
784,-46.875000
785,-48.828125
786,-48.828125
787,-48.828125
788,-48.828125
789,-50.781250
790,-50.781250
791,-50.781250
792,-52.734375
793,-52.734375
794,-54.687500
795,-54.687500
796,-54.687500
797,-56.640625
798,-56.640625
799,-56.640625
800,-56.640625
801,-58.593750
802,-58.593750
803,-58.593750
804,-58.593750
805,-60.546875
806,-60.546875
807,-60.546875
808,-60.546875
809,-62.500000
810,-62.500000
811,-62.500000
812,-62.500000
813,-64.453125
814,-64.453125
815,-64.453125
816,-64.453125
817,-64.453125
818,-64.453125
819,-66.406250
820,-66.406250
821,-66.406250
822,-66.406250
823,-66.406250
824,-66.406250
825,-66.406250
826,-66.406250
827,-68.359375
828,-68.359375
829,-68.359375
830,-68.359375
831,-68.359375
832,-68.359375
833,-68.359375
834,-68.359375
835,-70.312500
836,-70.312500
837,-70.312500
838,-70.312500
839,-70.312500
840,-70.312500
841,-70.312500
842,-70.312500
843,-70.312500
844,-70.312500
845,-70.312500
846,-70.312500
847,-70.312500
848,-70.312500
849,-70.312500
850,-70.312500
851,-70.312500
852,-70.312500
853,-70.312500
854,-70.312500
855,-70.312500
856,-70.312500
857,-70.312500
858,-70.312500
859,-70.312500
860,-70.312500
861,-68.359375
862,-68.359375
863,-68.359375
864,-68.359375
865,-68.359375
866,-68.359375
867,-68.359375
868,-66.406250
869,-66.406250
870,-66.406250
871,-66.406250
872,-66.406250
873,-66.406250
874,-66.406250
875,-66.406250
876,-66.406250
877,-64.453125
878,-64.453125
879,-64.453125
880,-62.500000
881,-62.500000
882,-62.500000
883,-62.500000
884,-62.500000
885,-60.546875
886,-60.546875
887,-60.546875
888,-60.546875
889,-60.546875
890,-58.593750
891,-58.593750
892,-58.593750
893,-56.640625
894,-56.640625
895,-56.640625
896,-56.640625
897,-54.687500
898,-54.687500
899,-54.687500
900,-52.734375
901,-52.734375
902,-52.734375
903,-52.734375
904,-50.781250
905,-50.781250
906,-50.781250
907,-48.828125
908,-48.828125
909,-46.875000
910,-46.875000
911,-46.875000
912,-46.875000
913,-44.921875
914,-44.921875
915,-42.968750
916,-42.968750
917,-41.015625
918,-41.015625
919,-41.015625
920,-39.062500
921,-39.062500
922,-39.062500
923,-37.109375
924,-37.109375
925,-35.156250
926,-35.156250
927,-35.156250
928,-33.203125
929,-33.203125
930,-31.250000
931,-31.250000
932,-31.250000
933,-29.296875
934,-27.343750
935,-27.343750
936,-27.343750
937,-25.390625
938,-25.390625
939,-23.437500
940,-23.437500
941,-21.484375
942,-21.484375
943,-21.484375
944,-19.531250
945,-19.531250
946,-19.531250
947,-17.578125
948,-17.578125
949,-15.625000
950,-13.671875
951,-13.671875
952,-13.671875
953,-11.718750
954,-11.718750
955,-9.765625
956,-9.765625
957,-7.812500
958,-7.812500
959,-5.859375
960,-5.859375
961,-3.906250
962,-3.906250
963,-3.906250
964,-1.953125
965,-1.953125
966,0.000000
967,0.000000
968,1.953125
969,1.953125
970,3.906250
971,3.906250
972,5.859375
973,5.859375
974,7.812500
975,7.812500
976,9.765625
977,9.765625
978,11.718750
979,11.718750
980,13.671875
981,13.671875
982,15.625000
983,15.625000
984,15.625000
985,17.578125
986,17.578125
987,19.531250
988,19.531250
989,21.484375
990,21.484375
991,23.437500
992,23.437500
993,25.390625
994,25.390625
995,25.390625
996,27.343750
997,29.296875
998,29.296875
999,29.296875
1000,31.250000
1001,31.250000
1002,33.203125
1003,33.203125
1004,33.203125
1005,35.156250
1006,35.156250
1007,35.156250
1008,37.109375
1009,37.109375
1010,41.015625
1011,39.062500
1012,41.015625
1013,41.015625
1014,41.015625
1015,42.968750
1016,42.968750
1017,44.921875
1018,44.921875
1019,44.921875
1020,46.875000
1021,46.875000
1022,48.828125
1023,48.828125
1024,48.828125
1025,52.734375
1026,50.781250
1027,50.781250
1028,52.734375
1029,52.734375
1030,54.687500
1031,54.687500
1032,54.687500
1033,56.640625
1034,56.640625
1035,56.640625
1036,56.640625
1037,58.593750
1038,58.593750
1039,58.593750
1040,60.546875
1041,60.546875
1042,60.546875
1043,60.546875
1044,62.500000
1045,62.500000
1046,64.453125
1047,64.453125
1048,64.453125
1049,64.453125
1050,64.453125
1051,66.406250
1052,66.406250
1053,68.359375
1054,66.406250
1055,68.359375
1056,68.359375
1057,68.359375
1058,68.359375
1059,70.312500
1060,70.312500
1061,70.312500
1062,70.312500
1063,72.265625
1064,70.312500
1065,72.265625
1066,72.265625
1067,72.265625
1068,72.265625
1069,72.265625
1070,74.218750
1071,72.265625
1072,74.218750
1073,74.218750
1074,74.218750
1075,74.218750
1076,74.218750
1077,74.218750
1078,76.171875
1079,76.171875
1080,76.171875
1081,76.171875
1082,76.171875
1083,76.171875
1084,76.171875
1085,76.171875
1086,76.171875
1087,76.171875
1088,76.171875
1089,76.171875
1090,78.125000
1091,78.125000
1092,78.125000
1093,78.125000
1094,78.125000
1095,78.125000
1096,78.125000
1097,78.125000
1098,78.125000
1099,78.125000
1100,78.125000
1101,78.125000
1102,78.125000
1103,78.125000
1104,78.125000
1105,78.125000
1106,78.125000
1107,78.125000
1108,78.125000
1109,76.171875
1110,78.125000
1111,76.171875
1112,76.171875
1113,78.125000
1114,76.171875
1115,76.171875
1116,76.171875
1117,76.171875
1118,76.171875
1119,76.171875
1120,76.171875
1121,76.171875
1122,76.171875
1123,74.218750
1124,74.218750
1125,74.218750
1126,74.218750
1127,74.218750
1128,74.218750
1129,72.265625
1130,72.265625
1131,72.265625
1132,72.265625
1133,72.265625
1134,72.265625
1135,72.265625
1136,70.312500
1137,70.312500
1138,70.312500
1139,70.312500
1140,68.359375
1141,68.359375
1142,68.359375
1143,68.359375
1144,68.359375
1145,68.359375
1146,68.359375
1147,66.406250
1148,66.406250
1149,64.453125
1150,64.453125
1151,64.453125
1152,64.453125
1153,62.500000
1154,62.500000
1155,62.500000
1156,62.500000
1157,60.546875
1158,60.546875
1159,60.546875
1160,60.546875
1161,58.593750
1162,58.593750
1163,56.640625
1164,56.640625
1165,56.640625
1166,56.640625
1167,54.687500
1168,54.687500
1169,54.687500
1170,52.734375
1171,52.734375
1172,52.734375
1173,50.781250
1174,50.781250
1175,48.828125
1176,48.828125
1177,48.828125
1178,46.875000
1179,46.875000
1180,46.875000
1181,44.921875
1182,44.921875
1183,42.968750
1184,42.968750
1185,42.968750
1186,41.015625
1187,41.015625
1188,39.062500
1189,39.062500
1190,39.062500
1191,37.109375
1192,37.109375
1193,35.156250
1194,35.156250
1195,33.203125
1196,33.203125
1197,31.250000
1198,31.250000
1199,31.250000
1200,29.296875
1201,29.296875
1202,27.343750
1203,27.343750
1204,27.343750
1205,25.390625
1206,25.390625
1207,23.437500
1208,23.437500
1209,21.484375
1210,21.484375
1211,19.531250
1212,19.531250
1213,17.578125
1214,17.578125
1215,15.625000
1216,15.625000
1217,15.625000
1218,13.671875
1219,11.718750
1220,11.718750
1221,11.718750
1222,9.765625
1223,9.765625
1224,7.812500
1225,7.812500
1226,5.859375
1227,5.859375
1228,3.906250
1229,3.906250
1230,1.953125
1231,1.953125
1232,0.000000
1233,0.000000
1234,-1.953125
1235,-1.953125
1236,-3.906250
1237,-3.906250
1238,-5.859375
1239,-5.859375
1240,-5.859375
1241,-7.812500
1242,-7.812500
1243,-9.765625
1244,-9.765625
1245,-11.718750
1246,-11.718750
1247,-13.671875
1248,-13.671875
1249,-15.625000
1250,-15.625000
1251,-17.578125
1252,-17.578125
1253,-17.578125
1254,-19.531250
1255,-19.531250
1256,-21.484375
1257,-21.484375
1258,-23.437500
1259,-23.437500
1260,-25.390625
1261,-25.390625
1262,-25.390625
1263,-27.343750
1264,-27.343750
1265,-29.296875
1266,-29.296875
1267,-31.250000
1268,-31.250000
1269,-33.203125
1270,-33.203125
1271,-35.156250
1272,-35.156250
1273,-35.156250
1274,-37.109375
1275,-37.109375
1276,-39.062500
1277,-39.062500
1278,-39.062500
1279,-41.015625
1280,-41.015625
1281,-42.968750
1282,-42.968750
1283,-42.968750
1284,-44.921875
1285,-44.921875
1286,-44.921875
1287,-46.875000
1288,-46.875000
1289,-46.875000
1290,-48.828125
1291,-48.828125
1292,-48.828125
1293,-50.781250
1294,-50.781250
1295,-50.781250
1296,-52.734375
1297,-52.734375
1298,-52.734375
1299,-54.687500
1300,-54.687500
1301,-54.687500
1302,-54.687500
1303,-56.640625
1304,-56.640625
1305,-58.593750
1306,-56.640625
1307,-58.593750
1308,-58.593750
1309,-60.546875
1310,-60.546875
1311,-60.546875
1312,-60.546875
1313,-62.500000
1314,-62.500000
1315,-62.500000
1316,-62.500000
1317,-62.500000
1318,-64.453125
1319,-64.453125
1320,-64.453125
1321,-64.453125
1322,-64.453125
1323,-66.406250
1324,-66.406250
1325,-66.406250
1326,-66.406250
1327,-66.406250
1328,-68.359375
1329,-68.359375
1330,-68.359375
1331,-68.359375
1332,-68.359375
1333,-68.359375
1334,-68.359375
1335,-68.359375
1336,-68.359375
1337,-70.312500
1338,-70.312500
1339,-70.312500
1340,-70.312500
1341,-70.312500
1342,-70.312500
1343,-70.312500
1344,-70.312500
1345,-70.312500
1346,-70.312500
1347,-70.312500
1348,-70.312500
1349,-70.312500
1350,-70.312500
1351,-70.312500
1352,-70.312500
1353,-70.312500
1354,-70.312500
1355,-72.265625
1356,-72.265625
1357,-72.265625
1358,-70.312500
1359,-70.312500
1360,-70.312500
1361,-70.312500
1362,-70.312500
1363,-70.312500
1364,-70.312500
1365,-70.312500
1366,-70.312500
1367,-70.312500
1368,-70.312500
1369,-70.312500
1370,-68.359375
1371,-68.359375
1372,-68.359375
1373,-68.359375
1374,-68.359375
1375,-68.359375
1376,-68.359375
1377,-68.359375
1378,-66.406250
1379,-66.406250
1380,-66.406250
1381,-66.406250
1382,-66.406250
1383,-64.453125
1384,-66.406250
1385,-64.453125
1386,-64.453125
1387,-64.453125
1388,-64.453125
1389,-62.500000
1390,-62.500000
1391,-62.500000
1392,-62.500000
1393,-62.500000
1394,-60.546875
1395,-60.546875
1396,-60.546875
1397,-58.593750
1398,-58.593750
1399,-58.593750
1400,-56.640625
1401,-56.640625
1402,-56.640625
1403,-56.640625
1404,-54.687500
1405,-54.687500
1406,-54.687500
1407,-52.734375
1408,-52.734375
1409,-52.734375
1410,-52.734375
1411,-50.781250
1412,-50.781250
1413,-50.781250
1414,-48.828125
1415,-48.828125
1416,-46.875000
1417,-46.875000
1418,-46.875000
1419,-46.875000
1420,-44.921875
1421,-44.921875
1422,-42.968750
1423,-42.968750
1424,-42.968750
1425,-41.015625
1426,-41.015625
1427,-39.062500
1428,-39.062500
1429,-37.109375
1430,-37.109375
1431,-37.109375
1432,-35.156250
1433,-35.156250
1434,-33.203125
1435,-33.203125
1436,-33.203125
1437,-31.250000
1438,-31.250000
1439,-29.296875
1440,-29.296875
1441,-27.343750
1442,-27.343750
1443,-27.343750
1444,-25.390625
1445,-25.390625
1446,-23.437500
1447,-23.437500
1448,-21.484375
1449,-21.484375
1450,-19.531250
1451,-19.531250
1452,-19.531250
1453,-17.578125
1454,-17.578125
1455,-15.625000
1456,-15.625000
1457,-13.671875
1458,-13.671875
1459,-11.718750
1460,-11.718750
1461,-11.718750
1462,-9.765625
1463,-7.812500
1464,-7.812500
1465,-5.859375
1466,-5.859375
1467,-5.859375
1468,-3.906250
1469,-1.953125
1470,-1.953125
1471,-1.953125
1472,0.000000
1473,0.000000
1474,1.953125
1475,1.953125
1476,3.906250
1477,3.906250
1478,5.859375
1479,5.859375
1480,7.812500
1481,7.812500
1482,7.812500
1483,9.765625
1484,11.718750
1485,11.718750
1486,11.718750
1487,15.625000
1488,13.671875
1489,15.625000
1490,15.625000
1491,17.578125
1492,17.578125
1493,19.531250
1494,19.531250
1495,21.484375
1496,21.484375
1497,21.484375
1498,23.437500
1499,23.437500
1500,25.390625
1501,25.390625
1502,27.343750
1503,27.343750
1504,29.296875
1505,29.296875
1506,29.296875
1507,31.250000
1508,31.250000
1509,33.203125
1510,33.203125
1511,35.156250
1512,35.156250
1513,37.109375
1514,37.109375
1515,39.062500
1516,39.062500
1517,39.062500
1518,39.062500
1519,41.015625
1520,41.015625
1521,42.968750
1522,42.968750
1523,44.921875
1524,44.921875
1525,44.921875
1526,46.875000
1527,46.875000
1528,48.828125
1529,48.828125
1530,48.828125
1531,48.828125
1532,50.781250
1533,50.781250
1534,52.734375
1535,52.734375
1536,52.734375
1537,54.687500
1538,54.687500
1539,54.687500
1540,56.640625
1541,56.640625
1542,56.640625
1543,58.593750
1544,58.593750
1545,58.593750
1546,58.593750
1547,60.546875
1548,60.546875
1549,60.546875
1550,62.500000
1551,62.500000
1552,62.500000
1553,62.500000
1554,64.453125
1555,64.453125
1556,64.453125
1557,66.406250
1558,66.406250
1559,66.406250
1560,66.406250
1561,68.359375
1562,68.359375
1563,68.359375
1564,68.359375
1565,68.359375
1566,70.312500
1567,70.312500
1568,70.312500
1569,70.312500
1570,72.265625
1571,72.265625
1572,70.312500
1573,72.265625
1574,72.265625
1575,72.265625
1576,72.265625
1577,72.265625
1578,74.218750
1579,74.218750
1580,74.218750
1581,74.218750
1582,74.218750
1583,76.171875
1584,76.171875
1585,76.171875
1586,76.171875
1587,76.171875
1588,76.171875
1589,76.171875
1590,76.171875
1591,76.171875
1592,76.171875
1593,76.171875
1594,78.125000
1595,78.125000
1596,78.125000
1597,78.125000
1598,78.125000
1599,78.125000
1600,78.125000
1601,76.171875
1602,78.125000
1603,78.125000
1604,78.125000
1605,76.171875
1606,78.125000
1607,76.171875
1608,78.125000
1609,76.171875
1610,78.125000
1611,78.125000
1612,78.125000
1613,78.125000
1614,78.125000
1615,78.125000
1616,76.171875
1617,76.171875
1618,76.171875
1619,76.171875
1620,76.171875
1621,76.171875
1622,76.171875
1623,76.171875
1624,76.171875
1625,76.171875
1626,74.218750
1627,74.218750
1628,74.218750
1629,74.218750
1630,74.218750
1631,74.218750
1632,74.218750
1633,74.218750
1634,72.265625
1635,72.265625
1636,72.265625
1637,72.265625
1638,72.265625
1639,70.312500
1640,70.312500
1641,70.312500
1642,70.312500
1643,70.312500
1644,70.312500
1645,70.312500
1646,68.359375
1647,68.359375
1648,68.359375
1649,68.359375
1650,66.406250
1651,66.406250
1652,66.406250
1653,66.406250
1654,66.406250
1655,64.453125
1656,64.453125
1657,64.453125
1658,62.500000
1659,62.500000
1660,62.500000
1661,60.546875
1662,62.500000
1663,60.546875
1664,60.546875
1665,58.593750
1666,58.593750
1667,58.593750
1668,58.593750
1669,56.640625
1670,56.640625
1671,56.640625
1672,54.687500
1673,54.687500
1674,52.734375
1675,52.734375
1676,52.734375
1677,50.781250
1678,50.781250
1679,50.781250
1680,50.781250
1681,48.828125
1682,48.828125
1683,48.828125
1684,46.875000
1685,44.921875
1686,44.921875
1687,44.921875
1688,42.968750
1689,42.968750
1690,42.968750
1691,41.015625
1692,41.015625
1693,39.062500
1694,39.062500
1695,39.062500
1696,37.109375
1697,37.109375
1698,35.156250
1699,35.156250
1700,35.156250
1701,33.203125
1702,33.203125
1703,31.250000
1704,31.250000
1705,29.296875
1706,29.296875
1707,29.296875
1708,27.343750
1709,27.343750
1710,25.390625
1711,25.390625
1712,23.437500
1713,23.437500
1714,21.484375
1715,21.484375
1716,21.484375
1717,19.531250
1718,19.531250
1719,17.578125
1720,17.578125
1721,15.625000
1722,13.671875
1723,13.671875
1724,11.718750
1725,11.718750
1726,11.718750
1727,9.765625
1728,9.765625
1729,7.812500
1730,7.812500
1731,7.812500
1732,5.859375
1733,3.906250
1734,3.906250
1735,3.906250
1736,1.953125
1737,1.953125
1738,0.000000
1739,0.000000
1740,-1.953125
1741,-1.953125
1742,-3.906250
1743,-3.906250
1744,-5.859375
1745,-7.812500
1746,-7.812500
1747,-7.812500
1748,-9.765625
1749,-9.765625
1750,-11.718750
1751,-11.718750
1752,-13.671875
1753,-13.671875
1754,-13.671875
1755,-15.625000
1756,-15.625000
1757,-17.578125
1758,-17.578125
1759,-19.531250
1760,-19.531250
1761,-21.484375
1762,-21.484375
1763,-21.484375
1764,-23.437500
1765,-23.437500
1766,-25.390625
1767,-25.390625
1768,-27.343750
1769,-27.343750
1770,-29.296875
1771,-29.296875
1772,-31.250000
1773,-31.250000
1774,-31.250000
1775,-33.203125
1776,-33.203125
1777,-33.203125
1778,-35.156250
1779,-37.109375
1780,-37.109375
1781,-37.109375
1782,-39.062500
1783,-39.062500
1784,-39.062500
1785,-41.015625
1786,-41.015625
1787,-42.968750
1788,-41.015625
1789,-42.968750
1790,-42.968750
1791,-44.921875
1792,-44.921875
1793,-46.875000
1794,-46.875000
1795,-48.828125
1796,-48.828125
1797,-48.828125
1798,-50.781250
1799,-50.781250
1800,-50.781250
1801,-50.781250
1802,-52.734375
1803,-52.734375
1804,-52.734375
1805,-54.687500
1806,-54.687500
1807,-54.687500
1808,-56.640625
1809,-56.640625
1810,-56.640625
1811,-56.640625
1812,-58.593750
1813,-58.593750
1814,-58.593750
1815,-58.593750
1816,-60.546875
1817,-60.546875
1818,-60.546875
1819,-62.500000
1820,-62.500000
1821,-62.500000
1822,-62.500000
1823,-62.500000
1824,-62.500000
1825,-64.453125
1826,-64.453125
1827,-64.453125
1828,-64.453125
1829,-64.453125
1830,-64.453125
1831,-66.406250
1832,-66.406250
1833,-66.406250
1834,-66.406250
1835,-66.406250
1836,-68.359375
1837,-66.406250
1838,-66.406250
1839,-68.359375
1840,-68.359375
1841,-68.359375
1842,-68.359375
1843,-68.359375
1844,-68.359375
1845,-68.359375
1846,-68.359375
1847,-68.359375
1848,-70.312500
1849,-68.359375
1850,-70.312500
1851,-70.312500
1852,-70.312500
1853,-70.312500
1854,-70.312500
1855,-70.312500
1856,-70.312500
1857,-70.312500
1858,-70.312500
1859,-70.312500
1860,-70.312500
1861,-70.312500
1862,-70.312500
1863,-70.312500
1864,-70.312500
1865,-70.312500
1866,-70.312500
1867,-70.312500
1868,-68.359375
1869,-68.359375
1870,-68.359375
1871,-68.359375
1872,-68.359375
1873,-68.359375
1874,-68.359375
1875,-68.359375
1876,-68.359375
1877,-68.359375
1878,-68.359375
1879,-66.406250
1880,-66.406250
1881,-66.406250
1882,-66.406250
1883,-66.406250
1884,-66.406250
1885,-66.406250
1886,-66.406250
1887,-64.453125
1888,-64.453125
1889,-64.453125
1890,-64.453125
1891,-62.500000
1892,-64.453125
1893,-62.500000
1894,-62.500000
1895,-62.500000
1896,-60.546875
1897,-60.546875
1898,-60.546875
1899,-60.546875
1900,-58.593750
1901,-58.593750
1902,-58.593750
1903,-58.593750
1904,-56.640625
1905,-56.640625
1906,-56.640625
1907,-56.640625
1908,-54.687500
1909,-56.640625
1910,-54.687500
1911,-52.734375
1912,-52.734375
1913,-52.734375
1914,-50.781250
1915,-50.781250
1916,-50.781250
1917,-50.781250
1918,-48.828125
1919,-48.828125
1920,-46.875000
1921,-46.875000
1922,-44.921875
1923,-44.921875
1924,-44.921875
1925,-44.921875
1926,-42.968750
1927,-42.968750
1928,-41.015625
1929,-41.015625
1930,-41.015625
1931,-39.062500
1932,-39.062500
1933,-37.109375
1934,-37.109375
1935,-37.109375
1936,-35.156250
1937,-35.156250
1938,-33.203125
1939,-33.203125
1940,-33.203125
1941,-31.250000
1942,-31.250000
1943,-29.296875
1944,-29.296875
1945,-27.343750
1946,-27.343750
1947,-27.343750
1948,-25.390625
1949,-25.390625
1950,-23.437500
1951,-23.437500
1952,-21.484375
1953,-21.484375
1954,-21.484375
1955,-19.531250
1956,-17.578125
1957,-17.578125
1958,-15.625000
1959,-15.625000
1960,-15.625000
1961,-13.671875
1962,-13.671875
1963,-13.671875
1964,-11.718750
1965,-9.765625
1966,-9.765625
1967,-7.812500
1968,-7.812500
1969,-5.859375
1970,-5.859375
1971,-5.859375
1972,-3.906250
1973,-3.906250
1974,-1.953125
1975,-1.953125
1976,0.000000
1977,0.000000
1978,1.953125
1979,1.953125
1980,1.953125
1981,3.906250
1982,5.859375
1983,5.859375
1984,5.859375
1985,7.812500
1986,9.765625
1987,9.765625
1988,9.765625
1989,11.718750
1990,11.718750
1991,13.671875
1992,13.671875
1993,15.625000
1994,15.625000
1995,17.578125
1996,17.578125
1997,19.531250
1998,19.531250
1999,21.484375
2000,21.484375
2001,21.484375
2002,23.437500
2003,23.437500
2004,25.390625
2005,25.390625
2006,27.343750
2007,27.343750
2008,29.296875
2009,29.296875
2010,29.296875
2011,31.250000
2012,31.250000
2013,33.203125
2014,33.203125
2015,35.156250
2016,35.156250
2017,35.156250
2018,37.109375
2019,37.109375
2020,39.062500
2021,39.062500
2022,41.015625
2023,41.015625
2024,41.015625
2025,41.015625
2026,42.968750
2027,42.968750
2028,44.921875
2029,44.921875
2030,44.921875
2031,46.875000
2032,46.875000
2033,48.828125
2034,48.828125
2035,48.828125
2036,50.781250
2037,50.781250
2038,50.781250
2039,52.734375
2040,52.734375
2041,54.687500
2042,54.687500
2043,54.687500
2044,56.640625
2045,56.640625
2046,56.640625
2047,56.640625
2048,58.593750
2049,58.593750
2050,58.593750
2051,60.546875
2052,60.546875
2053,60.546875
2054,62.500000
2055,62.500000
2056,62.500000
2057,62.500000
2058,64.453125
2059,64.453125
2060,64.453125
2061,66.406250
2062,66.406250
2063,66.406250
2064,66.406250
2065,66.406250
2066,68.359375
2067,68.359375
2068,68.359375
2069,68.359375
2070,68.359375
2071,70.312500
2072,70.312500
2073,70.312500
2074,70.312500
2075,72.265625
2076,72.265625
2077,72.265625
2078,72.265625
2079,72.265625
2080,74.218750
2081,74.218750
2082,74.218750
2083,74.218750
2084,74.218750
2085,74.218750
2086,74.218750
2087,76.171875
2088,76.171875
2089,76.171875
2090,76.171875
2091,76.171875
2092,76.171875
2093,76.171875
2094,76.171875
2095,76.171875
2096,76.171875
2097,76.171875
2098,78.125000
2099,78.125000
2100,78.125000
2101,78.125000
2102,78.125000
2103,78.125000
2104,78.125000
2105,78.125000
2106,78.125000
2107,78.125000
2108,78.125000
2109,78.125000
2110,78.125000
2111,78.125000
2112,78.125000
2113,78.125000
2114,78.125000
2115,78.125000
2116,78.125000
2117,78.125000
2118,78.125000
2119,76.171875
2120,76.171875
2121,78.125000
2122,78.125000
2123,76.171875
2124,76.171875
2125,76.171875
2126,76.171875
2127,76.171875
2128,76.171875
2129,76.171875
2130,76.171875
2131,76.171875
2132,76.171875
2133,76.171875
2134,74.218750
2135,74.218750
2136,74.218750
2137,74.218750
2138,74.218750
2139,72.265625
2140,72.265625
2141,72.265625
2142,72.265625
2143,72.265625
2144,70.312500
2145,70.312500
2146,70.312500
2147,70.312500
2148,70.312500
2149,70.312500
2150,70.312500
2151,70.312500
2152,68.359375
2153,68.359375
2154,68.359375
2155,66.406250
2156,66.406250
2157,66.406250
2158,66.406250
2159,64.453125
2160,64.453125
2161,64.453125
2162,64.453125
2163,62.500000
2164,62.500000
2165,62.500000
2166,62.500000
2167,60.546875
2168,60.546875
2169,60.546875
2170,58.593750
2171,58.593750
2172,58.593750
2173,56.640625
2174,56.640625
2175,56.640625
2176,54.687500
2177,54.687500
2178,54.687500
2179,52.734375
2180,52.734375
2181,52.734375
2182,52.734375
2183,50.781250
2184,50.781250
2185,48.828125
2186,48.828125
2187,48.828125
2188,46.875000
2189,46.875000
2190,46.875000
2191,44.921875
2192,44.921875
2193,42.968750
2194,42.968750
2195,41.015625
2196,41.015625
2197,41.015625
2198,39.062500
2199,39.062500
2200,37.109375
2201,37.109375
2202,37.109375
2203,35.156250
2204,35.156250
2205,33.203125
2206,33.203125
2207,33.203125
2208,31.250000
2209,31.250000
2210,29.296875
2211,29.296875
2212,27.343750
2213,27.343750
2214,25.390625
2215,25.390625
2216,25.390625
2217,23.437500
2218,23.437500
2219,23.437500
2220,21.484375
2221,19.531250
2222,19.531250
2223,17.578125
2224,17.578125
2225,15.625000
2226,15.625000
2227,15.625000
2228,13.671875
2229,13.671875
2230,11.718750
2231,11.718750
2232,9.765625
2233,9.765625
2234,7.812500
2235,7.812500
2236,5.859375
2237,5.859375
2238,3.906250
2239,3.906250
2240,1.953125
2241,1.953125
2242,0.000000
2243,0.000000
2244,-1.953125
2245,-1.953125
2246,-3.906250
2247,-3.906250
2248,-3.906250
2249,-5.859375
2250,-5.859375
2251,-7.812500
2252,-7.812500
2253,-9.765625
2254,-9.765625
2255,-11.718750
2256,-11.718750
2257,-13.671875
2258,-13.671875
2259,-15.625000
2260,-15.625000
2261,-17.578125
2262,-17.578125
2263,-17.578125
2264,-19.531250
2265,-19.531250
2266,-21.484375
2267,-21.484375
2268,-23.437500
2269,-23.437500
2270,-25.390625
2271,-25.390625
2272,-27.343750
2273,-27.343750
2274,-29.296875
2275,-29.296875
2276,-29.296875
2277,-31.250000
2278,-31.250000
2279,-33.203125
2280,-33.203125
2281,-35.156250
2282,-35.156250
2283,-35.156250
2284,-37.109375
2285,-37.109375
2286,-37.109375
2287,-39.062500
2288,-39.062500
2289,-41.015625
2290,-41.015625
2291,-42.968750
2292,-42.968750
2293,-42.968750
2294,-44.921875
2295,-44.921875
2296,-44.921875
2297,-46.875000
2298,-46.875000
2299,-46.875000
2300,-48.828125
2301,-48.828125
2302,-50.781250
2303,-50.781250
2304,-50.781250
2305,-52.734375
2306,-52.734375
2307,-52.734375
2308,-52.734375
2309,-54.687500
2310,-54.687500
2311,-54.687500
2312,-56.640625
2313,-56.640625
2314,-56.640625
2315,-58.593750
2316,-58.593750
2317,-58.593750
2318,-58.593750
2319,-60.546875
2320,-60.546875
2321,-60.546875
2322,-60.546875
2323,-62.500000
2324,-62.500000
2325,-62.500000
2326,-62.500000
2327,-62.500000
2328,-64.453125
2329,-64.453125
2330,-64.453125
2331,-64.453125
2332,-64.453125
2333,-66.406250
2334,-66.406250
2335,-66.406250
2336,-66.406250
2337,-66.406250
2338,-66.406250
2339,-68.359375
2340,-68.359375
2341,-68.359375
2342,-68.359375
2343,-68.359375
2344,-68.359375
2345,-68.359375
2346,-68.359375
2347,-70.312500
2348,-68.359375
2349,-70.312500
2350,-70.312500
2351,-70.312500
2352,-70.312500
2353,-70.312500
2354,-70.312500
2355,-70.312500
2356,-70.312500
2357,-70.312500
2358,-70.312500
2359,-70.312500
2360,-72.265625
2361,-70.312500
2362,-70.312500
2363,-70.312500
2364,-72.265625
2365,-72.265625
2366,-70.312500
2367,-70.312500
2368,-70.312500
2369,-70.312500
2370,-70.312500
2371,-70.312500
2372,-70.312500
2373,-70.312500
2374,-70.312500
2375,-70.312500
2376,-70.312500
2377,-70.312500
2378,-70.312500
2379,-70.312500
2380,-68.359375
2381,-68.359375
2382,-68.359375
2383,-68.359375
2384,-68.359375
2385,-68.359375
2386,-68.359375
2387,-68.359375
2388,-66.406250
2389,-66.406250
2390,-66.406250
2391,-66.406250
2392,-66.406250
2393,-66.406250
2394,-66.406250
2395,-64.453125
2396,-64.453125
2397,-64.453125
2398,-64.453125
2399,-62.500000
2400,-62.500000
2401,-62.500000
2402,-62.500000
2403,-62.500000
2404,-60.546875
2405,-60.546875
2406,-60.546875
2407,-58.593750
2408,-58.593750
2409,-58.593750
2410,-58.593750
2411,-56.640625
2412,-56.640625
2413,-56.640625
2414,-54.687500
2415,-54.687500
2416,-54.687500
2417,-54.687500
2418,-52.734375
2419,-52.734375
2420,-52.734375
2421,-50.781250
2422,-50.781250
2423,-50.781250
2424,-48.828125
2425,-48.828125
2426,-48.828125
2427,-46.875000
2428,-46.875000
2429,-44.921875
2430,-44.921875
2431,-44.921875
2432,-42.968750
2433,-42.968750
2434,-41.015625
2435,-41.015625
2436,-41.015625
2437,-39.062500
2438,-39.062500
2439,-39.062500
2440,-37.109375
2441,-37.109375
2442,-37.109375
2443,-35.156250
2444,-35.156250
2445,-33.203125
2446,-33.203125
2447,-31.250000
2448,-31.250000
2449,-31.250000
2450,-29.296875
2451,-29.296875
2452,-27.343750
2453,-27.343750
2454,-25.390625
2455,-25.390625
2456,-23.437500
2457,-23.437500
2458,-21.484375
2459,-21.484375
2460,-21.484375
2461,-19.531250
2462,-19.531250
2463,-17.578125
2464,-17.578125
2465,-15.625000
2466,-15.625000
2467,-13.671875
2468,-13.671875
2469,-11.718750
2470,-11.718750
2471,-11.718750
2472,-9.765625
2473,-7.812500
2474,-7.812500
2475,-7.812500
2476,-5.859375
2477,-3.906250
2478,-3.906250
2479,-3.906250
2480,-1.953125
2481,-1.953125
2482,0.000000
2483,0.000000
2484,1.953125
2485,1.953125
2486,3.906250
2487,3.906250
2488,5.859375
2489,5.859375
2490,7.812500
2491,7.812500
2492,7.812500
2493,9.765625
2494,9.765625
2495,11.718750
2496,11.718750
2497,13.671875
2498,13.671875
2499,15.625000
2500,17.578125
2501,17.578125
2502,17.578125
2503,19.531250
2504,19.531250
2505,21.484375
2506,21.484375
2507,21.484375
2508,23.437500
2509,23.437500
2510,25.390625
2511,25.390625
2512,27.343750
2513,27.343750
2514,29.296875
2515,29.296875
2516,29.296875
2517,31.250000
2518,31.250000
2519,33.203125
2520,33.203125
2521,35.156250
2522,35.156250
2523,37.109375
2524,37.109375
2525,37.109375
2526,39.062500
2527,39.062500
2528,39.062500
2529,41.015625
2530,41.015625
2531,42.968750
2532,42.968750
2533,42.968750
2534,44.921875
2535,44.921875
2536,44.921875
2537,46.875000
2538,48.828125
2539,48.828125
2540,48.828125
2541,50.781250
2542,50.781250
2543,52.734375
2544,52.734375
2545,52.734375
2546,52.734375
2547,54.687500
2548,54.687500
2549,56.640625
2550,56.640625
2551,56.640625
2552,56.640625
2553,56.640625
2554,58.593750
2555,58.593750
2556,58.593750
2557,60.546875
2558,60.546875
2559,62.500000
2560,62.500000
2561,62.500000
2562,62.500000
2563,64.453125
2564,64.453125
2565,64.453125
2566,64.453125
2567,66.406250
2568,62.500000
2569,66.406250
2570,66.406250
2571,68.359375
2572,68.359375
2573,68.359375
2574,68.359375
2575,70.312500
2576,70.312500
2577,70.312500
2578,70.312500
2579,70.312500
2580,72.265625
2581,72.265625
2582,72.265625
2583,72.265625
2584,72.265625
2585,72.265625
2586,72.265625
2587,72.265625
2588,74.218750
2589,74.218750
2590,74.218750
2591,74.218750
2592,76.171875
2593,74.218750
2594,76.171875
2595,76.171875
2596,76.171875
2597,76.171875
2598,76.171875
2599,76.171875
2600,76.171875
2601,76.171875
2602,76.171875
2603,78.125000
2604,78.125000
2605,74.218750
2606,78.125000
2607,78.125000
2608,78.125000
2609,78.125000
2610,78.125000
2611,78.125000
2612,78.125000
2613,78.125000
2614,78.125000
2615,78.125000
2616,78.125000
2617,78.125000
2618,78.125000
2619,78.125000
2620,78.125000
2621,76.171875
2622,78.125000
2623,78.125000
2624,78.125000
2625,78.125000
2626,76.171875
2627,76.171875
2628,76.171875
2629,78.125000
2630,76.171875
2631,76.171875
2632,76.171875
2633,76.171875
2634,76.171875
2635,76.171875
2636,76.171875
2637,76.171875
2638,74.218750
2639,74.218750
2640,74.218750
2641,74.218750
2642,74.218750
2643,74.218750
2644,74.218750
2645,72.265625
2646,72.265625
2647,72.265625
2648,72.265625
2649,72.265625
2650,70.312500
2651,72.265625
2652,70.312500
2653,70.312500
2654,70.312500
2655,70.312500
2656,68.359375
2657,68.359375
2658,68.359375
2659,68.359375
2660,68.359375
2661,66.406250
2662,66.406250
2663,66.406250
2664,66.406250
2665,64.453125
2666,64.453125
2667,64.453125
2668,64.453125
2669,62.500000
2670,60.546875
2671,62.500000
2672,62.500000
2673,60.546875
2674,60.546875
2675,58.593750
2676,58.593750
2677,58.593750
2678,56.640625
2679,56.640625
2680,56.640625
2681,56.640625
2682,54.687500
2683,54.687500
2684,54.687500
2685,52.734375
2686,52.734375
2687,50.781250
2688,50.781250
2689,50.781250
2690,48.828125
2691,48.828125
2692,48.828125
2693,48.828125
2694,46.875000
2695,46.875000
2696,44.921875
2697,44.921875
2698,44.921875
2699,42.968750
2700,42.968750
2701,41.015625
2702,41.015625
2703,41.015625
2704,39.062500
2705,39.062500
2706,37.109375
2707,37.109375
2708,35.156250
2709,35.156250
2710,35.156250
2711,33.203125
2712,33.203125
2713,31.250000
2714,31.250000
2715,31.250000
2716,29.296875
2717,29.296875
2718,29.296875
2719,27.343750
2720,25.390625
2721,25.390625
2722,25.390625
2723,23.437500
2724,23.437500
2725,21.484375
2726,21.484375
2727,19.531250
2728,19.531250
2729,17.578125
2730,17.578125
2731,15.625000
2732,15.625000
2733,13.671875
2734,13.671875
2735,11.718750
2736,11.718750
2737,9.765625
2738,11.718750
2739,9.765625
2740,7.812500
2741,7.812500
2742,5.859375
2743,5.859375
2744,3.906250
2745,3.906250
2746,1.953125
2747,1.953125
2748,0.000000
2749,0.000000
2750,0.000000
2751,-1.953125
2752,-3.906250
2753,-3.906250
2754,-3.906250
2755,-5.859375
2756,-5.859375
2757,-7.812500
2758,-7.812500
2759,-9.765625
2760,-9.765625
2761,-11.718750
2762,-11.718750
2763,-13.671875
2764,-13.671875
2765,-15.625000
2766,-15.625000
2767,-17.578125
2768,-17.578125
2769,-19.531250
2770,-19.531250
2771,-21.484375
2772,-21.484375
2773,-21.484375
2774,-23.437500
2775,-23.437500
2776,-25.390625
2777,-25.390625
2778,-25.390625
2779,-27.343750
2780,-29.296875
2781,-29.296875
2782,-29.296875
2783,-31.250000
2784,-31.250000
2785,-33.203125
2786,-33.203125
2787,-33.203125
2788,-35.156250
2789,-35.156250
2790,-37.109375
2791,-37.109375
2792,-37.109375
2793,-39.062500
2794,-39.062500
2795,-41.015625
2796,-41.015625
2797,-41.015625
2798,-42.968750
2799,-42.968750
2800,-42.968750
2801,-44.921875
2802,-44.921875
2803,-44.921875
2804,-46.875000
2805,-48.828125
2806,-48.828125
2807,-48.828125
2808,-48.828125
2809,-50.781250
2810,-50.781250
2811,-50.781250
2812,-52.734375
2813,-52.734375
2814,-52.734375
2815,-52.734375
2816,-54.687500
2817,-54.687500
2818,-56.640625
2819,-54.687500
2820,-56.640625
2821,-56.640625
2822,-58.593750
2823,-58.593750
2824,-58.593750
2825,-58.593750
2826,-60.546875
2827,-60.546875
2828,-60.546875
2829,-60.546875
2830,-62.500000
2831,-62.500000
2832,-62.500000
2833,-62.500000
2834,-62.500000
2835,-64.453125
2836,-64.453125
2837,-64.453125
2838,-64.453125
2839,-64.453125
2840,-66.406250
2841,-66.406250
2842,-66.406250
2843,-66.406250
2844,-66.406250
2845,-68.359375
2846,-66.406250
2847,-66.406250
2848,-68.359375
2849,-68.359375
2850,-68.359375
2851,-68.359375
2852,-68.359375
2853,-68.359375
2854,-68.359375
2855,-68.359375
2856,-68.359375
2857,-70.312500
2858,-70.312500
2859,-70.312500
2860,-70.312500
2861,-70.312500
2862,-70.312500
2863,-70.312500
2864,-70.312500
2865,-70.312500
2866,-68.359375
2867,-70.312500
2868,-70.312500
2869,-70.312500
2870,-70.312500
2871,-70.312500
2872,-70.312500
2873,-70.312500
2874,-70.312500
2875,-70.312500
2876,-70.312500
2877,-70.312500
2878,-70.312500
2879,-70.312500
2880,-68.359375
2881,-68.359375
2882,-68.359375
2883,-68.359375
2884,-68.359375
2885,-68.359375
2886,-68.359375
2887,-68.359375
2888,-68.359375
2889,-68.359375
2890,-66.406250
2891,-66.406250
2892,-66.406250
2893,-66.406250
2894,-66.406250
2895,-66.406250
2896,-66.406250
2897,-64.453125
2898,-64.453125
2899,-64.453125
2900,-64.453125
2901,-62.500000
2902,-62.500000
2903,-62.500000
2904,-62.500000
2905,-60.546875
2906,-60.546875
2907,-60.546875
2908,-60.546875
2909,-60.546875
2910,-60.546875
2911,-58.593750
2912,-58.593750
2913,-58.593750
2914,-56.640625
2915,-56.640625
2916,-56.640625
2917,-56.640625
2918,-54.687500
2919,-54.687500
2920,-54.687500
2921,-52.734375
2922,-52.734375
2923,-52.734375
2924,-50.781250
2925,-50.781250
2926,-50.781250
2927,-50.781250
2928,-48.828125
2929,-48.828125
2930,-48.828125
2931,-46.875000
2932,-46.875000
2933,-44.921875
2934,-44.921875
2935,-44.921875
2936,-42.968750
2937,-42.968750
2938,-42.968750
2939,-42.968750
2940,-41.015625
2941,-39.062500
2942,-39.062500
2943,-39.062500
2944,-37.109375
2945,-37.109375
2946,-37.109375
2947,-35.156250
2948,-35.156250
2949,-33.203125
2950,-33.203125
2951,-33.203125
2952,-31.250000
2953,-31.250000
2954,-29.296875
2955,-29.296875
2956,-27.343750
2957,-31.250000
2958,-25.390625
2959,-25.390625
2960,-23.437500
2961,-23.437500
2962,-23.437500
2963,-21.484375
2964,-21.484375
2965,-19.531250
2966,-19.531250
2967,-17.578125
2968,-17.578125
2969,-15.625000
2970,-15.625000
2971,-13.671875
2972,-13.671875
2973,-13.671875
2974,-11.718750
2975,-11.718750
2976,-9.765625
2977,-9.765625
2978,-7.812500
2979,-7.812500
2980,-5.859375
2981,-5.859375
2982,-3.906250
2983,-3.906250
2984,-1.953125
2985,-1.953125
2986,0.000000
2987,0.000000
2988,1.953125
2989,1.953125
2990,3.906250
2991,3.906250
2992,3.906250
2993,5.859375
2994,5.859375
2995,7.812500
2996,7.812500
2997,9.765625
2998,9.765625
2999,9.765625
3000,11.718750
3001,13.671875
3002,13.671875
3003,15.625000
3004,15.625000
3005,17.578125
3006,17.578125
3007,17.578125
3008,19.531250
3009,19.531250
3010,21.484375
3011,21.484375
3012,23.437500
3013,23.437500
3014,25.390625
3015,25.390625
3016,27.343750
3017,27.343750
3018,27.343750
3019,29.296875
3020,31.250000
3021,31.250000
3022,31.250000
3023,33.203125
3024,33.203125
3025,33.203125
3026,35.156250
3027,35.156250
3028,37.109375
3029,37.109375
3030,37.109375
3031,39.062500
3032,39.062500
3033,41.015625
3034,41.015625
3035,42.968750
3036,42.968750
3037,42.968750
3038,44.921875
3039,42.968750
3040,46.875000
3041,46.875000
3042,46.875000
3043,46.875000
3044,48.828125
3045,48.828125
3046,48.828125
3047,50.781250
3048,50.781250
3049,52.734375
3050,52.734375
3051,54.687500
3052,54.687500
3053,54.687500
3054,54.687500
3055,56.640625
3056,56.640625
3057,56.640625
3058,56.640625
3059,58.593750
3060,58.593750
3061,60.546875
3062,60.546875
3063,60.546875
3064,62.500000
3065,62.500000
3066,62.500000
3067,62.500000
3068,64.453125
3069,64.453125
3070,64.453125
3071,64.453125
3072,66.406250
3073,66.406250
3074,66.406250
3075,66.406250
3076,68.359375
3077,68.359375
3078,68.359375
3079,68.359375
3080,70.312500
3081,68.359375
3082,70.312500
3083,70.312500
3084,70.312500
3085,70.312500
3086,72.265625
3087,72.265625
3088,72.265625
3089,70.312500
3090,72.265625
3091,72.265625
3092,74.218750
3093,74.218750
3094,74.218750
3095,74.218750
3096,74.218750
3097,74.218750
3098,76.171875
3099,76.171875
3100,76.171875
3101,76.171875
3102,76.171875
3103,76.171875
3104,76.171875
3105,76.171875
3106,76.171875
3107,76.171875
3108,76.171875
3109,76.171875
3110,76.171875
3111,76.171875
3112,78.125000
3113,78.125000
3114,78.125000
3115,78.125000
3116,78.125000
3117,78.125000
3118,78.125000
3119,78.125000
3120,78.125000
3121,78.125000
3122,78.125000
3123,76.171875
3124,78.125000
3125,78.125000
3126,78.125000
3127,78.125000
3128,78.125000
3129,78.125000
3130,76.171875
3131,76.171875
3132,76.171875
3133,76.171875
3134,76.171875
3135,76.171875
3136,76.171875
3137,76.171875
3138,76.171875
3139,76.171875
3140,76.171875
3141,76.171875
3142,76.171875
3143,74.218750
3144,74.218750
3145,74.218750
3146,74.218750
3147,74.218750
3148,74.218750
3149,72.265625
3150,72.265625
3151,72.265625
3152,72.265625
3153,72.265625
3154,72.265625
3155,70.312500
3156,72.265625
3157,70.312500
3158,70.312500
3159,70.312500
3160,68.359375
3161,70.312500
3162,68.359375
3163,68.359375
3164,68.359375
3165,66.406250
3166,66.406250
3167,66.406250
3168,66.406250
3169,64.453125
3170,64.453125
3171,64.453125
3172,64.453125
3173,62.500000
3174,62.500000
3175,62.500000
3176,60.546875
3177,60.546875
3178,60.546875
3179,58.593750
3180,58.593750
3181,58.593750
3182,58.593750
3183,56.640625
3184,56.640625
3185,56.640625
3186,56.640625
3187,54.687500
3188,54.687500
3189,52.734375
3190,52.734375
3191,52.734375
3192,50.781250
3193,50.781250
3194,50.781250
3195,48.828125
3196,48.828125
3197,48.828125
3198,46.875000
3199,46.875000
3200,46.875000
3201,44.921875
3202,44.921875
3203,42.968750
3204,42.968750
3205,42.968750
3206,41.015625
3207,41.015625
3208,39.062500
3209,39.062500
3210,37.109375
3211,37.109375
3212,37.109375
3213,35.156250
3214,35.156250
3215,33.203125
3216,33.203125
3217,31.250000
3218,31.250000
3219,31.250000
3220,29.296875
3221,29.296875
3222,29.296875
3223,27.343750
3224,27.343750
3225,25.390625
3226,25.390625
3227,23.437500
3228,23.437500
3229,21.484375
3230,21.484375
3231,19.531250
3232,19.531250
3233,17.578125
3234,17.578125
3235,17.578125
3236,15.625000
3237,13.671875
3238,13.671875
3239,13.671875
3240,11.718750
3241,11.718750
3242,9.765625
3243,9.765625
3244,7.812500
3245,7.812500
3246,5.859375
3247,5.859375
3248,3.906250
3249,3.906250
3250,3.906250
3251,1.953125
3252,0.000000
3253,0.000000
3254,0.000000
3255,-1.953125
3256,-3.906250
3257,-3.906250
3258,-3.906250
3259,-5.859375
3260,-7.812500
3261,-7.812500
3262,-7.812500
3263,-9.765625
3264,-9.765625
3265,-11.718750
3266,-11.718750
3267,-13.671875
3268,-13.671875
3269,-13.671875
3270,-15.625000
3271,-17.578125
3272,-17.578125
3273,-19.531250
3274,-17.578125
3275,-19.531250
3276,-19.531250
3277,-21.484375
3278,-23.437500
3279,-23.437500
3280,-23.437500
3281,-25.390625
3282,-27.343750
3283,-27.343750
3284,-27.343750
3285,-29.296875
3286,-29.296875
3287,-31.250000
3288,-31.250000
3289,-33.203125
3290,-31.250000
3291,-33.203125
3292,-35.156250
3293,-37.109375
3294,-37.109375
3295,-37.109375
3296,-39.062500
3297,-39.062500
3298,-39.062500
3299,-41.015625
3300,-41.015625
3301,-42.968750
3302,-42.968750
3303,-42.968750
3304,-44.921875
3305,-44.921875
3306,-44.921875
3307,-46.875000
3308,-46.875000
3309,-48.828125
3310,-48.828125
3311,-48.828125
3312,-50.781250
3313,-50.781250
3314,-50.781250
3315,-52.734375
3316,-52.734375
3317,-52.734375
3318,-52.734375
3319,-54.687500
3320,-54.687500
3321,-54.687500
3322,-54.687500
3323,-56.640625
3324,-56.640625
3325,-56.640625
3326,-56.640625
3327,-58.593750
3328,-58.593750
3329,-60.546875
3330,-60.546875
3331,-60.546875
3332,-60.546875
3333,-60.546875
3334,-62.500000
3335,-62.500000
3336,-62.500000
3337,-62.500000
3338,-64.453125
3339,-64.453125
3340,-64.453125
3341,-64.453125
3342,-64.453125
3343,-66.406250
3344,-64.453125
3345,-68.359375
3346,-66.406250
3347,-66.406250
3348,-68.359375
3349,-68.359375
3350,-68.359375
3351,-68.359375
3352,-68.359375
3353,-68.359375
3354,-68.359375
3355,-70.312500
3356,-66.406250
3357,-70.312500
3358,-70.312500
3359,-70.312500
3360,-70.312500
3361,-70.312500
3362,-70.312500
3363,-70.312500
3364,-70.312500
3365,-70.312500
3366,-70.312500
3367,-70.312500
3368,-70.312500
3369,-72.265625
3370,-70.312500
3371,-72.265625
3372,-70.312500
3373,-70.312500
3374,-70.312500
3375,-70.312500
3376,-70.312500
3377,-70.312500
3378,-70.312500
3379,-70.312500
3380,-70.312500
3381,-70.312500
3382,-70.312500
3383,-70.312500
3384,-70.312500
3385,-70.312500
3386,-70.312500
3387,-70.312500
3388,-68.359375
3389,-68.359375
3390,-68.359375
3391,-68.359375
3392,-68.359375
3393,-68.359375
3394,-68.359375
3395,-68.359375
3396,-68.359375
3397,-66.406250
3398,-66.406250
3399,-66.406250
3400,-66.406250
3401,-66.406250
3402,-66.406250
3403,-64.453125
3404,-64.453125
3405,-64.453125
3406,-64.453125
3407,-64.453125
3408,-64.453125
3409,-64.453125
3410,-60.546875
3411,-62.500000
3412,-62.500000
3413,-60.546875
3414,-60.546875
3415,-60.546875
3416,-60.546875
3417,-58.593750
3418,-58.593750
3419,-58.593750
3420,-58.593750
3421,-56.640625
3422,-58.593750
3423,-56.640625
3424,-54.687500
3425,-54.687500
3426,-54.687500
3427,-54.687500
3428,-52.734375
3429,-52.734375
3430,-52.734375
3431,-52.734375
3432,-50.781250
3433,-50.781250
3434,-48.828125
3435,-48.828125
3436,-48.828125
3437,-46.875000
3438,-46.875000
3439,-44.921875
3440,-44.921875
3441,-46.875000
3442,-46.875000
3443,-42.968750
3444,-41.015625
3445,-41.015625
3446,-41.015625
3447,-39.062500
3448,-39.062500
3449,-39.062500
3450,-37.109375
3451,-37.109375
3452,-37.109375
3453,-35.156250
3454,-35.156250
3455,-33.203125
3456,-33.203125
3457,-31.250000
3458,-31.250000
3459,-31.250000
3460,-29.296875
3461,-29.296875
3462,-27.343750
3463,-27.343750
3464,-25.390625
3465,-25.390625
3466,-25.390625
3467,-23.437500
3468,-23.437500
3469,-21.484375
3470,-21.484375
3471,-19.531250
3472,-19.531250
3473,-17.578125
3474,-17.578125
3475,-15.625000
3476,-15.625000
3477,-15.625000
3478,-13.671875
3479,-11.718750
3480,-11.718750
3481,-11.718750
3482,-9.765625
3483,-7.812500
3484,-7.812500
3485,-7.812500
3486,-5.859375
3487,-5.859375
3488,-3.906250
3489,-3.906250
3490,-1.953125
3491,-1.953125
3492,0.000000
3493,0.000000
3494,1.953125
3495,1.953125
3496,3.906250
3497,3.906250
3498,5.859375
3499,5.859375
3500,7.812500
3501,7.812500
3502,9.765625
3503,9.765625
3504,9.765625
3505,11.718750
3506,11.718750
3507,13.671875
3508,13.671875
3509,15.625000
3510,15.625000
3511,17.578125
3512,17.578125
3513,19.531250
3514,19.531250
3515,19.531250
3516,21.484375
3517,21.484375
3518,23.437500
3519,25.390625
3520,25.390625
3521,25.390625
3522,27.343750
3523,27.343750
3524,29.296875
3525,29.296875
3526,31.250000
3527,31.250000
3528,31.250000
3529,33.203125
3530,35.156250
3531,35.156250
3532,35.156250
3533,35.156250
3534,37.109375
3535,37.109375
3536,39.062500
3537,39.062500
3538,41.015625
3539,41.015625
3540,42.968750
3541,42.968750
3542,42.968750
3543,44.921875
3544,44.921875
3545,44.921875
3546,46.875000
3547,46.875000
3548,48.828125
3549,48.828125
3550,48.828125
3551,48.828125
3552,50.781250
3553,50.781250
3554,50.781250
3555,52.734375
3556,52.734375
3557,52.734375
3558,54.687500
3559,54.687500
3560,56.640625
3561,56.640625
3562,56.640625
3563,58.593750
3564,58.593750
3565,58.593750
3566,60.546875
3567,60.546875
3568,60.546875
3569,60.546875
3570,62.500000
3571,62.500000
3572,62.500000
3573,62.500000
3574,64.453125
3575,64.453125
3576,66.406250
3577,66.406250
3578,66.406250
3579,66.406250
3580,66.406250
3581,66.406250
3582,68.359375
3583,68.359375
3584,68.359375
3585,68.359375
3586,70.312500
3587,70.312500
3588,70.312500
3589,70.312500
3590,70.312500
3591,70.312500
3592,72.265625
3593,72.265625
3594,72.265625
3595,72.265625
3596,74.218750
3597,74.218750
3598,74.218750
3599,74.218750
3600,74.218750
3601,74.218750
3602,74.218750
3603,76.171875
3604,76.171875
3605,76.171875
3606,76.171875
3607,76.171875
3608,76.171875
3609,76.171875
3610,76.171875
3611,76.171875
3612,76.171875
3613,76.171875
3614,76.171875
3615,78.125000
3616,78.125000
3617,78.125000
3618,78.125000
3619,78.125000
3620,78.125000
3621,78.125000
3622,78.125000
3623,78.125000
3624,78.125000
3625,78.125000
3626,78.125000
3627,78.125000
3628,78.125000
3629,78.125000
3630,78.125000
3631,78.125000
3632,78.125000
3633,78.125000
3634,78.125000
3635,78.125000
3636,78.125000
3637,78.125000
3638,78.125000
3639,78.125000
3640,78.125000
3641,76.171875
3642,76.171875
3643,76.171875
3644,76.171875
3645,76.171875
3646,76.171875
3647,76.171875
3648,76.171875
3649,74.218750
3650,76.171875
3651,74.218750
3652,74.218750
3653,74.218750
3654,74.218750
3655,74.218750
3656,74.218750
3657,72.265625
3658,72.265625
3659,74.218750
3660,72.265625
3661,72.265625
3662,72.265625
3663,70.312500
3664,70.312500
3665,70.312500
3666,70.312500
3667,70.312500
3668,68.359375
3669,68.359375
3670,68.359375
3671,68.359375
3672,66.406250
3673,66.406250
3674,66.406250
3675,64.453125
3676,64.453125
3677,64.453125
3678,64.453125
3679,62.500000
3680,62.500000
3681,62.500000
3682,62.500000
3683,60.546875
3684,60.546875
3685,60.546875
3686,60.546875
3687,58.593750
3688,58.593750
3689,58.593750
3690,56.640625
3691,56.640625
3692,54.687500
3693,54.687500
3694,54.687500
3695,54.687500
3696,52.734375
3697,52.734375
3698,52.734375
3699,50.781250
3700,50.781250
3701,48.828125
3702,48.828125
3703,48.828125
3704,46.875000
3705,46.875000
3706,46.875000
3707,44.921875
3708,44.921875
3709,42.968750
3710,42.968750
3711,41.015625
3712,41.015625
3713,41.015625
3714,39.062500
3715,39.062500
3716,39.062500
3717,37.109375
3718,37.109375
3719,35.156250
3720,35.156250
3721,33.203125
3722,33.203125
3723,33.203125
3724,33.203125
3725,31.250000
3726,31.250000
3727,29.296875
3728,29.296875
3729,27.343750
3730,25.390625
3731,25.390625
3732,25.390625
3733,23.437500
3734,23.437500
3735,23.437500
3736,21.484375
3737,19.531250
3738,19.531250
3739,17.578125
3740,17.578125
3741,15.625000
3742,15.625000
3743,13.671875
3744,13.671875
3745,13.671875
3746,11.718750
3747,11.718750
3748,9.765625
3749,9.765625
3750,7.812500
3751,7.812500
3752,5.859375
3753,5.859375
3754,3.906250
3755,3.906250
3756,1.953125
3757,1.953125
3758,1.953125
3759,0.000000
3760,0.000000
3761,-1.953125
3762,-1.953125
3763,-3.906250
3764,-3.906250
3765,-5.859375
3766,-5.859375
3767,-7.812500
3768,-7.812500
3769,-9.765625
3770,-9.765625
3771,-11.718750
3772,-11.718750
3773,-11.718750
3774,-13.671875
3775,-13.671875
3776,-15.625000
3777,-17.578125
3778,-17.578125
3779,-19.531250
3780,-19.531250
3781,-19.531250
3782,-19.531250
3783,-21.484375
3784,-21.484375
3785,-23.437500
3786,-23.437500
3787,-25.390625
3788,-27.343750
3789,-27.343750
3790,-27.343750
3791,-29.296875
3792,-29.296875
3793,-29.296875
3794,-31.250000
3795,-31.250000
3796,-31.250000
3797,-33.203125
3798,-35.156250
3799,-35.156250
3800,-35.156250
3801,-37.109375
3802,-37.109375
3803,-39.062500
3804,-39.062500
3805,-39.062500
3806,-41.015625
3807,-41.015625
3808,-42.968750
3809,-42.968750
3810,-42.968750
3811,-44.921875
3812,-44.921875
3813,-46.875000
3814,-42.968750
3815,-44.921875
3816,-46.875000
3817,-48.828125
3818,-48.828125
3819,-50.781250
3820,-50.781250
3821,-50.781250
3822,-50.781250
3823,-52.734375
3824,-52.734375
3825,-52.734375
3826,-54.687500
3827,-54.687500
3828,-54.687500
3829,-56.640625
3830,-56.640625
3831,-56.640625
3832,-56.640625
3833,-58.593750
3834,-58.593750
3835,-58.593750
3836,-58.593750
3837,-60.546875
3838,-60.546875
3839,-60.546875
3840,-60.546875
3841,-62.500000
3842,-62.500000
3843,-62.500000
3844,-62.500000
3845,-64.453125
3846,-64.453125
3847,-64.453125
3848,-64.453125
3849,-64.453125
3850,-64.453125
3851,-66.406250
3852,-66.406250
3853,-66.406250
3854,-66.406250
3855,-66.406250
3856,-66.406250
3857,-68.359375
3858,-68.359375
3859,-68.359375
3860,-68.359375
3861,-68.359375
3862,-68.359375
3863,-68.359375
3864,-68.359375
3865,-68.359375
3866,-68.359375
3867,-68.359375
3868,-70.312500
3869,-70.312500
3870,-70.312500
3871,-70.312500
3872,-70.312500
3873,-70.312500
3874,-70.312500
3875,-70.312500
3876,-70.312500
3877,-70.312500
3878,-70.312500
3879,-70.312500
3880,-70.312500
3881,-70.312500
3882,-70.312500
3883,-70.312500
3884,-70.312500
3885,-70.312500
3886,-70.312500
3887,-70.312500
3888,-70.312500
3889,-70.312500
3890,-68.359375
3891,-68.359375
3892,-68.359375
3893,-68.359375
3894,-68.359375
3895,-68.359375
3896,-68.359375
3897,-68.359375
3898,-68.359375
3899,-66.406250
3900,-66.406250
3901,-66.406250
3902,-66.406250
3903,-66.406250
3904,-66.406250
3905,-66.406250
3906,-66.406250
3907,-64.453125
3908,-64.453125
3909,-64.453125
3910,-64.453125
3911,-64.453125
3912,-62.500000
3913,-62.500000
3914,-62.500000
3915,-62.500000
3916,-60.546875
3917,-60.546875
3918,-60.546875
3919,-60.546875
3920,-60.546875
3921,-58.593750
3922,-58.593750
3923,-58.593750
3924,-56.640625
3925,-56.640625
3926,-56.640625
3927,-56.640625
3928,-54.687500
3929,-54.687500
3930,-54.687500
3931,-54.687500
3932,-52.734375
3933,-52.734375
3934,-52.734375
3935,-50.781250
3936,-50.781250
3937,-50.781250
3938,-48.828125
3939,-48.828125
3940,-48.828125
3941,-46.875000
3942,-46.875000
3943,-46.875000
3944,-44.921875
3945,-44.921875
3946,-42.968750
3947,-42.968750
3948,-42.968750
3949,-41.015625
3950,-41.015625
3951,-41.015625
3952,-39.062500
3953,-39.062500
3954,-37.109375
3955,-37.109375
3956,-37.109375
3957,-35.156250
3958,-35.156250
3959,-33.203125
3960,-33.203125
3961,-31.250000
3962,-31.250000
3963,-31.250000
3964,-29.296875
3965,-29.296875
3966,-27.343750
3967,-27.343750
3968,-27.343750
3969,-25.390625
3970,-25.390625
3971,-25.390625
3972,-23.437500
3973,-23.437500
3974,-21.484375
3975,-19.531250
3976,-19.531250
3977,-19.531250
3978,-17.578125
3979,-17.578125
3980,-15.625000
3981,-15.625000
3982,-13.671875
3983,-13.671875
3984,-13.671875
3985,-11.718750
3986,-9.765625
3987,-9.765625
3988,-7.812500
3989,-7.812500
3990,-5.859375
3991,-5.859375
3992,-3.906250
3993,-3.906250
3994,-3.906250
3995,-1.953125
3996,-1.953125
3997,0.000000
3998,0.000000
3999,1.953125
4000,1.953125
4001,3.906250
4002,3.906250
4003,3.906250
4004,5.859375
4005,5.859375
4006,7.812500
4007,9.765625
4008,9.765625
4009,11.718750
4010,11.718750
4011,11.718750
4012,13.671875
4013,13.671875
4014,15.625000
4015,15.625000
4016,17.578125
4017,17.578125
4018,19.531250
4019,19.531250
4020,21.484375
4021,21.484375
4022,21.484375
4023,23.437500
4024,25.390625
4025,25.390625
4026,25.390625
4027,27.343750
4028,27.343750
4029,29.296875
4030,29.296875
4031,31.250000
4032,31.250000
4033,33.203125
4034,33.203125
4035,33.203125
4036,33.203125
4037,35.156250
4038,35.156250
4039,37.109375
4040,37.109375
4041,39.062500
4042,39.062500
4043,39.062500
4044,41.015625
4045,41.015625
4046,42.968750
4047,42.968750
4048,42.968750
4049,44.921875
4050,44.921875
4051,46.875000
4052,46.875000
4053,46.875000
4054,48.828125
4055,48.828125
4056,50.781250
4057,50.781250
4058,50.781250
4059,50.781250
4060,52.734375
4061,52.734375
4062,52.734375
4063,54.687500
4064,54.687500
4065,56.640625
4066,56.640625
4067,56.640625
4068,56.640625
4069,58.593750
4070,58.593750
4071,58.593750
4072,60.546875
4073,60.546875
4074,60.546875
4075,60.546875
4076,62.500000
4077,62.500000
4078,62.500000
4079,64.453125
4080,64.453125
4081,64.453125
4082,66.406250
4083,66.406250
4084,66.406250
4085,66.406250
4086,66.406250
4087,68.359375
4088,68.359375
4089,68.359375
4090,68.359375
4091,70.312500
4092,68.359375
4093,70.312500
4094,70.312500
4095,70.312500
4096,72.265625
4097,70.312500
4098,72.265625
4099,72.265625
4100,72.265625
4101,72.265625
4102,72.265625
4103,74.218750
4104,74.218750
4105,74.218750
4106,74.218750
4107,74.218750
4108,74.218750
4109,74.218750
4110,74.218750
4111,76.171875
4112,76.171875
4113,76.171875
4114,76.171875
4115,76.171875
4116,72.265625
4117,76.171875
4118,76.171875
4119,76.171875
4120,76.171875
4121,76.171875
4122,78.125000
4123,78.125000
4124,78.125000
4125,78.125000
4126,78.125000
4127,78.125000
4128,78.125000
4129,78.125000
4130,78.125000
4131,78.125000
4132,78.125000
4133,78.125000
4134,78.125000
4135,78.125000
4136,78.125000
4137,76.171875
4138,78.125000
4139,78.125000
4140,78.125000
4141,78.125000
4142,76.171875
4143,76.171875
4144,76.171875
4145,76.171875
4146,76.171875
4147,76.171875
4148,76.171875
4149,76.171875
4150,76.171875
4151,74.218750
4152,74.218750
4153,74.218750
4154,74.218750
4155,74.218750
4156,74.218750
4157,74.218750
4158,74.218750
4159,72.265625
4160,72.265625
4161,72.265625
4162,72.265625
4163,72.265625
4164,72.265625
4165,72.265625
4166,70.312500
4167,70.312500
4168,70.312500
4169,70.312500
4170,70.312500
4171,68.359375
4172,68.359375
4173,68.359375
4174,68.359375
4175,66.406250
4176,66.406250
4177,66.406250
4178,66.406250
4179,64.453125
4180,64.453125
4181,64.453125
4182,64.453125
4183,62.500000
4184,62.500000
4185,62.500000
4186,62.500000
4187,62.500000
4188,60.546875
4189,58.593750
4190,60.546875
4191,58.593750
4192,58.593750
4193,56.640625
4194,56.640625
4195,56.640625
4196,54.687500
4197,54.687500
4198,54.687500
4199,54.687500
4200,52.734375
4201,52.734375
4202,50.781250
4203,50.781250
4204,50.781250
4205,48.828125
4206,48.828125
4207,48.828125
4208,48.828125
4209,46.875000
4210,44.921875
4211,44.921875
4212,44.921875
4213,42.968750
4214,42.968750
4215,42.968750
4216,41.015625
4217,41.015625
4218,39.062500
4219,39.062500
4220,37.109375
4221,37.109375
4222,37.109375
4223,35.156250
4224,35.156250
4225,33.203125
4226,33.203125
4227,33.203125
4228,31.250000
4229,31.250000
4230,29.296875
4231,29.296875
4232,27.343750
4233,27.343750
4234,25.390625
4235,25.390625
4236,25.390625
4237,23.437500
4238,23.437500
4239,21.484375
4240,21.484375
4241,19.531250
4242,19.531250
4243,17.578125
4244,17.578125
4245,17.578125
4246,15.625000
4247,15.625000
4248,15.625000
4249,11.718750
4250,11.718750
4251,11.718750
4252,7.812500
4253,9.765625
4254,7.812500
4255,7.812500
4256,5.859375
4257,5.859375
4258,3.906250
4259,3.906250
4260,1.953125
4261,1.953125
4262,1.953125
4263,0.000000
4264,0.000000
4265,-1.953125
4266,-1.953125
4267,-3.906250
4268,-3.906250
4269,-5.859375
4270,-5.859375
4271,-7.812500
4272,-7.812500
4273,-9.765625
4274,-9.765625
4275,-11.718750
4276,-11.718750
4277,-13.671875
4278,-13.671875
4279,-13.671875
4280,-15.625000
4281,-15.625000
4282,-17.578125
4283,-17.578125
4284,-19.531250
4285,-19.531250
4286,-21.484375
4287,-21.484375
4288,-21.484375
4289,-23.437500
4290,-23.437500
4291,-25.390625
4292,-25.390625
4293,-27.343750
4294,-27.343750
4295,-29.296875
4296,-29.296875
4297,-31.250000
4298,-31.250000
4299,-31.250000
4300,-33.203125
4301,-33.203125
4302,-35.156250
4303,-35.156250
4304,-37.109375
4305,-37.109375
4306,-37.109375
4307,-39.062500
4308,-39.062500
4309,-41.015625
4310,-41.015625
4311,-42.968750
4312,-42.968750
4313,-42.968750
4314,-42.968750
4315,-44.921875
4316,-44.921875
4317,-46.875000
4318,-46.875000
4319,-46.875000
4320,-46.875000
4321,-48.828125
4322,-48.828125
4323,-50.781250
4324,-50.781250
4325,-50.781250
4326,-52.734375
4327,-52.734375
4328,-52.734375
4329,-54.687500
4330,-54.687500
4331,-54.687500
4332,-54.687500
4333,-56.640625
4334,-56.640625
4335,-58.593750
4336,-58.593750
4337,-58.593750
4338,-58.593750
4339,-60.546875
4340,-60.546875
4341,-60.546875
4342,-60.546875
4343,-62.500000
4344,-62.500000
4345,-62.500000
4346,-62.500000
4347,-62.500000
4348,-64.453125
4349,-64.453125
4350,-64.453125
4351,-64.453125
4352,-66.406250
4353,-66.406250
4354,-66.406250
4355,-66.406250
4356,-66.406250
4357,-66.406250
4358,-66.406250
4359,-68.359375
4360,-68.359375
4361,-68.359375
4362,-68.359375
4363,-68.359375
4364,-68.359375
4365,-68.359375
4366,-68.359375
4367,-68.359375
4368,-70.312500
4369,-70.312500
4370,-70.312500
4371,-70.312500
4372,-70.312500
4373,-70.312500
4374,-70.312500
4375,-70.312500
4376,-70.312500
4377,-70.312500
4378,-70.312500
4379,-70.312500
4380,-70.312500
4381,-70.312500
4382,-70.312500
4383,-70.312500
4384,-70.312500
4385,-70.312500
4386,-70.312500
4387,-72.265625
4388,-72.265625
4389,-70.312500
4390,-70.312500
4391,-70.312500
4392,-70.312500
4393,-70.312500
4394,-70.312500
4395,-70.312500
4396,-70.312500
4397,-70.312500
4398,-68.359375
4399,-68.359375
4400,-68.359375
4401,-68.359375
4402,-68.359375
4403,-68.359375
4404,-68.359375
4405,-68.359375
4406,-68.359375
4407,-66.406250
4408,-66.406250
4409,-66.406250
4410,-66.406250
4411,-66.406250
4412,-64.453125
4413,-66.406250
4414,-64.453125
4415,-64.453125
4416,-64.453125
4417,-62.500000
4418,-62.500000
4419,-62.500000
4420,-62.500000
4421,-62.500000
4422,-62.500000
4423,-62.500000
4424,-60.546875
4425,-60.546875
4426,-60.546875
4427,-60.546875
4428,-58.593750
4429,-58.593750
4430,-58.593750
4431,-56.640625
4432,-56.640625
4433,-56.640625
4434,-54.687500
4435,-54.687500
4436,-54.687500
4437,-54.687500
4438,-52.734375
4439,-52.734375
4440,-52.734375
4441,-50.781250
4442,-50.781250
4443,-50.781250
4444,-48.828125
4445,-48.828125
4446,-48.828125
4447,-46.875000
4448,-46.875000
4449,-46.875000
4450,-44.921875
4451,-44.921875
4452,-42.968750
4453,-42.968750
4454,-42.968750
4455,-41.015625
4456,-41.015625
4457,-41.015625
4458,-39.062500
4459,-39.062500
4460,-37.109375
4461,-37.109375
4462,-35.156250
4463,-35.156250
4464,-35.156250
4465,-33.203125
4466,-33.203125
4467,-31.250000
4468,-31.250000
4469,-29.296875
4470,-29.296875
4471,-29.296875
4472,-27.343750
4473,-27.343750
4474,-25.390625
4475,-25.390625
4476,-25.390625
4477,-23.437500
4478,-23.437500
4479,-21.484375
4480,-21.484375
4481,-19.531250
4482,-19.531250
4483,-17.578125
4484,-17.578125
4485,-17.578125
4486,-15.625000
4487,-13.671875
4488,-13.671875
4489,-13.671875
4490,-11.718750
4491,-11.718750
4492,-9.765625
4493,-9.765625
4494,-7.812500
4495,-7.812500
4496,-5.859375
4497,-5.859375
4498,-1.953125
4499,-1.953125
4500,-5.859375
4501,-1.953125
4502,0.000000
4503,0.000000
4504,1.953125
4505,1.953125
4506,3.906250
4507,3.906250
4508,5.859375
4509,5.859375
4510,5.859375
4511,7.812500
4512,7.812500
4513,9.765625
4514,9.765625
4515,11.718750
4516,11.718750
4517,11.718750
4518,13.671875
4519,15.625000
4520,15.625000
4521,13.671875
4522,17.578125
4523,19.531250
4524,19.531250
4525,19.531250
4526,21.484375
4527,21.484375
4528,23.437500
4529,23.437500
4530,25.390625
4531,25.390625
4532,27.343750
4533,27.343750
4534,29.296875
4535,25.390625
4536,31.250000
4537,31.250000
4538,33.203125
4539,33.203125
4540,33.203125
4541,35.156250
4542,35.156250
4543,35.156250
4544,37.109375
4545,37.109375
4546,39.062500
4547,39.062500
4548,41.015625
4549,41.015625
4550,41.015625
4551,41.015625
4552,42.968750
4553,44.921875
4554,44.921875
4555,44.921875
4556,46.875000
4557,46.875000
4558,48.828125
4559,48.828125
4560,48.828125
4561,50.781250
4562,50.781250
4563,50.781250
4564,50.781250
4565,52.734375
4566,52.734375
4567,52.734375
4568,54.687500
4569,54.687500
4570,56.640625
4571,56.640625
4572,56.640625
4573,58.593750
4574,58.593750
4575,58.593750
4576,58.593750
4577,60.546875
4578,60.546875
4579,60.546875
4580,62.500000
4581,62.500000
4582,62.500000
4583,64.453125
4584,64.453125
4585,64.453125
4586,66.406250
4587,64.453125
4588,66.406250
4589,64.453125
4590,66.406250
4591,66.406250
4592,68.359375
4593,68.359375
4594,68.359375
4595,70.312500
4596,70.312500
4597,70.312500
4598,70.312500
4599,70.312500
4600,70.312500
4601,70.312500
4602,72.265625
4603,72.265625
4604,72.265625
4605,72.265625
4606,74.218750
4607,72.265625
4608,74.218750
4609,74.218750
4610,72.265625
4611,74.218750
4612,74.218750
4613,76.171875
4614,76.171875
4615,76.171875
4616,76.171875
4617,76.171875
4618,76.171875
4619,76.171875
4620,76.171875
4621,74.218750
4622,76.171875
4623,76.171875
4624,76.171875
4625,76.171875
4626,78.125000
4627,78.125000
4628,78.125000
4629,78.125000
4630,78.125000
4631,78.125000
4632,78.125000
4633,78.125000
4634,78.125000
4635,78.125000
4636,78.125000
4637,78.125000
4638,78.125000
4639,78.125000
4640,78.125000
4641,78.125000
4642,78.125000
4643,78.125000
4644,78.125000
4645,76.171875
4646,78.125000
4647,78.125000
4648,78.125000
4649,78.125000
4650,76.171875
4651,76.171875
4652,76.171875
4653,76.171875
4654,76.171875
4655,76.171875
4656,76.171875
4657,76.171875
4658,76.171875
4659,76.171875
4660,74.218750
4661,74.218750
4662,74.218750
4663,74.218750
4664,74.218750
4665,74.218750
4666,74.218750
4667,72.265625
4668,72.265625
4669,72.265625
4670,72.265625
4671,72.265625
4672,72.265625
4673,70.312500
4674,70.312500
4675,70.312500
4676,70.312500
4677,68.359375
4678,68.359375
4679,68.359375
4680,68.359375
4681,68.359375
4682,68.359375
4683,66.406250
4684,66.406250
4685,66.406250
4686,66.406250
4687,64.453125
4688,64.453125
4689,62.500000
4690,62.500000
4691,62.500000
4692,62.500000
4693,60.546875
4694,60.546875
4695,60.546875
4696,60.546875
4697,58.593750
4698,58.593750
4699,58.593750
4700,56.640625
4701,56.640625
4702,56.640625
4703,54.687500
4704,54.687500
4705,54.687500
4706,52.734375
4707,52.734375
4708,52.734375
4709,50.781250
4710,50.781250
4711,50.781250
4712,48.828125
4713,48.828125
4714,48.828125
4715,46.875000
4716,44.921875
4717,44.921875
4718,44.921875
4719,44.921875
4720,42.968750
4721,42.968750
4722,41.015625
4723,41.015625
4724,41.015625
4725,39.062500
4726,39.062500
4727,37.109375
4728,37.109375
4729,37.109375
4730,35.156250
4731,35.156250
4732,33.203125
4733,33.203125
4734,31.250000
4735,31.250000
4736,29.296875
4737,29.296875
4738,27.343750
4739,27.343750
4740,27.343750
4741,25.390625
4742,25.390625
4743,23.437500
4744,23.437500
4745,21.484375
4746,21.484375
4747,19.531250
4748,19.531250
4749,17.578125
4750,17.578125
4751,17.578125
4752,15.625000
4753,15.625000
4754,13.671875
4755,13.671875
4756,11.718750
4757,11.718750
4758,9.765625
4759,9.765625
4760,9.765625
4761,7.812500
4762,7.812500
4763,5.859375
4764,5.859375
4765,3.906250
4766,3.906250
4767,1.953125
4768,1.953125
4769,0.000000
4770,0.000000
4771,-1.953125
4772,-1.953125
4773,-1.953125
4774,-3.906250
4775,-5.859375
4776,-5.859375
4777,-7.812500
4778,-7.812500
4779,-7.812500
4780,-9.765625
4781,-9.765625
4782,-11.718750
4783,-11.718750
4784,-11.718750
4785,-13.671875
4786,-13.671875
4787,-15.625000
4788,-17.578125
4789,-17.578125
4790,-19.531250
4791,-19.531250
4792,-19.531250
4793,-21.484375
4794,-23.437500
4795,-23.437500
4796,-23.437500
4797,-25.390625
4798,-25.390625
4799,-27.343750
4800,-27.343750
4801,-29.296875
4802,-29.296875
4803,-29.296875
4804,-31.250000
4805,-31.250000
4806,-33.203125
4807,-33.203125
4808,-35.156250
4809,-35.156250
4810,-35.156250
4811,-37.109375
4812,-37.109375
4813,-37.109375
4814,-39.062500
4815,-39.062500
4816,-39.062500
4817,-41.015625
4818,-41.015625
4819,-42.968750
4820,-42.968750
4821,-44.921875
4822,-42.968750
4823,-44.921875
4824,-46.875000
4825,-46.875000
4826,-46.875000
4827,-48.828125
4828,-48.828125
4829,-48.828125
4830,-50.781250
4831,-50.781250
4832,-50.781250
4833,-52.734375
4834,-52.734375
4835,-52.734375
4836,-52.734375
4837,-54.687500
4838,-56.640625
4839,-56.640625
4840,-56.640625
4841,-56.640625
4842,-56.640625
4843,-58.593750
4844,-58.593750
4845,-58.593750
4846,-60.546875
4847,-60.546875
4848,-60.546875
4849,-60.546875
4850,-62.500000
4851,-62.500000
4852,-62.500000
4853,-62.500000
4854,-62.500000
4855,-62.500000
4856,-64.453125
4857,-64.453125
4858,-64.453125
4859,-64.453125
4860,-66.406250
4861,-66.406250
4862,-66.406250
4863,-66.406250
4864,-66.406250
4865,-66.406250
4866,-66.406250
4867,-66.406250
4868,-68.359375
4869,-66.406250
4870,-68.359375
4871,-68.359375
4872,-68.359375
4873,-68.359375
4874,-68.359375
4875,-68.359375
4876,-70.312500
4877,-70.312500
4878,-70.312500
4879,-70.312500
4880,-70.312500
4881,-70.312500
4882,-66.406250
4883,-70.312500
4884,-70.312500
4885,-68.359375
4886,-70.312500
4887,-70.312500
4888,-70.312500
4889,-70.312500
4890,-66.406250
4891,-70.312500
4892,-70.312500
4893,-70.312500
4894,-70.312500
4895,-70.312500
4896,-70.312500
4897,-70.312500
4898,-70.312500
4899,-70.312500
4900,-70.312500
4901,-70.312500
4902,-70.312500
4903,-68.359375
4904,-68.359375
4905,-68.359375
4906,-68.359375
4907,-68.359375
4908,-68.359375
4909,-68.359375
4910,-68.359375
4911,-68.359375
4912,-66.406250
4913,-66.406250
4914,-66.406250
4915,-66.406250
4916,-66.406250
4917,-66.406250
4918,-64.453125
4919,-64.453125
4920,-64.453125
4921,-64.453125
4922,-62.500000
4923,-60.546875
4924,-62.500000
4925,-62.500000
4926,-62.500000
4927,-60.546875
4928,-60.546875
4929,-60.546875
4930,-60.546875
4931,-60.546875
4932,-58.593750
4933,-58.593750
4934,-58.593750
4935,-56.640625
4936,-56.640625
4937,-56.640625
4938,-54.687500
4939,-54.687500
4940,-54.687500
4941,-52.734375
4942,-52.734375
4943,-52.734375
4944,-50.781250
4945,-50.781250
4946,-50.781250
4947,-48.828125
4948,-50.781250
4949,-50.781250
4950,-46.875000
4951,-46.875000
4952,-46.875000
4953,-46.875000
4954,-46.875000
4955,-44.921875
4956,-44.921875
4957,-44.921875
4958,-42.968750
4959,-41.015625
4960,-41.015625
4961,-41.015625
4962,-41.015625
4963,-39.062500
4964,-37.109375
4965,-37.109375
4966,-37.109375
4967,-37.109375
4968,-35.156250
4969,-35.156250
4970,-33.203125
4971,-33.203125
4972,-31.250000
4973,-31.250000
4974,-31.250000
4975,-29.296875
4976,-29.296875
4977,-27.343750
4978,-27.343750
4979,-27.343750
4980,-25.390625
4981,-25.390625
4982,-23.437500
4983,-23.437500
4984,-21.484375
4985,-21.484375
4986,-19.531250
4987,-19.531250
4988,-17.578125
4989,-19.531250
4990,-17.578125
4991,-15.625000
4992,-15.625000
4993,-13.671875
4994,-11.718750
4995,-11.718750
4996,-11.718750
4997,-9.765625
4998,-9.765625
4999,-7.812500
5000,-7.812500
5001,-5.859375
5002,-5.859375
5003,-3.906250
5004,-3.906250
5005,-3.906250
5006,-1.953125
5007,0.000000
5008,0.000000
5009,0.000000
5010,1.953125
5011,1.953125
5012,3.906250
5013,3.906250
5014,5.859375
5015,5.859375
5016,7.812500
5017,7.812500
5018,7.812500
5019,9.765625
5020,11.718750
5021,11.718750
5022,11.718750
5023,13.671875
5024,13.671875
5025,15.625000
5026,15.625000
5027,17.578125
5028,17.578125
5029,19.531250
5030,19.531250
5031,21.484375
5032,21.484375
5033,23.437500
5034,23.437500
5035,23.437500
5036,25.390625
5037,25.390625
5038,27.343750
5039,27.343750
5040,29.296875
5041,29.296875
5042,31.250000
5043,31.250000
5044,33.203125
5045,33.203125
5046,33.203125
5047,35.156250
5048,35.156250
5049,35.156250
5050,37.109375
5051,39.062500
5052,39.062500
5053,39.062500
5054,41.015625
5055,39.062500
5056,41.015625
5057,42.968750
5058,42.968750
5059,42.968750
5060,44.921875
5061,44.921875
5062,46.875000
5063,46.875000
5064,46.875000
5065,48.828125
5066,48.828125
5067,50.781250
5068,50.781250
5069,50.781250
5070,52.734375
5071,52.734375
5072,54.687500
5073,54.687500
5074,54.687500
5075,54.687500
5076,56.640625
5077,56.640625
5078,56.640625
5079,58.593750
5080,58.593750
5081,58.593750
5082,58.593750
5083,60.546875
5084,60.546875
5085,60.546875
5086,62.500000
5087,62.500000
5088,62.500000
5089,62.500000
5090,64.453125
5091,64.453125
5092,64.453125
5093,66.406250
5094,66.406250
5095,66.406250
5096,66.406250
5097,66.406250
5098,68.359375
5099,68.359375
5100,68.359375
5101,68.359375
5102,70.312500
5103,70.312500
5104,70.312500
5105,70.312500
5106,70.312500
5107,72.265625
5108,72.265625
5109,72.265625
5110,72.265625
5111,74.218750
5112,72.265625
5113,72.265625
5114,74.218750
5115,74.218750
5116,74.218750
5117,74.218750
5118,74.218750
5119,74.218750
5120,74.218750
5121,76.171875
5122,76.171875
5123,76.171875
5124,76.171875
5125,76.171875
5126,76.171875
5127,76.171875
5128,76.171875
5129,76.171875
5130,76.171875
5131,76.171875
5132,76.171875
5133,76.171875
5134,78.125000
5135,76.171875
5136,78.125000
5137,76.171875
5138,78.125000
5139,76.171875
5140,76.171875
5141,78.125000
5142,78.125000
5143,78.125000
5144,78.125000
5145,76.171875
5146,76.171875
5147,76.171875
5148,76.171875
5149,76.171875
5150,76.171875
5151,76.171875
5152,78.125000
5153,76.171875
5154,76.171875
5155,76.171875
5156,76.171875
5157,76.171875
5158,76.171875
5159,76.171875
5160,76.171875
5161,76.171875
5162,76.171875
5163,74.218750
5164,74.218750
5165,74.218750
5166,74.218750
5167,74.218750
5168,74.218750
5169,74.218750
5170,72.265625
5171,72.265625
5172,72.265625
5173,72.265625
5174,72.265625
5175,70.312500
5176,70.312500
5177,70.312500
5178,70.312500
5179,70.312500
5180,70.312500
5181,68.359375
5182,68.359375
5183,68.359375
5184,68.359375
5185,66.406250
5186,66.406250
5187,66.406250
5188,66.406250
5189,66.406250
5190,64.453125
5191,64.453125
5192,64.453125
5193,62.500000
5194,62.500000
5195,62.500000
5196,62.500000
5197,60.546875
5198,60.546875
5199,60.546875
5200,58.593750
5201,58.593750
5202,58.593750
5203,58.593750
5204,56.640625
5205,56.640625
5206,56.640625
5207,54.687500
5208,54.687500
5209,54.687500
5210,52.734375
5211,52.734375
5212,52.734375
5213,50.781250
5214,50.781250
5215,50.781250
5216,48.828125
5217,48.828125
5218,46.875000
5219,46.875000
5220,46.875000
5221,44.921875
5222,44.921875
5223,44.921875
5224,42.968750
5225,42.968750
5226,41.015625
5227,42.968750
5228,39.062500
5229,39.062500
5230,39.062500
5231,37.109375
5232,37.109375
5233,37.109375
5234,35.156250
5235,33.203125
5236,33.203125
5237,33.203125
5238,31.250000
5239,31.250000
5240,29.296875
5241,29.296875
5242,29.296875
5243,27.343750
5244,27.343750
5245,25.390625
5246,25.390625
5247,23.437500
5248,23.437500
5249,21.484375
5250,21.484375
5251,21.484375
5252,19.531250
5253,19.531250
5254,17.578125
5255,17.578125
5256,15.625000
5257,15.625000
5258,13.671875
5259,11.718750
5260,13.671875
5261,11.718750
5262,11.718750
5263,9.765625
5264,9.765625
5265,7.812500
5266,7.812500
5267,5.859375
5268,3.906250
5269,3.906250
5270,3.906250
5271,1.953125
5272,1.953125
5273,0.000000
5274,-1.953125
5275,-1.953125
5276,-1.953125
5277,-5.859375
5278,-3.906250
5279,-5.859375
5280,-7.812500
5281,-7.812500
5282,-7.812500
5283,-11.718750
5284,-9.765625
5285,-9.765625
5286,-13.671875
5287,-11.718750
5288,-13.671875
5289,-15.625000
5290,-15.625000
5291,-17.578125
5292,-17.578125
5293,-17.578125
5294,-19.531250
5295,-19.531250
5296,-19.531250
5297,-21.484375
5298,-23.437500
5299,-23.437500
5300,-23.437500
5301,-25.390625
5302,-25.390625
5303,-27.343750
5304,-27.343750
5305,-27.343750
5306,-29.296875
5307,-29.296875
5308,-31.250000
5309,-31.250000
5310,-33.203125
5311,-33.203125
5312,-35.156250
5313,-35.156250
5314,-35.156250
5315,-37.109375
5316,-37.109375
5317,-37.109375
5318,-39.062500
5319,-39.062500
5320,-41.015625
5321,-41.015625
5322,-42.968750
5323,-42.968750
5324,-44.921875
5325,-42.968750
5326,-44.921875
5327,-44.921875
5328,-46.875000
5329,-46.875000
5330,-46.875000
5331,-48.828125
5332,-48.828125
5333,-50.781250
5334,-50.781250
5335,-50.781250
5336,-50.781250
5337,-52.734375
5338,-52.734375
5339,-54.687500
5340,-54.687500
5341,-54.687500
5342,-54.687500
5343,-56.640625
5344,-56.640625
5345,-56.640625
5346,-56.640625
5347,-58.593750
5348,-58.593750
5349,-58.593750
5350,-58.593750
5351,-60.546875
5352,-60.546875
5353,-62.500000
5354,-60.546875
5355,-62.500000
5356,-62.500000
5357,-64.453125
5358,-62.500000
5359,-64.453125
5360,-64.453125
5361,-64.453125
5362,-66.406250
5363,-64.453125
5364,-64.453125
5365,-66.406250
5366,-66.406250
5367,-66.406250
5368,-66.406250
5369,-68.359375
5370,-68.359375
5371,-68.359375
5372,-68.359375
5373,-66.406250
5374,-68.359375
5375,-68.359375
5376,-70.312500
5377,-70.312500
5378,-70.312500
5379,-70.312500
5380,-70.312500
5381,-70.312500
5382,-70.312500
5383,-70.312500
5384,-70.312500
5385,-70.312500
5386,-70.312500
5387,-70.312500
5388,-70.312500
5389,-70.312500
5390,-70.312500
5391,-70.312500
5392,-70.312500
5393,-70.312500
5394,-70.312500
5395,-70.312500
5396,-70.312500
5397,-70.312500
5398,-70.312500
5399,-70.312500
5400,-70.312500
5401,-70.312500
5402,-70.312500
5403,-70.312500
5404,-70.312500
5405,-70.312500
5406,-68.359375
5407,-70.312500
5408,-70.312500
5409,-70.312500
5410,-68.359375
5411,-70.312500
5412,-68.359375
5413,-68.359375
5414,-68.359375
5415,-68.359375
5416,-66.406250
5417,-66.406250
5418,-66.406250
5419,-66.406250
5420,-66.406250
5421,-66.406250
5422,-66.406250
5423,-66.406250
5424,-64.453125
5425,-64.453125
5426,-64.453125
5427,-64.453125
5428,-62.500000
5429,-62.500000
5430,-62.500000
5431,-62.500000
5432,-62.500000
5433,-60.546875
5434,-60.546875
5435,-60.546875
5436,-60.546875
5437,-60.546875
5438,-58.593750
5439,-58.593750
5440,-58.593750
5441,-56.640625
5442,-56.640625
5443,-56.640625
5444,-54.687500
5445,-54.687500
5446,-54.687500
5447,-54.687500
5448,-52.734375
5449,-52.734375
5450,-52.734375
5451,-50.781250
5452,-50.781250
5453,-50.781250
5454,-48.828125
5455,-48.828125
5456,-48.828125
5457,-46.875000
5458,-46.875000
5459,-46.875000
5460,-44.921875
5461,-44.921875
5462,-44.921875
5463,-42.968750
5464,-42.968750
5465,-41.015625
5466,-41.015625
5467,-39.062500
5468,-39.062500
5469,-39.062500
5470,-37.109375
5471,-37.109375
5472,-35.156250
5473,-35.156250
5474,-35.156250
5475,-33.203125
5476,-33.203125
5477,-31.250000
5478,-31.250000
5479,-31.250000
5480,-29.296875
5481,-27.343750
5482,-27.343750
5483,-27.343750
5484,-25.390625
5485,-25.390625
5486,-25.390625
5487,-23.437500
5488,-23.437500
5489,-21.484375
5490,-21.484375
5491,-19.531250
5492,-19.531250
5493,-19.531250
5494,-17.578125
5495,-17.578125
5496,-15.625000
5497,-15.625000
5498,-13.671875
5499,-13.671875
5500,-11.718750
5501,-11.718750
5502,-9.765625
5503,-9.765625
5504,-7.812500
5505,-7.812500
5506,-5.859375
5507,-5.859375
5508,-3.906250
5509,-3.906250
5510,-1.953125
5511,-1.953125
5512,0.000000
5513,0.000000
5514,1.953125
5515,1.953125
5516,3.906250
5517,3.906250
5518,3.906250
5519,5.859375
5520,5.859375
5521,7.812500
5522,7.812500
5523,9.765625
5524,9.765625
5525,11.718750
5526,11.718750
5527,13.671875
5528,13.671875
5529,15.625000
5530,15.625000
5531,17.578125
5532,17.578125
5533,19.531250
5534,19.531250
5535,21.484375
5536,21.484375
5537,21.484375
5538,23.437500
5539,23.437500
5540,25.390625
5541,25.390625
5542,27.343750
5543,27.343750
5544,27.343750
5545,29.296875
5546,29.296875
5547,31.250000
5548,31.250000
5549,33.203125
5550,33.203125
5551,35.156250
5552,35.156250
5553,35.156250
5554,37.109375
5555,37.109375
5556,39.062500
5557,39.062500
5558,39.062500
5559,41.015625
5560,41.015625
5561,41.015625
5562,42.968750
5563,42.968750
5564,44.921875
5565,44.921875
5566,46.875000
5567,46.875000
5568,46.875000
5569,48.828125
5570,48.828125
5571,48.828125
5572,50.781250
5573,50.781250
5574,52.734375
5575,52.734375
5576,52.734375
5577,54.687500
5578,54.687500
5579,54.687500
5580,56.640625
5581,56.640625
5582,58.593750
5583,58.593750
5584,58.593750
5585,58.593750
5586,60.546875
5587,60.546875
5588,60.546875
5589,60.546875
5590,62.500000
5591,62.500000
5592,64.453125
5593,64.453125
5594,64.453125
5595,64.453125
5596,66.406250
5597,64.453125
5598,66.406250
5599,66.406250
5600,68.359375
5601,68.359375
5602,68.359375
5603,68.359375
5604,68.359375
5605,68.359375
5606,70.312500
5607,70.312500
5608,70.312500
5609,70.312500
5610,72.265625
5611,72.265625
5612,72.265625
5613,72.265625
5614,72.265625
5615,72.265625
5616,74.218750
5617,74.218750
5618,74.218750
5619,74.218750
5620,74.218750
5621,74.218750
5622,74.218750
5623,76.171875
5624,76.171875
5625,74.218750
5626,76.171875
5627,76.171875
5628,76.171875
5629,76.171875
5630,76.171875
5631,76.171875
5632,78.125000
5633,78.125000
5634,76.171875
5635,78.125000
5636,78.125000
5637,78.125000
5638,78.125000
5639,78.125000
5640,78.125000
5641,78.125000
5642,78.125000
5643,78.125000
5644,78.125000
5645,78.125000
5646,78.125000
5647,78.125000
5648,78.125000
5649,78.125000
5650,78.125000
5651,78.125000
5652,78.125000
5653,78.125000
5654,78.125000
5655,78.125000
5656,78.125000
5657,78.125000
5658,78.125000
5659,78.125000
5660,78.125000
5661,76.171875
5662,76.171875
5663,76.171875
5664,76.171875
5665,76.171875
5666,76.171875
5667,76.171875
5668,76.171875
5669,76.171875
5670,76.171875
5671,74.218750
5672,74.218750
5673,74.218750
5674,74.218750
5675,74.218750
5676,72.265625
5677,74.218750
5678,72.265625
5679,72.265625
5680,72.265625
5681,72.265625
5682,72.265625
5683,70.312500
5684,70.312500
5685,70.312500
5686,70.312500
5687,70.312500
5688,70.312500
5689,68.359375
5690,68.359375
5691,68.359375
5692,66.406250
5693,66.406250
5694,66.406250
5695,64.453125
5696,66.406250
5697,64.453125
5698,64.453125
5699,64.453125
5700,64.453125
5701,62.500000
5702,62.500000
5703,60.546875
5704,60.546875
5705,60.546875
5706,60.546875
5707,58.593750
5708,56.640625
5709,58.593750
5710,58.593750
5711,56.640625
5712,56.640625
5713,56.640625
5714,54.687500
5715,54.687500
5716,52.734375
5717,52.734375
5718,52.734375
5719,50.781250
5720,50.781250
5721,50.781250
5722,48.828125
5723,48.828125
5724,48.828125
5725,46.875000
5726,46.875000
5727,44.921875
5728,44.921875
5729,44.921875
5730,42.968750
5731,42.968750
5732,41.015625
5733,41.015625
5734,41.015625
5735,39.062500
5736,39.062500
5737,37.109375
5738,37.109375
5739,37.109375
5740,35.156250
5741,35.156250
5742,35.156250
5743,33.203125
5744,31.250000
5745,31.250000
5746,31.250000
5747,29.296875
5748,29.296875
5749,27.343750
5750,27.343750
5751,25.390625
5752,25.390625
5753,23.437500
5754,23.437500
5755,23.437500
5756,21.484375
5757,21.484375
5758,19.531250
5759,19.531250
5760,17.578125
5761,17.578125
5762,15.625000
5763,15.625000
5764,13.671875
5765,13.671875
5766,13.671875
5767,11.718750
5768,9.765625
5769,9.765625
5770,7.812500
5771,7.812500
5772,7.812500
5773,5.859375
5774,3.906250
5775,5.859375
5776,3.906250
5777,1.953125
5778,1.953125
5779,0.000000
5780,0.000000
5781,-1.953125
5782,-1.953125
5783,-3.906250
5784,-3.906250
5785,-5.859375
5786,-5.859375
5787,-7.812500
5788,-7.812500
5789,-9.765625
5790,-9.765625
5791,-11.718750
5792,-11.718750
5793,-11.718750
5794,-13.671875
5795,-13.671875
5796,-15.625000
5797,-15.625000
5798,-17.578125
5799,-17.578125
5800,-19.531250
5801,-19.531250
5802,-21.484375
5803,-21.484375
5804,-21.484375
5805,-23.437500
5806,-23.437500
5807,-25.390625
5808,-25.390625
5809,-27.343750
5810,-27.343750
5811,-29.296875
5812,-29.296875
5813,-29.296875
5814,-31.250000
5815,-31.250000
5816,-33.203125
5817,-33.203125
5818,-33.203125
5819,-35.156250
5820,-37.109375
5821,-37.109375
5822,-37.109375
5823,-37.109375
5824,-39.062500
5825,-39.062500
5826,-39.062500
5827,-41.015625
5828,-42.968750
5829,-42.968750
5830,-42.968750
5831,-42.968750
5832,-44.921875
5833,-46.875000
5834,-46.875000
5835,-46.875000
5836,-46.875000
5837,-48.828125
5838,-48.828125
5839,-50.781250
5840,-50.781250
5841,-50.781250
5842,-50.781250
5843,-52.734375
5844,-52.734375
5845,-54.687500
5846,-54.687500
5847,-54.687500
5848,-54.687500
5849,-56.640625
5850,-56.640625
5851,-56.640625
5852,-58.593750
5853,-58.593750
5854,-58.593750
5855,-58.593750
5856,-58.593750
5857,-60.546875
5858,-60.546875
5859,-60.546875
5860,-62.500000
5861,-62.500000
5862,-62.500000
5863,-62.500000
5864,-62.500000
5865,-62.500000
5866,-64.453125
5867,-64.453125
5868,-64.453125
5869,-64.453125
5870,-66.406250
5871,-66.406250
5872,-66.406250
5873,-66.406250
5874,-66.406250
5875,-66.406250
5876,-68.359375
5877,-68.359375
5878,-68.359375
5879,-68.359375
5880,-68.359375
5881,-68.359375
5882,-68.359375
5883,-68.359375
5884,-68.359375
5885,-68.359375
5886,-70.312500
5887,-70.312500
5888,-70.312500
5889,-70.312500
5890,-70.312500
5891,-70.312500
5892,-70.312500
5893,-70.312500
5894,-70.312500
5895,-70.312500
5896,-70.312500
5897,-70.312500
5898,-70.312500
5899,-70.312500
5900,-70.312500
5901,-70.312500
5902,-70.312500
5903,-70.312500
5904,-70.312500
5905,-70.312500
5906,-70.312500
5907,-70.312500
5908,-70.312500
5909,-70.312500
5910,-70.312500
5911,-68.359375
5912,-70.312500
5913,-68.359375
5914,-68.359375
5915,-68.359375
5916,-68.359375
5917,-68.359375
5918,-68.359375
5919,-68.359375
5920,-68.359375
5921,-68.359375
5922,-66.406250
5923,-66.406250
5924,-66.406250
5925,-66.406250
5926,-66.406250
5927,-66.406250
5928,-66.406250
5929,-64.453125
5930,-64.453125
5931,-64.453125
5932,-64.453125
5933,-64.453125
5934,-62.500000
5935,-62.500000
5936,-62.500000
5937,-62.500000
5938,-60.546875
5939,-60.546875
5940,-60.546875
5941,-60.546875
5942,-58.593750
5943,-58.593750
5944,-58.593750
5945,-58.593750
5946,-56.640625
5947,-56.640625
5948,-56.640625
5949,-54.687500
5950,-54.687500
5951,-54.687500
5952,-54.687500
5953,-52.734375
5954,-52.734375
5955,-52.734375
5956,-50.781250
5957,-50.781250
5958,-50.781250
5959,-48.828125
5960,-48.828125
5961,-48.828125
5962,-46.875000
5963,-46.875000
5964,-46.875000
5965,-44.921875
5966,-44.921875
5967,-42.968750
5968,-42.968750
5969,-42.968750
5970,-41.015625
5971,-41.015625
5972,-41.015625
5973,-39.062500
5974,-39.062500
5975,-39.062500
5976,-37.109375
5977,-37.109375
5978,-35.156250
5979,-35.156250
5980,-35.156250
5981,-33.203125
5982,-33.203125
5983,-31.250000
5984,-31.250000
5985,-29.296875
5986,-29.296875
5987,-27.343750
5988,-27.343750
5989,-27.343750
5990,-25.390625
5991,-25.390625
5992,-23.437500
5993,-23.437500
5994,-23.437500
5995,-21.484375
5996,-21.484375
5997,-19.531250
5998,-17.578125
5999,-17.578125
6000,-15.625000
6001,-15.625000
6002,-15.625000
6003,-13.671875
6004,-13.671875
6005,-13.671875
6006,-11.718750
6007,-9.765625
6008,-9.765625
6009,-9.765625
6010,-7.812500
6011,-7.812500
6012,-5.859375
6013,-3.906250
6014,-3.906250
6015,-3.906250
6016,-1.953125
6017,-1.953125
6018,0.000000
6019,0.000000
6020,0.000000
6021,1.953125
6022,1.953125
6023,3.906250
6024,5.859375
6025,5.859375
6026,5.859375
6027,7.812500
6028,7.812500
6029,9.765625
6030,9.765625
6031,11.718750
6032,11.718750
6033,13.671875
6034,13.671875
6035,15.625000
6036,15.625000
6037,17.578125
6038,17.578125
6039,19.531250
6040,19.531250
6041,21.484375
6042,21.484375
6043,21.484375
6044,23.437500
6045,23.437500
6046,25.390625
6047,25.390625
6048,27.343750
6049,27.343750
6050,29.296875
6051,29.296875
6052,29.296875
6053,31.250000
6054,31.250000
6055,33.203125
6056,33.203125
6057,35.156250
6058,35.156250
6059,35.156250
6060,37.109375
6061,37.109375
6062,37.109375
6063,39.062500
6064,41.015625
6065,41.015625
6066,41.015625
6067,42.968750
6068,42.968750
6069,42.968750
6070,44.921875
6071,44.921875
6072,46.875000
6073,46.875000
6074,46.875000
6075,48.828125
6076,48.828125
6077,50.781250
6078,50.781250
6079,46.875000
6080,52.734375
6081,52.734375
6082,52.734375
6083,52.734375
6084,54.687500
6085,54.687500
6086,56.640625
6087,56.640625
6088,58.593750
6089,58.593750
6090,58.593750
6091,58.593750
6092,58.593750
6093,60.546875
6094,60.546875
6095,60.546875
6096,62.500000
6097,62.500000
6098,62.500000
6099,62.500000
6100,64.453125
6101,64.453125
6102,64.453125
6103,64.453125
6104,66.406250
6105,66.406250
6106,66.406250
6107,66.406250
6108,68.359375
6109,68.359375
6110,68.359375
6111,68.359375
6112,68.359375
6113,70.312500
6114,70.312500
6115,70.312500
6116,70.312500
6117,70.312500
6118,72.265625
6119,72.265625
6120,72.265625
6121,72.265625
6122,72.265625
6123,74.218750
6124,74.218750
6125,74.218750
6126,74.218750
6127,74.218750
6128,74.218750
6129,74.218750
6130,76.171875
6131,72.265625
6132,74.218750
6133,74.218750
6134,74.218750
6135,76.171875
6136,76.171875
6137,76.171875
6138,76.171875
6139,76.171875
6140,76.171875
6141,76.171875
6142,76.171875
6143,76.171875
6144,76.171875
6145,76.171875
6146,78.125000
6147,78.125000
6148,78.125000
6149,78.125000
6150,78.125000
6151,76.171875
6152,76.171875
6153,78.125000
6154,78.125000
6155,76.171875
6156,76.171875
6157,76.171875
6158,76.171875
6159,76.171875
6160,76.171875
6161,76.171875
6162,76.171875
6163,76.171875
6164,76.171875
6165,76.171875
6166,76.171875
6167,76.171875
6168,76.171875
6169,74.218750
6170,76.171875
6171,76.171875
6172,74.218750
6173,74.218750
6174,74.218750
6175,74.218750
6176,74.218750
6177,74.218750
6178,74.218750
6179,74.218750
6180,74.218750
6181,72.265625
6182,72.265625
6183,72.265625
6184,72.265625
6185,72.265625
6186,70.312500
6187,70.312500
6188,70.312500
6189,70.312500
6190,70.312500
6191,68.359375
6192,68.359375
6193,68.359375
6194,68.359375
6195,68.359375
6196,66.406250
6197,66.406250
6198,66.406250
6199,66.406250
6200,64.453125
6201,64.453125
6202,64.453125
6203,62.500000
6204,62.500000
6205,62.500000
6206,62.500000
6207,60.546875
6208,60.546875
6209,60.546875
6210,58.593750
6211,58.593750
6212,58.593750
6213,56.640625
6214,58.593750
6215,56.640625
6216,56.640625
6217,54.687500
6218,54.687500
6219,54.687500
6220,52.734375
6221,52.734375
6222,52.734375
6223,50.781250
6224,50.781250
6225,50.781250
6226,48.828125
6227,48.828125
6228,46.875000
6229,46.875000
6230,46.875000
6231,46.875000
6232,44.921875
6233,44.921875
6234,42.968750
6235,42.968750
6236,41.015625
6237,41.015625
6238,41.015625
6239,39.062500
6240,39.062500
6241,39.062500
6242,37.109375
6243,37.109375
6244,35.156250
6245,33.203125
6246,33.203125
6247,33.203125
6248,33.203125
6249,31.250000
6250,31.250000
6251,29.296875
6252,29.296875
6253,27.343750
6254,27.343750
6255,25.390625
6256,25.390625
6257,25.390625
6258,23.437500
6259,23.437500
6260,21.484375
6261,21.484375
6262,19.531250
6263,19.531250
6264,17.578125
6265,17.578125
6266,15.625000
6267,15.625000
6268,15.625000
6269,13.671875
6270,11.718750
6271,11.718750
6272,9.765625
6273,9.765625
6274,9.765625
6275,7.812500
6276,7.812500
6277,5.859375
6278,5.859375
6279,3.906250
6280,3.906250
6281,1.953125
6282,1.953125
6283,0.000000
6284,0.000000
6285,-1.953125
6286,-1.953125
6287,-3.906250
6288,-3.906250
6289,-5.859375
6290,-5.859375
6291,-5.859375
6292,-7.812500
6293,-9.765625
6294,-9.765625
6295,-9.765625
6296,-11.718750
6297,-11.718750
6298,-13.671875
6299,-13.671875
6300,-15.625000
6301,-15.625000
6302,-17.578125
6303,-17.578125
6304,-19.531250
6305,-19.531250
6306,-21.484375
6307,-21.484375
6308,-21.484375
6309,-23.437500
6310,-23.437500
6311,-25.390625
6312,-25.390625
6313,-27.343750
6314,-27.343750
6315,-27.343750
6316,-29.296875
6317,-31.250000
6318,-31.250000
6319,-31.250000
6320,-31.250000
6321,-33.203125
6322,-33.203125
6323,-35.156250
6324,-35.156250
6325,-37.109375
6326,-37.109375
6327,-39.062500
6328,-39.062500
6329,-39.062500
6330,-41.015625
6331,-41.015625
6332,-41.015625
6333,-42.968750
6334,-42.968750
6335,-42.968750
6336,-44.921875
6337,-44.921875
6338,-46.875000
6339,-46.875000
6340,-46.875000
6341,-48.828125
6342,-48.828125
6343,-48.828125
6344,-50.781250
6345,-50.781250
6346,-50.781250
6347,-52.734375
6348,-52.734375
6349,-52.734375
6350,-52.734375
6351,-54.687500
6352,-54.687500
6353,-54.687500
6354,-56.640625
6355,-56.640625
6356,-56.640625
6357,-58.593750
6358,-58.593750
6359,-58.593750
6360,-58.593750
6361,-60.546875
6362,-60.546875
6363,-60.546875
6364,-60.546875
6365,-60.546875
6366,-62.500000
6367,-62.500000
6368,-62.500000
6369,-64.453125
6370,-64.453125
6371,-62.500000
6372,-64.453125
6373,-64.453125
6374,-64.453125
6375,-64.453125
6376,-66.406250
6377,-66.406250
6378,-66.406250
6379,-66.406250
6380,-66.406250
6381,-68.359375
6382,-70.312500
6383,-66.406250
6384,-68.359375
6385,-68.359375
6386,-66.406250
6387,-68.359375
6388,-68.359375
6389,-70.312500
6390,-70.312500
6391,-68.359375
6392,-68.359375
6393,-70.312500
6394,-70.312500
6395,-68.359375
6396,-70.312500
6397,-70.312500
6398,-70.312500
6399,-70.312500
6400,-72.265625
6401,-70.312500
6402,-72.265625
6403,-70.312500
6404,-70.312500
6405,-70.312500
6406,-70.312500
6407,-70.312500
6408,-70.312500
6409,-70.312500
6410,-70.312500
6411,-70.312500
6412,-70.312500
6413,-70.312500
6414,-70.312500
6415,-70.312500
6416,-70.312500
6417,-70.312500
6418,-70.312500
6419,-68.359375
6420,-68.359375
6421,-68.359375
6422,-68.359375
6423,-68.359375
6424,-68.359375
6425,-68.359375
6426,-66.406250
6427,-66.406250
6428,-66.406250
6429,-66.406250
6430,-68.359375
6431,-66.406250
6432,-64.453125
6433,-64.453125
6434,-64.453125
6435,-64.453125
6436,-64.453125
6437,-64.453125
6438,-62.500000
6439,-62.500000
6440,-62.500000
6441,-62.500000
6442,-62.500000
6443,-62.500000
6444,-60.546875
6445,-60.546875
6446,-58.593750
6447,-58.593750
6448,-56.640625
6449,-56.640625
6450,-60.546875
6451,-56.640625
6452,-56.640625
6453,-56.640625
6454,-54.687500
6455,-54.687500
6456,-54.687500
6457,-52.734375
6458,-52.734375
6459,-56.640625
6460,-50.781250
6461,-50.781250
6462,-50.781250
6463,-48.828125
6464,-48.828125
6465,-48.828125
6466,-48.828125
6467,-46.875000
6468,-46.875000
6469,-44.921875
6470,-44.921875
6471,-42.968750
6472,-42.968750
6473,-42.968750
6474,-42.968750
6475,-41.015625
6476,-41.015625
6477,-41.015625
6478,-39.062500
6479,-39.062500
6480,-37.109375
6481,-37.109375
6482,-39.062500
6483,-35.156250
6484,-35.156250
6485,-33.203125
6486,-33.203125
6487,-31.250000
6488,-31.250000
6489,-29.296875
6490,-29.296875
6491,-29.296875
6492,-27.343750
6493,-27.343750
6494,-25.390625
6495,-25.390625
6496,-25.390625
6497,-23.437500
6498,-21.484375
6499,-19.531250
6500,-21.484375
6501,-19.531250
6502,-19.531250
6503,-17.578125
6504,-17.578125
6505,-15.625000
6506,-15.625000
6507,-15.625000
6508,-13.671875
6509,-13.671875
6510,-11.718750
6511,-9.765625
6512,-9.765625
6513,-7.812500
6514,-7.812500
6515,-7.812500
6516,-5.859375
6517,-5.859375
6518,-3.906250
6519,-3.906250
6520,-1.953125
6521,-1.953125
6522,-1.953125
6523,0.000000
6524,1.953125
6525,1.953125
6526,3.906250
6527,3.906250
6528,5.859375
6529,5.859375
6530,7.812500
6531,5.859375
6532,7.812500
6533,9.765625
6534,13.671875
6535,9.765625
6536,11.718750
6537,13.671875
6538,13.671875
6539,15.625000
6540,15.625000
6541,17.578125
6542,17.578125
6543,19.531250
6544,19.531250
6545,19.531250
6546,21.484375
6547,21.484375
6548,23.437500
6549,23.437500
6550,25.390625
6551,25.390625
6552,27.343750
6553,27.343750
6554,27.343750
6555,29.296875
6556,29.296875
6557,29.296875
6558,31.250000
6559,31.250000
6560,33.203125
6561,35.156250
6562,35.156250
6563,35.156250
6564,37.109375
6565,37.109375
6566,39.062500
6567,39.062500
6568,39.062500
6569,41.015625
6570,41.015625
6571,41.015625
6572,42.968750
6573,42.968750
6574,44.921875
6575,44.921875
6576,46.875000
6577,46.875000
6578,46.875000
6579,48.828125
6580,48.828125
6581,48.828125
6582,50.781250
6583,50.781250
6584,50.781250
6585,52.734375
6586,52.734375
6587,52.734375
6588,54.687500
6589,54.687500
6590,54.687500
6591,56.640625
6592,56.640625
6593,56.640625
6594,58.593750
6595,58.593750
6596,58.593750
6597,60.546875
6598,60.546875
6599,60.546875
6600,62.500000
6601,62.500000
6602,62.500000
6603,62.500000
6604,64.453125
6605,66.406250
6606,66.406250
6607,64.453125
6608,66.406250
6609,66.406250
6610,66.406250
6611,68.359375
6612,68.359375
6613,68.359375
6614,68.359375
6615,70.312500
6616,70.312500
6617,70.312500
6618,70.312500
6619,70.312500
6620,70.312500
6621,72.265625
6622,72.265625
6623,72.265625
6624,72.265625
6625,72.265625
6626,74.218750
6627,74.218750
6628,74.218750
6629,74.218750
6630,74.218750
6631,74.218750
6632,74.218750
6633,76.171875
6634,76.171875
6635,76.171875
6636,76.171875
6637,76.171875
6638,76.171875
6639,76.171875
6640,76.171875
6641,76.171875
6642,76.171875
6643,78.125000
6644,78.125000
6645,78.125000
6646,78.125000
6647,78.125000
6648,78.125000
6649,78.125000
6650,78.125000
6651,78.125000
6652,78.125000
6653,78.125000
6654,78.125000
6655,78.125000
6656,78.125000
6657,78.125000
6658,78.125000
6659,78.125000
6660,78.125000
6661,78.125000
6662,78.125000
6663,78.125000
6664,78.125000
6665,78.125000
6666,78.125000
6667,78.125000
6668,78.125000
6669,78.125000
6670,76.171875
6671,78.125000
6672,76.171875
6673,76.171875
6674,76.171875
6675,76.171875
6676,76.171875
6677,76.171875
6678,76.171875
6679,76.171875
6680,76.171875
6681,74.218750
6682,74.218750
6683,74.218750
6684,74.218750
6685,74.218750
6686,74.218750
6687,74.218750
6688,72.265625
6689,72.265625
6690,72.265625
6691,72.265625
6692,72.265625
6693,72.265625
6694,70.312500
6695,70.312500
6696,70.312500
6697,70.312500
6698,70.312500
6699,70.312500
6700,68.359375
6701,68.359375
6702,68.359375
6703,68.359375
6704,66.406250
6705,66.406250
6706,66.406250
6707,64.453125
6708,64.453125
6709,64.453125
6710,64.453125
6711,62.500000
6712,62.500000
6713,62.500000
6714,60.546875
6715,60.546875
6716,58.593750
6717,58.593750
6718,58.593750
6719,58.593750
6720,58.593750
6721,56.640625
6722,56.640625
6723,56.640625
6724,54.687500
6725,54.687500
6726,54.687500
6727,52.734375
6728,52.734375
6729,50.781250
6730,50.781250
6731,50.781250
6732,48.828125
6733,48.828125
6734,48.828125
6735,46.875000
6736,46.875000
6737,46.875000
6738,44.921875
6739,44.921875
6740,42.968750
6741,42.968750
6742,41.015625
6743,41.015625
6744,41.015625
6745,41.015625
6746,39.062500
6747,37.109375
6748,37.109375
6749,35.156250
6750,35.156250
6751,35.156250
6752,33.203125
6753,33.203125
6754,33.203125
6755,31.250000
6756,31.250000
6757,29.296875
6758,29.296875
6759,29.296875
6760,27.343750
6761,25.390625
6762,25.390625
6763,23.437500
6764,23.437500
6765,23.437500
6766,21.484375
6767,21.484375
6768,19.531250
6769,19.531250
6770,17.578125
6771,17.578125
6772,15.625000
6773,15.625000
6774,15.625000
6775,13.671875
6776,11.718750
6777,11.718750
6778,9.765625
6779,9.765625
6780,7.812500
6781,7.812500
6782,7.812500
6783,5.859375
6784,5.859375
6785,3.906250
6786,3.906250
6787,1.953125
6788,1.953125
6789,0.000000
6790,0.000000
6791,-1.953125
6792,-1.953125
6793,-3.906250
6794,-3.906250
6795,-5.859375
6796,-5.859375
6797,-7.812500
6798,-7.812500
6799,-9.765625
6800,-9.765625
6801,-9.765625
6802,-11.718750
6803,-11.718750
6804,-13.671875
6805,-13.671875
6806,-15.625000
6807,-15.625000
6808,-17.578125
6809,-17.578125
6810,-19.531250
6811,-19.531250
6812,-19.531250
6813,-21.484375
6814,-21.484375
6815,-23.437500
6816,-23.437500
6817,-25.390625
6818,-25.390625
6819,-27.343750
6820,-27.343750
6821,-29.296875
6822,-29.296875
6823,-29.296875
6824,-31.250000
6825,-31.250000
6826,-33.203125
6827,-33.203125
6828,-35.156250
6829,-35.156250
6830,-35.156250
6831,-37.109375
6832,-37.109375
6833,-37.109375
6834,-39.062500
6835,-41.015625
6836,-41.015625
6837,-41.015625
6838,-42.968750
6839,-42.968750
6840,-42.968750
6841,-44.921875
6842,-44.921875
6843,-46.875000
6844,-46.875000
6845,-46.875000
6846,-48.828125
6847,-48.828125
6848,-48.828125
6849,-50.781250
6850,-50.781250
6851,-50.781250
6852,-50.781250
6853,-50.781250
6854,-52.734375
6855,-52.734375
6856,-54.687500
6857,-54.687500
6858,-54.687500
6859,-56.640625
6860,-56.640625
6861,-56.640625
6862,-56.640625
6863,-58.593750
6864,-58.593750
6865,-58.593750
6866,-60.546875
6867,-60.546875
6868,-60.546875
6869,-60.546875
6870,-60.546875
6871,-62.500000
6872,-62.500000
6873,-62.500000
6874,-64.453125
6875,-62.500000
6876,-64.453125
6877,-64.453125
6878,-64.453125
6879,-64.453125
6880,-64.453125
6881,-66.406250
6882,-66.406250
6883,-66.406250
6884,-66.406250
6885,-68.359375
6886,-68.359375
6887,-68.359375
6888,-68.359375
6889,-68.359375
6890,-68.359375
6891,-68.359375
6892,-68.359375
6893,-68.359375
6894,-68.359375
6895,-70.312500
6896,-70.312500
6897,-70.312500
6898,-70.312500
6899,-70.312500
6900,-70.312500
6901,-70.312500
6902,-70.312500
6903,-70.312500
6904,-70.312500
6905,-70.312500
6906,-70.312500
6907,-70.312500
6908,-70.312500
6909,-72.265625
6910,-70.312500
6911,-70.312500
6912,-70.312500
6913,-70.312500
6914,-70.312500
6915,-70.312500
6916,-70.312500
6917,-70.312500
6918,-70.312500
6919,-70.312500
6920,-70.312500
6921,-70.312500
6922,-70.312500
6923,-68.359375
6924,-70.312500
6925,-68.359375
6926,-68.359375
6927,-68.359375
6928,-68.359375
6929,-68.359375
6930,-68.359375
6931,-68.359375
6932,-66.406250
6933,-68.359375
6934,-68.359375
6935,-66.406250
6936,-66.406250
6937,-66.406250
6938,-66.406250
6939,-66.406250
6940,-64.453125
6941,-64.453125
6942,-64.453125
6943,-64.453125
6944,-62.500000
6945,-64.453125
6946,-62.500000
6947,-62.500000
6948,-62.500000
6949,-62.500000
6950,-60.546875
6951,-60.546875
6952,-60.546875
6953,-58.593750
6954,-58.593750
6955,-58.593750
6956,-58.593750
6957,-56.640625
6958,-56.640625
6959,-56.640625
6960,-56.640625
6961,-54.687500
6962,-54.687500
6963,-54.687500
6964,-52.734375
6965,-52.734375
6966,-52.734375
6967,-52.734375
6968,-50.781250
6969,-50.781250
6970,-48.828125
6971,-48.828125
6972,-48.828125
6973,-46.875000
6974,-46.875000
6975,-46.875000
6976,-44.921875
6977,-44.921875
6978,-42.968750
6979,-42.968750
6980,-42.968750
6981,-41.015625
6982,-41.015625
6983,-39.062500
6984,-39.062500
6985,-39.062500
6986,-39.062500
6987,-37.109375
6988,-35.156250
6989,-35.156250
6990,-35.156250
6991,-35.156250
6992,-33.203125
6993,-33.203125
6994,-31.250000
6995,-31.250000
6996,-29.296875
6997,-29.296875
6998,-29.296875
6999,-27.343750
7000,-27.343750
7001,-25.390625
7002,-25.390625
7003,-23.437500
7004,-23.437500
7005,-21.484375
7006,-21.484375
7007,-19.531250
7008,-19.531250
7009,-17.578125
7010,-17.578125
7011,-15.625000
7012,-15.625000
7013,-15.625000
7014,-13.671875
7015,-13.671875
7016,-11.718750
7017,-11.718750
7018,-9.765625
7019,-7.812500
7020,-7.812500
7021,-7.812500
7022,-5.859375
7023,-5.859375
7024,-3.906250
7025,-3.906250
7026,-1.953125
7027,-1.953125
7028,0.000000
7029,0.000000
7030,0.000000
7031,1.953125
7032,3.906250
7033,3.906250
7034,3.906250
7035,5.859375
7036,5.859375
7037,7.812500
7038,7.812500
7039,9.765625
7040,9.765625
7041,11.718750
7042,11.718750
7043,13.671875
7044,13.671875
7045,13.671875
7046,15.625000
7047,17.578125
7048,17.578125
7049,17.578125
7050,19.531250
7051,19.531250
7052,21.484375
7053,21.484375
7054,23.437500
7055,23.437500
7056,25.390625
7057,25.390625
7058,27.343750
7059,27.343750
7060,27.343750
7061,29.296875
7062,29.296875
7063,31.250000
7064,31.250000
7065,33.203125
7066,33.203125
7067,33.203125
7068,35.156250
7069,35.156250
7070,37.109375
7071,37.109375
7072,37.109375
7073,39.062500
7074,39.062500
7075,39.062500
7076,41.015625
7077,42.968750
7078,42.968750
7079,42.968750
7080,44.921875
7081,44.921875
7082,44.921875
7083,46.875000
7084,46.875000
7085,46.875000
7086,48.828125
7087,48.828125
7088,50.781250
7089,50.781250
7090,50.781250
7091,50.781250
7092,52.734375
7093,52.734375
7094,54.687500
7095,54.687500
7096,56.640625
7097,56.640625
7098,56.640625
7099,56.640625
7100,58.593750
7101,58.593750
7102,58.593750
7103,60.546875
7104,60.546875
7105,60.546875
7106,60.546875
7107,62.500000
7108,62.500000
7109,62.500000
7110,64.453125
7111,64.453125
7112,64.453125
7113,64.453125
7114,66.406250
7115,66.406250
7116,66.406250
7117,66.406250
7118,68.359375
7119,68.359375
7120,68.359375
7121,68.359375
7122,68.359375
7123,70.312500
7124,70.312500
7125,70.312500
7126,70.312500
7127,70.312500
7128,70.312500
7129,72.265625
7130,72.265625
7131,72.265625
7132,72.265625
7133,72.265625
7134,74.218750
7135,74.218750
7136,74.218750
7137,74.218750
7138,74.218750
7139,74.218750
7140,74.218750
7141,74.218750
7142,76.171875
7143,76.171875
7144,76.171875
7145,76.171875
7146,76.171875
7147,76.171875
7148,76.171875
7149,76.171875
7150,76.171875
7151,76.171875
7152,76.171875
7153,78.125000
7154,76.171875
7155,78.125000
7156,76.171875
7157,76.171875
7158,76.171875
7159,78.125000
7160,78.125000
7161,78.125000
7162,78.125000
7163,76.171875
7164,78.125000
7165,76.171875
7166,78.125000
7167,76.171875
7168,76.171875
7169,76.171875
7170,76.171875
7171,76.171875
7172,76.171875
7173,76.171875
7174,76.171875
7175,76.171875
7176,76.171875
7177,76.171875
7178,76.171875
7179,76.171875
7180,76.171875
7181,74.218750
7182,74.218750
7183,74.218750
7184,74.218750
7185,74.218750
7186,74.218750
7187,74.218750
7188,74.218750
7189,74.218750
7190,72.265625
7191,72.265625
7192,72.265625
7193,72.265625
7194,72.265625
7195,72.265625
7196,70.312500
7197,70.312500
7198,70.312500
7199,70.312500
7200,68.359375
7201,70.312500
7202,68.359375
7203,68.359375
7204,68.359375
7205,68.359375
7206,66.406250
7207,66.406250
7208,66.406250
7209,66.406250
7210,64.453125
7211,64.453125
7212,64.453125
7213,62.500000
7214,62.500000
7215,62.500000
7216,62.500000
7217,60.546875
7218,60.546875
7219,60.546875
7220,60.546875
7221,58.593750
7222,58.593750
7223,58.593750
7224,56.640625
7225,56.640625
7226,56.640625
7227,56.640625
7228,54.687500
7229,54.687500
7230,54.687500
7231,52.734375
7232,52.734375
7233,50.781250
7234,50.781250
7235,50.781250
7236,50.781250
7237,48.828125
7238,48.828125
7239,46.875000
7240,46.875000
7241,44.921875
7242,44.921875
7243,44.921875
7244,44.921875
7245,42.968750
7246,42.968750
7247,41.015625
7248,41.015625
7249,39.062500
7250,39.062500
7251,39.062500
7252,39.062500
7253,37.109375
7254,35.156250
7255,33.203125
7256,33.203125
7257,33.203125
7258,33.203125
7259,31.250000
7260,31.250000
7261,29.296875
7262,29.296875
7263,27.343750
7264,27.343750
7265,27.343750
7266,25.390625
7267,25.390625
7268,25.390625
7269,23.437500
7270,23.437500
7271,21.484375
7272,19.531250
7273,19.531250
7274,17.578125
7275,17.578125
7276,17.578125
7277,15.625000
7278,15.625000
7279,13.671875
7280,13.671875
7281,11.718750
7282,11.718750
7283,9.765625
7284,9.765625
7285,9.765625
7286,7.812500
7287,5.859375
7288,5.859375
7289,3.906250
7290,3.906250
7291,1.953125
7292,1.953125
7293,0.000000
7294,0.000000
7295,0.000000
7296,-1.953125
7297,-1.953125
7298,-3.906250
7299,-3.906250
7300,-5.859375
7301,-5.859375
7302,-7.812500
7303,-9.765625
7304,-9.765625
7305,-9.765625
7306,-9.765625
7307,-11.718750
7308,-11.718750
7309,-13.671875
7310,-13.671875
7311,-15.625000
7312,-15.625000
7313,-17.578125
7314,-17.578125
7315,-19.531250
7316,-19.531250
7317,-21.484375
7318,-21.484375
7319,-21.484375
7320,-23.437500
7321,-25.390625
7322,-25.390625
7323,-25.390625
7324,-27.343750
7325,-27.343750
7326,-29.296875
7327,-29.296875
7328,-31.250000
7329,-31.250000
7330,-31.250000
7331,-33.203125
7332,-33.203125
7333,-35.156250
7334,-35.156250
7335,-35.156250
7336,-37.109375
7337,-37.109375
7338,-39.062500
7339,-39.062500
7340,-41.015625
7341,-41.015625
7342,-41.015625
7343,-42.968750
7344,-42.968750
7345,-42.968750
7346,-44.921875
7347,-44.921875
7348,-46.875000
7349,-46.875000
7350,-46.875000
7351,-46.875000
7352,-48.828125
7353,-48.828125
7354,-48.828125
7355,-50.781250
7356,-50.781250
7357,-50.781250
7358,-52.734375
7359,-52.734375
7360,-54.687500
7361,-54.687500
7362,-54.687500
7363,-54.687500
7364,-54.687500
7365,-56.640625
7366,-56.640625
7367,-56.640625
7368,-58.593750
7369,-58.593750
7370,-58.593750
7371,-60.546875
7372,-60.546875
7373,-60.546875
7374,-60.546875
7375,-60.546875
7376,-62.500000
7377,-62.500000
7378,-62.500000
7379,-62.500000
7380,-64.453125
7381,-64.453125
7382,-64.453125
7383,-64.453125
7384,-64.453125
7385,-64.453125
7386,-66.406250
7387,-66.406250
7388,-66.406250
7389,-66.406250
7390,-66.406250
7391,-66.406250
7392,-68.359375
7393,-68.359375
7394,-68.359375
7395,-68.359375
7396,-68.359375
7397,-68.359375
7398,-68.359375
7399,-68.359375
7400,-70.312500
7401,-68.359375
7402,-68.359375
7403,-70.312500
7404,-70.312500
7405,-70.312500
7406,-70.312500
7407,-70.312500
7408,-70.312500
7409,-70.312500
7410,-70.312500
7411,-70.312500
7412,-70.312500
7413,-70.312500
7414,-70.312500
7415,-70.312500
7416,-70.312500
7417,-70.312500
7418,-70.312500
7419,-70.312500
7420,-70.312500
7421,-68.359375
7422,-70.312500
7423,-70.312500
7424,-70.312500
7425,-70.312500
7426,-70.312500
7427,-68.359375
7428,-68.359375
7429,-68.359375
7430,-68.359375
7431,-68.359375
7432,-68.359375
7433,-68.359375
7434,-68.359375
7435,-68.359375
7436,-68.359375
7437,-68.359375
7438,-66.406250
7439,-66.406250
7440,-66.406250
7441,-66.406250
7442,-66.406250
7443,-64.453125
7444,-64.453125
7445,-64.453125
7446,-64.453125
7447,-64.453125
7448,-64.453125
7449,-62.500000
7450,-62.500000
7451,-62.500000
7452,-62.500000
7453,-60.546875
7454,-60.546875
7455,-60.546875
7456,-60.546875
7457,-60.546875
7458,-58.593750
7459,-58.593750
7460,-58.593750
7461,-58.593750
7462,-56.640625
7463,-56.640625
7464,-54.687500
7465,-54.687500
7466,-54.687500
7467,-54.687500
7468,-52.734375
7469,-52.734375
7470,-52.734375
7471,-50.781250
7472,-50.781250
7473,-50.781250
7474,-48.828125
7475,-48.828125
7476,-48.828125
7477,-48.828125
7478,-46.875000
7479,-44.921875
7480,-44.921875
7481,-44.921875
7482,-44.921875
7483,-42.968750
7484,-42.968750
7485,-41.015625
7486,-41.015625
7487,-41.015625
7488,-39.062500
7489,-39.062500
7490,-37.109375
7491,-37.109375
7492,-37.109375
7493,-35.156250
7494,-35.156250
7495,-33.203125
7496,-33.203125
7497,-31.250000
7498,-31.250000
7499,-31.250000
7500,-29.296875
7501,-29.296875
7502,-27.343750
7503,-27.343750
7504,-25.390625
7505,-25.390625
7506,-25.390625
7507,-23.437500
7508,-23.437500
7509,-21.484375
7510,-21.484375
7511,-19.531250
7512,-19.531250
7513,-17.578125
7514,-17.578125
7515,-15.625000
7516,-15.625000
7517,-13.671875
7518,-13.671875
7519,-13.671875
7520,-11.718750
7521,-11.718750
7522,-9.765625
7523,-9.765625
7524,-7.812500
7525,-7.812500
7526,-5.859375
7527,-5.859375
7528,-5.859375
7529,-3.906250
7530,-1.953125
7531,-1.953125
7532,-1.953125
7533,0.000000
7534,0.000000
7535,1.953125
7536,1.953125
7537,3.906250
7538,3.906250
7539,5.859375
7540,5.859375
7541,7.812500
7542,7.812500
7543,9.765625
7544,9.765625
7545,11.718750
7546,11.718750
7547,13.671875
7548,13.671875
7549,13.671875
7550,15.625000
7551,15.625000
7552,17.578125
7553,17.578125
7554,19.531250
7555,19.531250
7556,21.484375
7557,21.484375
7558,21.484375
7559,23.437500
7560,23.437500
7561,25.390625
7562,25.390625
7563,27.343750
7564,27.343750
7565,29.296875
7566,29.296875
7567,31.250000
7568,31.250000
7569,31.250000
7570,33.203125
7571,33.203125
7572,35.156250
7573,35.156250
7574,37.109375
7575,37.109375
7576,39.062500
7577,39.062500
7578,39.062500
7579,41.015625
7580,41.015625
7581,41.015625
7582,42.968750
7583,42.968750
7584,44.921875
7585,44.921875
7586,44.921875
7587,46.875000
7588,46.875000
7589,48.828125
7590,48.828125
7591,48.828125
7592,50.781250
7593,50.781250
7594,52.734375
7595,50.781250
7596,52.734375
7597,52.734375
7598,54.687500
7599,54.687500
7600,56.640625
7601,56.640625
7602,58.593750
7603,56.640625
7604,58.593750
7605,58.593750
7606,58.593750
7607,60.546875
7608,60.546875
7609,60.546875
7610,62.500000
7611,62.500000
7612,62.500000
7613,62.500000
7614,64.453125
7615,64.453125
7616,64.453125
7617,64.453125
7618,66.406250
7619,66.406250
7620,66.406250
7621,68.359375
7622,68.359375
7623,68.359375
7624,68.359375
7625,70.312500
7626,70.312500
7627,70.312500
7628,70.312500
7629,70.312500
7630,72.265625
7631,72.265625
7632,72.265625
7633,72.265625
7634,72.265625
7635,72.265625
7636,74.218750
7637,74.218750
7638,74.218750
7639,74.218750
7640,74.218750
7641,74.218750
7642,74.218750
7643,74.218750
7644,76.171875
7645,76.171875
7646,76.171875
7647,76.171875
7648,76.171875
7649,76.171875
7650,76.171875
7651,76.171875
7652,78.125000
7653,76.171875
7654,78.125000
7655,78.125000
7656,78.125000
7657,78.125000
7658,78.125000
7659,78.125000
7660,78.125000
7661,78.125000
7662,78.125000
7663,78.125000
7664,78.125000
7665,78.125000
7666,78.125000
7667,78.125000
7668,78.125000
7669,78.125000
7670,78.125000
7671,78.125000
7672,78.125000
7673,78.125000
7674,78.125000
7675,78.125000
7676,78.125000
7677,78.125000
7678,78.125000
7679,76.171875
7680,76.171875
7681,76.171875
7682,76.171875
7683,76.171875
7684,76.171875
7685,76.171875
7686,76.171875
7687,76.171875
7688,76.171875
7689,76.171875
7690,76.171875
7691,74.218750
7692,74.218750
7693,74.218750
7694,74.218750
7695,74.218750
7696,74.218750
7697,74.218750
7698,72.265625
7699,72.265625
7700,72.265625
7701,72.265625
7702,70.312500
7703,72.265625
7704,70.312500
7705,70.312500
7706,70.312500
7707,68.359375
7708,70.312500
7709,68.359375
7710,68.359375
7711,68.359375
7712,66.406250
7713,66.406250
7714,66.406250
7715,66.406250
7716,64.453125
7717,64.453125
7718,64.453125
7719,64.453125
7720,64.453125
7721,62.500000
7722,62.500000
7723,60.546875
7724,60.546875
7725,60.546875
7726,60.546875
7727,58.593750
7728,58.593750
7729,58.593750
7730,56.640625
7731,56.640625
7732,56.640625
7733,56.640625
7734,54.687500
7735,54.687500
7736,52.734375
7737,52.734375
7738,52.734375
7739,50.781250
7740,50.781250
7741,50.781250
7742,48.828125
7743,48.828125
7744,48.828125
7745,46.875000
7746,46.875000
7747,44.921875
7748,44.921875
7749,44.921875
7750,42.968750
7751,42.968750
7752,41.015625
7753,41.015625
7754,41.015625
7755,39.062500
7756,39.062500
7757,37.109375
7758,37.109375
7759,37.109375
7760,35.156250
7761,35.156250
7762,33.203125
7763,33.203125
7764,33.203125
7765,31.250000
7766,29.296875
7767,29.296875
7768,29.296875
7769,27.343750
7770,27.343750
7771,27.343750
7772,25.390625
7773,23.437500
7774,23.437500
7775,23.437500
7776,21.484375
7777,21.484375
7778,19.531250
7779,19.531250
7780,17.578125
7781,17.578125
7782,15.625000
7783,15.625000
7784,15.625000
7785,13.671875
7786,13.671875
7787,11.718750
7788,9.765625
7789,9.765625
7790,9.765625
7791,7.812500
7792,7.812500
7793,5.859375
7794,5.859375
7795,3.906250
7796,3.906250
7797,1.953125
7798,1.953125
7799,0.000000
7800,0.000000
7801,-1.953125
7802,-1.953125
7803,-1.953125
7804,-3.906250
7805,-5.859375
7806,-5.859375
7807,-5.859375
7808,-7.812500
7809,-7.812500
7810,-9.765625
7811,-9.765625
7812,-11.718750
7813,-13.671875
7814,-13.671875
7815,-13.671875
7816,-15.625000
7817,-15.625000
7818,-17.578125
7819,-17.578125
7820,-19.531250
7821,-19.531250
7822,-21.484375
7823,-21.484375
7824,-21.484375
7825,-23.437500
7826,-23.437500
7827,-25.390625
7828,-25.390625
7829,-27.343750
7830,-27.343750
7831,-29.296875
7832,-29.296875
7833,-29.296875
7834,-31.250000
7835,-31.250000
7836,-33.203125
7837,-33.203125
7838,-35.156250
7839,-35.156250
7840,-35.156250
7841,-37.109375
7842,-37.109375
7843,-37.109375
7844,-39.062500
7845,-39.062500
7846,-41.015625
7847,-41.015625
7848,-42.968750
7849,-42.968750
7850,-42.968750
7851,-44.921875
7852,-44.921875
7853,-44.921875
7854,-46.875000
7855,-46.875000
7856,-48.828125
7857,-48.828125
7858,-48.828125
7859,-50.781250
7860,-50.781250
7861,-50.781250
7862,-52.734375
7863,-54.687500
7864,-52.734375
7865,-54.687500
7866,-54.687500
7867,-54.687500
7868,-54.687500
7869,-56.640625
7870,-56.640625
7871,-56.640625
7872,-56.640625
7873,-58.593750
7874,-58.593750
7875,-58.593750
7876,-58.593750
7877,-60.546875
7878,-60.546875
7879,-60.546875
7880,-60.546875
7881,-62.500000
7882,-62.500000
7883,-62.500000
7884,-62.500000
7885,-64.453125
7886,-64.453125
7887,-64.453125
7888,-64.453125
7889,-64.453125
7890,-64.453125
7891,-66.406250
7892,-66.406250
7893,-66.406250
7894,-66.406250
7895,-68.359375
7896,-68.359375
7897,-68.359375
7898,-68.359375
7899,-68.359375
7900,-68.359375
7901,-68.359375
7902,-70.312500
7903,-70.312500
7904,-70.312500
7905,-70.312500
7906,-70.312500
7907,-70.312500
7908,-70.312500
7909,-70.312500
7910,-70.312500
7911,-70.312500
7912,-70.312500
7913,-70.312500
7914,-70.312500
7915,-70.312500
7916,-70.312500
7917,-70.312500
7918,-70.312500
7919,-70.312500
7920,-70.312500
7921,-70.312500
7922,-70.312500
7923,-70.312500
7924,-70.312500
7925,-70.312500
7926,-70.312500
7927,-70.312500
7928,-70.312500
7929,-70.312500
7930,-72.265625
7931,-70.312500
7932,-70.312500
7933,-70.312500
7934,-68.359375
7935,-70.312500
7936,-68.359375
7937,-68.359375
7938,-68.359375
7939,-68.359375
7940,-68.359375
7941,-68.359375
7942,-68.359375
7943,-66.406250
7944,-66.406250
7945,-66.406250
7946,-66.406250
7947,-66.406250
7948,-66.406250
7949,-64.453125
7950,-66.406250
7951,-64.453125
7952,-64.453125
7953,-64.453125
7954,-64.453125
7955,-62.500000
7956,-62.500000
7957,-62.500000
7958,-62.500000
7959,-62.500000
7960,-60.546875
7961,-60.546875
7962,-60.546875
7963,-58.593750
7964,-58.593750
7965,-58.593750
7966,-58.593750
7967,-58.593750
7968,-56.640625
7969,-56.640625
7970,-54.687500
7971,-54.687500
7972,-54.687500
7973,-52.734375
7974,-54.687500
7975,-54.687500
7976,-52.734375
7977,-52.734375
7978,-50.781250
7979,-50.781250
7980,-48.828125
7981,-48.828125
7982,-48.828125
7983,-46.875000
7984,-46.875000
7985,-46.875000
7986,-44.921875
7987,-44.921875
7988,-44.921875
7989,-42.968750
7990,-42.968750
7991,-41.015625
7992,-41.015625
7993,-41.015625
7994,-39.062500
7995,-39.062500
7996,-39.062500
7997,-37.109375
7998,-37.109375
7999,-35.156250
8000,-35.156250
8001,-33.203125
8002,-33.203125
8003,-33.203125
8004,-31.250000
8005,-31.250000
8006,-31.250000
8007,-29.296875
8008,-27.343750
8009,-27.343750
8010,-27.343750
8011,-25.390625
8012,-25.390625
8013,-23.437500
8014,-23.437500
8015,-21.484375
8016,-21.484375
8017,-19.531250
8018,-19.531250
8019,-17.578125
8020,-17.578125
8021,-17.578125
8022,-15.625000
8023,-15.625000
8024,-13.671875
8025,-13.671875
8026,-11.718750
8027,-11.718750
8028,-9.765625
8029,-9.765625
8030,-7.812500
8031,-5.859375
8032,-5.859375
8033,-5.859375
8034,-3.906250
8035,-3.906250
8036,-3.906250
8037,-1.953125
8038,0.000000
8039,0.000000
8040,0.000000
8041,1.953125
8042,1.953125
8043,1.953125
8044,5.859375
8045,5.859375
8046,5.859375
8047,7.812500
8048,7.812500
8049,9.765625
8050,9.765625
8051,11.718750
8052,11.718750
8053,13.671875
8054,13.671875
8055,13.671875
8056,15.625000
8057,15.625000
8058,17.578125
8059,19.531250
8060,19.531250
8061,19.531250
8062,21.484375
8063,21.484375
8064,23.437500
8065,23.437500
8066,25.390625
8067,25.390625
8068,25.390625
8069,27.343750
8070,27.343750
8071,29.296875
8072,29.296875
8073,31.250000
8074,31.250000
8075,31.250000
8076,33.203125
8077,33.203125
8078,35.156250
8079,35.156250
8080,37.109375
8081,37.109375
8082,37.109375
8083,39.062500
8084,39.062500
8085,41.015625
8086,41.015625
8087,41.015625
8088,42.968750
8089,42.968750
8090,44.921875
8091,44.921875
8092,44.921875
8093,46.875000
8094,46.875000
8095,46.875000
8096,48.828125
8097,50.781250
8098,50.781250
8099,50.781250
8100,48.828125
8101,52.734375
8102,52.734375
8103,52.734375
8104,52.734375
8105,54.687500
8106,56.640625
8107,56.640625
8108,56.640625
8109,54.687500
8110,58.593750
8111,58.593750
8112,58.593750
8113,58.593750
8114,60.546875
8115,60.546875
8116,60.546875
8117,62.500000
8118,62.500000
8119,62.500000
8120,62.500000
8121,64.453125
8122,64.453125
8123,64.453125
8124,64.453125
8125,64.453125
8126,66.406250
8127,66.406250
8128,68.359375
8129,68.359375
8130,68.359375
8131,68.359375
8132,68.359375
8133,68.359375
8134,70.312500
8135,70.312500
8136,70.312500
8137,70.312500
8138,72.265625
8139,72.265625
8140,72.265625
8141,72.265625
8142,72.265625
8143,72.265625
8144,74.218750
8145,74.218750
8146,74.218750
8147,74.218750
8148,74.218750
8149,74.218750
8150,74.218750
8151,76.171875
8152,76.171875
8153,76.171875
8154,76.171875
8155,76.171875
8156,76.171875
8157,76.171875
8158,76.171875
8159,76.171875
8160,76.171875
8161,76.171875
8162,76.171875
8163,76.171875
8164,78.125000
8165,76.171875
8166,78.125000
8167,78.125000
8168,78.125000
8169,78.125000
8170,78.125000
8171,78.125000
8172,78.125000
8173,78.125000
8174,78.125000
8175,78.125000
8176,78.125000
8177,78.125000
8178,76.171875
8179,76.171875
8180,78.125000
8181,76.171875
8182,76.171875
8183,76.171875
8184,76.171875
8185,76.171875
8186,76.171875
8187,76.171875
8188,76.171875
8189,74.218750
8190,76.171875
8191,76.171875
8192,76.171875
8193,76.171875
8194,74.218750
8195,74.218750
8196,74.218750
8197,74.218750
8198,74.218750
8199,74.218750
8200,74.218750
8201,74.218750
8202,72.265625
8203,72.265625
8204,72.265625
8205,72.265625
8206,72.265625
8207,72.265625
8208,70.312500
8209,70.312500
8210,70.312500
8211,68.359375
8212,70.312500
8213,68.359375
8214,68.359375
8215,68.359375
8216,68.359375
8217,66.406250
8218,66.406250
8219,66.406250
8220,66.406250
8221,64.453125
8222,64.453125
8223,64.453125
8224,62.500000
8225,62.500000
8226,62.500000
8227,62.500000
8228,62.500000
8229,60.546875
8230,60.546875
8231,58.593750
8232,58.593750
8233,58.593750
8234,58.593750
8235,56.640625
8236,56.640625
8237,56.640625
8238,54.687500
8239,54.687500
8240,54.687500
8241,52.734375
8242,52.734375
8243,52.734375
8244,50.781250
8245,50.781250
8246,50.781250
8247,48.828125
8248,48.828125
8249,48.828125
8250,46.875000
8251,46.875000
8252,44.921875
8253,44.921875
8254,44.921875
8255,42.968750
8256,42.968750
8257,42.968750
8258,41.015625
8259,41.015625
8260,39.062500
8261,39.062500
8262,39.062500
8263,37.109375
8264,37.109375
8265,35.156250
8266,35.156250
8267,33.203125
8268,33.203125
8269,31.250000
8270,31.250000
8271,31.250000
8272,29.296875
8273,29.296875
8274,27.343750
8275,27.343750
8276,25.390625
8277,27.343750
8278,25.390625
8279,23.437500
8280,23.437500
8281,21.484375
8282,21.484375
8283,19.531250
8284,19.531250
8285,17.578125
8286,17.578125
8287,15.625000
8288,15.625000
8289,15.625000
8290,13.671875
8291,13.671875
8292,11.718750
8293,11.718750
8294,9.765625
8295,7.812500
8296,7.812500
8297,7.812500
8298,5.859375
8299,5.859375
8300,5.859375
8301,3.906250
8302,1.953125
8303,1.953125
8304,0.000000
8305,0.000000
8306,0.000000
8307,-1.953125
8308,-1.953125
8309,-3.906250
8310,-5.859375
8311,-5.859375
8312,-5.859375
8313,-7.812500
8314,-7.812500
8315,-9.765625
8316,-9.765625
8317,-11.718750
8318,-11.718750
8319,-13.671875
8320,-13.671875
8321,-15.625000
8322,-15.625000
8323,-17.578125
8324,-17.578125
8325,-17.578125
8326,-19.531250
8327,-19.531250
8328,-21.484375
8329,-21.484375
8330,-23.437500
8331,-23.437500
8332,-25.390625
8333,-25.390625
8334,-27.343750
8335,-27.343750
8336,-27.343750
8337,-29.296875
8338,-29.296875
8339,-31.250000
8340,-31.250000
8341,-33.203125
8342,-33.203125
8343,-35.156250
8344,-35.156250
8345,-35.156250
8346,-35.156250
8347,-37.109375
8348,-37.109375
8349,-39.062500
8350,-39.062500
8351,-39.062500
8352,-41.015625
8353,-41.015625
8354,-41.015625
8355,-42.968750
8356,-42.968750
8357,-44.921875
8358,-44.921875
8359,-44.921875
8360,-46.875000
8361,-46.875000
8362,-48.828125
8363,-48.828125
8364,-48.828125
8365,-50.781250
8366,-50.781250
8367,-50.781250
8368,-50.781250
8369,-52.734375
8370,-52.734375
8371,-54.687500
8372,-54.687500
8373,-54.687500
8374,-56.640625
8375,-56.640625
8376,-56.640625
8377,-58.593750
8378,-56.640625
8379,-58.593750
8380,-60.546875
8381,-58.593750
8382,-58.593750
8383,-60.546875
8384,-60.546875
8385,-60.546875
8386,-62.500000
8387,-62.500000
8388,-62.500000
8389,-62.500000
8390,-62.500000
8391,-62.500000
8392,-64.453125
8393,-64.453125
8394,-64.453125
8395,-64.453125
8396,-64.453125
8397,-66.406250
8398,-66.406250
8399,-66.406250
8400,-66.406250
8401,-66.406250
8402,-66.406250
8403,-68.359375
8404,-68.359375
8405,-68.359375
8406,-68.359375
8407,-68.359375
8408,-68.359375
8409,-68.359375
8410,-68.359375
8411,-68.359375
8412,-68.359375
8413,-70.312500
8414,-68.359375
8415,-70.312500
8416,-70.312500
8417,-70.312500
8418,-70.312500
8419,-70.312500
8420,-70.312500
8421,-72.265625
8422,-70.312500
8423,-70.312500
8424,-70.312500
8425,-70.312500
8426,-70.312500
8427,-70.312500
8428,-70.312500
8429,-70.312500
8430,-70.312500
8431,-70.312500
8432,-70.312500
8433,-70.312500
8434,-68.359375
8435,-70.312500
8436,-68.359375
8437,-68.359375
8438,-68.359375
8439,-68.359375
8440,-68.359375
8441,-68.359375
8442,-68.359375
8443,-68.359375
8444,-68.359375
8445,-68.359375
8446,-66.406250
8447,-66.406250
8448,-66.406250
8449,-66.406250
8450,-66.406250
8451,-66.406250
8452,-66.406250
8453,-64.453125
8454,-64.453125
8455,-64.453125
8456,-64.453125
8457,-62.500000
8458,-62.500000
8459,-62.500000
8460,-62.500000
8461,-62.500000
8462,-62.500000
8463,-60.546875
8464,-60.546875
8465,-60.546875
8466,-60.546875
8467,-58.593750
8468,-58.593750
8469,-58.593750
8470,-58.593750
8471,-56.640625
8472,-56.640625
8473,-56.640625
8474,-54.687500
8475,-54.687500
8476,-54.687500
8477,-54.687500
8478,-52.734375
8479,-52.734375
8480,-52.734375
8481,-50.781250
8482,-50.781250
8483,-50.781250
8484,-48.828125
8485,-48.828125
8486,-48.828125
8487,-46.875000
8488,-46.875000
8489,-46.875000
8490,-44.921875
8491,-44.921875
8492,-44.921875
8493,-42.968750
8494,-42.968750
8495,-41.015625
8496,-41.015625
8497,-41.015625
8498,-39.062500
8499,-39.062500
8500,-37.109375
8501,-37.109375
8502,-37.109375
8503,-35.156250
8504,-33.203125
8505,-33.203125
8506,-33.203125
8507,-31.250000
8508,-31.250000
8509,-31.250000
8510,-29.296875
8511,-29.296875
8512,-29.296875
8513,-25.390625
8514,-27.343750
8515,-25.390625
8516,-23.437500
8517,-23.437500
8518,-23.437500
8519,-23.437500
8520,-21.484375
8521,-21.484375
8522,-19.531250
8523,-17.578125
8524,-17.578125
8525,-17.578125
8526,-15.625000
8527,-15.625000
8528,-13.671875
8529,-13.671875
8530,-11.718750
8531,-11.718750
8532,-9.765625
8533,-9.765625
8534,-7.812500
8535,-7.812500
8536,-5.859375
8537,-5.859375
8538,-3.906250
8539,-3.906250
8540,-3.906250
8541,-1.953125
8542,-1.953125
8543,0.000000
8544,0.000000
8545,1.953125
8546,1.953125
8547,1.953125
8548,3.906250
8549,5.859375
8550,5.859375
8551,7.812500
8552,7.812500
8553,7.812500
8554,9.765625
8555,9.765625
8556,11.718750
8557,11.718750
8558,13.671875
8559,13.671875
8560,15.625000
8561,15.625000
8562,17.578125
8563,17.578125
8564,19.531250
8565,19.531250
8566,21.484375
8567,21.484375
8568,23.437500
8569,23.437500
8570,23.437500
8571,25.390625
8572,25.390625
8573,27.343750
8574,27.343750
8575,29.296875
8576,29.296875
8577,29.296875
8578,31.250000
8579,31.250000
8580,33.203125
8581,33.203125
8582,35.156250
8583,35.156250
8584,37.109375
8585,37.109375
8586,37.109375
8587,39.062500
8588,39.062500
8589,41.015625
8590,41.015625
8591,41.015625
8592,42.968750
8593,42.968750
8594,44.921875
8595,44.921875
8596,44.921875
8597,46.875000
8598,46.875000
8599,46.875000
8600,48.828125
8601,48.828125
8602,50.781250
8603,50.781250
8604,50.781250
8605,50.781250
8606,52.734375
8607,52.734375
8608,54.687500
8609,54.687500
8610,54.687500
8611,56.640625
8612,56.640625
8613,56.640625
8614,56.640625
8615,58.593750
8616,58.593750
8617,58.593750
8618,60.546875
8619,60.546875
8620,62.500000
8621,62.500000
8622,62.500000
8623,62.500000
8624,64.453125
8625,64.453125
8626,64.453125
8627,64.453125
8628,66.406250
8629,66.406250
8630,66.406250
8631,66.406250
8632,66.406250
8633,68.359375
8634,68.359375
8635,68.359375
8636,70.312500
8637,70.312500
8638,70.312500
8639,70.312500
8640,70.312500
8641,70.312500
8642,72.265625
8643,72.265625
8644,72.265625
8645,72.265625
8646,72.265625
8647,74.218750
8648,74.218750
8649,74.218750
8650,74.218750
8651,74.218750
8652,74.218750
8653,76.171875
8654,76.171875
8655,76.171875
8656,76.171875
8657,76.171875
8658,76.171875
8659,76.171875
8660,76.171875
8661,76.171875
8662,76.171875
8663,76.171875
8664,78.125000
8665,78.125000
8666,78.125000
8667,78.125000
8668,78.125000
8669,78.125000
8670,78.125000
8671,78.125000
8672,78.125000
8673,78.125000
8674,78.125000
8675,78.125000
8676,78.125000
8677,78.125000
8678,78.125000
8679,78.125000
8680,78.125000
8681,78.125000
8682,78.125000
8683,78.125000
8684,78.125000
8685,78.125000
8686,78.125000
8687,78.125000
8688,78.125000
8689,78.125000
8690,78.125000
8691,76.171875
8692,76.171875
8693,76.171875
8694,76.171875
8695,76.171875
8696,76.171875
8697,76.171875
8698,76.171875
8699,74.218750
8700,76.171875
8701,74.218750
8702,74.218750
8703,74.218750
8704,74.218750
8705,74.218750
8706,74.218750
8707,74.218750
8708,72.265625
8709,72.265625
8710,72.265625
8711,72.265625
8712,72.265625
8713,70.312500
8714,70.312500
8715,70.312500
8716,70.312500
8717,70.312500
8718,70.312500
8719,68.359375
8720,68.359375
8721,68.359375
8722,66.406250
8723,66.406250
8724,66.406250
8725,66.406250
8726,66.406250
8727,64.453125
8728,64.453125
8729,64.453125
8730,64.453125
8731,62.500000
8732,62.500000
8733,60.546875
8734,60.546875
8735,60.546875
8736,60.546875
8737,58.593750
8738,58.593750
8739,58.593750
8740,58.593750
8741,56.640625
8742,56.640625
8743,54.687500
8744,54.687500
8745,54.687500
8746,54.687500
8747,52.734375
8748,52.734375
8749,52.734375
8750,50.781250
8751,50.781250
8752,48.828125
8753,48.828125
8754,48.828125
8755,46.875000
8756,46.875000
8757,46.875000
8758,44.921875
8759,44.921875
8760,42.968750
8761,42.968750
8762,42.968750
8763,41.015625
8764,41.015625
8765,41.015625
8766,39.062500
8767,37.109375
8768,35.156250
8769,35.156250
8770,35.156250
8771,35.156250
8772,33.203125
8773,33.203125
8774,33.203125
8775,31.250000
8776,31.250000
8777,29.296875
8778,29.296875
8779,27.343750
8780,27.343750
8781,25.390625
8782,25.390625
8783,25.390625
8784,23.437500
8785,21.484375
8786,21.484375
8787,21.484375
8788,19.531250
8789,19.531250
8790,17.578125
8791,17.578125
8792,15.625000
8793,15.625000
8794,15.625000
8795,13.671875
8796,13.671875
8797,11.718750
8798,11.718750
8799,9.765625
8800,9.765625
8801,7.812500
8802,7.812500
8803,5.859375
8804,5.859375
8805,3.906250
8806,3.906250
8807,1.953125
8808,1.953125
8809,1.953125
8810,0.000000
8811,-1.953125
8812,-1.953125
8813,-3.906250
8814,-3.906250
8815,-5.859375
8816,-5.859375
8817,-7.812500
8818,-7.812500
8819,-7.812500
8820,-9.765625
8821,-9.765625
8822,-11.718750
8823,-11.718750
8824,-13.671875
8825,-13.671875
8826,-15.625000
8827,-15.625000
8828,-17.578125
8829,-17.578125
8830,-17.578125
8831,-19.531250
8832,-19.531250
8833,-21.484375
8834,-21.484375
8835,-23.437500
8836,-23.437500
8837,-25.390625
8838,-25.390625
8839,-27.343750
8840,-27.343750
8841,-27.343750
8842,-29.296875
8843,-29.296875
8844,-31.250000
8845,-31.250000
8846,-33.203125
8847,-33.203125
8848,-35.156250
8849,-35.156250
8850,-37.109375
8851,-37.109375
8852,-37.109375
8853,-39.062500
8854,-39.062500
8855,-41.015625
8856,-41.015625
8857,-41.015625
8858,-41.015625
8859,-44.921875
8860,-42.968750
8861,-44.921875
8862,-44.921875
8863,-44.921875
8864,-46.875000
8865,-46.875000
8866,-46.875000
8867,-48.828125
8868,-48.828125
8869,-50.781250
8870,-50.781250
8871,-50.781250
8872,-52.734375
8873,-52.734375
8874,-52.734375
8875,-54.687500
8876,-54.687500
8877,-54.687500
8878,-56.640625
8879,-56.640625
8880,-56.640625
8881,-56.640625
8882,-58.593750
8883,-58.593750
8884,-58.593750
8885,-58.593750
8886,-60.546875
8887,-60.546875
8888,-60.546875
8889,-60.546875
8890,-62.500000
8891,-62.500000
8892,-62.500000
8893,-62.500000
8894,-64.453125
8895,-64.453125
8896,-64.453125
8897,-64.453125
8898,-66.406250
8899,-66.406250
8900,-66.406250
8901,-66.406250
8902,-66.406250
8903,-66.406250
8904,-66.406250
8905,-66.406250
8906,-68.359375
8907,-68.359375
8908,-68.359375
8909,-68.359375
8910,-68.359375
8911,-68.359375
8912,-68.359375
8913,-68.359375
8914,-70.312500
8915,-70.312500
8916,-70.312500
8917,-70.312500
8918,-70.312500
8919,-70.312500
8920,-70.312500
8921,-70.312500
8922,-70.312500
8923,-70.312500
8924,-70.312500
8925,-70.312500
8926,-70.312500
8927,-70.312500
8928,-70.312500
8929,-72.265625
8930,-72.265625
8931,-70.312500
8932,-70.312500
8933,-70.312500
8934,-70.312500
8935,-70.312500
8936,-72.265625
8937,-70.312500
8938,-70.312500
8939,-70.312500
8940,-70.312500
8941,-70.312500
8942,-70.312500
8943,-70.312500
8944,-70.312500
8945,-70.312500
8946,-70.312500
8947,-70.312500
8948,-68.359375
8949,-68.359375
8950,-68.359375
8951,-68.359375
8952,-68.359375
8953,-68.359375
8954,-66.406250
8955,-66.406250
8956,-66.406250
8957,-66.406250
8958,-66.406250
8959,-66.406250
8960,-66.406250
8961,-64.453125
8962,-64.453125
8963,-64.453125
8964,-64.453125
8965,-64.453125
8966,-62.500000
8967,-62.500000
8968,-62.500000
8969,-60.546875
8970,-60.546875
8971,-60.546875
8972,-60.546875
8973,-60.546875
8974,-58.593750
8975,-58.593750
8976,-58.593750
8977,-58.593750
8978,-56.640625
8979,-56.640625
8980,-56.640625
8981,-56.640625
8982,-54.687500
8983,-54.687500
8984,-54.687500
8985,-52.734375
8986,-52.734375
8987,-52.734375
8988,-50.781250
8989,-50.781250
8990,-50.781250
8991,-48.828125
8992,-48.828125
8993,-48.828125
8994,-46.875000
8995,-46.875000
8996,-44.921875
8997,-44.921875
8998,-44.921875
8999,-42.968750
9000,-42.968750
9001,-42.968750
9002,-41.015625
9003,-41.015625
9004,-41.015625
9005,-39.062500
9006,-39.062500
9007,-37.109375
9008,-37.109375
9009,-35.156250
9010,-35.156250
9011,-35.156250
9012,-33.203125
9013,-33.203125
9014,-31.250000
9015,-31.250000
9016,-29.296875
9017,-29.296875
9018,-29.296875
9019,-27.343750
9020,-27.343750
9021,-25.390625
9022,-25.390625
9023,-23.437500
9024,-23.437500
9025,-23.437500
9026,-21.484375
9027,-21.484375
9028,-19.531250
9029,-19.531250
9030,-17.578125
9031,-17.578125
9032,-15.625000
9033,-15.625000
9034,-13.671875
9035,-13.671875
9036,-13.671875
9037,-11.718750
9038,-9.765625
9039,-9.765625
9040,-7.812500
9041,-7.812500
9042,-5.859375
9043,-5.859375
9044,-5.859375
9045,-3.906250
9046,-3.906250
9047,-1.953125
9048,-1.953125
9049,0.000000
9050,0.000000
9051,1.953125
9052,1.953125
9053,3.906250
9054,3.906250
9055,5.859375
9056,5.859375
9057,7.812500
9058,7.812500
9059,7.812500
9060,9.765625
9061,11.718750
9062,11.718750
9063,13.671875
9064,13.671875
9065,13.671875
9066,15.625000
9067,15.625000
9068,17.578125
9069,17.578125
9070,19.531250
9071,19.531250
9072,21.484375
9073,21.484375
9074,23.437500
9075,23.437500
9076,23.437500
9077,25.390625
9078,25.390625
9079,27.343750
9080,27.343750
9081,29.296875
9082,29.296875
9083,31.250000
9084,31.250000
9085,31.250000
9086,33.203125
9087,33.203125
9088,33.203125
9089,35.156250
9090,37.109375
9091,37.109375
9092,39.062500
9093,39.062500
9094,39.062500
9095,41.015625
9096,41.015625
9097,41.015625
9098,42.968750
9099,42.968750
9100,44.921875
9101,44.921875
9102,46.875000
9103,46.875000
9104,46.875000
9105,46.875000
9106,48.828125
9107,48.828125
9108,48.828125
9109,50.781250
9110,50.781250
9111,52.734375
9112,52.734375
9113,52.734375
9114,54.687500
9115,54.687500
9116,54.687500
9117,56.640625
9118,56.640625
9119,56.640625
9120,58.593750
9121,58.593750
9122,60.546875
9123,60.546875
9124,60.546875
9125,60.546875
9126,60.546875
9127,62.500000
9128,62.500000
9129,62.500000
9130,64.453125
9131,64.453125
9132,64.453125
9133,64.453125
9134,66.406250
9135,66.406250
9136,66.406250
9137,66.406250
9138,66.406250
9139,68.359375
9140,68.359375
9141,68.359375
9142,70.312500
9143,70.312500
9144,70.312500
9145,70.312500
9146,70.312500
9147,70.312500
9148,70.312500
9149,72.265625
9150,72.265625
9151,72.265625
9152,72.265625
9153,74.218750
9154,74.218750
9155,74.218750
9156,74.218750
9157,74.218750
9158,74.218750
9159,74.218750
9160,74.218750
9161,74.218750
9162,76.171875
9163,76.171875
9164,76.171875
9165,76.171875
9166,76.171875
9167,76.171875
9168,76.171875
9169,76.171875
9170,76.171875
9171,76.171875
9172,78.125000
9173,78.125000
9174,78.125000
9175,78.125000
9176,78.125000
9177,78.125000
9178,78.125000
9179,78.125000
9180,78.125000
9181,78.125000
9182,78.125000
9183,78.125000
9184,78.125000
9185,78.125000
9186,78.125000
9187,78.125000
9188,78.125000
9189,78.125000
9190,78.125000
9191,76.171875
9192,78.125000
9193,78.125000
9194,76.171875
9195,76.171875
9196,76.171875
9197,76.171875
9198,76.171875
9199,76.171875
9200,76.171875
9201,76.171875
9202,76.171875
9203,74.218750
9204,76.171875
9205,74.218750
9206,74.218750
9207,74.218750
9208,74.218750
9209,74.218750
9210,74.218750
9211,72.265625
9212,72.265625
9213,72.265625
9214,72.265625
9215,72.265625
9216,72.265625
9217,72.265625
9218,70.312500
9219,70.312500
9220,72.265625
9221,70.312500
9222,70.312500
9223,68.359375
9224,68.359375
9225,68.359375
9226,68.359375
9227,68.359375
9228,66.406250
9229,66.406250
9230,66.406250
9231,64.453125
9232,64.453125
9233,64.453125
9234,64.453125
9235,62.500000
9236,62.500000
9237,62.500000
9238,62.500000
9239,60.546875
9240,60.546875
9241,60.546875
9242,58.593750
9243,58.593750
9244,58.593750
9245,56.640625
9246,56.640625
9247,56.640625
9248,56.640625
9249,54.687500
9250,54.687500
9251,52.734375
9252,52.734375
9253,52.734375
9254,50.781250
9255,50.781250
9256,50.781250
9257,50.781250
9258,48.828125
9259,48.828125
9260,48.828125
9261,46.875000
9262,44.921875
9263,44.921875
9264,44.921875
9265,42.968750
9266,42.968750
9267,42.968750
9268,41.015625
9269,41.015625
9270,41.015625
9271,39.062500
9272,39.062500
9273,37.109375
9274,37.109375
9275,35.156250
9276,35.156250
9277,33.203125
9278,33.203125
9279,33.203125
9280,31.250000
9281,31.250000
9282,29.296875
9283,29.296875
9284,29.296875
9285,27.343750
9286,25.390625
9287,25.390625
9288,25.390625
9289,23.437500
9290,23.437500
9291,21.484375
9292,21.484375
9293,19.531250
9294,19.531250
9295,17.578125
9296,17.578125
9297,17.578125
9298,15.625000
9299,15.625000
9300,13.671875
9301,13.671875
9302,11.718750
9303,11.718750
9304,9.765625
9305,9.765625
9306,9.765625
9307,7.812500
9308,5.859375
9309,5.859375
9310,5.859375
9311,3.906250
9312,3.906250
9313,1.953125
9314,1.953125
9315,0.000000
9316,0.000000
9317,-1.953125
9318,-1.953125
9319,-3.906250
9320,-3.906250
9321,-5.859375
9322,-5.859375
9323,-7.812500
9324,-7.812500
9325,-9.765625
9326,-9.765625
9327,-9.765625
9328,-11.718750
9329,-11.718750
9330,-13.671875
9331,-13.671875
9332,-15.625000
9333,-15.625000
9334,-17.578125
9335,-17.578125
9336,-19.531250
9337,-19.531250
9338,-21.484375
9339,-21.484375
9340,-21.484375
9341,-23.437500
9342,-23.437500
9343,-25.390625
9344,-25.390625
9345,-27.343750
9346,-27.343750
9347,-27.343750
9348,-29.296875
9349,-29.296875
9350,-31.250000
9351,-31.250000
9352,-33.203125
9353,-33.203125
9354,-35.156250
9355,-35.156250
9356,-35.156250
9357,-37.109375
9358,-37.109375
9359,-39.062500
9360,-39.062500
9361,-39.062500
9362,-39.062500
9363,-41.015625
9364,-41.015625
9365,-42.968750
9366,-42.968750
9367,-44.921875
9368,-44.921875
9369,-44.921875
9370,-46.875000
9371,-46.875000
9372,-46.875000
9373,-48.828125
9374,-48.828125
9375,-48.828125
9376,-48.828125
9377,-50.781250
9378,-50.781250
9379,-52.734375
9380,-52.734375
9381,-52.734375
9382,-52.734375
9383,-54.687500
9384,-54.687500
9385,-56.640625
9386,-56.640625
9387,-56.640625
9388,-58.593750
9389,-58.593750
9390,-58.593750
9391,-58.593750
9392,-58.593750
9393,-60.546875
9394,-60.546875
9395,-60.546875
9396,-60.546875
9397,-62.500000
9398,-62.500000
9399,-62.500000
9400,-62.500000
9401,-62.500000
9402,-64.453125
9403,-64.453125
9404,-64.453125
9405,-64.453125
9406,-64.453125
9407,-66.406250
9408,-64.453125
9409,-66.406250
9410,-66.406250
9411,-66.406250
9412,-66.406250
9413,-68.359375
9414,-68.359375
9415,-68.359375
9416,-68.359375
9417,-68.359375
9418,-68.359375
9419,-68.359375
9420,-68.359375
9421,-68.359375
9422,-68.359375
9423,-68.359375
9424,-68.359375
9425,-68.359375
9426,-70.312500
9427,-70.312500
9428,-70.312500
9429,-70.312500
9430,-70.312500
9431,-70.312500
9432,-70.312500
9433,-70.312500
9434,-70.312500
9435,-70.312500
9436,-70.312500
9437,-70.312500
9438,-70.312500
9439,-70.312500
9440,-70.312500
9441,-70.312500
9442,-70.312500
9443,-68.359375
9444,-68.359375
9445,-68.359375
9446,-68.359375
9447,-68.359375
9448,-68.359375
9449,-68.359375
9450,-68.359375
9451,-68.359375
9452,-68.359375
9453,-68.359375
9454,-68.359375
9455,-68.359375
9456,-66.406250
9457,-66.406250
9458,-66.406250
9459,-66.406250
9460,-66.406250
9461,-66.406250
9462,-64.453125
9463,-64.453125
9464,-64.453125
9465,-64.453125
9466,-64.453125
9467,-64.453125
9468,-62.500000
9469,-62.500000
9470,-62.500000
9471,-62.500000
9472,-60.546875
9473,-60.546875
9474,-60.546875
9475,-60.546875
9476,-60.546875
9477,-58.593750
9478,-58.593750
9479,-58.593750
9480,-58.593750
9481,-56.640625
9482,-56.640625
9483,-56.640625
9484,-56.640625
9485,-52.734375
9486,-54.687500
9487,-54.687500
9488,-52.734375
9489,-52.734375
9490,-50.781250
9491,-50.781250
9492,-50.781250
9493,-50.781250
9494,-48.828125
9495,-48.828125
9496,-48.828125
9497,-46.875000
9498,-46.875000
9499,-46.875000
9500,-44.921875
9501,-44.921875
9502,-42.968750
9503,-42.968750
9504,-42.968750
9505,-42.968750
9506,-41.015625
9507,-41.015625
9508,-39.062500
9509,-39.062500
9510,-39.062500
9511,-37.109375
9512,-37.109375
9513,-35.156250
9514,-35.156250
9515,-33.203125
9516,-33.203125
9517,-33.203125
9518,-31.250000
9519,-31.250000
9520,-29.296875
9521,-29.296875
9522,-29.296875
9523,-27.343750
9524,-27.343750
9525,-27.343750
9526,-25.390625
9527,-23.437500
9528,-23.437500
9529,-21.484375
9530,-21.484375
9531,-19.531250
9532,-19.531250
9533,-19.531250
9534,-17.578125
9535,-17.578125
9536,-15.625000
9537,-15.625000
9538,-13.671875
9539,-13.671875
9540,-11.718750
9541,-11.718750
9542,-9.765625
9543,-9.765625
9544,-7.812500
9545,-7.812500
9546,-7.812500
9547,-5.859375
9548,-5.859375
9549,-3.906250
9550,-3.906250
9551,-1.953125
9552,-1.953125
9553,-1.953125
9554,0.000000
9555,1.953125
9556,1.953125
9557,3.906250
9558,7.812500
9559,5.859375
9560,3.906250
9561,7.812500
9562,7.812500
9563,7.812500
9564,9.765625
9565,11.718750
9566,11.718750
9567,11.718750
9568,13.671875
9569,13.671875
9570,15.625000
9571,15.625000
9572,17.578125
9573,17.578125
9574,19.531250
9575,19.531250
9576,21.484375
9577,21.484375
9578,21.484375
9579,23.437500
9580,23.437500
9581,25.390625
9582,25.390625
9583,27.343750
9584,27.343750
9585,29.296875
9586,29.296875
9587,29.296875
9588,31.250000
9589,31.250000
9590,33.203125
9591,33.203125
9592,35.156250
9593,35.156250
9594,35.156250
9595,37.109375
9596,37.109375
9597,39.062500
9598,39.062500
9599,39.062500
9600,41.015625
9601,41.015625
9602,42.968750
9603,42.968750
9604,42.968750
9605,44.921875
9606,44.921875
9607,44.921875
9608,46.875000
9609,46.875000
9610,48.828125
9611,48.828125
9612,50.781250
9613,50.781250
9614,50.781250
9615,50.781250
9616,52.734375
9617,52.734375
9618,54.687500
9619,54.687500
9620,54.687500
9621,56.640625
9622,56.640625
9623,56.640625
9624,58.593750
9625,58.593750
9626,58.593750
9627,60.546875
9628,60.546875
9629,60.546875
9630,60.546875
9631,60.546875
9632,62.500000
9633,62.500000
9634,62.500000
9635,64.453125
9636,64.453125
9637,64.453125
9638,66.406250
9639,66.406250
9640,66.406250
9641,66.406250
9642,66.406250
9643,68.359375
9644,68.359375
9645,68.359375
9646,70.312500
9647,68.359375
9648,70.312500
9649,70.312500
9650,70.312500
9651,70.312500
9652,70.312500
9653,72.265625
9654,72.265625
9655,72.265625
9656,74.218750
9657,72.265625
9658,74.218750
9659,74.218750
9660,74.218750
9661,74.218750
9662,74.218750
9663,74.218750
9664,74.218750
9665,74.218750
9666,76.171875
9667,76.171875
9668,76.171875
9669,76.171875
9670,76.171875
9671,76.171875
9672,76.171875
9673,78.125000
9674,78.125000
9675,76.171875
9676,76.171875
9677,76.171875
9678,78.125000
9679,76.171875
9680,78.125000
9681,78.125000
9682,78.125000
9683,78.125000
9684,78.125000
9685,78.125000
9686,78.125000
9687,78.125000
9688,78.125000
9689,78.125000
9690,78.125000
9691,78.125000
9692,78.125000
9693,78.125000
9694,78.125000
9695,78.125000
9696,76.171875
9697,76.171875
9698,76.171875
9699,76.171875
9700,76.171875
9701,76.171875
9702,76.171875
9703,76.171875
9704,76.171875
9705,76.171875
9706,76.171875
9707,76.171875
9708,76.171875
9709,74.218750
9710,74.218750
9711,74.218750
9712,74.218750
9713,74.218750
9714,74.218750
9715,74.218750
9716,74.218750
9717,72.265625
9718,72.265625
9719,72.265625
9720,72.265625
9721,72.265625
9722,72.265625
9723,70.312500
9724,70.312500
9725,70.312500
9726,70.312500
9727,70.312500
9728,68.359375
9729,68.359375
9730,68.359375
9731,68.359375
9732,66.406250
9733,66.406250
9734,66.406250
9735,66.406250
9736,66.406250
9737,64.453125
9738,64.453125
9739,62.500000
9740,62.500000
9741,62.500000
9742,62.500000
9743,62.500000
9744,60.546875
9745,60.546875
9746,60.546875
9747,58.593750
9748,58.593750
9749,58.593750
9750,56.640625
9751,56.640625
9752,56.640625
9753,56.640625
9754,54.687500
9755,54.687500
9756,54.687500
9757,52.734375
9758,52.734375
9759,50.781250
9760,50.781250
9761,50.781250
9762,48.828125
9763,48.828125
9764,48.828125
9765,46.875000
9766,46.875000
9767,44.921875
9768,44.921875
9769,42.968750
9770,44.921875
9771,42.968750
9772,41.015625
9773,41.015625
9774,41.015625
9775,39.062500
9776,39.062500
9777,37.109375
9778,37.109375
9779,37.109375
9780,35.156250
9781,35.156250
9782,33.203125
9783,33.203125
9784,33.203125
9785,31.250000
9786,31.250000
9787,29.296875
9788,27.343750
9789,27.343750
9790,27.343750
9791,25.390625
9792,25.390625
9793,25.390625
9794,23.437500
9795,21.484375
9796,21.484375
9797,21.484375
9798,19.531250
9799,19.531250
9800,17.578125
9801,17.578125
9802,15.625000
9803,15.625000
9804,15.625000
9805,13.671875
9806,13.671875
9807,11.718750
9808,11.718750
9809,9.765625
9810,9.765625
9811,7.812500
9812,7.812500
9813,5.859375
9814,5.859375
9815,3.906250
9816,3.906250
9817,1.953125
9818,1.953125
9819,0.000000
9820,0.000000
9821,-1.953125
9822,-1.953125
9823,-3.906250
9824,-3.906250
9825,-3.906250
9826,-5.859375
9827,-7.812500
9828,-7.812500
9829,-9.765625
9830,-9.765625
9831,-9.765625
9832,-11.718750
9833,-11.718750
9834,-13.671875
9835,-13.671875
9836,-13.671875
9837,-15.625000
9838,-17.578125
9839,-17.578125
9840,-19.531250
9841,-19.531250
9842,-19.531250
9843,-21.484375
9844,-21.484375
9845,-23.437500
9846,-23.437500
9847,-25.390625
9848,-25.390625
9849,-27.343750
9850,-27.343750
9851,-29.296875
9852,-29.296875
9853,-31.250000
9854,-31.250000
9855,-31.250000
9856,-33.203125
9857,-33.203125
9858,-33.203125
9859,-35.156250
9860,-35.156250
9861,-35.156250
9862,-37.109375
9863,-39.062500
9864,-39.062500
9865,-39.062500
9866,-41.015625
9867,-41.015625
9868,-41.015625
9869,-42.968750
9870,-42.968750
9871,-42.968750
9872,-44.921875
9873,-44.921875
9874,-46.875000
9875,-46.875000
9876,-48.828125
9877,-48.828125
9878,-48.828125
9879,-48.828125
9880,-50.781250
9881,-50.781250
9882,-52.734375
9883,-52.734375
9884,-52.734375
9885,-54.687500
9886,-54.687500
9887,-54.687500
9888,-54.687500
9889,-56.640625
9890,-56.640625
9891,-56.640625
9892,-56.640625
9893,-58.593750
9894,-58.593750
9895,-60.546875
9896,-58.593750
9897,-60.546875
9898,-60.546875
9899,-60.546875
9900,-60.546875
9901,-62.500000
9902,-62.500000
9903,-62.500000
9904,-62.500000
9905,-64.453125
9906,-64.453125
9907,-64.453125
9908,-64.453125
9909,-64.453125
9910,-64.453125
9911,-66.406250
9912,-66.406250
9913,-66.406250
9914,-66.406250
9915,-68.359375
9916,-68.359375
9917,-68.359375
9918,-68.359375
9919,-68.359375
9920,-68.359375
9921,-68.359375
9922,-68.359375
9923,-68.359375
9924,-70.312500
9925,-70.312500
9926,-70.312500
9927,-70.312500
9928,-70.312500
9929,-70.312500
9930,-70.312500
9931,-70.312500
9932,-70.312500
9933,-70.312500
9934,-72.265625
9935,-72.265625
9936,-70.312500
9937,-70.312500
9938,-72.265625
9939,-70.312500
9940,-72.265625
9941,-70.312500
9942,-70.312500
9943,-70.312500
9944,-70.312500
9945,-70.312500
9946,-70.312500
9947,-70.312500
9948,-70.312500
9949,-70.312500
9950,-70.312500
9951,-70.312500
9952,-72.265625
9953,-70.312500
9954,-70.312500
9955,-72.265625
9956,-70.312500
9957,-68.359375
9958,-70.312500
9959,-68.359375
9960,-68.359375
9961,-68.359375
9962,-68.359375
9963,-68.359375
9964,-68.359375
9965,-68.359375
9966,-66.406250
9967,-66.406250
9968,-66.406250
9969,-66.406250
9970,-66.406250
9971,-64.453125
9972,-64.453125
9973,-64.453125
9974,-64.453125
9975,-62.500000
9976,-62.500000
9977,-62.500000
9978,-62.500000
9979,-62.500000
9980,-60.546875
9981,-60.546875
9982,-60.546875
9983,-58.593750
9984,-58.593750
9985,-58.593750
9986,-58.593750
9987,-58.593750
9988,-56.640625
9989,-56.640625
9990,-56.640625
9991,-56.640625
9992,-54.687500
9993,-54.687500
9994,-54.687500
9995,-52.734375
9996,-52.734375
9997,-52.734375
9998,-50.781250
9999,-50.781250
10000,-50.781250
