Channel              :,CH1
Frequency            :,1.010kHz
Period               :,0.990ms
PK-PK                :,85.94mV
Probe attenuation    :,1X
Voltage per ADC value:,0.244141mV
Time interval        :,1.00000us

index,CH1_Voltage(mV)
1,-35.156250
2,-35.156250
3,-35.156250
4,-35.156250
5,-35.156250
6,-35.156250
7,-35.156250
8,-35.156250
9,-31.250000
10,-31.250000
11,-31.250000
12,-31.250000
13,-31.250000
14,-31.250000
15,-31.250000
16,-31.250000
17,-31.250000
18,-31.250000
19,-31.250000
20,-31.250000
21,-31.250000
22,-31.250000
23,-31.250000
24,-31.250000
25,-31.250000
26,-27.343750
27,-31.250000
28,-27.343750
29,-27.343750
30,-27.343750
31,-27.343750
32,-27.343750
33,-27.343750
34,-27.343750
35,-27.343750
36,-27.343750
37,-27.343750
38,-27.343750
39,-27.343750
40,-27.343750
41,-27.343750
42,-23.437500
43,-23.437500
44,-23.437500
45,-27.343750
46,-23.437500
47,-23.437500
48,-23.437500
49,-23.437500
50,-23.437500
51,-23.437500
52,-23.437500
53,-23.437500
54,-23.437500
55,-23.437500
56,-23.437500
57,-19.531250
58,-19.531250
59,-19.531250
60,-19.531250
61,-19.531250
62,-19.531250
63,-19.531250
64,-19.531250
65,-19.531250
66,-19.531250
67,-19.531250
68,-19.531250
69,-19.531250
70,-19.531250
71,-19.531250
72,-19.531250
73,-15.625000
74,-15.625000
75,-15.625000
76,-15.625000
77,-15.625000
78,-15.625000
79,-15.625000
80,-15.625000
81,-15.625000
82,-15.625000
83,-15.625000
84,-15.625000
85,-15.625000
86,-15.625000
87,-15.625000
88,-15.625000
89,-15.625000
90,-11.718750
91,-11.718750
92,-11.718750
93,-11.718750
94,-11.718750
95,-11.718750
96,-11.718750
97,-11.718750
98,-11.718750
99,-11.718750
100,-11.718750
101,-11.718750
102,-11.718750
103,-11.718750
104,-11.718750
105,-11.718750
106,-7.812500
107,-7.812500
108,-7.812500
109,-7.812500
110,-7.812500
111,-7.812500
112,-7.812500
113,-7.812500
114,-7.812500
115,-7.812500
116,-7.812500
117,-7.812500
118,-7.812500
119,-7.812500
120,-7.812500
121,-3.906250
122,-7.812500
123,-7.812500
124,-3.906250
125,-3.906250
126,-3.906250
127,-3.906250
128,-3.906250
129,-3.906250
130,-3.906250
131,-3.906250
132,-3.906250
133,-3.906250
134,-3.906250
135,-3.906250
136,0.000000
137,-3.906250
138,0.000000
139,0.000000
140,0.000000
141,-3.906250
142,0.000000
143,0.000000
144,0.000000
145,0.000000
146,0.000000
147,0.000000
148,0.000000
149,0.000000
150,0.000000
151,0.000000
152,3.906250
153,0.000000
154,3.906250
155,3.906250
156,3.906250
157,3.906250
158,3.906250
159,3.906250
160,3.906250
161,3.906250
162,3.906250
163,3.906250
164,3.906250
165,3.906250
166,3.906250
167,3.906250
168,7.812500
169,3.906250
170,3.906250
171,3.906250
172,7.812500
173,7.812500
174,7.812500
175,7.812500
176,7.812500
177,7.812500
178,7.812500
179,7.812500
180,7.812500
181,7.812500
182,7.812500
183,7.812500
184,7.812500
185,11.718750
186,7.812500
187,7.812500
188,7.812500
189,11.718750
190,11.718750
191,11.718750
192,11.718750
193,11.718750
194,11.718750
195,11.718750
196,11.718750
197,11.718750
198,11.718750
199,11.718750
200,11.718750
201,11.718750
202,11.718750
203,11.718750
204,11.718750
205,15.625000
206,15.625000
207,11.718750
208,11.718750
209,11.718750
210,15.625000
211,15.625000
212,15.625000
213,15.625000
214,15.625000
215,15.625000
216,15.625000
217,15.625000
218,15.625000
219,15.625000
220,15.625000
221,15.625000
222,15.625000
223,15.625000
224,15.625000
225,15.625000
226,15.625000
227,15.625000
228,15.625000
229,15.625000
230,19.531250
231,19.531250
232,19.531250
233,15.625000
234,19.531250
235,19.531250
236,19.531250
237,19.531250
238,19.531250
239,19.531250
240,19.531250
241,19.531250
242,19.531250
243,19.531250
244,19.531250
245,19.531250
246,19.531250
247,19.531250
248,19.531250
249,19.531250
250,19.531250
251,19.531250
252,19.531250
253,19.531250
254,19.531250
255,19.531250
256,23.437500
257,19.531250
258,19.531250
259,19.531250
260,23.437500
261,23.437500
262,23.437500
263,23.437500
264,23.437500
265,23.437500
266,23.437500
267,23.437500
268,23.437500
269,23.437500
270,23.437500
271,23.437500
272,23.437500
273,23.437500
274,23.437500
275,23.437500
276,23.437500
277,23.437500
278,23.437500
279,23.437500
280,23.437500
281,23.437500
282,23.437500
283,23.437500
284,23.437500
285,23.437500
286,23.437500
287,23.437500
288,23.437500
289,23.437500
290,23.437500
291,23.437500
292,23.437500
293,27.343750
294,27.343750
295,27.343750
296,27.343750
297,27.343750
298,23.437500
299,27.343750
300,23.437500
301,27.343750
302,27.343750
303,27.343750
304,27.343750
305,27.343750
306,27.343750
307,27.343750
308,27.343750
309,27.343750
310,27.343750
311,27.343750
312,27.343750
313,27.343750
314,27.343750
315,27.343750
316,27.343750
317,27.343750
318,27.343750
319,27.343750
320,27.343750
321,27.343750
322,27.343750
323,27.343750
324,27.343750
325,27.343750
326,27.343750
327,27.343750
328,27.343750
329,27.343750
330,27.343750
331,27.343750
332,27.343750
333,27.343750
334,27.343750
335,27.343750
336,27.343750
337,27.343750
338,27.343750
339,27.343750
340,27.343750
341,27.343750
342,27.343750
343,27.343750
344,27.343750
345,27.343750
346,27.343750
347,27.343750
348,27.343750
349,27.343750
350,27.343750
351,27.343750
352,27.343750
353,27.343750
354,27.343750
355,27.343750
356,27.343750
357,27.343750
358,27.343750
359,27.343750
360,27.343750
361,27.343750
362,27.343750
363,27.343750
364,27.343750
365,27.343750
366,27.343750
367,27.343750
368,27.343750
369,27.343750
370,27.343750
371,27.343750
372,27.343750
373,27.343750
374,27.343750
375,27.343750
376,27.343750
377,27.343750
378,27.343750
379,27.343750
380,27.343750
381,27.343750
382,27.343750
383,27.343750
384,27.343750
385,27.343750
386,27.343750
387,27.343750
388,27.343750
389,27.343750
390,27.343750
391,27.343750
392,27.343750
393,27.343750
394,27.343750
395,27.343750
396,27.343750
397,27.343750
398,27.343750
399,27.343750
400,27.343750
401,27.343750
402,27.343750
403,27.343750
404,27.343750
405,27.343750
406,27.343750
407,23.437500
408,27.343750
409,23.437500
410,23.437500
411,27.343750
412,23.437500
413,23.437500
414,23.437500
415,23.437500
416,23.437500
417,23.437500
418,23.437500
419,23.437500
420,23.437500
421,23.437500
422,23.437500
423,23.437500
424,23.437500
425,23.437500
426,23.437500
427,23.437500
428,23.437500
429,23.437500
430,23.437500
431,23.437500
432,23.437500
433,23.437500
434,23.437500
435,23.437500
436,23.437500
437,23.437500
438,23.437500
439,23.437500
440,23.437500
441,23.437500
442,19.531250
443,23.437500
444,19.531250
445,19.531250
446,19.531250
447,19.531250
448,19.531250
449,19.531250
450,19.531250
451,19.531250
452,19.531250
453,19.531250
454,19.531250
455,19.531250
456,19.531250
457,19.531250
458,19.531250
459,19.531250
460,19.531250
461,19.531250
462,19.531250
463,19.531250
464,19.531250
465,15.625000
466,19.531250
467,19.531250
468,19.531250
469,19.531250
470,19.531250
471,15.625000
472,15.625000
473,15.625000
474,15.625000
475,15.625000
476,15.625000
477,15.625000
478,15.625000
479,15.625000
480,15.625000
481,15.625000
482,15.625000
483,15.625000
484,15.625000
485,15.625000
486,15.625000
487,15.625000
488,15.625000
489,15.625000
490,15.625000
491,15.625000
492,15.625000
493,11.718750
494,11.718750
495,11.718750
496,11.718750
497,11.718750
498,11.718750
499,11.718750
500,11.718750
501,11.718750
502,11.718750
503,11.718750
504,11.718750
505,11.718750
506,11.718750
507,11.718750
508,11.718750
509,11.718750
510,7.812500
511,7.812500
512,7.812500
513,7.812500
514,7.812500
515,7.812500
516,7.812500
517,7.812500
518,7.812500
519,7.812500
520,7.812500
521,7.812500
522,7.812500
523,7.812500
524,7.812500
525,7.812500
526,3.906250
527,3.906250
528,3.906250
529,3.906250
530,3.906250
531,3.906250
532,3.906250
533,3.906250
534,3.906250
535,3.906250
536,3.906250
537,3.906250
538,3.906250
539,3.906250
540,3.906250
541,3.906250
542,3.906250
543,3.906250
544,0.000000
545,0.000000
546,0.000000
547,0.000000
548,0.000000
549,0.000000
550,0.000000
551,0.000000
552,0.000000
553,0.000000
554,0.000000
555,0.000000
556,0.000000
557,0.000000
558,-3.906250
559,0.000000
560,-3.906250
561,0.000000
562,-3.906250
563,-3.906250
564,-3.906250
565,-3.906250
566,-3.906250
567,-3.906250
568,-3.906250
569,-3.906250
570,-3.906250
571,-3.906250
572,-3.906250
573,-3.906250
574,-3.906250
575,-7.812500
576,-7.812500
577,-7.812500
578,-7.812500
579,-7.812500
580,-7.812500
581,-7.812500
582,-7.812500
583,-7.812500
584,-7.812500
585,-7.812500
586,-7.812500
587,-7.812500
588,-7.812500
589,-7.812500
590,-7.812500
591,-11.718750
592,-11.718750
593,-7.812500
594,-11.718750
595,-11.718750
596,-11.718750
597,-11.718750
598,-11.718750
599,-11.718750
600,-11.718750
601,-11.718750
602,-11.718750
603,-11.718750
604,-11.718750
605,-15.625000
606,-15.625000
607,-15.625000
608,-15.625000
609,-15.625000
610,-15.625000
611,-15.625000
612,-15.625000
613,-15.625000
614,-15.625000
615,-15.625000
616,-15.625000
617,-15.625000
618,-15.625000
619,-19.531250
620,-19.531250
621,-19.531250
622,-19.531250
623,-19.531250
624,-19.531250
625,-19.531250
626,-19.531250
627,-19.531250
628,-19.531250
629,-19.531250
630,-19.531250
631,-19.531250
632,-19.531250
633,-19.531250
634,-19.531250
635,-19.531250
636,-23.437500
637,-23.437500
638,-23.437500
639,-23.437500
640,-23.437500
641,-23.437500
642,-23.437500
643,-23.437500
644,-23.437500
645,-23.437500
646,-23.437500
647,-23.437500
648,-23.437500
649,-27.343750
650,-27.343750
651,-27.343750
652,-27.343750
653,-27.343750
654,-27.343750
655,-27.343750
656,-27.343750
657,-27.343750
658,-27.343750
659,-27.343750
660,-27.343750
661,-27.343750
662,-27.343750
663,-27.343750
664,-27.343750
665,-27.343750
666,-31.250000
667,-31.250000
668,-31.250000
669,-31.250000
670,-31.250000
671,-31.250000
672,-31.250000
673,-31.250000
674,-31.250000
675,-31.250000
676,-31.250000
677,-31.250000
678,-31.250000
679,-31.250000
680,-31.250000
681,-31.250000
682,-31.250000
683,-35.156250
684,-35.156250
685,-35.156250
686,-35.156250
687,-35.156250
688,-35.156250
689,-35.156250
690,-35.156250
691,-35.156250
692,-35.156250
693,-35.156250
694,-35.156250
695,-35.156250
696,-35.156250
697,-35.156250
698,-39.062500
699,-35.156250
700,-35.156250
701,-39.062500
702,-39.062500
703,-39.062500
704,-39.062500
705,-39.062500
706,-39.062500
707,-39.062500
708,-39.062500
709,-39.062500
710,-39.062500
711,-39.062500
712,-39.062500
713,-39.062500
714,-39.062500
715,-39.062500
716,-39.062500
717,-39.062500
718,-39.062500
719,-39.062500
720,-42.968750
721,-42.968750
722,-42.968750
723,-42.968750
724,-42.968750
725,-42.968750
726,-42.968750
727,-42.968750
728,-39.062500
729,-42.968750
730,-42.968750
731,-42.968750
732,-42.968750
733,-42.968750
734,-42.968750
735,-42.968750
736,-42.968750
737,-42.968750
738,-42.968750
739,-42.968750
740,-42.968750
741,-46.875000
742,-46.875000
743,-46.875000
744,-46.875000
745,-46.875000
746,-46.875000
747,-46.875000
748,-46.875000
749,-46.875000
750,-46.875000
751,-46.875000
752,-46.875000
753,-46.875000
754,-46.875000
755,-46.875000
756,-46.875000
757,-46.875000
758,-46.875000
759,-46.875000
760,-46.875000
761,-46.875000
762,-46.875000
763,-46.875000
764,-46.875000
765,-46.875000
766,-46.875000
767,-46.875000
768,-50.781250
769,-50.781250
770,-50.781250
771,-50.781250
772,-50.781250
773,-50.781250
774,-50.781250
775,-50.781250
776,-50.781250
777,-50.781250
778,-50.781250
779,-50.781250
780,-50.781250
781,-50.781250
782,-50.781250
783,-50.781250
784,-50.781250
785,-50.781250
786,-50.781250
787,-50.781250
788,-50.781250
789,-50.781250
790,-50.781250
791,-50.781250
792,-50.781250
793,-50.781250
794,-50.781250
795,-50.781250
796,-50.781250
797,-50.781250
798,-50.781250
799,-50.781250
800,-50.781250
801,-50.781250
802,-50.781250
803,-50.781250
804,-50.781250
805,-50.781250
806,-50.781250
807,-54.687500
808,-54.687500
809,-50.781250
810,-54.687500
811,-50.781250
812,-50.781250
813,-50.781250
814,-50.781250
815,-54.687500
816,-54.687500
817,-54.687500
818,-54.687500
819,-50.781250
820,-54.687500
821,-54.687500
822,-54.687500
823,-50.781250
824,-54.687500
825,-54.687500
826,-54.687500
827,-54.687500
828,-54.687500
829,-54.687500
830,-50.781250
831,-54.687500
832,-54.687500
833,-54.687500
834,-54.687500
835,-50.781250
836,-54.687500
837,-54.687500
838,-54.687500
839,-54.687500
840,-54.687500
841,-54.687500
842,-54.687500
843,-54.687500
844,-54.687500
845,-54.687500
846,-54.687500
847,-50.781250
848,-54.687500
849,-54.687500
850,-54.687500
851,-54.687500
852,-54.687500
853,-54.687500
854,-54.687500
855,-54.687500
856,-54.687500
857,-54.687500
858,-54.687500
859,-50.781250
860,-50.781250
861,-54.687500
862,-50.781250
863,-54.687500
864,-54.687500
865,-54.687500
866,-50.781250
867,-50.781250
868,-50.781250
869,-50.781250
870,-50.781250
871,-50.781250
872,-50.781250
873,-50.781250
874,-50.781250
875,-54.687500
876,-50.781250
877,-50.781250
878,-50.781250
879,-50.781250
880,-50.781250
881,-50.781250
882,-50.781250
883,-50.781250
884,-50.781250
885,-50.781250
886,-50.781250
887,-50.781250
888,-50.781250
889,-50.781250
890,-50.781250
891,-50.781250
892,-50.781250
893,-50.781250
894,-50.781250
895,-50.781250
896,-50.781250
897,-50.781250
898,-50.781250
899,-50.781250
900,-50.781250
901,-50.781250
902,-50.781250
903,-50.781250
904,-50.781250
905,-50.781250
906,-50.781250
907,-50.781250
908,-50.781250
909,-50.781250
910,-50.781250
911,-46.875000
912,-50.781250
913,-46.875000
914,-50.781250
915,-46.875000
916,-46.875000
917,-46.875000
918,-46.875000
919,-46.875000
920,-46.875000
921,-46.875000
922,-46.875000
923,-46.875000
924,-46.875000
925,-46.875000
926,-46.875000
927,-46.875000
928,-46.875000
929,-46.875000
930,-46.875000
931,-46.875000
932,-46.875000
933,-46.875000
934,-46.875000
935,-46.875000
936,-42.968750
937,-46.875000
938,-46.875000
939,-46.875000
940,-46.875000
941,-46.875000
942,-42.968750
943,-42.968750
944,-42.968750
945,-42.968750
946,-42.968750
947,-42.968750
948,-42.968750
949,-42.968750
950,-42.968750
951,-42.968750
952,-42.968750
953,-42.968750
954,-42.968750
955,-42.968750
956,-42.968750
957,-42.968750
958,-42.968750
959,-42.968750
960,-42.968750
961,-42.968750
962,-39.062500
963,-39.062500
964,-39.062500
965,-39.062500
966,-39.062500
967,-39.062500
968,-39.062500
969,-39.062500
970,-39.062500
971,-39.062500
972,-39.062500
973,-39.062500
974,-39.062500
975,-39.062500
976,-39.062500
977,-39.062500
978,-39.062500
979,-39.062500
980,-39.062500
981,-35.156250
982,-35.156250
983,-35.156250
984,-35.156250
985,-35.156250
986,-35.156250
987,-35.156250
988,-35.156250
989,-35.156250
990,-35.156250
991,-35.156250
992,-35.156250
993,-35.156250
994,-35.156250
995,-35.156250
996,-35.156250
997,-35.156250
998,-31.250000
999,-35.156250
1000,-35.156250
1001,-35.156250
1002,-31.250000
1003,-31.250000
1004,-31.250000
1005,-31.250000
1006,-31.250000
1007,-31.250000
1008,-31.250000
1009,-31.250000
1010,-31.250000
1011,-31.250000
1012,-31.250000
1013,-31.250000
1014,-31.250000
1015,-31.250000
1016,-31.250000
1017,-27.343750
1018,-27.343750
1019,-27.343750
1020,-27.343750
1021,-27.343750
1022,-27.343750
1023,-27.343750
1024,-27.343750
1025,-27.343750
1026,-27.343750
1027,-27.343750
1028,-27.343750
1029,-27.343750
1030,-27.343750
1031,-27.343750
1032,-27.343750
1033,-27.343750
1034,-27.343750
1035,-23.437500
1036,-23.437500
1037,-23.437500
1038,-23.437500
1039,-23.437500
1040,-23.437500
1041,-23.437500
1042,-23.437500
1043,-23.437500
1044,-23.437500
1045,-23.437500
1046,-23.437500
1047,-23.437500
1048,-23.437500
1049,-19.531250
1050,-19.531250
1051,-19.531250
1052,-19.531250
1053,-19.531250
1054,-19.531250
1055,-19.531250
1056,-19.531250
1057,-19.531250
1058,-19.531250
1059,-19.531250
1060,-19.531250
1061,-19.531250
1062,-19.531250
1063,-19.531250
1064,-19.531250
1065,-19.531250
1066,-15.625000
1067,-15.625000
1068,-15.625000
1069,-15.625000
1070,-15.625000
1071,-15.625000
1072,-15.625000
1073,-15.625000
1074,-15.625000
1075,-15.625000
1076,-15.625000
1077,-15.625000
1078,-15.625000
1079,-15.625000
1080,-11.718750
1081,-11.718750
1082,-11.718750
1083,-11.718750
1084,-11.718750
1085,-11.718750
1086,-11.718750
1087,-11.718750
1088,-11.718750
1089,-11.718750
1090,-11.718750
1091,-11.718750
1092,-11.718750
1093,-11.718750
1094,-11.718750
1095,-7.812500
1096,-7.812500
1097,-7.812500
1098,-7.812500
1099,-7.812500
1100,-7.812500
1101,-7.812500
1102,-7.812500
1103,-7.812500
1104,-7.812500
1105,-7.812500
1106,-7.812500
1107,-7.812500
1108,-7.812500
1109,-7.812500
1110,-3.906250
1111,-3.906250
1112,-3.906250
1113,-3.906250
1114,-3.906250
1115,-3.906250
1116,-3.906250
1117,-3.906250
1118,-3.906250
1119,-3.906250
1120,-3.906250
1121,-3.906250
1122,-3.906250
1123,-3.906250
1124,-3.906250
1125,-3.906250
1126,0.000000
1127,0.000000
1128,0.000000
1129,-3.906250
1130,0.000000
1131,0.000000
1132,0.000000
1133,0.000000
1134,0.000000
1135,0.000000
1136,0.000000
1137,0.000000
1138,0.000000
1139,0.000000
1140,0.000000
1141,0.000000
1142,0.000000
1143,0.000000
1144,3.906250
1145,3.906250
1146,3.906250
1147,3.906250
1148,3.906250
1149,3.906250
1150,3.906250
1151,3.906250
1152,3.906250
1153,3.906250
1154,3.906250
1155,3.906250
1156,3.906250
1157,3.906250
1158,3.906250
1159,3.906250
1160,3.906250
1161,3.906250
1162,3.906250
1163,7.812500
1164,7.812500
1165,7.812500
1166,7.812500
1167,7.812500
1168,7.812500
1169,7.812500
1170,7.812500
1171,7.812500
1172,7.812500
1173,7.812500
1174,7.812500
1175,7.812500
1176,7.812500
1177,7.812500
1178,11.718750
1179,11.718750
1180,11.718750
1181,11.718750
1182,11.718750
1183,11.718750
1184,11.718750
1185,11.718750
1186,11.718750
1187,11.718750
1188,11.718750
1189,11.718750
1190,11.718750
1191,11.718750
1192,11.718750
1193,11.718750
1194,11.718750
1195,11.718750
1196,11.718750
1197,11.718750
1198,11.718750
1199,15.625000
1200,11.718750
1201,15.625000
1202,15.625000
1203,15.625000
1204,15.625000
1205,15.625000
1206,15.625000
1207,15.625000
1208,15.625000
1209,15.625000
1210,15.625000
1211,15.625000
1212,15.625000
1213,15.625000
1214,15.625000
1215,15.625000
1216,15.625000
1217,15.625000
1218,15.625000
1219,19.531250
1220,15.625000
1221,15.625000
1222,19.531250
1223,15.625000
1224,19.531250
1225,19.531250
1226,19.531250
1227,19.531250
1228,19.531250
1229,19.531250
1230,19.531250
1231,19.531250
1232,19.531250
1233,19.531250
1234,19.531250
1235,19.531250
1236,19.531250
1237,19.531250
1238,19.531250
1239,19.531250
1240,19.531250
1241,19.531250
1242,19.531250
1243,19.531250
1244,19.531250
1245,19.531250
1246,19.531250
1247,23.437500
1248,23.437500
1249,23.437500
1250,23.437500
1251,23.437500
1252,23.437500
1253,23.437500
1254,23.437500
1255,23.437500
1256,23.437500
1257,23.437500
1258,23.437500
1259,23.437500
1260,23.437500
1261,23.437500
1262,23.437500
1263,23.437500
1264,23.437500
1265,23.437500
1266,23.437500
1267,23.437500
1268,23.437500
1269,23.437500
1270,23.437500
1271,23.437500
1272,23.437500
1273,23.437500
1274,23.437500
1275,23.437500
1276,23.437500
1277,23.437500
1278,27.343750
1279,23.437500
1280,23.437500
1281,27.343750
1282,27.343750
1283,23.437500
1284,23.437500
1285,23.437500
1286,27.343750
1287,27.343750
1288,23.437500
1289,27.343750
1290,27.343750
1291,23.437500
1292,23.437500
1293,23.437500
1294,23.437500
1295,23.437500
1296,27.343750
1297,23.437500
1298,27.343750
1299,27.343750
1300,27.343750
1301,27.343750
1302,27.343750
1303,27.343750
1304,27.343750
1305,27.343750
1306,27.343750
1307,27.343750
1308,27.343750
1309,27.343750
1310,27.343750
1311,27.343750
1312,27.343750
1313,27.343750
1314,27.343750
1315,27.343750
1316,27.343750
1317,27.343750
1318,27.343750
1319,27.343750
1320,27.343750
1321,27.343750
1322,27.343750
1323,27.343750
1324,27.343750
1325,27.343750
1326,27.343750
1327,27.343750
1328,27.343750
1329,27.343750
1330,27.343750
1331,27.343750
1332,27.343750
1333,27.343750
1334,27.343750
1335,27.343750
1336,27.343750
1337,27.343750
1338,27.343750
1339,27.343750
1340,27.343750
1341,27.343750
1342,27.343750
1343,27.343750
1344,27.343750
1345,27.343750
1346,27.343750
1347,27.343750
1348,27.343750
1349,27.343750
1350,27.343750
1351,27.343750
1352,27.343750
1353,27.343750
1354,27.343750
1355,27.343750
1356,27.343750
1357,27.343750
1358,27.343750
1359,27.343750
1360,27.343750
1361,27.343750
1362,27.343750
1363,27.343750
1364,27.343750
1365,27.343750
1366,27.343750
1367,27.343750
1368,27.343750
1369,27.343750
1370,27.343750
1371,27.343750
1372,27.343750
1373,27.343750
1374,27.343750
1375,27.343750
1376,27.343750
1377,27.343750
1378,27.343750
1379,27.343750
1380,27.343750
1381,27.343750
1382,27.343750
1383,27.343750
1384,27.343750
1385,27.343750
1386,27.343750
1387,27.343750
1388,27.343750
1389,27.343750
1390,27.343750
1391,27.343750
1392,27.343750
1393,27.343750
1394,23.437500
1395,27.343750
1396,23.437500
1397,23.437500
1398,23.437500
1399,23.437500
1400,23.437500
1401,23.437500
1402,23.437500
1403,23.437500
1404,23.437500
1405,23.437500
1406,23.437500
1407,23.437500
1408,23.437500
1409,23.437500
1410,23.437500
1411,23.437500
1412,23.437500
1413,23.437500
1414,23.437500
1415,23.437500
1416,23.437500
1417,23.437500
1418,23.437500
1419,23.437500
1420,23.437500
1421,23.437500
1422,23.437500
1423,23.437500
1424,23.437500
1425,23.437500
1426,19.531250
1427,19.531250
1428,19.531250
1429,23.437500
1430,19.531250
1431,19.531250
1432,19.531250
1433,19.531250
1434,19.531250
1435,19.531250
1436,19.531250
1437,19.531250
1438,19.531250
1439,19.531250
1440,19.531250
1441,19.531250
1442,19.531250
1443,19.531250
1444,19.531250
1445,19.531250
1446,19.531250
1447,19.531250
1448,19.531250
1449,19.531250
1450,19.531250
1451,19.531250
1452,19.531250
1453,19.531250
1454,19.531250
1455,19.531250
1456,19.531250
1457,15.625000
1458,15.625000
1459,15.625000
1460,15.625000
1461,15.625000
1462,15.625000
1463,15.625000
1464,15.625000
1465,15.625000
1466,15.625000
1467,15.625000
1468,15.625000
1469,15.625000
1470,15.625000
1471,15.625000
1472,15.625000
1473,15.625000
1474,15.625000
1475,15.625000
1476,15.625000
1477,15.625000
1478,15.625000
1479,15.625000
1480,11.718750
1481,15.625000
1482,11.718750
1483,11.718750
1484,11.718750
1485,11.718750
1486,11.718750
1487,11.718750
1488,11.718750
1489,11.718750
1490,11.718750
1491,11.718750
1492,11.718750
1493,11.718750
1494,11.718750
1495,11.718750
1496,11.718750
1497,11.718750
1498,7.812500
1499,7.812500
1500,7.812500
1501,7.812500
1502,7.812500
1503,7.812500
1504,7.812500
1505,7.812500
1506,7.812500
1507,7.812500
1508,7.812500
1509,7.812500
1510,7.812500
1511,7.812500
1512,7.812500
1513,7.812500
1514,7.812500
1515,7.812500
1516,7.812500
1517,3.906250
1518,7.812500
1519,3.906250
1520,3.906250
1521,3.906250
1522,3.906250
1523,3.906250
1524,3.906250
1525,3.906250
1526,3.906250
1527,3.906250
1528,3.906250
1529,3.906250
1530,3.906250
1531,3.906250
1532,3.906250
1533,0.000000
1534,3.906250
1535,0.000000
1536,0.000000
1537,0.000000
1538,0.000000
1539,0.000000
1540,0.000000
1541,0.000000
1542,0.000000
1543,0.000000
1544,0.000000
1545,0.000000
1546,0.000000
1547,0.000000
1548,0.000000
1549,-3.906250
1550,-3.906250
1551,-3.906250
1552,-3.906250
1553,-3.906250
1554,-3.906250
1555,-3.906250
1556,-3.906250
1557,-3.906250
1558,-3.906250
1559,-3.906250
1560,-3.906250
1561,-3.906250
1562,-3.906250
1563,-3.906250
1564,-7.812500
1565,-3.906250
1566,-3.906250
1567,-7.812500
1568,-7.812500
1569,-7.812500
1570,-7.812500
1571,-7.812500
1572,-7.812500
1573,-7.812500
1574,-7.812500
1575,-7.812500
1576,-7.812500
1577,-7.812500
1578,-7.812500
1579,-7.812500
1580,-11.718750
1581,-11.718750
1582,-7.812500
1583,-11.718750
1584,-11.718750
1585,-11.718750
1586,-11.718750
1587,-11.718750
1588,-11.718750
1589,-11.718750
1590,-11.718750
1591,-11.718750
1592,-15.625000
1593,-15.625000
1594,-15.625000
1595,-15.625000
1596,-15.625000
1597,-15.625000
1598,-15.625000
1599,-15.625000
1600,-15.625000
1601,-15.625000
1602,-15.625000
1603,-15.625000
1604,-15.625000
1605,-15.625000
1606,-15.625000
1607,-15.625000
1608,-19.531250
1609,-19.531250
1610,-19.531250
1611,-19.531250
1612,-19.531250
1613,-19.531250
1614,-19.531250
1615,-19.531250
1616,-19.531250
1617,-19.531250
1618,-19.531250
1619,-19.531250
1620,-19.531250
1621,-19.531250
1622,-19.531250
1623,-19.531250
1624,-19.531250
1625,-19.531250
1626,-23.437500
1627,-23.437500
1628,-23.437500
1629,-23.437500
1630,-23.437500
1631,-23.437500
1632,-23.437500
1633,-23.437500
1634,-23.437500
1635,-23.437500
1636,-23.437500
1637,-23.437500
1638,-23.437500
1639,-27.343750
1640,-27.343750
1641,-27.343750
1642,-27.343750
1643,-27.343750
1644,-27.343750
1645,-27.343750
1646,-27.343750
1647,-27.343750
1648,-27.343750
1649,-27.343750
1650,-27.343750
1651,-31.250000
1652,-27.343750
1653,-27.343750
1654,-31.250000
1655,-31.250000
1656,-31.250000
1657,-31.250000
1658,-31.250000
1659,-31.250000
1660,-31.250000
1661,-31.250000
1662,-31.250000
1663,-31.250000
1664,-31.250000
1665,-31.250000
1666,-31.250000
1667,-35.156250
1668,-31.250000
1669,-35.156250
1670,-31.250000
1671,-35.156250
1672,-35.156250
1673,-35.156250
1674,-35.156250
1675,-35.156250
1676,-35.156250
1677,-35.156250
1678,-35.156250
1679,-35.156250
1680,-35.156250
1681,-35.156250
1682,-35.156250
1683,-39.062500
1684,-35.156250
1685,-39.062500
1686,-35.156250
1687,-39.062500
1688,-39.062500
1689,-39.062500
1690,-39.062500
1691,-39.062500
1692,-39.062500
1693,-39.062500
1694,-39.062500
1695,-39.062500
1696,-39.062500
1697,-39.062500
1698,-39.062500
1699,-39.062500
1700,-39.062500
1701,-39.062500
1702,-39.062500
1703,-42.968750
1704,-42.968750
1705,-39.062500
1706,-42.968750
1707,-39.062500
1708,-42.968750
1709,-42.968750
1710,-42.968750
1711,-42.968750
1712,-42.968750
1713,-42.968750
1714,-42.968750
1715,-42.968750
1716,-42.968750
1717,-42.968750
1718,-42.968750
1719,-42.968750
1720,-42.968750
1721,-42.968750
1722,-42.968750
1723,-42.968750
1724,-42.968750
1725,-42.968750
1726,-42.968750
1727,-42.968750
1728,-42.968750
1729,-46.875000
1730,-46.875000
1731,-46.875000
1732,-46.875000
1733,-46.875000
1734,-46.875000
1735,-46.875000
1736,-46.875000
1737,-46.875000
1738,-46.875000
1739,-46.875000
1740,-46.875000
1741,-46.875000
1742,-46.875000
1743,-46.875000
1744,-46.875000
1745,-46.875000
1746,-46.875000
1747,-46.875000
1748,-46.875000
1749,-46.875000
1750,-46.875000
1751,-46.875000
1752,-46.875000
1753,-50.781250
1754,-50.781250
1755,-50.781250
1756,-50.781250
1757,-50.781250
1758,-46.875000
1759,-50.781250
1760,-50.781250
1761,-50.781250
1762,-50.781250
1763,-50.781250
1764,-50.781250
1765,-50.781250
1766,-50.781250
1767,-50.781250
1768,-50.781250
1769,-50.781250
1770,-50.781250
1771,-50.781250
1772,-50.781250
1773,-50.781250
1774,-50.781250
1775,-50.781250
1776,-50.781250
1777,-50.781250
1778,-50.781250
1779,-50.781250
1780,-50.781250
1781,-50.781250
1782,-50.781250
1783,-50.781250
1784,-50.781250
1785,-50.781250
1786,-50.781250
1787,-50.781250
1788,-50.781250
1789,-50.781250
1790,-54.687500
1791,-50.781250
1792,-50.781250
1793,-54.687500
1794,-54.687500
1795,-54.687500
1796,-54.687500
1797,-54.687500
1798,-54.687500
1799,-54.687500
1800,-54.687500
1801,-54.687500
1802,-54.687500
1803,-54.687500
1804,-50.781250
1805,-54.687500
1806,-54.687500
1807,-54.687500
1808,-54.687500
1809,-54.687500
1810,-54.687500
1811,-54.687500
1812,-54.687500
1813,-54.687500
1814,-54.687500
1815,-54.687500
1816,-54.687500
1817,-54.687500
1818,-54.687500
1819,-54.687500
1820,-54.687500
1821,-54.687500
1822,-54.687500
1823,-54.687500
1824,-54.687500
1825,-54.687500
1826,-54.687500
1827,-54.687500
1828,-54.687500
1829,-54.687500
1830,-54.687500
1831,-54.687500
1832,-54.687500
1833,-54.687500
1834,-54.687500
1835,-54.687500
1836,-54.687500
1837,-54.687500
1838,-54.687500
1839,-54.687500
1840,-54.687500
1841,-54.687500
1842,-54.687500
1843,-54.687500
1844,-54.687500
1845,-54.687500
1846,-54.687500
1847,-54.687500
1848,-54.687500
1849,-54.687500
1850,-54.687500
1851,-54.687500
1852,-54.687500
1853,-54.687500
1854,-54.687500
1855,-54.687500
1856,-54.687500
1857,-54.687500
1858,-54.687500
1859,-50.781250
1860,-50.781250
1861,-54.687500
1862,-54.687500
1863,-54.687500
1864,-54.687500
1865,-50.781250
1866,-50.781250
1867,-50.781250
1868,-54.687500
1869,-50.781250
1870,-50.781250
1871,-50.781250
1872,-50.781250
1873,-50.781250
1874,-50.781250
1875,-50.781250
1876,-50.781250
1877,-50.781250
1878,-50.781250
1879,-50.781250
1880,-50.781250
1881,-50.781250
1882,-50.781250
1883,-50.781250
1884,-50.781250
1885,-50.781250
1886,-50.781250
1887,-50.781250
1888,-50.781250
1889,-50.781250
1890,-50.781250
1891,-50.781250
1892,-50.781250
1893,-50.781250
1894,-50.781250
1895,-50.781250
1896,-50.781250
1897,-50.781250
1898,-50.781250
1899,-50.781250
1900,-50.781250
1901,-50.781250
1902,-50.781250
1903,-50.781250
1904,-50.781250
1905,-46.875000
1906,-46.875000
1907,-50.781250
1908,-46.875000
1909,-46.875000
1910,-46.875000
1911,-46.875000
1912,-46.875000
1913,-46.875000
1914,-46.875000
1915,-46.875000
1916,-46.875000
1917,-46.875000
1918,-46.875000
1919,-46.875000
1920,-46.875000
1921,-46.875000
1922,-46.875000
1923,-46.875000
1924,-46.875000
1925,-46.875000
1926,-46.875000
1927,-46.875000
1928,-46.875000
1929,-46.875000
1930,-46.875000
1931,-46.875000
1932,-42.968750
1933,-46.875000
1934,-42.968750
1935,-46.875000
1936,-42.968750
1937,-42.968750
1938,-42.968750
1939,-42.968750
1940,-42.968750
1941,-42.968750
1942,-42.968750
1943,-42.968750
1944,-42.968750
1945,-42.968750
1946,-42.968750
1947,-42.968750
1948,-42.968750
1949,-42.968750
1950,-42.968750
1951,-42.968750
1952,-42.968750
1953,-42.968750
1954,-42.968750
1955,-42.968750
1956,-39.062500
1957,-42.968750
1958,-39.062500
1959,-39.062500
1960,-39.062500
1961,-39.062500
1962,-39.062500
1963,-39.062500
1964,-39.062500
1965,-39.062500
1966,-39.062500
1967,-39.062500
1968,-39.062500
1969,-39.062500
1970,-39.062500
1971,-39.062500
1972,-39.062500
1973,-39.062500
1974,-35.156250
1975,-35.156250
1976,-35.156250
1977,-39.062500
1978,-35.156250
1979,-35.156250
1980,-35.156250
1981,-35.156250
1982,-35.156250
1983,-35.156250
1984,-35.156250
1985,-35.156250
1986,-35.156250
1987,-35.156250
1988,-35.156250
1989,-35.156250
1990,-35.156250
1991,-35.156250
1992,-35.156250
1993,-31.250000
1994,-31.250000
1995,-31.250000
1996,-31.250000
1997,-31.250000
1998,-31.250000
1999,-31.250000
2000,-31.250000
2001,-31.250000
2002,-31.250000
2003,-31.250000
2004,-31.250000
2005,-31.250000
2006,-31.250000
2007,-27.343750
2008,-31.250000
2009,-27.343750
2010,-31.250000
2011,-27.343750
2012,-27.343750
2013,-27.343750
2014,-27.343750
2015,-27.343750
2016,-27.343750
2017,-27.343750
2018,-27.343750
2019,-27.343750
2020,-27.343750
2021,-27.343750
2022,-27.343750
2023,-27.343750
2024,-23.437500
2025,-23.437500
2026,-23.437500
2027,-23.437500
2028,-23.437500
2029,-23.437500
2030,-23.437500
2031,-23.437500
2032,-23.437500
2033,-23.437500
2034,-23.437500
2035,-23.437500
2036,-23.437500
2037,-23.437500
2038,-23.437500
2039,-23.437500
2040,-23.437500
2041,-19.531250
2042,-19.531250
2043,-19.531250
2044,-19.531250
2045,-19.531250
2046,-19.531250
2047,-19.531250
2048,-19.531250
2049,-19.531250
2050,-19.531250
2051,-19.531250
2052,-19.531250
2053,-19.531250
2054,-15.625000
2055,-15.625000
2056,-15.625000
2057,-15.625000
2058,-15.625000
2059,-15.625000
2060,-15.625000
2061,-15.625000
2062,-15.625000
2063,-15.625000
2064,-15.625000
2065,-15.625000
2066,-15.625000
2067,-15.625000
2068,-15.625000
2069,-15.625000
2070,-15.625000
2071,-15.625000
2072,-11.718750
2073,-11.718750
2074,-11.718750
2075,-11.718750
2076,-11.718750
2077,-11.718750
2078,-11.718750
2079,-11.718750
2080,-11.718750
2081,-11.718750
2082,-11.718750
2083,-11.718750
2084,-11.718750
2085,-11.718750
2086,-11.718750
2087,-7.812500
2088,-11.718750
2089,-11.718750
2090,-7.812500
2091,-7.812500
2092,-7.812500
2093,-7.812500
2094,-7.812500
2095,-7.812500
2096,-7.812500
2097,-7.812500
2098,-7.812500
2099,-7.812500
2100,-7.812500
2101,-7.812500
2102,-7.812500
2103,-7.812500
2104,-3.906250
2105,-3.906250
2106,-3.906250
2107,-3.906250
2108,-3.906250
2109,-3.906250
2110,-3.906250
2111,-3.906250
2112,-3.906250
2113,-3.906250
2114,-3.906250
2115,-3.906250
2116,-3.906250
2117,-3.906250
2118,-3.906250
2119,0.000000
2120,-3.906250
2121,0.000000
2122,0.000000
2123,0.000000
2124,0.000000
2125,0.000000
2126,0.000000
2127,0.000000
2128,0.000000
2129,0.000000
2130,0.000000
2131,0.000000
2132,0.000000
2133,0.000000
2134,3.906250
2135,3.906250
2136,3.906250
2137,3.906250
2138,3.906250
2139,3.906250
2140,3.906250
2141,3.906250
2142,3.906250
2143,3.906250
2144,3.906250
2145,3.906250
2146,3.906250
2147,3.906250
2148,3.906250
2149,3.906250
2150,3.906250
2151,7.812500
2152,7.812500
2153,7.812500
2154,7.812500
2155,7.812500
2156,7.812500
2157,7.812500
2158,7.812500
2159,7.812500
2160,7.812500
2161,7.812500
2162,7.812500
2163,7.812500
2164,7.812500
2165,7.812500
2166,7.812500
2167,7.812500
2168,7.812500
2169,7.812500
2170,7.812500
2171,11.718750
2172,11.718750
2173,11.718750
2174,11.718750
2175,11.718750
2176,11.718750
2177,11.718750
2178,11.718750
2179,11.718750
2180,11.718750
2181,11.718750
2182,11.718750
2183,11.718750
2184,11.718750
2185,11.718750
2186,11.718750
2187,11.718750
2188,11.718750
2189,11.718750
2190,11.718750
2191,11.718750
2192,11.718750
2193,15.625000
2194,15.625000
2195,15.625000
2196,15.625000
2197,15.625000
2198,15.625000
2199,15.625000
2200,15.625000
2201,15.625000
2202,15.625000
2203,15.625000
2204,15.625000
2205,15.625000
2206,15.625000
2207,15.625000
2208,15.625000
2209,15.625000
2210,15.625000
2211,15.625000
2212,15.625000
2213,15.625000
2214,15.625000
2215,15.625000
2216,19.531250
2217,19.531250
2218,19.531250
2219,19.531250
2220,19.531250
2221,19.531250
2222,19.531250
2223,19.531250
2224,19.531250
2225,19.531250
2226,19.531250
2227,19.531250
2228,19.531250
2229,19.531250
2230,19.531250
2231,19.531250
2232,19.531250
2233,19.531250
2234,19.531250
2235,19.531250
2236,19.531250
2237,19.531250
2238,19.531250
2239,19.531250
2240,19.531250
2241,23.437500
2242,23.437500
2243,23.437500
2244,23.437500
2245,23.437500
2246,23.437500
2247,23.437500
2248,23.437500
2249,23.437500
2250,23.437500
2251,23.437500
2252,23.437500
2253,23.437500
2254,23.437500
2255,23.437500
2256,23.437500
2257,23.437500
2258,23.437500
2259,23.437500
2260,23.437500
2261,23.437500
2262,23.437500
2263,23.437500
2264,23.437500
2265,23.437500
2266,23.437500
2267,23.437500
2268,23.437500
2269,23.437500
2270,23.437500
2271,23.437500
2272,23.437500
2273,23.437500
2274,23.437500
2275,23.437500
2276,23.437500
2277,23.437500
2278,23.437500
2279,23.437500
2280,23.437500
2281,27.343750
2282,27.343750
2283,27.343750
2284,27.343750
2285,27.343750
2286,27.343750
2287,27.343750
2288,27.343750
2289,27.343750
2290,27.343750
2291,27.343750
2292,27.343750
2293,27.343750
2294,27.343750
2295,27.343750
2296,27.343750
2297,27.343750
2298,27.343750
2299,27.343750
2300,27.343750
2301,27.343750
2302,27.343750
2303,27.343750
2304,27.343750
2305,27.343750
2306,27.343750
2307,27.343750
2308,27.343750
2309,27.343750
2310,27.343750
2311,27.343750
2312,27.343750
2313,27.343750
2314,27.343750
2315,27.343750
2316,27.343750
2317,27.343750
2318,27.343750
2319,27.343750
2320,27.343750
2321,27.343750
2322,27.343750
2323,27.343750
2324,27.343750
2325,27.343750
2326,27.343750
2327,27.343750
2328,27.343750
2329,27.343750
2330,27.343750
2331,27.343750
2332,27.343750
2333,27.343750
2334,27.343750
2335,27.343750
2336,27.343750
2337,27.343750
2338,27.343750
2339,27.343750
2340,27.343750
2341,27.343750
2342,27.343750
2343,27.343750
2344,27.343750
2345,27.343750
2346,27.343750
2347,27.343750
2348,27.343750
2349,27.343750
2350,27.343750
2351,27.343750
2352,27.343750
2353,27.343750
2354,27.343750
2355,27.343750
2356,27.343750
2357,27.343750
2358,27.343750
2359,27.343750
2360,27.343750
2361,27.343750
2362,27.343750
2363,27.343750
2364,27.343750
2365,27.343750
2366,27.343750
2367,27.343750
2368,27.343750
2369,27.343750
2370,27.343750
2371,27.343750
2372,27.343750
2373,27.343750
2374,27.343750
2375,27.343750
2376,27.343750
2377,23.437500
2378,27.343750
2379,23.437500
2380,23.437500
2381,23.437500
2382,27.343750
2383,23.437500
2384,27.343750
2385,23.437500
2386,23.437500
2387,23.437500
2388,23.437500
2389,23.437500
2390,23.437500
2391,23.437500
2392,23.437500
2393,23.437500
2394,23.437500
2395,23.437500
2396,23.437500
2397,23.437500
2398,23.437500
2399,23.437500
2400,23.437500
2401,23.437500
2402,23.437500
2403,23.437500
2404,23.437500
2405,23.437500
2406,23.437500
2407,23.437500
2408,23.437500
2409,23.437500
2410,23.437500
2411,23.437500
2412,23.437500
2413,23.437500
2414,23.437500
2415,23.437500
2416,23.437500
2417,23.437500
2418,23.437500
2419,23.437500
2420,23.437500
2421,19.531250
2422,19.531250
2423,19.531250
2424,19.531250
2425,23.437500
2426,19.531250
2427,19.531250
2428,19.531250
2429,19.531250
2430,19.531250
2431,19.531250
2432,19.531250
2433,19.531250
2434,19.531250
2435,19.531250
2436,19.531250
2437,19.531250
2438,19.531250
2439,19.531250
2440,19.531250
2441,15.625000
2442,19.531250
2443,19.531250
2444,15.625000
2445,15.625000
2446,15.625000
2447,15.625000
2448,15.625000
2449,15.625000
2450,15.625000
2451,15.625000
2452,15.625000
2453,15.625000
2454,15.625000
2455,15.625000
2456,15.625000
2457,15.625000
2458,15.625000
2459,15.625000
2460,15.625000
2461,15.625000
2462,15.625000
2463,11.718750
2464,11.718750
2465,15.625000
2466,15.625000
2467,11.718750
2468,11.718750
2469,11.718750
2470,11.718750
2471,11.718750
2472,11.718750
2473,11.718750
2474,11.718750
2475,11.718750
2476,11.718750
2477,11.718750
2478,11.718750
2479,11.718750
2480,11.718750
2481,11.718750
2482,11.718750
2483,11.718750
2484,11.718750
2485,7.812500
2486,11.718750
2487,7.812500
2488,7.812500
2489,7.812500
2490,7.812500
2491,7.812500
2492,7.812500
2493,7.812500
2494,7.812500
2495,7.812500
2496,7.812500
2497,7.812500
2498,7.812500
2499,7.812500
2500,7.812500
2501,3.906250
2502,7.812500
2503,7.812500
2504,3.906250
2505,3.906250
2506,3.906250
2507,3.906250
2508,3.906250
2509,3.906250
2510,3.906250
2511,3.906250
2512,3.906250
2513,3.906250
2514,3.906250
2515,3.906250
2516,3.906250
2517,3.906250
2518,3.906250
2519,0.000000
2520,3.906250
2521,3.906250
2522,0.000000
2523,0.000000
2524,0.000000
2525,0.000000
2526,0.000000
2527,0.000000
2528,0.000000
2529,0.000000
2530,0.000000
2531,0.000000
2532,0.000000
2533,0.000000
2534,0.000000
2535,0.000000
2536,0.000000
2537,-3.906250
2538,-3.906250
2539,-3.906250
2540,-3.906250
2541,-3.906250
2542,-3.906250
2543,-3.906250
2544,-3.906250
2545,-3.906250
2546,-3.906250
2547,-3.906250
2548,-3.906250
2549,-3.906250
2550,-3.906250
2551,-7.812500
2552,-7.812500
2553,-7.812500
2554,-7.812500
2555,-7.812500
2556,-7.812500
2557,-7.812500
2558,-7.812500
2559,-7.812500
2560,-7.812500
2561,-7.812500
2562,-7.812500
2563,-7.812500
2564,-7.812500
2565,-7.812500
2566,-7.812500
2567,-11.718750
2568,-7.812500
2569,-11.718750
2570,-11.718750
2571,-11.718750
2572,-11.718750
2573,-11.718750
2574,-11.718750
2575,-11.718750
2576,-11.718750
2577,-11.718750
2578,-11.718750
2579,-11.718750
2580,-11.718750
2581,-11.718750
2582,-15.625000
2583,-15.625000
2584,-15.625000
2585,-15.625000
2586,-15.625000
2587,-15.625000
2588,-15.625000
2589,-15.625000
2590,-15.625000
2591,-15.625000
2592,-15.625000
2593,-15.625000
2594,-15.625000
2595,-19.531250
2596,-19.531250
2597,-19.531250
2598,-15.625000
2599,-19.531250
2600,-19.531250
2601,-19.531250
2602,-19.531250
2603,-19.531250
2604,-19.531250
2605,-19.531250
2606,-19.531250
2607,-19.531250
2608,-19.531250
2609,-23.437500
2610,-19.531250
2611,-23.437500
2612,-23.437500
2613,-23.437500
2614,-23.437500
2615,-23.437500
2616,-23.437500
2617,-23.437500
2618,-23.437500
2619,-23.437500
2620,-23.437500
2621,-23.437500
2622,-23.437500
2623,-23.437500
2624,-23.437500
2625,-23.437500
2626,-23.437500
2627,-27.343750
2628,-23.437500
2629,-27.343750
2630,-27.343750
2631,-27.343750
2632,-27.343750
2633,-27.343750
2634,-27.343750
2635,-27.343750
2636,-27.343750
2637,-27.343750
2638,-27.343750
2639,-27.343750
2640,-27.343750
2641,-27.343750
2642,-27.343750
2643,-31.250000
2644,-31.250000
2645,-31.250000
2646,-27.343750
2647,-31.250000
2648,-31.250000
2649,-31.250000
2650,-31.250000
2651,-31.250000
2652,-31.250000
2653,-31.250000
2654,-31.250000
2655,-31.250000
2656,-31.250000
2657,-31.250000
2658,-31.250000
2659,-31.250000
2660,-31.250000
2661,-35.156250
2662,-35.156250
2663,-35.156250
2664,-35.156250
2665,-35.156250
2666,-35.156250
2667,-35.156250
2668,-35.156250
2669,-35.156250
2670,-35.156250
2671,-35.156250
2672,-35.156250
2673,-35.156250
2674,-35.156250
2675,-35.156250
2676,-39.062500
2677,-39.062500
2678,-39.062500
2679,-39.062500
2680,-39.062500
2681,-39.062500
2682,-39.062500
2683,-39.062500
2684,-39.062500
2685,-39.062500
2686,-39.062500
2687,-39.062500
2688,-39.062500
2689,-39.062500
2690,-39.062500
2691,-39.062500
2692,-39.062500
2693,-39.062500
2694,-39.062500
2695,-42.968750
2696,-42.968750
2697,-42.968750
2698,-42.968750
2699,-42.968750
2700,-42.968750
2701,-42.968750
2702,-42.968750
2703,-42.968750
2704,-42.968750
2705,-42.968750
2706,-42.968750
2707,-42.968750
2708,-42.968750
2709,-42.968750
2710,-42.968750
2711,-42.968750
2712,-42.968750
2713,-42.968750
2714,-42.968750
2715,-46.875000
2716,-46.875000
2717,-46.875000
2718,-46.875000
2719,-46.875000
2720,-46.875000
2721,-46.875000
2722,-46.875000
2723,-46.875000
2724,-46.875000
2725,-46.875000
2726,-46.875000
2727,-46.875000
2728,-46.875000
2729,-46.875000
2730,-46.875000
2731,-46.875000
2732,-46.875000
2733,-46.875000
2734,-46.875000
2735,-46.875000
2736,-46.875000
2737,-46.875000
2738,-46.875000
2739,-50.781250
2740,-50.781250
2741,-46.875000
2742,-50.781250
2743,-50.781250
2744,-50.781250
2745,-50.781250
2746,-50.781250
2747,-50.781250
2748,-50.781250
2749,-50.781250
2750,-50.781250
2751,-50.781250
2752,-50.781250
2753,-50.781250
2754,-50.781250
2755,-50.781250
2756,-50.781250
2757,-50.781250
2758,-50.781250
2759,-50.781250
2760,-50.781250
2761,-50.781250
2762,-50.781250
2763,-50.781250
2764,-50.781250
2765,-50.781250
2766,-50.781250
2767,-50.781250
2768,-50.781250
2769,-50.781250
2770,-50.781250
2771,-50.781250
2772,-50.781250
2773,-50.781250
2774,-54.687500
2775,-50.781250
2776,-50.781250
2777,-50.781250
2778,-50.781250
2779,-54.687500
2780,-54.687500
2781,-54.687500
2782,-54.687500
2783,-54.687500
2784,-54.687500
2785,-50.781250
2786,-54.687500
2787,-50.781250
2788,-54.687500
2789,-50.781250
2790,-50.781250
2791,-54.687500
2792,-54.687500
2793,-54.687500
2794,-54.687500
2795,-54.687500
2796,-54.687500
2797,-54.687500
2798,-54.687500
2799,-54.687500
2800,-54.687500
2801,-50.781250
2802,-54.687500
2803,-54.687500
2804,-54.687500
2805,-54.687500
2806,-54.687500
2807,-54.687500
2808,-54.687500
2809,-54.687500
2810,-54.687500
2811,-54.687500
2812,-54.687500
2813,-54.687500
2814,-54.687500
2815,-54.687500
2816,-54.687500
2817,-54.687500
2818,-54.687500
2819,-54.687500
2820,-54.687500
2821,-54.687500
2822,-54.687500
2823,-54.687500
2824,-54.687500
2825,-54.687500
2826,-54.687500
2827,-54.687500
2828,-54.687500
2829,-54.687500
2830,-54.687500
2831,-54.687500
2832,-54.687500
2833,-54.687500
2834,-54.687500
2835,-54.687500
2836,-54.687500
2837,-54.687500
2838,-54.687500
2839,-54.687500
2840,-54.687500
2841,-54.687500
2842,-54.687500
2843,-54.687500
2844,-54.687500
2845,-54.687500
2846,-54.687500
2847,-54.687500
2848,-54.687500
2849,-54.687500
2850,-54.687500
2851,-54.687500
2852,-54.687500
2853,-54.687500
2854,-54.687500
2855,-54.687500
2856,-54.687500
2857,-54.687500
2858,-54.687500
2859,-54.687500
2860,-54.687500
2861,-50.781250
2862,-50.781250
2863,-54.687500
2864,-50.781250
2865,-54.687500
2866,-50.781250
2867,-50.781250
2868,-50.781250
2869,-54.687500
2870,-50.781250
2871,-50.781250
2872,-50.781250
2873,-50.781250
2874,-50.781250
2875,-50.781250
2876,-50.781250
2877,-50.781250
2878,-50.781250
2879,-50.781250
2880,-50.781250
2881,-50.781250
2882,-50.781250
2883,-50.781250
2884,-50.781250
2885,-50.781250
2886,-50.781250
2887,-50.781250
2888,-50.781250
2889,-50.781250
2890,-50.781250
2891,-50.781250
2892,-50.781250
2893,-50.781250
2894,-46.875000
2895,-46.875000
2896,-50.781250
2897,-50.781250
2898,-46.875000
2899,-46.875000
2900,-46.875000
2901,-46.875000
2902,-46.875000
2903,-46.875000
2904,-46.875000
2905,-46.875000
2906,-46.875000
2907,-46.875000
2908,-46.875000
2909,-46.875000
2910,-46.875000
2911,-46.875000
2912,-46.875000
2913,-46.875000
2914,-46.875000
2915,-46.875000
2916,-46.875000
2917,-46.875000
2918,-46.875000
2919,-46.875000
2920,-42.968750
2921,-42.968750
2922,-46.875000
2923,-42.968750
2924,-42.968750
2925,-42.968750
2926,-42.968750
2927,-46.875000
2928,-42.968750
2929,-42.968750
2930,-42.968750
2931,-42.968750
2932,-42.968750
2933,-42.968750
2934,-42.968750
2935,-42.968750
2936,-42.968750
2937,-42.968750
2938,-42.968750
2939,-42.968750
2940,-42.968750
2941,-42.968750
2942,-42.968750
2943,-42.968750
2944,-42.968750
2945,-42.968750
2946,-42.968750
2947,-39.062500
2948,-42.968750
2949,-39.062500
2950,-39.062500
2951,-39.062500
2952,-39.062500
2953,-39.062500
2954,-39.062500
2955,-39.062500
2956,-39.062500
2957,-39.062500
2958,-39.062500
2959,-39.062500
2960,-39.062500
2961,-39.062500
2962,-39.062500
2963,-39.062500
2964,-39.062500
2965,-39.062500
2966,-35.156250
2967,-35.156250
2968,-35.156250
2969,-35.156250
2970,-35.156250
2971,-35.156250
2972,-35.156250
2973,-35.156250
2974,-35.156250
2975,-35.156250
2976,-35.156250
2977,-35.156250
2978,-35.156250
2979,-35.156250
2980,-35.156250
2981,-35.156250
2982,-35.156250
2983,-31.250000
2984,-31.250000
2985,-31.250000
2986,-31.250000
2987,-31.250000
2988,-31.250000
2989,-31.250000
2990,-31.250000
2991,-31.250000
2992,-31.250000
2993,-31.250000
2994,-31.250000
2995,-31.250000
2996,-31.250000
2997,-31.250000
2998,-27.343750
2999,-31.250000
3000,-27.343750
3001,-27.343750
3002,-27.343750
3003,-27.343750
3004,-27.343750
3005,-27.343750
3006,-27.343750
3007,-27.343750
3008,-27.343750
3009,-27.343750
3010,-27.343750
3011,-27.343750
3012,-27.343750
3013,-27.343750
3014,-27.343750
3015,-23.437500
3016,-23.437500
3017,-23.437500
3018,-23.437500
3019,-23.437500
3020,-27.343750
3021,-23.437500
3022,-23.437500
3023,-23.437500
3024,-23.437500
3025,-23.437500
3026,-23.437500
3027,-23.437500
3028,-23.437500
3029,-23.437500
3030,-19.531250
3031,-23.437500
3032,-19.531250
3033,-19.531250
3034,-19.531250
3035,-19.531250
3036,-19.531250
3037,-19.531250
3038,-19.531250
3039,-19.531250
3040,-19.531250
3041,-19.531250
3042,-19.531250
3043,-19.531250
3044,-19.531250
3045,-15.625000
3046,-15.625000
3047,-15.625000
3048,-15.625000
3049,-15.625000
3050,-15.625000
3051,-15.625000
3052,-15.625000
3053,-15.625000
3054,-15.625000
3055,-15.625000
3056,-15.625000
3057,-15.625000
3058,-15.625000
3059,-15.625000
3060,-15.625000
3061,-11.718750
3062,-11.718750
3063,-11.718750
3064,-11.718750
3065,-11.718750
3066,-11.718750
3067,-11.718750
3068,-11.718750
3069,-11.718750
3070,-11.718750
3071,-11.718750
3072,-11.718750
3073,-11.718750
3074,-11.718750
3075,-11.718750
3076,-11.718750
3077,-7.812500
3078,-7.812500
3079,-7.812500
3080,-7.812500
3081,-7.812500
3082,-7.812500
3083,-7.812500
3084,-7.812500
3085,-7.812500
3086,-7.812500
3087,-7.812500
3088,-7.812500
3089,-7.812500
3090,-7.812500
3091,-7.812500
3092,-7.812500
3093,-3.906250
3094,-3.906250
3095,-3.906250
3096,-3.906250
3097,-3.906250
3098,-3.906250
3099,-3.906250
3100,-3.906250
3101,-3.906250
3102,-3.906250
3103,-3.906250
3104,-3.906250
3105,-3.906250
3106,-3.906250
3107,-3.906250
3108,-3.906250
3109,-3.906250
3110,0.000000
3111,0.000000
3112,0.000000
3113,0.000000
3114,0.000000
3115,0.000000
3116,0.000000
3117,0.000000
3118,0.000000
3119,0.000000
3120,0.000000
3121,-3.906250
3122,0.000000
3123,0.000000
3124,0.000000
3125,0.000000
3126,3.906250
3127,3.906250
3128,3.906250
3129,3.906250
3130,3.906250
3131,3.906250
3132,3.906250
3133,3.906250
3134,3.906250
3135,3.906250
3136,3.906250
3137,3.906250
3138,7.812500
3139,3.906250
3140,3.906250
3141,3.906250
3142,3.906250
3143,3.906250
3144,7.812500
3145,7.812500
3146,7.812500
3147,7.812500
3148,7.812500
3149,7.812500
3150,11.718750
3151,7.812500
3152,11.718750
3153,7.812500
3154,7.812500
3155,7.812500
3156,7.812500
3157,7.812500
3158,7.812500
3159,7.812500
3160,11.718750
3161,7.812500
3162,11.718750
3163,7.812500
3164,11.718750
3165,11.718750
3166,11.718750
3167,11.718750
3168,11.718750
3169,11.718750
3170,11.718750
3171,11.718750
3172,11.718750
3173,11.718750
3174,11.718750
3175,11.718750
3176,11.718750
3177,11.718750
3178,15.625000
3179,15.625000
3180,15.625000
3181,11.718750
3182,15.625000
3183,15.625000
3184,15.625000
3185,15.625000
3186,15.625000
3187,15.625000
3188,15.625000
3189,15.625000
3190,15.625000
3191,15.625000
3192,15.625000
3193,15.625000
3194,15.625000
3195,15.625000
3196,15.625000
3197,15.625000
3198,15.625000
3199,15.625000
3200,15.625000
3201,19.531250
3202,19.531250
3203,19.531250
3204,19.531250
3205,19.531250
3206,19.531250
3207,19.531250
3208,19.531250
3209,19.531250
3210,19.531250
3211,19.531250
3212,19.531250
3213,19.531250
3214,19.531250
3215,19.531250
3216,15.625000
3217,19.531250
3218,19.531250
3219,19.531250
3220,19.531250
3221,19.531250
3222,19.531250
3223,19.531250
3224,19.531250
3225,19.531250
3226,19.531250
3227,19.531250
3228,19.531250
3229,19.531250
3230,19.531250
3231,23.437500
3232,23.437500
3233,23.437500
3234,23.437500
3235,23.437500
3236,23.437500
3237,23.437500
3238,23.437500
3239,23.437500
3240,23.437500
3241,23.437500
3242,23.437500
3243,23.437500
3244,23.437500
3245,23.437500
3246,23.437500
3247,23.437500
3248,23.437500
3249,23.437500
3250,23.437500
3251,23.437500
3252,23.437500
3253,23.437500
3254,23.437500
3255,23.437500
3256,23.437500
3257,23.437500
3258,23.437500
3259,23.437500
3260,23.437500
3261,23.437500
3262,23.437500
3263,23.437500
3264,23.437500
3265,23.437500
3266,23.437500
3267,23.437500
3268,27.343750
3269,27.343750
3270,23.437500
3271,23.437500
3272,23.437500
3273,23.437500
3274,23.437500
3275,27.343750
3276,27.343750
3277,27.343750
3278,27.343750
3279,27.343750
3280,27.343750
3281,27.343750
3282,27.343750
3283,27.343750
3284,27.343750
3285,27.343750
3286,27.343750
3287,27.343750
3288,27.343750
3289,27.343750
3290,27.343750
3291,27.343750
3292,27.343750
3293,27.343750
3294,27.343750
3295,27.343750
3296,27.343750
3297,27.343750
3298,27.343750
3299,27.343750
3300,27.343750
3301,27.343750
3302,27.343750
3303,27.343750
3304,27.343750
3305,27.343750
3306,27.343750
3307,27.343750
3308,27.343750
3309,27.343750
3310,27.343750
3311,27.343750
3312,27.343750
3313,27.343750
3314,27.343750
3315,27.343750
3316,27.343750
3317,27.343750
3318,27.343750
3319,27.343750
3320,27.343750
3321,27.343750
3322,27.343750
3323,27.343750
3324,27.343750
3325,27.343750
3326,27.343750
3327,27.343750
3328,27.343750
3329,27.343750
3330,27.343750
3331,27.343750
3332,27.343750
3333,27.343750
3334,27.343750
3335,27.343750
3336,27.343750
3337,27.343750
3338,27.343750
3339,27.343750
3340,27.343750
3341,27.343750
3342,27.343750
3343,27.343750
3344,27.343750
3345,27.343750
3346,27.343750
3347,27.343750
3348,27.343750
3349,27.343750
3350,27.343750
3351,27.343750
3352,27.343750
3353,27.343750
3354,27.343750
3355,27.343750
3356,27.343750
3357,27.343750
3358,27.343750
3359,27.343750
3360,27.343750
3361,23.437500
3362,27.343750
3363,27.343750
3364,27.343750
3365,27.343750
3366,27.343750
3367,27.343750
3368,27.343750
3369,23.437500
3370,27.343750
3371,23.437500
3372,23.437500
3373,23.437500
3374,27.343750
3375,23.437500
3376,23.437500
3377,23.437500
3378,23.437500
3379,23.437500
3380,23.437500
3381,23.437500
3382,23.437500
3383,23.437500
3384,23.437500
3385,23.437500
3386,23.437500
3387,23.437500
3388,23.437500
3389,23.437500
3390,23.437500
3391,23.437500
3392,23.437500
3393,23.437500
3394,23.437500
3395,23.437500
3396,23.437500
3397,23.437500
3398,23.437500
3399,23.437500
3400,23.437500
3401,23.437500
3402,23.437500
3403,23.437500
3404,23.437500
3405,23.437500
3406,23.437500
3407,23.437500
3408,23.437500
3409,23.437500
3410,23.437500
3411,23.437500
3412,19.531250
3413,19.531250
3414,19.531250
3415,19.531250
3416,19.531250
3417,19.531250
3418,19.531250
3419,19.531250
3420,19.531250
3421,19.531250
3422,19.531250
3423,19.531250
3424,19.531250
3425,19.531250
3426,19.531250
3427,19.531250
3428,19.531250
3429,19.531250
3430,19.531250
3431,19.531250
3432,19.531250
3433,19.531250
3434,15.625000
3435,15.625000
3436,19.531250
3437,19.531250
3438,15.625000
3439,15.625000
3440,15.625000
3441,15.625000
3442,15.625000
3443,15.625000
3444,15.625000
3445,15.625000
3446,15.625000
3447,15.625000
3448,15.625000
3449,15.625000
3450,15.625000
3451,15.625000
3452,15.625000
3453,15.625000
3454,15.625000
3455,11.718750
3456,15.625000
3457,15.625000
3458,15.625000
3459,11.718750
3460,11.718750
3461,11.718750
3462,11.718750
3463,11.718750
3464,11.718750
3465,11.718750
3466,11.718750
3467,11.718750
3468,11.718750
3469,11.718750
3470,11.718750
3471,11.718750
3472,11.718750
3473,11.718750
3474,11.718750
3475,7.812500
3476,11.718750
3477,11.718750
3478,7.812500
3479,11.718750
3480,7.812500
3481,7.812500
3482,7.812500
3483,7.812500
3484,7.812500
3485,7.812500
3486,7.812500
3487,7.812500
3488,7.812500
3489,7.812500
3490,7.812500
3491,7.812500
3492,7.812500
3493,3.906250
3494,3.906250
3495,3.906250
3496,3.906250
3497,3.906250
3498,3.906250
3499,3.906250
3500,3.906250
3501,3.906250
3502,3.906250
3503,3.906250
3504,3.906250
3505,3.906250
3506,3.906250
3507,3.906250
3508,3.906250
3509,3.906250
3510,3.906250
3511,3.906250
3512,0.000000
3513,0.000000
3514,0.000000
3515,0.000000
3516,0.000000
3517,0.000000
3518,0.000000
3519,0.000000
3520,0.000000
3521,0.000000
3522,0.000000
3523,0.000000
3524,0.000000
3525,0.000000
3526,-3.906250
3527,0.000000
3528,0.000000
3529,-3.906250
3530,-3.906250
3531,-3.906250
3532,-3.906250
3533,-3.906250
3534,-3.906250
3535,-3.906250
3536,-3.906250
3537,-3.906250
3538,-3.906250
3539,-3.906250
3540,-3.906250
3541,-3.906250
3542,-3.906250
3543,-3.906250
3544,-3.906250
3545,-7.812500
3546,-7.812500
3547,-7.812500
3548,-7.812500
3549,-7.812500
3550,-7.812500
3551,-7.812500
3552,-7.812500
3553,-7.812500
3554,-7.812500
3555,-11.718750
3556,-7.812500
3557,-11.718750
3558,-7.812500
3559,-11.718750
3560,-11.718750
3561,-11.718750
3562,-11.718750
3563,-11.718750
3564,-11.718750
3565,-11.718750
3566,-11.718750
3567,-11.718750
3568,-11.718750
3569,-11.718750
3570,-11.718750
3571,-11.718750
3572,-11.718750
3573,-15.625000
3574,-15.625000
3575,-15.625000
3576,-15.625000
3577,-15.625000
3578,-15.625000
3579,-15.625000
3580,-15.625000
3581,-15.625000
3582,-15.625000
3583,-15.625000
3584,-15.625000
3585,-15.625000
3586,-15.625000
3587,-15.625000
3588,-19.531250
3589,-19.531250
3590,-19.531250
3591,-19.531250
3592,-19.531250
3593,-19.531250
3594,-19.531250
3595,-19.531250
3596,-19.531250
3597,-19.531250
3598,-19.531250
3599,-19.531250
3600,-19.531250
3601,-19.531250
3602,-23.437500
3603,-23.437500
3604,-23.437500
3605,-23.437500
3606,-23.437500
3607,-23.437500
3608,-23.437500
3609,-23.437500
3610,-23.437500
3611,-23.437500
3612,-23.437500
3613,-23.437500
3614,-23.437500
3615,-23.437500
3616,-23.437500
3617,-23.437500
3618,-27.343750
3619,-27.343750
3620,-27.343750
3621,-27.343750
3622,-27.343750
3623,-27.343750
3624,-27.343750
3625,-27.343750
3626,-27.343750
3627,-27.343750
3628,-27.343750
3629,-27.343750
3630,-27.343750
3631,-31.250000
3632,-31.250000
3633,-31.250000
3634,-31.250000
3635,-31.250000
3636,-31.250000
3637,-31.250000
3638,-31.250000
3639,-31.250000
3640,-31.250000
3641,-31.250000
3642,-31.250000
3643,-31.250000
3644,-31.250000
3645,-31.250000
3646,-31.250000
3647,-31.250000
3648,-35.156250
3649,-35.156250
3650,-31.250000
3651,-35.156250
3652,-35.156250
3653,-35.156250
3654,-35.156250
3655,-35.156250
3656,-35.156250
3657,-35.156250
3658,-35.156250
3659,-35.156250
3660,-35.156250
3661,-35.156250
3662,-35.156250
3663,-35.156250
3664,-35.156250
3665,-39.062500
3666,-35.156250
3667,-39.062500
3668,-39.062500
3669,-39.062500
3670,-39.062500
3671,-39.062500
3672,-39.062500
3673,-39.062500
3674,-39.062500
3675,-39.062500
3676,-39.062500
3677,-39.062500
3678,-39.062500
3679,-39.062500
3680,-39.062500
3681,-39.062500
3682,-39.062500
3683,-42.968750
3684,-39.062500
3685,-39.062500
3686,-42.968750
3687,-42.968750
3688,-42.968750
3689,-42.968750
3690,-42.968750
3691,-42.968750
3692,-42.968750
3693,-42.968750
3694,-42.968750
3695,-42.968750
3696,-42.968750
3697,-42.968750
3698,-42.968750
3699,-42.968750
3700,-42.968750
3701,-42.968750
3702,-42.968750
3703,-42.968750
3704,-42.968750
3705,-42.968750
3706,-46.875000
3707,-46.875000
3708,-46.875000
3709,-46.875000
3710,-46.875000
3711,-46.875000
3712,-46.875000
3713,-46.875000
3714,-46.875000
3715,-46.875000
3716,-46.875000
3717,-46.875000
3718,-46.875000
3719,-46.875000
3720,-46.875000
3721,-46.875000
3722,-46.875000
3723,-46.875000
3724,-46.875000
3725,-46.875000
3726,-46.875000
3727,-46.875000
3728,-46.875000
3729,-46.875000
3730,-46.875000
3731,-46.875000
3732,-50.781250
3733,-46.875000
3734,-46.875000
3735,-50.781250
3736,-50.781250
3737,-50.781250
3738,-50.781250
3739,-50.781250
3740,-50.781250
3741,-50.781250
3742,-50.781250
3743,-50.781250
3744,-50.781250
3745,-50.781250
3746,-50.781250
3747,-50.781250
3748,-50.781250
3749,-50.781250
3750,-50.781250
3751,-50.781250
3752,-50.781250
3753,-50.781250
3754,-50.781250
3755,-50.781250
3756,-50.781250
3757,-50.781250
3758,-50.781250
3759,-50.781250
3760,-50.781250
3761,-50.781250
3762,-50.781250
3763,-50.781250
3764,-50.781250
3765,-50.781250
3766,-50.781250
3767,-50.781250
3768,-50.781250
3769,-50.781250
3770,-50.781250
3771,-54.687500
3772,-50.781250
3773,-54.687500
3774,-50.781250
3775,-54.687500
3776,-54.687500
3777,-54.687500
3778,-54.687500
3779,-54.687500
3780,-54.687500
3781,-54.687500
3782,-54.687500
3783,-54.687500
3784,-54.687500
3785,-54.687500
3786,-54.687500
3787,-54.687500
3788,-54.687500
3789,-54.687500
3790,-54.687500
3791,-54.687500
3792,-54.687500
3793,-54.687500
3794,-54.687500
3795,-54.687500
3796,-54.687500
3797,-54.687500
3798,-54.687500
3799,-54.687500
3800,-54.687500
3801,-54.687500
3802,-54.687500
3803,-54.687500
3804,-54.687500
3805,-54.687500
3806,-54.687500
3807,-54.687500
3808,-54.687500
3809,-54.687500
3810,-54.687500
3811,-54.687500
3812,-54.687500
3813,-54.687500
3814,-54.687500
3815,-54.687500
3816,-54.687500
3817,-54.687500
3818,-54.687500
3819,-54.687500
3820,-54.687500
3821,-54.687500
3822,-54.687500
3823,-54.687500
3824,-54.687500
3825,-54.687500
3826,-54.687500
3827,-54.687500
3828,-54.687500
3829,-54.687500
3830,-54.687500
3831,-54.687500
3832,-54.687500
3833,-54.687500
3834,-54.687500
3835,-54.687500
3836,-54.687500
3837,-54.687500
3838,-54.687500
3839,-54.687500
3840,-54.687500
3841,-50.781250
3842,-54.687500
3843,-50.781250
3844,-54.687500
3845,-54.687500
3846,-54.687500
3847,-50.781250
3848,-50.781250
3849,-50.781250
3850,-50.781250
3851,-50.781250
3852,-50.781250
3853,-50.781250
3854,-50.781250
3855,-50.781250
3856,-50.781250
3857,-50.781250
3858,-50.781250
3859,-50.781250
3860,-50.781250
3861,-50.781250
3862,-50.781250
3863,-50.781250
3864,-50.781250
3865,-50.781250
3866,-50.781250
3867,-50.781250
3868,-50.781250
3869,-50.781250
3870,-50.781250
3871,-50.781250
3872,-50.781250
3873,-50.781250
3874,-50.781250
3875,-50.781250
3876,-50.781250
3877,-50.781250
3878,-50.781250
3879,-50.781250
3880,-50.781250
3881,-50.781250
3882,-50.781250
3883,-46.875000
3884,-46.875000
3885,-50.781250
3886,-50.781250
3887,-46.875000
3888,-46.875000
3889,-46.875000
3890,-50.781250
3891,-46.875000
3892,-46.875000
3893,-46.875000
3894,-46.875000
3895,-46.875000
3896,-46.875000
3897,-46.875000
3898,-46.875000
3899,-46.875000
3900,-46.875000
3901,-46.875000
3902,-46.875000
3903,-46.875000
3904,-46.875000
3905,-46.875000
3906,-46.875000
3907,-46.875000
3908,-46.875000
3909,-42.968750
3910,-42.968750
3911,-42.968750
3912,-42.968750
3913,-42.968750
3914,-42.968750
3915,-42.968750
3916,-42.968750
3917,-42.968750
3918,-42.968750
3919,-42.968750
3920,-42.968750
3921,-42.968750
3922,-42.968750
3923,-42.968750
3924,-42.968750
3925,-42.968750
3926,-42.968750
3927,-42.968750
3928,-42.968750
3929,-42.968750
3930,-42.968750
3931,-42.968750
3932,-39.062500
3933,-39.062500
3934,-39.062500
3935,-39.062500
3936,-39.062500
3937,-39.062500
3938,-39.062500
3939,-39.062500
3940,-39.062500
3941,-39.062500
3942,-39.062500
3943,-39.062500
3944,-39.062500
3945,-39.062500
3946,-39.062500
3947,-39.062500
3948,-39.062500
3949,-39.062500
3950,-39.062500
3951,-39.062500
3952,-39.062500
3953,-39.062500
3954,-35.156250
3955,-35.156250
3956,-35.156250
3957,-35.156250
3958,-35.156250
3959,-35.156250
3960,-35.156250
3961,-35.156250
3962,-35.156250
3963,-35.156250
3964,-35.156250
3965,-35.156250
3966,-35.156250
3967,-35.156250
3968,-35.156250
3969,-35.156250
3970,-35.156250
3971,-31.250000
3972,-35.156250
3973,-31.250000
3974,-31.250000
3975,-31.250000
3976,-31.250000
3977,-31.250000
3978,-31.250000
3979,-31.250000
3980,-31.250000
3981,-31.250000
3982,-31.250000
3983,-31.250000
3984,-31.250000
3985,-31.250000
3986,-27.343750
3987,-27.343750
3988,-27.343750
3989,-27.343750
3990,-27.343750
3991,-27.343750
3992,-27.343750
3993,-27.343750
3994,-27.343750
3995,-27.343750
3996,-27.343750
3997,-27.343750
3998,-27.343750
3999,-27.343750
4000,-27.343750
4001,-27.343750
4002,-27.343750
4003,-27.343750
4004,-27.343750
4005,-27.343750
4006,-23.437500
4007,-23.437500
4008,-23.437500
4009,-23.437500
4010,-23.437500
4011,-23.437500
4012,-23.437500
4013,-23.437500
4014,-23.437500
4015,-23.437500
4016,-23.437500
4017,-23.437500
4018,-23.437500
4019,-23.437500
4020,-19.531250
4021,-19.531250
4022,-19.531250
4023,-19.531250
4024,-19.531250
4025,-19.531250
4026,-19.531250
4027,-19.531250
4028,-19.531250
4029,-19.531250
4030,-19.531250
4031,-19.531250
4032,-19.531250
4033,-19.531250
4034,-19.531250
4035,-15.625000
4036,-15.625000
4037,-15.625000
4038,-15.625000
4039,-15.625000
4040,-15.625000
4041,-15.625000
4042,-15.625000
4043,-15.625000
4044,-15.625000
4045,-15.625000
4046,-15.625000
4047,-15.625000
4048,-15.625000
4049,-15.625000
4050,-15.625000
4051,-11.718750
4052,-11.718750
4053,-11.718750
4054,-11.718750
4055,-11.718750
4056,-11.718750
4057,-11.718750
4058,-11.718750
4059,-11.718750
4060,-11.718750
4061,-11.718750
4062,-11.718750
4063,-11.718750
4064,-11.718750
4065,-11.718750
4066,-7.812500
4067,-7.812500
4068,-7.812500
4069,-7.812500
4070,-7.812500
4071,-7.812500
4072,-7.812500
4073,-7.812500
4074,-7.812500
4075,-7.812500
4076,-7.812500
4077,-7.812500
4078,-7.812500
4079,-7.812500
4080,-3.906250
4081,-3.906250
4082,-3.906250
4083,-3.906250
4084,-3.906250
4085,-3.906250
4086,-3.906250
4087,-3.906250
4088,-3.906250
4089,-3.906250
4090,-3.906250
4091,-3.906250
4092,-3.906250
4093,-3.906250
4094,-3.906250
4095,-3.906250
4096,-3.906250
4097,0.000000
4098,0.000000
4099,0.000000
4100,0.000000
4101,0.000000
4102,0.000000
4103,0.000000
4104,0.000000
4105,0.000000
4106,0.000000
4107,0.000000
4108,0.000000
4109,0.000000
4110,0.000000
4111,0.000000
4112,0.000000
4113,0.000000
4114,3.906250
4115,3.906250
4116,3.906250
4117,3.906250
4118,3.906250
4119,3.906250
4120,3.906250
4121,3.906250
4122,3.906250
4123,3.906250
4124,3.906250
4125,3.906250
4126,3.906250
4127,3.906250
4128,3.906250
4129,3.906250
4130,3.906250
4131,3.906250
4132,7.812500
4133,7.812500
4134,7.812500
4135,7.812500
4136,7.812500
4137,7.812500
4138,7.812500
4139,7.812500
4140,7.812500
4141,7.812500
4142,7.812500
4143,7.812500
4144,7.812500
4145,7.812500
4146,7.812500
4147,7.812500
4148,7.812500
4149,11.718750
4150,11.718750
4151,11.718750
4152,11.718750
4153,11.718750
4154,11.718750
4155,11.718750
4156,11.718750
4157,11.718750
4158,11.718750
4159,11.718750
4160,11.718750
4161,11.718750
4162,11.718750
4163,11.718750
4164,11.718750
4165,11.718750
4166,11.718750
4167,15.625000
4168,11.718750
4169,11.718750
4170,15.625000
4171,15.625000
4172,15.625000
4173,15.625000
4174,15.625000
4175,15.625000
4176,15.625000
4177,15.625000
4178,15.625000
4179,15.625000
4180,15.625000
4181,15.625000
4182,15.625000
4183,15.625000
4184,15.625000
4185,15.625000
4186,15.625000
4187,15.625000
4188,15.625000
4189,15.625000
4190,19.531250
4191,19.531250
4192,19.531250
4193,19.531250
4194,19.531250
4195,19.531250
4196,19.531250
4197,19.531250
4198,19.531250
4199,19.531250
4200,19.531250
4201,19.531250
4202,19.531250
4203,19.531250
4204,19.531250
4205,19.531250
4206,19.531250
4207,19.531250
4208,19.531250
4209,19.531250
4210,19.531250
4211,19.531250
4212,19.531250
4213,19.531250
4214,19.531250
4215,23.437500
4216,23.437500
4217,23.437500
4218,23.437500
4219,23.437500
4220,19.531250
4221,23.437500
4222,23.437500
4223,23.437500
4224,23.437500
4225,23.437500
4226,23.437500
4227,23.437500
4228,23.437500
4229,23.437500
4230,23.437500
4231,23.437500
4232,23.437500
4233,23.437500
4234,23.437500
4235,23.437500
4236,23.437500
4237,23.437500
4238,23.437500
4239,23.437500
4240,23.437500
4241,23.437500
4242,23.437500
4243,23.437500
4244,23.437500
4245,23.437500
4246,23.437500
4247,23.437500
4248,23.437500
4249,23.437500
4250,27.343750
4251,27.343750
4252,23.437500
4253,23.437500
4254,27.343750
4255,23.437500
4256,23.437500
4257,23.437500
4258,27.343750
4259,27.343750
4260,27.343750
4261,27.343750
4262,23.437500
4263,23.437500
4264,27.343750
4265,27.343750
4266,27.343750
4267,27.343750
4268,27.343750
4269,27.343750
4270,27.343750
4271,27.343750
4272,27.343750
4273,27.343750
4274,27.343750
4275,27.343750
4276,27.343750
4277,27.343750
4278,27.343750
4279,27.343750
4280,27.343750
4281,27.343750
4282,27.343750
4283,27.343750
4284,27.343750
4285,27.343750
4286,27.343750
4287,27.343750
4288,27.343750
4289,27.343750
4290,27.343750
4291,27.343750
4292,27.343750
4293,27.343750
4294,27.343750
4295,27.343750
4296,27.343750
4297,27.343750
4298,27.343750
4299,27.343750
4300,27.343750
4301,27.343750
4302,27.343750
4303,27.343750
4304,27.343750
4305,27.343750
4306,27.343750
4307,27.343750
4308,27.343750
4309,27.343750
4310,27.343750
4311,27.343750
4312,27.343750
4313,27.343750
4314,27.343750
4315,27.343750
4316,27.343750
4317,27.343750
4318,27.343750
4319,27.343750
4320,27.343750
4321,27.343750
4322,27.343750
4323,27.343750
4324,27.343750
4325,27.343750
4326,27.343750
4327,27.343750
4328,27.343750
4329,27.343750
4330,27.343750
4331,27.343750
4332,27.343750
4333,27.343750
4334,27.343750
4335,27.343750
4336,27.343750
4337,27.343750
4338,27.343750
4339,27.343750
4340,27.343750
4341,27.343750
4342,27.343750
4343,27.343750
4344,27.343750
4345,27.343750
4346,27.343750
4347,27.343750
4348,27.343750
4349,27.343750
4350,27.343750
4351,27.343750
4352,27.343750
4353,27.343750
4354,27.343750
4355,27.343750
4356,27.343750
4357,27.343750
4358,27.343750
4359,27.343750
4360,27.343750
4361,27.343750
4362,27.343750
4363,23.437500
4364,23.437500
4365,23.437500
4366,23.437500
4367,23.437500
4368,27.343750
4369,23.437500
4370,23.437500
4371,23.437500
4372,23.437500
4373,23.437500
4374,23.437500
4375,23.437500
4376,23.437500
4377,23.437500
4378,23.437500
4379,23.437500
4380,23.437500
4381,23.437500
4382,23.437500
4383,23.437500
4384,23.437500
4385,23.437500
4386,23.437500
4387,23.437500
4388,23.437500
4389,23.437500
4390,23.437500
4391,23.437500
4392,23.437500
4393,23.437500
4394,23.437500
4395,19.531250
4396,23.437500
4397,23.437500
4398,23.437500
4399,19.531250
4400,19.531250
4401,19.531250
4402,19.531250
4403,19.531250
4404,19.531250
4405,19.531250
4406,19.531250
4407,19.531250
4408,19.531250
4409,19.531250
4410,19.531250
4411,19.531250
4412,19.531250
4413,19.531250
4414,19.531250
4415,19.531250
4416,19.531250
4417,19.531250
4418,19.531250
4419,19.531250
4420,19.531250
4421,19.531250
4422,15.625000
4423,19.531250
4424,15.625000
4425,15.625000
4426,19.531250
4427,15.625000
4428,15.625000
4429,15.625000
4430,15.625000
4431,15.625000
4432,15.625000
4433,15.625000
4434,15.625000
4435,15.625000
4436,15.625000
4437,15.625000
4438,15.625000
4439,15.625000
4440,15.625000
4441,15.625000
4442,15.625000
4443,15.625000
4444,15.625000
4445,15.625000
4446,15.625000
4447,11.718750
4448,11.718750
4449,11.718750
4450,11.718750
4451,11.718750
4452,11.718750
4453,11.718750
4454,11.718750
4455,11.718750
4456,11.718750
4457,11.718750
4458,11.718750
4459,11.718750
4460,11.718750
4461,11.718750
4462,11.718750
4463,11.718750
4464,11.718750
4465,11.718750
4466,11.718750
4467,7.812500
4468,11.718750
4469,7.812500
4470,7.812500
4471,7.812500
4472,7.812500
4473,7.812500
4474,7.812500
4475,7.812500
4476,7.812500
4477,7.812500
4478,7.812500
4479,7.812500
4480,7.812500
4481,7.812500
4482,7.812500
4483,3.906250
4484,3.906250
4485,3.906250
4486,3.906250
4487,3.906250
4488,3.906250
4489,3.906250
4490,3.906250
4491,3.906250
4492,3.906250
4493,3.906250
4494,3.906250
4495,3.906250
4496,3.906250
4497,3.906250
4498,3.906250
4499,3.906250
4500,3.906250
4501,3.906250
4502,3.906250
4503,0.000000
4504,0.000000
4505,0.000000
4506,0.000000
4507,0.000000
4508,0.000000
4509,0.000000
4510,0.000000
4511,0.000000
4512,0.000000
4513,0.000000
4514,0.000000
4515,0.000000
4516,0.000000
4517,-3.906250
4518,-3.906250
4519,-3.906250
4520,-3.906250
4521,-3.906250
4522,-3.906250
4523,-3.906250
4524,-3.906250
4525,-3.906250
4526,-3.906250
4527,-3.906250
4528,-3.906250
4529,-3.906250
4530,-3.906250
4531,-3.906250
4532,-7.812500
4533,-7.812500
4534,-7.812500
4535,-7.812500
4536,-7.812500
4537,-7.812500
4538,-7.812500
4539,-7.812500
4540,-7.812500
4541,-7.812500
4542,-7.812500
4543,-7.812500
4544,-7.812500
4545,-7.812500
4546,-7.812500
4547,-7.812500
4548,-11.718750
4549,-11.718750
4550,-11.718750
4551,-11.718750
4552,-11.718750
4553,-11.718750
4554,-11.718750
4555,-11.718750
4556,-11.718750
4557,-11.718750
4558,-11.718750
4559,-11.718750
4560,-11.718750
4561,-11.718750
4562,-15.625000
4563,-15.625000
4564,-15.625000
4565,-15.625000
4566,-15.625000
4567,-15.625000
4568,-15.625000
4569,-15.625000
4570,-15.625000
4571,-15.625000
4572,-15.625000
4573,-15.625000
4574,-15.625000
4575,-15.625000
4576,-19.531250
4577,-19.531250
4578,-19.531250
4579,-19.531250
4580,-19.531250
4581,-19.531250
4582,-19.531250
4583,-19.531250
4584,-19.531250
4585,-19.531250
4586,-19.531250
4587,-19.531250
4588,-19.531250
4589,-19.531250
4590,-19.531250
4591,-19.531250
4592,-23.437500
4593,-23.437500
4594,-23.437500
4595,-23.437500
4596,-23.437500
4597,-23.437500
4598,-23.437500
4599,-23.437500
4600,-23.437500
4601,-23.437500
4602,-23.437500
4603,-23.437500
4604,-23.437500
4605,-27.343750
4606,-23.437500
4607,-23.437500
4608,-23.437500
4609,-27.343750
4610,-27.343750
4611,-27.343750
4612,-27.343750
4613,-27.343750
4614,-27.343750
4615,-27.343750
4616,-27.343750
4617,-27.343750
4618,-27.343750
4619,-27.343750
4620,-27.343750
4621,-27.343750
4622,-27.343750
4623,-27.343750
4624,-27.343750
4625,-31.250000
4626,-31.250000
4627,-31.250000
4628,-31.250000
4629,-31.250000
4630,-31.250000
4631,-31.250000
4632,-31.250000
4633,-31.250000
4634,-31.250000
4635,-31.250000
4636,-31.250000
4637,-31.250000
4638,-31.250000
4639,-31.250000
4640,-31.250000
4641,-35.156250
4642,-35.156250
4643,-35.156250
4644,-35.156250
4645,-35.156250
4646,-35.156250
4647,-35.156250
4648,-35.156250
4649,-35.156250
4650,-35.156250
4651,-35.156250
4652,-39.062500
4653,-35.156250
4654,-35.156250
4655,-35.156250
4656,-35.156250
4657,-39.062500
4658,-39.062500
4659,-39.062500
4660,-39.062500
4661,-39.062500
4662,-39.062500
4663,-35.156250
4664,-39.062500
4665,-39.062500
4666,-39.062500
4667,-39.062500
4668,-39.062500
4669,-39.062500
4670,-39.062500
4671,-39.062500
4672,-39.062500
4673,-35.156250
4674,-39.062500
4675,-42.968750
4676,-35.156250
4677,-42.968750
4678,-42.968750
4679,-39.062500
4680,-42.968750
4681,-42.968750
4682,-42.968750
4683,-42.968750
4684,-39.062500
4685,-42.968750
4686,-42.968750
4687,-42.968750
4688,-42.968750
4689,-42.968750
4690,-42.968750
4691,-42.968750
4692,-42.968750
4693,-42.968750
4694,-42.968750
4695,-42.968750
4696,-46.875000
4697,-46.875000
4698,-46.875000
4699,-46.875000
4700,-46.875000
4701,-46.875000
4702,-42.968750
4703,-46.875000
4704,-46.875000
4705,-46.875000
4706,-46.875000
4707,-46.875000
4708,-46.875000
4709,-46.875000
4710,-46.875000
4711,-46.875000
4712,-46.875000
4713,-46.875000
4714,-46.875000
4715,-46.875000
4716,-46.875000
4717,-46.875000
4718,-46.875000
4719,-46.875000
4720,-46.875000
4721,-46.875000
4722,-50.781250
4723,-50.781250
4724,-50.781250
4725,-50.781250
4726,-46.875000
4727,-46.875000
4728,-50.781250
4729,-50.781250
4730,-50.781250
4731,-50.781250
4732,-50.781250
4733,-50.781250
4734,-50.781250
4735,-50.781250
4736,-50.781250
4737,-50.781250
4738,-50.781250
4739,-50.781250
4740,-50.781250
4741,-50.781250
4742,-50.781250
4743,-50.781250
4744,-50.781250
4745,-50.781250
4746,-50.781250
4747,-50.781250
4748,-50.781250
4749,-50.781250
4750,-50.781250
4751,-50.781250
4752,-50.781250
4753,-50.781250
4754,-50.781250
4755,-54.687500
4756,-50.781250
4757,-54.687500
4758,-50.781250
4759,-54.687500
4760,-54.687500
4761,-54.687500
4762,-54.687500
4763,-54.687500
4764,-54.687500
4765,-54.687500
4766,-54.687500
4767,-54.687500
4768,-54.687500
4769,-54.687500
4770,-54.687500
4771,-54.687500
4772,-54.687500
4773,-50.781250
4774,-54.687500
4775,-54.687500
4776,-54.687500
4777,-54.687500
4778,-54.687500
4779,-54.687500
4780,-54.687500
4781,-54.687500
4782,-54.687500
4783,-54.687500
4784,-54.687500
4785,-54.687500
4786,-54.687500
4787,-54.687500
4788,-54.687500
4789,-54.687500
4790,-54.687500
4791,-54.687500
4792,-54.687500
4793,-54.687500
4794,-54.687500
4795,-54.687500
4796,-54.687500
4797,-54.687500
4798,-54.687500
4799,-54.687500
4800,-54.687500
4801,-54.687500
4802,-54.687500
4803,-54.687500
4804,-54.687500
4805,-54.687500
4806,-54.687500
4807,-54.687500
4808,-54.687500
4809,-54.687500
4810,-54.687500
4811,-54.687500
4812,-54.687500
4813,-54.687500
4814,-54.687500
4815,-54.687500
4816,-54.687500
4817,-54.687500
4818,-54.687500
4819,-54.687500
4820,-54.687500
4821,-54.687500
4822,-54.687500
4823,-54.687500
4824,-54.687500
4825,-54.687500
4826,-54.687500
4827,-54.687500
4828,-54.687500
4829,-50.781250
4830,-50.781250
4831,-50.781250
4832,-50.781250
4833,-54.687500
4834,-50.781250
4835,-50.781250
4836,-50.781250
4837,-54.687500
4838,-50.781250
4839,-50.781250
4840,-50.781250
4841,-50.781250
4842,-50.781250
4843,-50.781250
4844,-50.781250
4845,-50.781250
4846,-50.781250
4847,-50.781250
4848,-50.781250
4849,-50.781250
4850,-50.781250
4851,-50.781250
4852,-50.781250
4853,-50.781250
4854,-50.781250
4855,-50.781250
4856,-50.781250
4857,-50.781250
4858,-50.781250
4859,-50.781250
4860,-50.781250
4861,-50.781250
4862,-50.781250
4863,-50.781250
4864,-50.781250
4865,-50.781250
4866,-50.781250
4867,-50.781250
4868,-50.781250
4869,-50.781250
4870,-46.875000
4871,-50.781250
4872,-46.875000
4873,-46.875000
4874,-46.875000
4875,-50.781250
4876,-46.875000
4877,-46.875000
4878,-46.875000
4879,-46.875000
4880,-46.875000
4881,-46.875000
4882,-46.875000
4883,-46.875000
4884,-46.875000
4885,-46.875000
4886,-46.875000
4887,-46.875000
4888,-46.875000
4889,-46.875000
4890,-46.875000
4891,-46.875000
4892,-46.875000
4893,-46.875000
4894,-46.875000
4895,-46.875000
4896,-46.875000
4897,-46.875000
4898,-46.875000
4899,-46.875000
4900,-42.968750
4901,-42.968750
4902,-42.968750
4903,-42.968750
4904,-42.968750
4905,-42.968750
4906,-42.968750
4907,-42.968750
4908,-42.968750
4909,-42.968750
4910,-42.968750
4911,-42.968750
4912,-42.968750
4913,-42.968750
4914,-42.968750
4915,-42.968750
4916,-42.968750
4917,-42.968750
4918,-42.968750
4919,-42.968750
4920,-42.968750
4921,-39.062500
4922,-39.062500
4923,-39.062500
4924,-39.062500
4925,-39.062500
4926,-39.062500
4927,-39.062500
4928,-39.062500
4929,-39.062500
4930,-39.062500
4931,-39.062500
4932,-39.062500
4933,-39.062500
4934,-39.062500
4935,-39.062500
4936,-39.062500
4937,-39.062500
4938,-39.062500
4939,-39.062500
4940,-35.156250
4941,-35.156250
4942,-35.156250
4943,-35.156250
4944,-35.156250
4945,-35.156250
4946,-35.156250
4947,-35.156250
4948,-35.156250
4949,-35.156250
4950,-35.156250
4951,-35.156250
4952,-35.156250
4953,-35.156250
4954,-35.156250
4955,-35.156250
4956,-35.156250
4957,-35.156250
4958,-31.250000
4959,-31.250000
4960,-31.250000
4961,-31.250000
4962,-31.250000
4963,-31.250000
4964,-31.250000
4965,-31.250000
4966,-31.250000
4967,-31.250000
4968,-31.250000
4969,-31.250000
4970,-31.250000
4971,-31.250000
4972,-31.250000
4973,-31.250000
4974,-27.343750
4975,-27.343750
4976,-27.343750
4977,-27.343750
4978,-27.343750
4979,-27.343750
4980,-27.343750
4981,-27.343750
4982,-27.343750
4983,-27.343750
4984,-27.343750
4985,-27.343750
4986,-27.343750
4987,-27.343750
4988,-27.343750
4989,-27.343750
4990,-23.437500
4991,-27.343750
4992,-27.343750
4993,-23.437500
4994,-23.437500
4995,-23.437500
4996,-23.437500
4997,-23.437500
4998,-23.437500
4999,-23.437500
5000,-23.437500
5001,-23.437500
5002,-23.437500
5003,-23.437500
5004,-23.437500
5005,-23.437500
5006,-23.437500
5007,-23.437500
5008,-23.437500
5009,-19.531250
5010,-19.531250
5011,-19.531250
5012,-19.531250
5013,-19.531250
5014,-19.531250
5015,-19.531250
5016,-19.531250
5017,-19.531250
5018,-19.531250
5019,-19.531250
5020,-19.531250
5021,-19.531250
5022,-19.531250
5023,-15.625000
5024,-15.625000
5025,-15.625000
5026,-15.625000
5027,-15.625000
5028,-15.625000
5029,-15.625000
5030,-15.625000
5031,-15.625000
5032,-15.625000
5033,-15.625000
5034,-15.625000
5035,-15.625000
5036,-11.718750
5037,-11.718750
5038,-11.718750
5039,-15.625000
5040,-11.718750
5041,-15.625000
5042,-11.718750
5043,-11.718750
5044,-11.718750
5045,-11.718750
5046,-11.718750
5047,-11.718750
5048,-11.718750
5049,-11.718750
5050,-11.718750
5051,-11.718750
5052,-11.718750
5053,-7.812500
5054,-7.812500
5055,-7.812500
5056,-7.812500
5057,-7.812500
5058,-7.812500
5059,-7.812500
5060,-7.812500
5061,-7.812500
5062,-7.812500
5063,-7.812500
5064,-7.812500
5065,-7.812500
5066,-7.812500
5067,-7.812500
5068,-7.812500
5069,-3.906250
5070,-7.812500
5071,-7.812500
5072,0.000000
5073,-3.906250
5074,-7.812500
5075,-3.906250
5076,-3.906250
5077,-7.812500
5078,-3.906250
5079,-3.906250
5080,-3.906250
5081,-3.906250
5082,-3.906250
5083,-3.906250
5084,-3.906250
5085,-3.906250
5086,0.000000
5087,0.000000
5088,0.000000
5089,0.000000
5090,0.000000
5091,0.000000
5092,0.000000
5093,0.000000
5094,0.000000
5095,0.000000
5096,0.000000
5097,0.000000
5098,0.000000
5099,3.906250
5100,0.000000
5101,3.906250
5102,3.906250
5103,3.906250
5104,3.906250
5105,3.906250
5106,3.906250
5107,3.906250
5108,3.906250
5109,3.906250
5110,3.906250
5111,3.906250
5112,3.906250
5113,3.906250
5114,3.906250
5115,3.906250
5116,3.906250
5117,3.906250
5118,7.812500
5119,7.812500
5120,7.812500
5121,7.812500
5122,7.812500
5123,7.812500
5124,7.812500
5125,7.812500
5126,7.812500
5127,7.812500
5128,7.812500
5129,7.812500
5130,7.812500
5131,7.812500
5132,7.812500
5133,7.812500
5134,7.812500
5135,7.812500
5136,11.718750
5137,11.718750
5138,11.718750
5139,11.718750
5140,11.718750
5141,11.718750
5142,11.718750
5143,11.718750
5144,11.718750
5145,11.718750
5146,11.718750
5147,11.718750
5148,11.718750
5149,11.718750
5150,11.718750
5151,11.718750
5152,11.718750
5153,11.718750
5154,15.625000
5155,11.718750
5156,11.718750
5157,15.625000
5158,15.625000
5159,11.718750
5160,15.625000
5161,15.625000
5162,15.625000
5163,15.625000
5164,15.625000
5165,15.625000
5166,15.625000
5167,15.625000
5168,15.625000
5169,15.625000
5170,15.625000
5171,15.625000
5172,15.625000
5173,15.625000
5174,15.625000
5175,15.625000
5176,15.625000
5177,15.625000
5178,15.625000
5179,15.625000
5180,19.531250
5181,19.531250
5182,19.531250
5183,19.531250
5184,19.531250
5185,19.531250
5186,19.531250
5187,19.531250
5188,19.531250
5189,19.531250
5190,19.531250
5191,19.531250
5192,19.531250
5193,19.531250
5194,19.531250
5195,19.531250
5196,19.531250
5197,19.531250
5198,19.531250
5199,19.531250
5200,19.531250
5201,19.531250
5202,19.531250
5203,19.531250
5204,19.531250
5205,19.531250
5206,19.531250
5207,23.437500
5208,23.437500
5209,23.437500
5210,23.437500
5211,23.437500
5212,23.437500
5213,23.437500
5214,23.437500
5215,23.437500
5216,23.437500
5217,23.437500
5218,23.437500
5219,23.437500
5220,23.437500
5221,23.437500
5222,23.437500
5223,23.437500
5224,23.437500
5225,23.437500
5226,23.437500
5227,23.437500
5228,23.437500
5229,23.437500
5230,23.437500
5231,23.437500
5232,23.437500
5233,23.437500
5234,23.437500
5235,23.437500
5236,23.437500
5237,23.437500
5238,23.437500
5239,23.437500
5240,23.437500
5241,23.437500
5242,27.343750
5243,27.343750
5244,23.437500
5245,27.343750
5246,23.437500
5247,23.437500
5248,27.343750
5249,27.343750
5250,27.343750
5251,27.343750
5252,27.343750
5253,27.343750
5254,27.343750
5255,27.343750
5256,27.343750
5257,27.343750
5258,27.343750
5259,27.343750
5260,27.343750
5261,27.343750
5262,27.343750
5263,27.343750
5264,27.343750
5265,27.343750
5266,27.343750
5267,27.343750
5268,27.343750
5269,27.343750
5270,27.343750
5271,27.343750
5272,27.343750
5273,27.343750
5274,27.343750
5275,27.343750
5276,27.343750
5277,27.343750
5278,27.343750
5279,27.343750
5280,27.343750
5281,27.343750
5282,27.343750
5283,27.343750
5284,27.343750
5285,27.343750
5286,27.343750
5287,27.343750
5288,27.343750
5289,27.343750
5290,27.343750
5291,27.343750
5292,27.343750
5293,27.343750
5294,27.343750
5295,27.343750
5296,27.343750
5297,27.343750
5298,27.343750
5299,27.343750
5300,27.343750
5301,27.343750
5302,27.343750
5303,27.343750
5304,27.343750
5305,27.343750
5306,27.343750
5307,27.343750
5308,27.343750
5309,27.343750
5310,27.343750
5311,27.343750
5312,27.343750
5313,27.343750
5314,27.343750
5315,27.343750
5316,27.343750
5317,27.343750
5318,27.343750
5319,27.343750
5320,27.343750
5321,27.343750
5322,27.343750
5323,27.343750
5324,27.343750
5325,27.343750
5326,27.343750
5327,27.343750
5328,27.343750
5329,27.343750
5330,27.343750
5331,27.343750
5332,27.343750
5333,27.343750
5334,27.343750
5335,27.343750
5336,27.343750
5337,27.343750
5338,27.343750
5339,27.343750
5340,27.343750
5341,27.343750
5342,27.343750
5343,27.343750
5344,27.343750
5345,27.343750
5346,27.343750
5347,27.343750
5348,27.343750
5349,23.437500
5350,27.343750
5351,23.437500
5352,23.437500
5353,23.437500
5354,23.437500
5355,23.437500
5356,23.437500
5357,23.437500
5358,27.343750
5359,27.343750
5360,23.437500
5361,23.437500
5362,23.437500
5363,23.437500
5364,23.437500
5365,23.437500
5366,23.437500
5367,23.437500
5368,27.343750
5369,23.437500
5370,23.437500
5371,23.437500
5372,23.437500
5373,23.437500
5374,23.437500
5375,23.437500
5376,23.437500
5377,23.437500
5378,23.437500
5379,23.437500
5380,23.437500
5381,23.437500
5382,23.437500
5383,23.437500
5384,23.437500
5385,23.437500
5386,23.437500
5387,19.531250
5388,23.437500
5389,19.531250
5390,23.437500
5391,19.531250
5392,19.531250
5393,19.531250
5394,23.437500
5395,19.531250
5396,19.531250
5397,19.531250
5398,19.531250
5399,19.531250
5400,19.531250
5401,19.531250
5402,19.531250
5403,19.531250
5404,19.531250
5405,19.531250
5406,19.531250
5407,19.531250
5408,19.531250
5409,19.531250
5410,19.531250
5411,19.531250
5412,19.531250
5413,19.531250
5414,15.625000
5415,19.531250
5416,19.531250
5417,19.531250
5418,15.625000
5419,15.625000
5420,15.625000
5421,15.625000
5422,15.625000
5423,15.625000
5424,15.625000
5425,15.625000
5426,15.625000
5427,15.625000
5428,15.625000
5429,15.625000
5430,15.625000
5431,15.625000
5432,15.625000
5433,15.625000
5434,15.625000
5435,15.625000
5436,11.718750
5437,15.625000
5438,11.718750
5439,11.718750
5440,11.718750
5441,11.718750
5442,11.718750
5443,11.718750
5444,11.718750
5445,11.718750
5446,11.718750
5447,11.718750
5448,11.718750
5449,11.718750
5450,11.718750
5451,11.718750
5452,11.718750
5453,11.718750
5454,11.718750
5455,11.718750
5456,11.718750
5457,7.812500
5458,7.812500
5459,7.812500
5460,7.812500
5461,7.812500
5462,7.812500
5463,7.812500
5464,7.812500
5465,7.812500
5466,7.812500
5467,7.812500
5468,7.812500
5469,7.812500
5470,7.812500
5471,7.812500
5472,3.906250
5473,7.812500
5474,7.812500
5475,7.812500
5476,7.812500
5477,3.906250
5478,3.906250
5479,3.906250
5480,3.906250
5481,3.906250
5482,3.906250
5483,3.906250
5484,3.906250
5485,3.906250
5486,3.906250
5487,3.906250
5488,3.906250
5489,3.906250
5490,3.906250
5491,0.000000
5492,0.000000
5493,0.000000
5494,0.000000
5495,0.000000
5496,0.000000
5497,0.000000
5498,0.000000
5499,0.000000
5500,0.000000
5501,0.000000
5502,0.000000
5503,0.000000
5504,0.000000
5505,0.000000
5506,-3.906250
5507,-3.906250
5508,0.000000
5509,-3.906250
5510,-3.906250
5511,-3.906250
5512,-3.906250
5513,-3.906250
5514,-3.906250
5515,-3.906250
5516,-3.906250
5517,-3.906250
5518,-3.906250
5519,-3.906250
5520,-3.906250
5521,-3.906250
5522,-3.906250
5523,-7.812500
5524,-7.812500
5525,-7.812500
5526,-7.812500
5527,-7.812500
5528,-7.812500
5529,-7.812500
5530,-7.812500
5531,-7.812500
5532,-7.812500
5533,-7.812500
5534,-7.812500
5535,-7.812500
5536,-7.812500
5537,-11.718750
5538,-11.718750
5539,-11.718750
5540,-11.718750
5541,-11.718750
5542,-11.718750
5543,-11.718750
5544,-11.718750
5545,-11.718750
5546,-11.718750
5547,-11.718750
5548,-11.718750
5549,-11.718750
5550,-11.718750
5551,-11.718750
5552,-15.625000
5553,-15.625000
5554,-15.625000
5555,-15.625000
5556,-11.718750
5557,-15.625000
5558,-15.625000
5559,-19.531250
5560,-15.625000
5561,-15.625000
5562,-15.625000
5563,-15.625000
5564,-15.625000
5565,-19.531250
5566,-19.531250
5567,-15.625000
5568,-19.531250
5569,-19.531250
5570,-19.531250
5571,-19.531250
5572,-19.531250
5573,-19.531250
5574,-19.531250
5575,-19.531250
5576,-19.531250
5577,-19.531250
5578,-19.531250
5579,-19.531250
5580,-19.531250
5581,-19.531250
5582,-23.437500
5583,-19.531250
5584,-23.437500
5585,-23.437500
5586,-23.437500
5587,-23.437500
5588,-23.437500
5589,-23.437500
5590,-23.437500
5591,-23.437500
5592,-23.437500
5593,-23.437500
5594,-23.437500
5595,-23.437500
5596,-23.437500
5597,-27.343750
5598,-27.343750
5599,-23.437500
5600,-27.343750
5601,-27.343750
5602,-27.343750
5603,-27.343750
5604,-27.343750
5605,-27.343750
5606,-27.343750
5607,-27.343750
5608,-27.343750
5609,-27.343750
5610,-27.343750
5611,-27.343750
5612,-27.343750
5613,-27.343750
5614,-31.250000
5615,-31.250000
5616,-31.250000
5617,-31.250000
5618,-31.250000
5619,-31.250000
5620,-31.250000
5621,-31.250000
5622,-31.250000
5623,-31.250000
5624,-31.250000
5625,-31.250000
5626,-31.250000
5627,-31.250000
5628,-31.250000
5629,-35.156250
5630,-35.156250
5631,-35.156250
5632,-35.156250
5633,-35.156250
5634,-35.156250
5635,-35.156250
5636,-35.156250
5637,-35.156250
5638,-35.156250
5639,-35.156250
5640,-35.156250
5641,-35.156250
5642,-35.156250
5643,-35.156250
5644,-35.156250
5645,-35.156250
5646,-35.156250
5647,-39.062500
5648,-39.062500
5649,-39.062500
5650,-35.156250
5651,-39.062500
5652,-39.062500
5653,-39.062500
5654,-39.062500
5655,-39.062500
5656,-39.062500
5657,-39.062500
5658,-39.062500
5659,-39.062500
5660,-39.062500
5661,-39.062500
5662,-39.062500
5663,-39.062500
5664,-39.062500
5665,-39.062500
5666,-39.062500
5667,-42.968750
5668,-42.968750
5669,-42.968750
5670,-42.968750
5671,-42.968750
5672,-42.968750
5673,-42.968750
5674,-42.968750
5675,-42.968750
5676,-42.968750
5677,-42.968750
5678,-42.968750
5679,-42.968750
5680,-42.968750
5681,-42.968750
5682,-42.968750
5683,-42.968750
5684,-42.968750
5685,-42.968750
5686,-42.968750
5687,-46.875000
5688,-46.875000
5689,-46.875000
5690,-46.875000
5691,-46.875000
5692,-46.875000
5693,-46.875000
5694,-46.875000
5695,-46.875000
5696,-46.875000
5697,-46.875000
5698,-46.875000
5699,-46.875000
5700,-46.875000
5701,-46.875000
5702,-46.875000
5703,-46.875000
5704,-46.875000
5705,-46.875000
5706,-46.875000
5707,-46.875000
5708,-46.875000
5709,-46.875000
5710,-50.781250
5711,-46.875000
5712,-50.781250
5713,-50.781250
5714,-50.781250
5715,-50.781250
5716,-50.781250
5717,-50.781250
5718,-50.781250
5719,-50.781250
5720,-50.781250
5721,-50.781250
5722,-50.781250
5723,-50.781250
5724,-50.781250
5725,-50.781250
5726,-50.781250
5727,-50.781250
5728,-50.781250
5729,-50.781250
5730,-50.781250
5731,-50.781250
5732,-50.781250
5733,-50.781250
5734,-50.781250
5735,-50.781250
5736,-50.781250
5737,-50.781250
5738,-50.781250
5739,-50.781250
5740,-50.781250
5741,-50.781250
5742,-50.781250
5743,-50.781250
5744,-50.781250
5745,-50.781250
5746,-50.781250
5747,-50.781250
5748,-50.781250
5749,-50.781250
5750,-50.781250
5751,-50.781250
5752,-50.781250
5753,-50.781250
5754,-50.781250
5755,-50.781250
5756,-50.781250
5757,-50.781250
5758,-50.781250
5759,-50.781250
5760,-50.781250
5761,-50.781250
5762,-50.781250
5763,-50.781250
5764,-54.687500
5765,-50.781250
5766,-54.687500
5767,-54.687500
5768,-54.687500
5769,-54.687500
5770,-54.687500
5771,-50.781250
5772,-54.687500
5773,-54.687500
5774,-54.687500
5775,-54.687500
5776,-54.687500
5777,-54.687500
5778,-54.687500
5779,-54.687500
5780,-50.781250
5781,-50.781250
5782,-54.687500
5783,-54.687500
5784,-54.687500
5785,-54.687500
5786,-54.687500
5787,-54.687500
5788,-54.687500
5789,-54.687500
5790,-54.687500
5791,-54.687500
5792,-54.687500
5793,-54.687500
5794,-54.687500
5795,-54.687500
5796,-54.687500
5797,-50.781250
5798,-54.687500
5799,-54.687500
5800,-54.687500
5801,-54.687500
5802,-54.687500
5803,-54.687500
5804,-54.687500
5805,-50.781250
5806,-50.781250
5807,-54.687500
5808,-54.687500
5809,-54.687500
5810,-54.687500
5811,-54.687500
5812,-54.687500
5813,-54.687500
5814,-50.781250
5815,-50.781250
5816,-54.687500
5817,-54.687500
5818,-50.781250
5819,-54.687500
5820,-54.687500
5821,-50.781250
5822,-54.687500
5823,-54.687500
5824,-54.687500
5825,-50.781250
5826,-50.781250
5827,-50.781250
5828,-50.781250
5829,-50.781250
5830,-50.781250
5831,-54.687500
5832,-50.781250
5833,-50.781250
5834,-50.781250
5835,-50.781250
5836,-50.781250
5837,-50.781250
5838,-50.781250
5839,-50.781250
5840,-50.781250
5841,-50.781250
5842,-50.781250
5843,-50.781250
5844,-50.781250
5845,-50.781250
5846,-50.781250
5847,-50.781250
5848,-50.781250
5849,-50.781250
5850,-50.781250
5851,-50.781250
5852,-50.781250
5853,-50.781250
5854,-50.781250
5855,-50.781250
5856,-50.781250
5857,-50.781250
5858,-50.781250
5859,-50.781250
5860,-46.875000
5861,-50.781250
5862,-46.875000
5863,-46.875000
5864,-46.875000
5865,-46.875000
5866,-46.875000
5867,-46.875000
5868,-46.875000
5869,-46.875000
5870,-46.875000
5871,-46.875000
5872,-46.875000
5873,-46.875000
5874,-46.875000
5875,-46.875000
5876,-46.875000
5877,-46.875000
5878,-46.875000
5879,-46.875000
5880,-46.875000
5881,-46.875000
5882,-46.875000
5883,-46.875000
5884,-42.968750
5885,-46.875000
5886,-42.968750
5887,-42.968750
5888,-42.968750
5889,-42.968750
5890,-42.968750
5891,-42.968750
5892,-42.968750
5893,-42.968750
5894,-42.968750
5895,-42.968750
5896,-42.968750
5897,-42.968750
5898,-42.968750
5899,-42.968750
5900,-42.968750
5901,-42.968750
5902,-42.968750
5903,-42.968750
5904,-42.968750
5905,-42.968750
5906,-39.062500
5907,-42.968750
5908,-39.062500
5909,-42.968750
5910,-42.968750
5911,-42.968750
5912,-42.968750
5913,-39.062500
5914,-39.062500
5915,-39.062500
5916,-39.062500
5917,-39.062500
5918,-39.062500
5919,-39.062500
5920,-39.062500
5921,-39.062500
5922,-39.062500
5923,-39.062500
5924,-39.062500
5925,-39.062500
5926,-39.062500
5927,-39.062500
5928,-39.062500
5929,-39.062500
5930,-35.156250
5931,-39.062500
5932,-35.156250
5933,-35.156250
5934,-35.156250
5935,-35.156250
5936,-35.156250
5937,-35.156250
5938,-35.156250
5939,-35.156250
5940,-35.156250
5941,-35.156250
5942,-35.156250
5943,-35.156250
5944,-35.156250
5945,-31.250000
5946,-31.250000
5947,-35.156250
5948,-31.250000
5949,-31.250000
5950,-31.250000
5951,-31.250000
5952,-31.250000
5953,-31.250000
5954,-31.250000
5955,-31.250000
5956,-31.250000
5957,-31.250000
5958,-31.250000
5959,-31.250000
5960,-31.250000
5961,-31.250000
5962,-31.250000
5963,-31.250000
5964,-31.250000
5965,-31.250000
5966,-27.343750
5967,-27.343750
5968,-27.343750
5969,-27.343750
5970,-27.343750
5971,-27.343750
5972,-27.343750
5973,-27.343750
5974,-27.343750
5975,-27.343750
5976,-27.343750
5977,-27.343750
5978,-27.343750
5979,-27.343750
5980,-27.343750
5981,-27.343750
5982,-23.437500
5983,-23.437500
5984,-23.437500
5985,-23.437500
5986,-23.437500
5987,-23.437500
5988,-23.437500
5989,-23.437500
5990,-23.437500
5991,-23.437500
5992,-23.437500
5993,-23.437500
5994,-23.437500
5995,-23.437500
5996,-19.531250
5997,-23.437500
5998,-19.531250
5999,-19.531250
6000,-19.531250
6001,-19.531250
6002,-19.531250
6003,-19.531250
6004,-19.531250
6005,-19.531250
6006,-19.531250
6007,-19.531250
6008,-19.531250
6009,-19.531250
6010,-19.531250
6011,-19.531250
6012,-15.625000
6013,-15.625000
6014,-15.625000
6015,-15.625000
6016,-15.625000
6017,-15.625000
6018,-15.625000
6019,-15.625000
6020,-15.625000
6021,-15.625000
6022,-15.625000
6023,-15.625000
6024,-15.625000
6025,-15.625000
6026,-11.718750
6027,-11.718750
6028,-11.718750
6029,-11.718750
6030,-11.718750
6031,-11.718750
6032,-11.718750
6033,-11.718750
6034,-11.718750
6035,-11.718750
6036,-11.718750
6037,-11.718750
6038,-11.718750
6039,-11.718750
6040,-11.718750
6041,-11.718750
6042,-11.718750
6043,-7.812500
6044,-7.812500
6045,-7.812500
6046,-7.812500
6047,-7.812500
6048,-7.812500
6049,-7.812500
6050,-7.812500
6051,-7.812500
6052,-7.812500
6053,-7.812500
6054,-7.812500
6055,-7.812500
6056,-7.812500
6057,-7.812500
6058,-3.906250
6059,-3.906250
6060,-7.812500
6061,-3.906250
6062,-3.906250
6063,-3.906250
6064,-3.906250
6065,-3.906250
6066,-3.906250
6067,-3.906250
6068,-3.906250
6069,-3.906250
6070,-3.906250
6071,-3.906250
6072,-3.906250
6073,-3.906250
6074,-3.906250
6075,-3.906250
6076,0.000000
6077,0.000000
6078,0.000000
6079,0.000000
6080,0.000000
6081,0.000000
6082,0.000000
6083,0.000000
6084,0.000000
6085,0.000000
6086,0.000000
6087,0.000000
6088,0.000000
6089,0.000000
6090,0.000000
6091,3.906250
6092,0.000000
6093,3.906250
6094,3.906250
6095,3.906250
6096,3.906250
6097,3.906250
6098,3.906250
6099,3.906250
6100,3.906250
6101,3.906250
6102,3.906250
6103,3.906250
6104,3.906250
6105,3.906250
6106,3.906250
6107,7.812500
6108,7.812500
6109,3.906250
6110,7.812500
6111,3.906250
6112,7.812500
6113,7.812500
6114,7.812500
6115,7.812500
6116,7.812500
6117,7.812500
6118,7.812500
6119,7.812500
6120,7.812500
6121,7.812500
6122,7.812500
6123,7.812500
6124,7.812500
6125,11.718750
6126,7.812500
6127,11.718750
6128,11.718750
6129,11.718750
6130,11.718750
6131,11.718750
6132,11.718750
6133,11.718750
6134,11.718750
6135,11.718750
6136,11.718750
6137,11.718750
6138,11.718750
6139,11.718750
6140,11.718750
6141,11.718750
6142,15.625000
6143,11.718750
6144,15.625000
6145,11.718750
6146,15.625000
6147,11.718750
6148,11.718750
6149,15.625000
6150,15.625000
6151,15.625000
6152,15.625000
6153,15.625000
6154,15.625000
6155,15.625000
6156,15.625000
6157,15.625000
6158,15.625000
6159,15.625000
6160,15.625000
6161,15.625000
6162,15.625000
6163,15.625000
6164,15.625000
6165,19.531250
6166,15.625000
6167,19.531250
6168,15.625000
6169,19.531250
6170,19.531250
6171,19.531250
6172,19.531250
6173,19.531250
6174,19.531250
6175,19.531250
6176,15.625000
6177,19.531250
6178,19.531250
6179,19.531250
6180,19.531250
6181,19.531250
6182,19.531250
6183,19.531250
6184,19.531250
6185,19.531250
6186,19.531250
6187,19.531250
6188,19.531250
6189,19.531250
6190,19.531250
6191,19.531250
6192,19.531250
6193,19.531250
6194,19.531250
6195,19.531250
6196,19.531250
6197,23.437500
6198,19.531250
6199,19.531250
6200,23.437500
6201,23.437500
6202,23.437500
6203,23.437500
6204,23.437500
6205,23.437500
6206,23.437500
6207,23.437500
6208,23.437500
6209,23.437500
6210,23.437500
6211,23.437500
6212,23.437500
6213,23.437500
6214,23.437500
6215,23.437500
6216,23.437500
6217,23.437500
6218,23.437500
6219,23.437500
6220,23.437500
6221,23.437500
6222,23.437500
6223,23.437500
6224,23.437500
6225,23.437500
6226,27.343750
6227,27.343750
6228,23.437500
6229,23.437500
6230,27.343750
6231,23.437500
6232,27.343750
6233,27.343750
6234,27.343750
6235,27.343750
6236,27.343750
6237,27.343750
6238,27.343750
6239,27.343750
6240,27.343750
6241,27.343750
6242,27.343750
6243,27.343750
6244,27.343750
6245,27.343750
6246,27.343750
6247,27.343750
6248,27.343750
6249,27.343750
6250,27.343750
6251,27.343750
6252,27.343750
6253,27.343750
6254,27.343750
6255,27.343750
6256,27.343750
6257,27.343750
6258,27.343750
6259,27.343750
6260,27.343750
6261,27.343750
6262,27.343750
6263,27.343750
6264,27.343750
6265,27.343750
6266,27.343750
6267,27.343750
6268,27.343750
6269,27.343750
6270,27.343750
6271,27.343750
6272,27.343750
6273,27.343750
6274,27.343750
6275,27.343750
6276,27.343750
6277,27.343750
6278,27.343750
6279,27.343750
6280,27.343750
6281,27.343750
6282,27.343750
6283,27.343750
6284,27.343750
6285,27.343750
6286,27.343750
6287,27.343750
6288,27.343750
6289,27.343750
6290,27.343750
6291,27.343750
6292,27.343750
6293,31.250000
6294,27.343750
6295,27.343750
6296,27.343750
6297,27.343750
6298,27.343750
6299,27.343750
6300,27.343750
6301,27.343750
6302,27.343750
6303,27.343750
6304,27.343750
6305,27.343750
6306,27.343750
6307,27.343750
6308,27.343750
6309,27.343750
6310,27.343750
6311,27.343750
6312,27.343750
6313,27.343750
6314,27.343750
6315,27.343750
6316,27.343750
6317,27.343750
6318,27.343750
6319,27.343750
6320,27.343750
6321,27.343750
6322,27.343750
6323,27.343750
6324,27.343750
6325,27.343750
6326,27.343750
6327,27.343750
6328,27.343750
6329,23.437500
6330,27.343750
6331,27.343750
6332,27.343750
6333,27.343750
6334,27.343750
6335,27.343750
6336,27.343750
6337,27.343750
6338,23.437500
6339,27.343750
6340,27.343750
6341,27.343750
6342,23.437500
6343,27.343750
6344,23.437500
6345,23.437500
6346,23.437500
6347,23.437500
6348,23.437500
6349,23.437500
6350,23.437500
6351,23.437500
6352,23.437500
6353,23.437500
6354,23.437500
6355,23.437500
6356,23.437500
6357,23.437500
6358,23.437500
6359,23.437500
6360,23.437500
6361,23.437500
6362,23.437500
6363,23.437500
6364,23.437500
6365,23.437500
6366,23.437500
6367,23.437500
6368,23.437500
6369,23.437500
6370,23.437500
6371,23.437500
6372,23.437500
6373,23.437500
6374,23.437500
6375,23.437500
6376,23.437500
6377,23.437500
6378,23.437500
6379,23.437500
6380,23.437500
6381,23.437500
6382,23.437500
6383,19.531250
6384,23.437500
6385,23.437500
6386,23.437500
6387,19.531250
6388,19.531250
6389,19.531250
6390,19.531250
6391,19.531250
6392,19.531250
6393,19.531250
6394,19.531250
6395,19.531250
6396,19.531250
6397,19.531250
6398,19.531250
6399,19.531250
6400,19.531250
6401,19.531250
6402,19.531250
6403,19.531250
6404,19.531250
6405,19.531250
6406,19.531250
6407,19.531250
6408,19.531250
6409,19.531250
6410,15.625000
6411,15.625000
6412,15.625000
6413,15.625000
6414,15.625000
6415,15.625000
6416,15.625000
6417,15.625000
6418,15.625000
6419,15.625000
6420,15.625000
6421,15.625000
6422,15.625000
6423,15.625000
6424,15.625000
6425,15.625000
6426,15.625000
6427,15.625000
6428,15.625000
6429,15.625000
6430,11.718750
6431,11.718750
6432,11.718750
6433,11.718750
6434,11.718750
6435,11.718750
6436,11.718750
6437,11.718750
6438,11.718750
6439,11.718750
6440,11.718750
6441,11.718750
6442,11.718750
6443,11.718750
6444,11.718750
6445,7.812500
6446,7.812500
6447,7.812500
6448,7.812500
6449,7.812500
6450,7.812500
6451,7.812500
6452,7.812500
6453,7.812500
6454,7.812500
6455,7.812500
6456,7.812500
6457,7.812500
6458,7.812500
6459,7.812500
6460,3.906250
6461,7.812500
6462,7.812500
6463,3.906250
6464,3.906250
6465,7.812500
6466,7.812500
6467,3.906250
6468,3.906250
6469,3.906250
6470,3.906250
6471,3.906250
6472,3.906250
6473,3.906250
6474,3.906250
6475,3.906250
6476,3.906250
6477,3.906250
6478,3.906250
6479,3.906250
6480,3.906250
6481,0.000000
6482,0.000000
6483,0.000000
6484,0.000000
6485,0.000000
6486,0.000000
6487,0.000000
6488,0.000000
6489,0.000000
6490,0.000000
6491,0.000000
6492,0.000000
6493,0.000000
6494,0.000000
6495,0.000000
6496,0.000000
6497,0.000000
6498,0.000000
6499,-3.906250
6500,-3.906250
6501,-3.906250
6502,-3.906250
6503,-3.906250
6504,-3.906250
6505,-3.906250
6506,-3.906250
6507,-3.906250
6508,-3.906250
6509,-3.906250
6510,-3.906250
6511,-3.906250
6512,-3.906250
6513,-7.812500
6514,-7.812500
6515,-7.812500
6516,-7.812500
6517,-7.812500
6518,-7.812500
6519,-7.812500
6520,-7.812500
6521,-7.812500
6522,-7.812500
6523,-7.812500
6524,-7.812500
6525,-7.812500
6526,-7.812500
6527,-7.812500
6528,-7.812500
6529,-7.812500
6530,-7.812500
6531,-11.718750
6532,-11.718750
6533,-11.718750
6534,-11.718750
6535,-11.718750
6536,-11.718750
6537,-11.718750
6538,-11.718750
6539,-11.718750
6540,-11.718750
6541,-11.718750
6542,-11.718750
6543,-11.718750
6544,-15.625000
6545,-15.625000
6546,-15.625000
6547,-15.625000
6548,-15.625000
6549,-15.625000
6550,-15.625000
6551,-15.625000
6552,-15.625000
6553,-15.625000
6554,-15.625000
6555,-15.625000
6556,-15.625000
6557,-15.625000
6558,-19.531250
6559,-19.531250
6560,-19.531250
6561,-19.531250
6562,-19.531250
6563,-19.531250
6564,-19.531250
6565,-19.531250
6566,-19.531250
6567,-19.531250
6568,-19.531250
6569,-19.531250
6570,-23.437500
6571,-19.531250
6572,-23.437500
6573,-23.437500
6574,-23.437500
6575,-23.437500
6576,-23.437500
6577,-23.437500
6578,-23.437500
6579,-23.437500
6580,-23.437500
6581,-23.437500
6582,-23.437500
6583,-23.437500
6584,-23.437500
6585,-23.437500
6586,-23.437500
6587,-27.343750
6588,-27.343750
6589,-27.343750
6590,-27.343750
6591,-27.343750
6592,-27.343750
6593,-27.343750
6594,-27.343750
6595,-27.343750
6596,-27.343750
6597,-27.343750
6598,-27.343750
6599,-27.343750
6600,-27.343750
6601,-31.250000
6602,-27.343750
6603,-27.343750
6604,-27.343750
6605,-31.250000
6606,-31.250000
6607,-31.250000
6608,-31.250000
6609,-31.250000
6610,-31.250000
6611,-31.250000
6612,-31.250000
6613,-31.250000
6614,-31.250000
6615,-31.250000
6616,-31.250000
6617,-35.156250
6618,-31.250000
6619,-35.156250
6620,-35.156250
6621,-35.156250
6622,-35.156250
6623,-35.156250
6624,-35.156250
6625,-35.156250
6626,-35.156250
6627,-35.156250
6628,-35.156250
6629,-35.156250
6630,-35.156250
6631,-35.156250
6632,-35.156250
6633,-35.156250
6634,-35.156250
6635,-35.156250
6636,-35.156250
6637,-39.062500
6638,-35.156250
6639,-35.156250
6640,-39.062500
6641,-39.062500
6642,-39.062500
6643,-39.062500
6644,-39.062500
6645,-39.062500
6646,-39.062500
6647,-39.062500
6648,-39.062500
6649,-42.968750
6650,-39.062500
6651,-39.062500
6652,-42.968750
6653,-39.062500
6654,-39.062500
6655,-42.968750
6656,-42.968750
6657,-42.968750
6658,-42.968750
6659,-39.062500
6660,-42.968750
6661,-42.968750
6662,-42.968750
6663,-42.968750
6664,-42.968750
6665,-42.968750
6666,-42.968750
6667,-42.968750
6668,-42.968750
6669,-42.968750
6670,-42.968750
6671,-42.968750
6672,-42.968750
6673,-42.968750
6674,-42.968750
6675,-46.875000
6676,-42.968750
6677,-46.875000
6678,-42.968750
6679,-42.968750
6680,-42.968750
6681,-46.875000
6682,-46.875000
6683,-46.875000
6684,-46.875000
6685,-46.875000
6686,-46.875000
6687,-46.875000
6688,-46.875000
6689,-46.875000
6690,-46.875000
6691,-46.875000
6692,-46.875000
6693,-46.875000
6694,-46.875000
6695,-46.875000
6696,-46.875000
6697,-46.875000
6698,-46.875000
6699,-46.875000
6700,-46.875000
6701,-46.875000
6702,-46.875000
6703,-46.875000
6704,-50.781250
6705,-50.781250
6706,-50.781250
6707,-50.781250
6708,-50.781250
6709,-50.781250
6710,-50.781250
6711,-50.781250
6712,-50.781250
6713,-46.875000
6714,-50.781250
6715,-54.687500
6716,-50.781250
6717,-50.781250
6718,-50.781250
6719,-50.781250
6720,-50.781250
6721,-50.781250
6722,-50.781250
6723,-50.781250
6724,-50.781250
6725,-50.781250
6726,-50.781250
6727,-50.781250
6728,-50.781250
6729,-50.781250
6730,-50.781250
6731,-50.781250
6732,-50.781250
6733,-50.781250
6734,-50.781250
6735,-50.781250
6736,-50.781250
6737,-50.781250
6738,-50.781250
6739,-50.781250
6740,-50.781250
6741,-50.781250
6742,-50.781250
6743,-54.687500
6744,-54.687500
6745,-54.687500
6746,-50.781250
6747,-54.687500
6748,-54.687500
6749,-54.687500
6750,-50.781250
6751,-54.687500
6752,-54.687500
6753,-54.687500
6754,-54.687500
6755,-54.687500
6756,-50.781250
6757,-54.687500
6758,-54.687500
6759,-54.687500
6760,-54.687500
6761,-50.781250
6762,-54.687500
6763,-50.781250
6764,-54.687500
6765,-50.781250
6766,-54.687500
6767,-54.687500
6768,-54.687500
6769,-54.687500
6770,-54.687500
6771,-54.687500
6772,-54.687500
6773,-54.687500
6774,-50.781250
6775,-54.687500
6776,-54.687500
6777,-54.687500
6778,-54.687500
6779,-54.687500
6780,-54.687500
6781,-54.687500
6782,-54.687500
6783,-54.687500
6784,-54.687500
6785,-54.687500
6786,-54.687500
6787,-54.687500
6788,-54.687500
6789,-54.687500
6790,-54.687500
6791,-54.687500
6792,-54.687500
6793,-50.781250
6794,-50.781250
6795,-54.687500
6796,-50.781250
6797,-50.781250
6798,-54.687500
6799,-54.687500
6800,-50.781250
6801,-54.687500
6802,-54.687500
6803,-50.781250
6804,-50.781250
6805,-50.781250
6806,-50.781250
6807,-50.781250
6808,-50.781250
6809,-50.781250
6810,-50.781250
6811,-50.781250
6812,-50.781250
6813,-54.687500
6814,-50.781250
6815,-50.781250
6816,-50.781250
6817,-50.781250
6818,-50.781250
6819,-50.781250
6820,-50.781250
6821,-50.781250
6822,-50.781250
6823,-50.781250
6824,-50.781250
6825,-50.781250
6826,-50.781250
6827,-50.781250
6828,-50.781250
6829,-50.781250
6830,-50.781250
6831,-50.781250
6832,-50.781250
6833,-50.781250
6834,-50.781250
6835,-50.781250
6836,-50.781250
6837,-50.781250
6838,-50.781250
6839,-50.781250
6840,-50.781250
6841,-50.781250
6842,-50.781250
6843,-50.781250
6844,-50.781250
6845,-50.781250
6846,-50.781250
6847,-50.781250
6848,-50.781250
6849,-46.875000
6850,-50.781250
6851,-46.875000
6852,-46.875000
6853,-46.875000
6854,-46.875000
6855,-46.875000
6856,-46.875000
6857,-46.875000
6858,-46.875000
6859,-46.875000
6860,-46.875000
6861,-46.875000
6862,-46.875000
6863,-46.875000
6864,-46.875000
6865,-46.875000
6866,-46.875000
6867,-46.875000
6868,-46.875000
6869,-46.875000
6870,-46.875000
6871,-46.875000
6872,-46.875000
6873,-46.875000
6874,-42.968750
6875,-46.875000
6876,-46.875000
6877,-46.875000
6878,-42.968750
6879,-42.968750
6880,-42.968750
6881,-42.968750
6882,-42.968750
6883,-42.968750
6884,-42.968750
6885,-42.968750
6886,-42.968750
6887,-42.968750
6888,-42.968750
6889,-42.968750
6890,-42.968750
6891,-42.968750
6892,-42.968750
6893,-42.968750
6894,-39.062500
6895,-39.062500
6896,-42.968750
6897,-42.968750
6898,-39.062500
6899,-42.968750
6900,-39.062500
6901,-39.062500
6902,-39.062500
6903,-39.062500
6904,-39.062500
6905,-39.062500
6906,-39.062500
6907,-39.062500
6908,-39.062500
6909,-39.062500
6910,-39.062500
6911,-39.062500
6912,-39.062500
6913,-39.062500
6914,-39.062500
6915,-39.062500
6916,-39.062500
6917,-39.062500
6918,-35.156250
6919,-35.156250
6920,-35.156250
6921,-35.156250
6922,-35.156250
6923,-35.156250
6924,-35.156250
6925,-35.156250
6926,-35.156250
6927,-35.156250
6928,-35.156250
6929,-35.156250
6930,-35.156250
6931,-35.156250
6932,-35.156250
6933,-35.156250
6934,-31.250000
6935,-35.156250
6936,-35.156250
6937,-31.250000
6938,-31.250000
6939,-31.250000
6940,-31.250000
6941,-31.250000
6942,-31.250000
6943,-31.250000
6944,-31.250000
6945,-31.250000
6946,-31.250000
6947,-31.250000
6948,-31.250000
6949,-31.250000
6950,-31.250000
6951,-27.343750
6952,-31.250000
6953,-31.250000
6954,-27.343750
6955,-27.343750
6956,-27.343750
6957,-27.343750
6958,-27.343750
6959,-27.343750
6960,-27.343750
6961,-27.343750
6962,-27.343750
6963,-27.343750
6964,-27.343750
6965,-27.343750
6966,-27.343750
6967,-27.343750
6968,-27.343750
6969,-27.343750
6970,-23.437500
6971,-23.437500
6972,-23.437500
6973,-23.437500
6974,-23.437500
6975,-23.437500
6976,-23.437500
6977,-23.437500
6978,-23.437500
6979,-23.437500
6980,-23.437500
6981,-23.437500
6982,-23.437500
6983,-23.437500
6984,-23.437500
6985,-23.437500
6986,-19.531250
6987,-19.531250
6988,-19.531250
6989,-19.531250
6990,-19.531250
6991,-19.531250
6992,-19.531250
6993,-19.531250
6994,-19.531250
6995,-19.531250
6996,-19.531250
6997,-19.531250
6998,-19.531250
6999,-19.531250
7000,-19.531250
7001,-19.531250
7002,-15.625000
7003,-15.625000
7004,-15.625000
7005,-15.625000
7006,-15.625000
7007,-15.625000
7008,-15.625000
7009,-15.625000
7010,-15.625000
7011,-15.625000
7012,-15.625000
7013,-15.625000
7014,-15.625000
7015,-15.625000
7016,-11.718750
7017,-11.718750
7018,-11.718750
7019,-11.718750
7020,-11.718750
7021,-11.718750
7022,-11.718750
7023,-11.718750
7024,-11.718750
7025,-11.718750
7026,-11.718750
7027,-7.812500
7028,-7.812500
7029,-11.718750
7030,-11.718750
7031,-11.718750
7032,-7.812500
7033,-7.812500
7034,-7.812500
7035,-7.812500
7036,-7.812500
7037,-7.812500
7038,-7.812500
7039,-7.812500
7040,-7.812500
7041,-7.812500
7042,-7.812500
7043,-7.812500
7044,-7.812500
7045,-7.812500
7046,-3.906250
7047,-7.812500
7048,-3.906250
7049,-3.906250
7050,-3.906250
7051,-3.906250
7052,-3.906250
7053,-3.906250
7054,-3.906250
7055,-3.906250
7056,-3.906250
7057,-3.906250
7058,-3.906250
7059,-3.906250
7060,-3.906250
7061,-3.906250
7062,0.000000
7063,-3.906250
7064,-3.906250
7065,0.000000
7066,0.000000
7067,0.000000
7068,0.000000
7069,0.000000
7070,0.000000
7071,0.000000
7072,0.000000
7073,0.000000
7074,0.000000
7075,0.000000
7076,0.000000
7077,0.000000
7078,0.000000
7079,0.000000
7080,3.906250
7081,3.906250
7082,3.906250
7083,3.906250
7084,3.906250
7085,3.906250
7086,3.906250
7087,3.906250
7088,3.906250
7089,3.906250
7090,3.906250
7091,3.906250
7092,3.906250
7093,3.906250
7094,3.906250
7095,3.906250
7096,3.906250
7097,3.906250
7098,7.812500
7099,7.812500
7100,7.812500
7101,7.812500
7102,7.812500
7103,7.812500
7104,7.812500
7105,7.812500
7106,7.812500
7107,7.812500
7108,7.812500
7109,7.812500
7110,7.812500
7111,7.812500
7112,7.812500
7113,7.812500
7114,11.718750
7115,7.812500
7116,7.812500
7117,11.718750
7118,11.718750
7119,11.718750
7120,11.718750
7121,11.718750
7122,11.718750
7123,11.718750
7124,11.718750
7125,11.718750
7126,11.718750
7127,11.718750
7128,11.718750
7129,11.718750
7130,11.718750
7131,11.718750
7132,11.718750
7133,11.718750
7134,11.718750
7135,15.625000
7136,11.718750
7137,15.625000
7138,15.625000
7139,15.625000
7140,15.625000
7141,15.625000
7142,15.625000
7143,15.625000
7144,15.625000
7145,15.625000
7146,15.625000
7147,15.625000
7148,15.625000
7149,15.625000
7150,15.625000
7151,15.625000
7152,15.625000
7153,15.625000
7154,15.625000
7155,15.625000
7156,15.625000
7157,15.625000
7158,15.625000
7159,19.531250
7160,19.531250
7161,19.531250
7162,19.531250
7163,19.531250
7164,19.531250
7165,19.531250
7166,19.531250
7167,19.531250
7168,19.531250
7169,19.531250
7170,19.531250
7171,19.531250
7172,19.531250
7173,19.531250
7174,19.531250
7175,19.531250
7176,19.531250
7177,19.531250
7178,19.531250
7179,19.531250
7180,19.531250
7181,19.531250
7182,23.437500
7183,23.437500
7184,23.437500
7185,23.437500
7186,23.437500
7187,23.437500
7188,23.437500
7189,23.437500
7190,23.437500
7191,23.437500
7192,23.437500
7193,23.437500
7194,23.437500
7195,23.437500
7196,23.437500
7197,23.437500
7198,23.437500
7199,23.437500
7200,23.437500
7201,23.437500
7202,23.437500
7203,23.437500
7204,23.437500
7205,23.437500
7206,23.437500
7207,23.437500
7208,23.437500
7209,23.437500
7210,23.437500
7211,23.437500
7212,23.437500
7213,23.437500
7214,23.437500
7215,23.437500
7216,23.437500
7217,23.437500
7218,27.343750
7219,27.343750
7220,27.343750
7221,27.343750
7222,23.437500
7223,27.343750
7224,23.437500
7225,27.343750
7226,27.343750
7227,27.343750
7228,27.343750
7229,27.343750
7230,27.343750
7231,27.343750
7232,27.343750
7233,27.343750
7234,27.343750
7235,27.343750
7236,27.343750
7237,27.343750
7238,27.343750
7239,27.343750
7240,27.343750
7241,27.343750
7242,27.343750
7243,27.343750
7244,27.343750
7245,27.343750
7246,27.343750
7247,27.343750
7248,27.343750
7249,27.343750
7250,27.343750
7251,27.343750
7252,27.343750
7253,27.343750
7254,27.343750
7255,27.343750
7256,27.343750
7257,27.343750
7258,27.343750
7259,27.343750
7260,27.343750
7261,27.343750
7262,27.343750
7263,27.343750
7264,27.343750
7265,27.343750
7266,27.343750
7267,27.343750
7268,27.343750
7269,27.343750
7270,27.343750
7271,27.343750
7272,27.343750
7273,27.343750
7274,27.343750
7275,27.343750
7276,27.343750
7277,27.343750
7278,27.343750
7279,27.343750
7280,27.343750
7281,27.343750
7282,27.343750
7283,27.343750
7284,27.343750
7285,27.343750
7286,27.343750
7287,27.343750
7288,27.343750
7289,27.343750
7290,27.343750
7291,27.343750
7292,27.343750
7293,27.343750
7294,27.343750
7295,27.343750
7296,27.343750
7297,27.343750
7298,27.343750
7299,27.343750
7300,27.343750
7301,27.343750
7302,27.343750
7303,27.343750
7304,27.343750
7305,27.343750
7306,27.343750
7307,27.343750
7308,27.343750
7309,27.343750
7310,27.343750
7311,27.343750
7312,27.343750
7313,27.343750
7314,27.343750
7315,27.343750
7316,27.343750
7317,27.343750
7318,27.343750
7319,27.343750
7320,27.343750
7321,27.343750
7322,27.343750
7323,27.343750
7324,27.343750
7325,27.343750
7326,27.343750
7327,27.343750
7328,27.343750
7329,27.343750
7330,27.343750
7331,27.343750
7332,27.343750
7333,27.343750
7334,27.343750
7335,27.343750
7336,23.437500
7337,23.437500
7338,27.343750
7339,23.437500
7340,23.437500
7341,23.437500
7342,23.437500
7343,23.437500
7344,23.437500
7345,23.437500
7346,23.437500
7347,23.437500
7348,23.437500
7349,23.437500
7350,23.437500
7351,23.437500
7352,23.437500
7353,23.437500
7354,23.437500
7355,23.437500
7356,23.437500
7357,23.437500
7358,23.437500
7359,23.437500
7360,23.437500
7361,23.437500
7362,23.437500
7363,23.437500
7364,23.437500
7365,23.437500
7366,23.437500
7367,23.437500
7368,23.437500
7369,23.437500
7370,19.531250
7371,19.531250
7372,19.531250
7373,23.437500
7374,19.531250
7375,19.531250
7376,19.531250
7377,19.531250
7378,19.531250
7379,19.531250
7380,19.531250
7381,19.531250
7382,19.531250
7383,19.531250
7384,19.531250
7385,19.531250
7386,19.531250
7387,19.531250
7388,19.531250
7389,19.531250
7390,19.531250
7391,19.531250
7392,19.531250
7393,19.531250
7394,19.531250
7395,15.625000
7396,19.531250
7397,15.625000
7398,15.625000
7399,15.625000
7400,15.625000
7401,15.625000
7402,15.625000
7403,15.625000
7404,15.625000
7405,15.625000
7406,15.625000
7407,15.625000
7408,15.625000
7409,15.625000
7410,15.625000
7411,15.625000
7412,15.625000
7413,15.625000
7414,15.625000
7415,11.718750
7416,15.625000
7417,15.625000
7418,15.625000
7419,11.718750
7420,11.718750
7421,11.718750
7422,15.625000
7423,11.718750
7424,11.718750
7425,11.718750
7426,11.718750
7427,11.718750
7428,11.718750
7429,11.718750
7430,11.718750
7431,11.718750
7432,11.718750
7433,11.718750
7434,11.718750
7435,11.718750
7436,11.718750
7437,11.718750
7438,7.812500
7439,7.812500
7440,7.812500
7441,7.812500
7442,7.812500
7443,7.812500
7444,7.812500
7445,7.812500
7446,7.812500
7447,7.812500
7448,7.812500
7449,7.812500
7450,7.812500
7451,7.812500
7452,7.812500
7453,7.812500
7454,3.906250
7455,3.906250
7456,7.812500
7457,7.812500
7458,3.906250
7459,3.906250
7460,3.906250
7461,3.906250
7462,3.906250
7463,3.906250
7464,3.906250
7465,3.906250
7466,3.906250
7467,3.906250
7468,3.906250
7469,3.906250
7470,0.000000
7471,0.000000
7472,3.906250
7473,0.000000
7474,0.000000
7475,0.000000
7476,0.000000
7477,0.000000
7478,0.000000
7479,0.000000
7480,0.000000
7481,0.000000
7482,0.000000
7483,0.000000
7484,0.000000
7485,0.000000
7486,0.000000
7487,0.000000
7488,0.000000
7489,-3.906250
7490,-3.906250
7491,-3.906250
7492,-3.906250
7493,-3.906250
7494,-3.906250
7495,-3.906250
7496,-3.906250
7497,-3.906250
7498,-3.906250
7499,-3.906250
7500,-3.906250
7501,-3.906250
7502,-3.906250
7503,-3.906250
7504,-3.906250
7505,-7.812500
7506,-7.812500
7507,-7.812500
7508,-7.812500
7509,-7.812500
7510,-7.812500
7511,-7.812500
7512,-7.812500
7513,-7.812500
7514,-7.812500
7515,-7.812500
7516,-7.812500
7517,-11.718750
7518,-7.812500
7519,-7.812500
7520,-11.718750
7521,-11.718750
7522,-11.718750
7523,-11.718750
7524,-11.718750
7525,-11.718750
7526,-11.718750
7527,-11.718750
7528,-11.718750
7529,-11.718750
7530,-11.718750
7531,-11.718750
7532,-15.625000
7533,-15.625000
7534,-15.625000
7535,-15.625000
7536,-15.625000
7537,-15.625000
7538,-15.625000
7539,-15.625000
7540,-15.625000
7541,-15.625000
7542,-15.625000
7543,-15.625000
7544,-15.625000
7545,-15.625000
7546,-15.625000
7547,-15.625000
7548,-15.625000
7549,-15.625000
7550,-19.531250
7551,-19.531250
7552,-19.531250
7553,-19.531250
7554,-19.531250
7555,-19.531250
7556,-19.531250
7557,-19.531250
7558,-19.531250
7559,-19.531250
7560,-19.531250
7561,-19.531250
7562,-19.531250
7563,-19.531250
7564,-23.437500
7565,-23.437500
7566,-23.437500
7567,-23.437500
7568,-23.437500
7569,-23.437500
7570,-23.437500
7571,-23.437500
7572,-23.437500
7573,-23.437500
7574,-23.437500
7575,-23.437500
7576,-23.437500
7577,-23.437500
7578,-23.437500
7579,-27.343750
7580,-23.437500
7581,-27.343750
7582,-27.343750
7583,-27.343750
7584,-27.343750
7585,-27.343750
7586,-27.343750
7587,-27.343750
7588,-27.343750
7589,-27.343750
7590,-27.343750
7591,-27.343750
7592,-27.343750
7593,-27.343750
7594,-27.343750
7595,-31.250000
7596,-31.250000
7597,-31.250000
7598,-31.250000
7599,-31.250000
7600,-31.250000
7601,-31.250000
7602,-31.250000
7603,-31.250000
7604,-31.250000
7605,-31.250000
7606,-31.250000
7607,-31.250000
7608,-31.250000
7609,-35.156250
7610,-35.156250
7611,-35.156250
7612,-35.156250
7613,-35.156250
7614,-35.156250
7615,-35.156250
7616,-35.156250
7617,-35.156250
7618,-35.156250
7619,-35.156250
7620,-35.156250
7621,-35.156250
7622,-35.156250
7623,-35.156250
7624,-35.156250
7625,-35.156250
7626,-39.062500
7627,-39.062500
7628,-39.062500
7629,-35.156250
7630,-39.062500
7631,-39.062500
7632,-39.062500
7633,-39.062500
7634,-39.062500
7635,-39.062500
7636,-39.062500
7637,-39.062500
7638,-39.062500
7639,-39.062500
7640,-39.062500
7641,-39.062500
7642,-39.062500
7643,-39.062500
7644,-39.062500
7645,-39.062500
7646,-42.968750
7647,-42.968750
7648,-42.968750
7649,-42.968750
7650,-42.968750
7651,-42.968750
7652,-42.968750
7653,-42.968750
7654,-42.968750
7655,-42.968750
7656,-42.968750
7657,-42.968750
7658,-42.968750
7659,-42.968750
7660,-42.968750
7661,-42.968750
7662,-42.968750
7663,-42.968750
7664,-42.968750
7665,-42.968750
7666,-42.968750
7667,-42.968750
7668,-42.968750
7669,-46.875000
7670,-42.968750
7671,-42.968750
7672,-42.968750
7673,-46.875000
7674,-46.875000
7675,-46.875000
7676,-46.875000
7677,-46.875000
7678,-46.875000
7679,-46.875000
7680,-46.875000
7681,-46.875000
7682,-46.875000
7683,-46.875000
7684,-46.875000
7685,-46.875000
7686,-46.875000
7687,-46.875000
7688,-46.875000
7689,-46.875000
7690,-46.875000
7691,-46.875000
7692,-46.875000
7693,-50.781250
7694,-46.875000
7695,-50.781250
7696,-50.781250
7697,-50.781250
7698,-50.781250
7699,-50.781250
7700,-46.875000
7701,-50.781250
7702,-50.781250
7703,-50.781250
7704,-50.781250
7705,-50.781250
7706,-50.781250
7707,-50.781250
7708,-50.781250
7709,-50.781250
7710,-50.781250
7711,-50.781250
7712,-50.781250
7713,-50.781250
7714,-50.781250
7715,-50.781250
7716,-50.781250
7717,-50.781250
7718,-50.781250
7719,-50.781250
7720,-50.781250
7721,-50.781250
7722,-50.781250
7723,-50.781250
7724,-50.781250
7725,-50.781250
7726,-50.781250
7727,-50.781250
7728,-50.781250
7729,-50.781250
7730,-50.781250
7731,-50.781250
7732,-50.781250
7733,-50.781250
7734,-50.781250
7735,-54.687500
7736,-50.781250
7737,-50.781250
7738,-50.781250
7739,-50.781250
7740,-50.781250
7741,-54.687500
7742,-54.687500
7743,-54.687500
7744,-54.687500
7745,-50.781250
7746,-54.687500
7747,-50.781250
7748,-50.781250
7749,-54.687500
7750,-54.687500
7751,-54.687500
7752,-54.687500
7753,-54.687500
7754,-54.687500
7755,-50.781250
7756,-54.687500
7757,-54.687500
7758,-54.687500
7759,-54.687500
7760,-54.687500
7761,-54.687500
7762,-54.687500
7763,-54.687500
7764,-54.687500
7765,-54.687500
7766,-54.687500
7767,-54.687500
7768,-54.687500
7769,-54.687500
7770,-54.687500
7771,-54.687500
7772,-54.687500
7773,-54.687500
7774,-54.687500
7775,-54.687500
7776,-54.687500
7777,-54.687500
7778,-54.687500
7779,-54.687500
7780,-54.687500
7781,-54.687500
7782,-50.781250
7783,-54.687500
7784,-50.781250
7785,-54.687500
7786,-54.687500
7787,-54.687500
7788,-54.687500
7789,-50.781250
7790,-54.687500
7791,-50.781250
7792,-54.687500
7793,-50.781250
7794,-54.687500
7795,-54.687500
7796,-50.781250
7797,-50.781250
7798,-50.781250
7799,-50.781250
7800,-50.781250
7801,-50.781250
7802,-50.781250
7803,-50.781250
7804,-50.781250
7805,-50.781250
7806,-50.781250
7807,-50.781250
7808,-50.781250
7809,-50.781250
7810,-50.781250
7811,-50.781250
7812,-50.781250
7813,-50.781250
7814,-50.781250
7815,-50.781250
7816,-50.781250
7817,-50.781250
7818,-50.781250
7819,-50.781250
7820,-50.781250
7821,-50.781250
7822,-50.781250
7823,-50.781250
7824,-50.781250
7825,-50.781250
7826,-46.875000
7827,-50.781250
7828,-50.781250
7829,-50.781250
7830,-50.781250
7831,-50.781250
7832,-46.875000
7833,-50.781250
7834,-50.781250
7835,-46.875000
7836,-50.781250
7837,-50.781250
7838,-46.875000
7839,-50.781250
7840,-50.781250
7841,-46.875000
7842,-46.875000
7843,-46.875000
7844,-46.875000
7845,-46.875000
7846,-46.875000
7847,-46.875000
7848,-46.875000
7849,-46.875000
7850,-46.875000
7851,-46.875000
7852,-46.875000
7853,-46.875000
7854,-46.875000
7855,-46.875000
7856,-46.875000
7857,-46.875000
7858,-46.875000
7859,-46.875000
7860,-46.875000
7861,-46.875000
7862,-46.875000
7863,-46.875000
7864,-42.968750
7865,-46.875000
7866,-46.875000
7867,-46.875000
7868,-46.875000
7869,-46.875000
7870,-42.968750
7871,-42.968750
7872,-42.968750
7873,-42.968750
7874,-42.968750
7875,-42.968750
7876,-42.968750
7877,-42.968750
7878,-42.968750
7879,-42.968750
7880,-42.968750
7881,-42.968750
7882,-42.968750
7883,-42.968750
7884,-42.968750
7885,-42.968750
7886,-42.968750
7887,-42.968750
7888,-42.968750
7889,-42.968750
7890,-39.062500
7891,-39.062500
7892,-39.062500
7893,-39.062500
7894,-39.062500
7895,-39.062500
7896,-39.062500
7897,-39.062500
7898,-39.062500
7899,-39.062500
7900,-39.062500
7901,-39.062500
7902,-39.062500
7903,-39.062500
7904,-39.062500
7905,-39.062500
7906,-35.156250
7907,-39.062500
7908,-35.156250
7909,-39.062500
7910,-35.156250
7911,-35.156250
7912,-35.156250
7913,-35.156250
7914,-35.156250
7915,-35.156250
7916,-35.156250
7917,-35.156250
7918,-35.156250
7919,-35.156250
7920,-35.156250
7921,-35.156250
7922,-35.156250
7923,-35.156250
7924,-31.250000
7925,-35.156250
7926,-31.250000
7927,-35.156250
7928,-31.250000
7929,-31.250000
7930,-31.250000
7931,-31.250000
7932,-31.250000
7933,-31.250000
7934,-31.250000
7935,-31.250000
7936,-31.250000
7937,-31.250000
7938,-31.250000
7939,-31.250000
7940,-31.250000
7941,-31.250000
7942,-31.250000
7943,-27.343750
7944,-27.343750
7945,-27.343750
7946,-27.343750
7947,-27.343750
7948,-27.343750
7949,-27.343750
7950,-27.343750
7951,-27.343750
7952,-27.343750
7953,-27.343750
7954,-27.343750
7955,-27.343750
7956,-27.343750
7957,-27.343750
7958,-23.437500
7959,-23.437500
7960,-23.437500
7961,-23.437500
7962,-23.437500
7963,-23.437500
7964,-23.437500
7965,-23.437500
7966,-23.437500
7967,-23.437500
7968,-23.437500
7969,-23.437500
7970,-23.437500
7971,-23.437500
7972,-23.437500
7973,-23.437500
7974,-23.437500
7975,-19.531250
7976,-19.531250
7977,-19.531250
7978,-19.531250
7979,-19.531250
7980,-19.531250
7981,-19.531250
7982,-19.531250
7983,-19.531250
7984,-19.531250
7985,-19.531250
7986,-19.531250
7987,-19.531250
7988,-19.531250
7989,-19.531250
7990,-15.625000
7991,-19.531250
7992,-19.531250
7993,-15.625000
7994,-15.625000
7995,-15.625000
7996,-15.625000
7997,-15.625000
7998,-15.625000
7999,-15.625000
8000,-15.625000
8001,-15.625000
8002,-15.625000
8003,-15.625000
8004,-15.625000
8005,-15.625000
8006,-15.625000
8007,-15.625000
8008,-11.718750
8009,-15.625000
8010,-11.718750
8011,-11.718750
8012,-11.718750
8013,-11.718750
8014,-11.718750
8015,-11.718750
8016,-11.718750
8017,-11.718750
8018,-11.718750
8019,-11.718750
8020,-11.718750
8021,-7.812500
8022,-7.812500
8023,-11.718750
8024,-7.812500
8025,-7.812500
8026,-7.812500
8027,-7.812500
8028,-7.812500
8029,-7.812500
8030,-7.812500
8031,-7.812500
8032,-7.812500
8033,-7.812500
8034,-7.812500
8035,-7.812500
8036,-7.812500
8037,-7.812500
8038,-7.812500
8039,-3.906250
8040,-3.906250
8041,-3.906250
8042,-3.906250
8043,-3.906250
8044,-3.906250
8045,-3.906250
8046,-3.906250
8047,-3.906250
8048,-3.906250
8049,-3.906250
8050,-3.906250
8051,-3.906250
8052,0.000000
8053,-3.906250
8054,0.000000
8055,0.000000
8056,0.000000
8057,0.000000
8058,0.000000
8059,0.000000
8060,0.000000
8061,0.000000
8062,0.000000
8063,0.000000
8064,0.000000
8065,0.000000
8066,0.000000
8067,0.000000
8068,3.906250
8069,0.000000
8070,0.000000
8071,3.906250
8072,3.906250
8073,3.906250
8074,3.906250
8075,3.906250
8076,3.906250
8077,3.906250
8078,3.906250
8079,3.906250
8080,3.906250
8081,3.906250
8082,3.906250
8083,3.906250
8084,3.906250
8085,7.812500
8086,3.906250
8087,7.812500
8088,7.812500
8089,7.812500
8090,7.812500
8091,7.812500
8092,7.812500
8093,7.812500
8094,7.812500
8095,7.812500
8096,7.812500
8097,7.812500
8098,7.812500
8099,7.812500
8100,7.812500
8101,7.812500
8102,7.812500
8103,11.718750
8104,11.718750
8105,11.718750
8106,11.718750
8107,11.718750
8108,11.718750
8109,11.718750
8110,11.718750
8111,11.718750
8112,11.718750
8113,11.718750
8114,11.718750
8115,11.718750
8116,11.718750
8117,11.718750
8118,11.718750
8119,11.718750
8120,11.718750
8121,11.718750
8122,11.718750
8123,11.718750
8124,15.625000
8125,15.625000
8126,15.625000
8127,11.718750
8128,15.625000
8129,15.625000
8130,15.625000
8131,15.625000
8132,15.625000
8133,15.625000
8134,15.625000
8135,15.625000
8136,15.625000
8137,15.625000
8138,15.625000
8139,15.625000
8140,15.625000
8141,15.625000
8142,15.625000
8143,15.625000
8144,15.625000
8145,15.625000
8146,19.531250
8147,15.625000
8148,19.531250
8149,15.625000
8150,19.531250
8151,19.531250
8152,19.531250
8153,19.531250
8154,19.531250
8155,19.531250
8156,19.531250
8157,19.531250
8158,19.531250
8159,19.531250
8160,19.531250
8161,19.531250
8162,19.531250
8163,19.531250
8164,19.531250
8165,19.531250
8166,23.437500
8167,19.531250
8168,19.531250
8169,19.531250
8170,19.531250
8171,19.531250
8172,23.437500
8173,19.531250
8174,19.531250
8175,19.531250
8176,19.531250
8177,19.531250
8178,23.437500
8179,23.437500
8180,23.437500
8181,23.437500
8182,23.437500
8183,23.437500
8184,23.437500
8185,23.437500
8186,23.437500
8187,23.437500
8188,23.437500
8189,23.437500
8190,23.437500
8191,23.437500
8192,23.437500
8193,23.437500
8194,23.437500
8195,23.437500
8196,23.437500
8197,23.437500
8198,23.437500
8199,23.437500
8200,23.437500
8201,23.437500
8202,23.437500
8203,23.437500
8204,23.437500
8205,23.437500
8206,23.437500
8207,19.531250
8208,27.343750
8209,23.437500
8210,23.437500
8211,27.343750
8212,27.343750
8213,27.343750
8214,27.343750
8215,23.437500
8216,27.343750
8217,27.343750
8218,27.343750
8219,27.343750
8220,27.343750
8221,27.343750
8222,27.343750
8223,27.343750
8224,27.343750
8225,27.343750
8226,27.343750
8227,27.343750
8228,27.343750
8229,27.343750
8230,27.343750
8231,27.343750
8232,27.343750
8233,27.343750
8234,27.343750
8235,27.343750
8236,27.343750
8237,27.343750
8238,27.343750
8239,27.343750
8240,27.343750
8241,27.343750
8242,27.343750
8243,27.343750
8244,27.343750
8245,27.343750
8246,27.343750
8247,27.343750
8248,27.343750
8249,27.343750
8250,27.343750
8251,27.343750
8252,27.343750
8253,27.343750
8254,27.343750
8255,27.343750
8256,27.343750
8257,27.343750
8258,27.343750
8259,27.343750
8260,27.343750
8261,27.343750
8262,27.343750
8263,27.343750
8264,27.343750
8265,27.343750
8266,27.343750
8267,27.343750
8268,27.343750
8269,27.343750
8270,27.343750
8271,27.343750
8272,27.343750
8273,27.343750
8274,27.343750
8275,27.343750
8276,27.343750
8277,27.343750
8278,27.343750
8279,27.343750
8280,27.343750
8281,27.343750
8282,27.343750
8283,27.343750
8284,27.343750
8285,27.343750
8286,27.343750
8287,27.343750
8288,27.343750
8289,27.343750
8290,27.343750
8291,27.343750
8292,27.343750
8293,27.343750
8294,27.343750
8295,27.343750
8296,27.343750
8297,27.343750
8298,27.343750
8299,27.343750
8300,27.343750
8301,27.343750
8302,27.343750
8303,27.343750
8304,27.343750
8305,27.343750
8306,27.343750
8307,27.343750
8308,27.343750
8309,27.343750
8310,27.343750
8311,27.343750
8312,27.343750
8313,27.343750
8314,27.343750
8315,27.343750
8316,27.343750
8317,27.343750
8318,27.343750
8319,27.343750
8320,23.437500
8321,27.343750
8322,27.343750
8323,27.343750
8324,27.343750
8325,27.343750
8326,27.343750
8327,27.343750
8328,27.343750
8329,23.437500
8330,23.437500
8331,23.437500
8332,23.437500
8333,23.437500
8334,23.437500
8335,23.437500
8336,23.437500
8337,23.437500
8338,23.437500
8339,23.437500
8340,23.437500
8341,23.437500
8342,23.437500
8343,23.437500
8344,23.437500
8345,23.437500
8346,23.437500
8347,23.437500
8348,23.437500
8349,23.437500
8350,23.437500
8351,23.437500
8352,23.437500
8353,23.437500
8354,23.437500
8355,23.437500
8356,23.437500
8357,23.437500
8358,23.437500
8359,23.437500
8360,23.437500
8361,23.437500
8362,19.531250
8363,19.531250
8364,19.531250
8365,19.531250
8366,19.531250
8367,19.531250
8368,19.531250
8369,19.531250
8370,19.531250
8371,19.531250
8372,19.531250
8373,19.531250
8374,19.531250
8375,19.531250
8376,19.531250
8377,19.531250
8378,19.531250
8379,19.531250
8380,19.531250
8381,19.531250
8382,19.531250
8383,15.625000
8384,15.625000
8385,15.625000
8386,15.625000
8387,15.625000
8388,15.625000
8389,15.625000
8390,15.625000
8391,15.625000
8392,15.625000
8393,15.625000
8394,15.625000
8395,15.625000
8396,15.625000
8397,15.625000
8398,15.625000
8399,15.625000
8400,15.625000
8401,15.625000
8402,15.625000
8403,15.625000
8404,15.625000
8405,11.718750
8406,11.718750
8407,11.718750
8408,11.718750
8409,11.718750
8410,11.718750
8411,11.718750
8412,11.718750
8413,11.718750
8414,11.718750
8415,11.718750
8416,11.718750
8417,11.718750
8418,11.718750
8419,11.718750
8420,11.718750
8421,11.718750
8422,11.718750
8423,11.718750
8424,11.718750
8425,11.718750
8426,7.812500
8427,7.812500
8428,7.812500
8429,7.812500
8430,7.812500
8431,7.812500
8432,7.812500
8433,7.812500
8434,7.812500
8435,7.812500
8436,7.812500
8437,7.812500
8438,7.812500
8439,7.812500
8440,7.812500
8441,7.812500
8442,7.812500
8443,7.812500
8444,7.812500
8445,3.906250
8446,3.906250
8447,3.906250
8448,3.906250
8449,3.906250
8450,3.906250
8451,3.906250
8452,3.906250
8453,3.906250
8454,3.906250
8455,3.906250
8456,3.906250
8457,3.906250
8458,3.906250
8459,3.906250
8460,3.906250
8461,0.000000
8462,3.906250
8463,0.000000
8464,3.906250
8465,0.000000
8466,0.000000
8467,0.000000
8468,0.000000
8469,0.000000
8470,0.000000
8471,0.000000
8472,0.000000
8473,0.000000
8474,0.000000
8475,0.000000
8476,0.000000
8477,0.000000
8478,-3.906250
8479,-3.906250
8480,-3.906250
8481,-3.906250
8482,-3.906250
8483,-3.906250
8484,-3.906250
8485,-3.906250
8486,-3.906250
8487,-3.906250
8488,-3.906250
8489,-3.906250
8490,-3.906250
8491,-7.812500
8492,-7.812500
8493,-7.812500
8494,-7.812500
8495,-7.812500
8496,-7.812500
8497,-7.812500
8498,-7.812500
8499,-7.812500
8500,-7.812500
8501,-7.812500
8502,-7.812500
8503,-7.812500
8504,-7.812500
8505,-7.812500
8506,-7.812500
8507,-7.812500
8508,-11.718750
8509,-11.718750
8510,-11.718750
8511,-11.718750
8512,-11.718750
8513,-11.718750
8514,-11.718750
8515,-11.718750
8516,-11.718750
8517,-11.718750
8518,-11.718750
8519,-11.718750
8520,-11.718750
8521,-15.625000
8522,-11.718750
8523,-15.625000
8524,-15.625000
8525,-15.625000
8526,-15.625000
8527,-15.625000
8528,-15.625000
8529,-15.625000
8530,-15.625000
8531,-15.625000
8532,-15.625000
8533,-15.625000
8534,-19.531250
8535,-19.531250
8536,-19.531250
8537,-19.531250
8538,-19.531250
8539,-19.531250
8540,-19.531250
8541,-19.531250
8542,-19.531250
8543,-19.531250
8544,-19.531250
8545,-19.531250
8546,-19.531250
8547,-19.531250
8548,-19.531250
8549,-19.531250
8550,-19.531250
8551,-19.531250
8552,-19.531250
8553,-23.437500
8554,-23.437500
8555,-23.437500
8556,-23.437500
8557,-23.437500
8558,-23.437500
8559,-23.437500
8560,-23.437500
8561,-23.437500
8562,-27.343750
8563,-23.437500
8564,-23.437500
8565,-23.437500
8566,-27.343750
8567,-27.343750
8568,-27.343750
8569,-27.343750
8570,-27.343750
8571,-27.343750
8572,-27.343750
8573,-27.343750
8574,-27.343750
8575,-27.343750
8576,-27.343750
8577,-27.343750
8578,-27.343750
8579,-27.343750
8580,-27.343750
8581,-27.343750
8582,-27.343750
8583,-27.343750
8584,-27.343750
8585,-31.250000
8586,-31.250000
8587,-31.250000
8588,-31.250000
8589,-31.250000
8590,-31.250000
8591,-31.250000
8592,-31.250000
8593,-31.250000
8594,-31.250000
8595,-31.250000
8596,-31.250000
8597,-31.250000
8598,-31.250000
8599,-35.156250
8600,-35.156250
8601,-35.156250
8602,-35.156250
8603,-35.156250
8604,-35.156250
8605,-35.156250
8606,-35.156250
8607,-35.156250
8608,-35.156250
8609,-35.156250
8610,-35.156250
8611,-35.156250
8612,-35.156250
8613,-39.062500
8614,-39.062500
8615,-39.062500
8616,-35.156250
8617,-35.156250
8618,-39.062500
8619,-39.062500
8620,-39.062500
8621,-39.062500
8622,-39.062500
8623,-39.062500
8624,-39.062500
8625,-39.062500
8626,-39.062500
8627,-39.062500
8628,-39.062500
8629,-39.062500
8630,-39.062500
8631,-39.062500
8632,-39.062500
8633,-42.968750
8634,-42.968750
8635,-42.968750
8636,-42.968750
8637,-42.968750
8638,-42.968750
8639,-42.968750
8640,-42.968750
8641,-42.968750
8642,-42.968750
8643,-42.968750
8644,-42.968750
8645,-42.968750
8646,-42.968750
8647,-42.968750
8648,-42.968750
8649,-42.968750
8650,-42.968750
8651,-42.968750
8652,-42.968750
8653,-46.875000
8654,-46.875000
8655,-46.875000
8656,-42.968750
8657,-46.875000
8658,-46.875000
8659,-42.968750
8660,-46.875000
8661,-46.875000
8662,-46.875000
8663,-46.875000
8664,-46.875000
8665,-46.875000
8666,-46.875000
8667,-46.875000
8668,-46.875000
8669,-46.875000
8670,-46.875000
8671,-46.875000
8672,-46.875000
8673,-46.875000
8674,-46.875000
8675,-46.875000
8676,-46.875000
8677,-46.875000
8678,-46.875000
8679,-46.875000
8680,-46.875000
8681,-50.781250
8682,-50.781250
8683,-50.781250
8684,-50.781250
8685,-50.781250
8686,-50.781250
8687,-50.781250
8688,-50.781250
8689,-50.781250
8690,-50.781250
8691,-50.781250
8692,-50.781250
8693,-50.781250
8694,-50.781250
8695,-50.781250
8696,-50.781250
8697,-50.781250
8698,-50.781250
8699,-50.781250
8700,-50.781250
8701,-50.781250
8702,-50.781250
8703,-50.781250
8704,-50.781250
8705,-50.781250
8706,-50.781250
8707,-50.781250
8708,-50.781250
8709,-50.781250
8710,-50.781250
8711,-50.781250
8712,-50.781250
8713,-50.781250
8714,-50.781250
8715,-50.781250
8716,-50.781250
8717,-50.781250
8718,-50.781250
8719,-54.687500
8720,-54.687500
8721,-50.781250
8722,-54.687500
8723,-50.781250
8724,-50.781250
8725,-50.781250
8726,-50.781250
8727,-50.781250
8728,-54.687500
8729,-54.687500
8730,-54.687500
8731,-54.687500
8732,-54.687500
8733,-54.687500
8734,-50.781250
8735,-50.781250
8736,-54.687500
8737,-54.687500
8738,-54.687500
8739,-54.687500
8740,-54.687500
8741,-54.687500
8742,-54.687500
8743,-54.687500
8744,-54.687500
8745,-54.687500
8746,-54.687500
8747,-54.687500
8748,-54.687500
8749,-54.687500
8750,-54.687500
8751,-54.687500
8752,-54.687500
8753,-54.687500
8754,-54.687500
8755,-54.687500
8756,-54.687500
8757,-54.687500
8758,-54.687500
8759,-54.687500
8760,-54.687500
8761,-54.687500
8762,-54.687500
8763,-54.687500
8764,-54.687500
8765,-54.687500
8766,-54.687500
8767,-54.687500
8768,-54.687500
8769,-54.687500
8770,-54.687500
8771,-54.687500
8772,-54.687500
8773,-54.687500
8774,-54.687500
8775,-54.687500
8776,-54.687500
8777,-54.687500
8778,-54.687500
8779,-54.687500
8780,-54.687500
8781,-54.687500
8782,-54.687500
8783,-54.687500
8784,-54.687500
8785,-54.687500
8786,-54.687500
8787,-54.687500
8788,-50.781250
8789,-54.687500
8790,-54.687500
8791,-54.687500
8792,-54.687500
8793,-54.687500
8794,-54.687500
8795,-50.781250
8796,-50.781250
8797,-50.781250
8798,-50.781250
8799,-50.781250
8800,-50.781250
8801,-50.781250
8802,-54.687500
8803,-50.781250
8804,-50.781250
8805,-50.781250
8806,-50.781250
8807,-50.781250
8808,-50.781250
8809,-50.781250
8810,-50.781250
8811,-50.781250
8812,-50.781250
8813,-50.781250
8814,-50.781250
8815,-50.781250
8816,-50.781250
8817,-50.781250
8818,-50.781250
8819,-50.781250
8820,-50.781250
8821,-50.781250
8822,-50.781250
8823,-50.781250
8824,-50.781250
8825,-50.781250
8826,-46.875000
8827,-50.781250
8828,-50.781250
8829,-50.781250
8830,-46.875000
8831,-50.781250
8832,-50.781250
8833,-50.781250
8834,-50.781250
8835,-46.875000
8836,-46.875000
8837,-46.875000
8838,-46.875000
8839,-46.875000
8840,-46.875000
8841,-46.875000
8842,-46.875000
8843,-46.875000
8844,-46.875000
8845,-46.875000
8846,-46.875000
8847,-46.875000
8848,-46.875000
8849,-46.875000
8850,-46.875000
8851,-46.875000
8852,-46.875000
8853,-46.875000
8854,-46.875000
8855,-42.968750
8856,-46.875000
8857,-42.968750
8858,-46.875000
8859,-42.968750
8860,-42.968750
8861,-42.968750
8862,-42.968750
8863,-42.968750
8864,-42.968750
8865,-42.968750
8866,-42.968750
8867,-42.968750
8868,-42.968750
8869,-42.968750
8870,-42.968750
8871,-42.968750
8872,-42.968750
8873,-42.968750
8874,-42.968750
8875,-42.968750
8876,-42.968750
8877,-39.062500
8878,-39.062500
8879,-39.062500
8880,-39.062500
8881,-42.968750
8882,-39.062500
8883,-39.062500
8884,-39.062500
8885,-39.062500
8886,-39.062500
8887,-39.062500
8888,-39.062500
8889,-39.062500
8890,-39.062500
8891,-39.062500
8892,-39.062500
8893,-39.062500
8894,-39.062500
8895,-39.062500
8896,-39.062500
8897,-39.062500
8898,-39.062500
8899,-35.156250
8900,-35.156250
8901,-35.156250
8902,-35.156250
8903,-35.156250
8904,-35.156250
8905,-35.156250
8906,-35.156250
8907,-35.156250
8908,-35.156250
8909,-35.156250
8910,-35.156250
8911,-35.156250
8912,-35.156250
8913,-35.156250
8914,-35.156250
8915,-35.156250
8916,-31.250000
8917,-31.250000
8918,-31.250000
8919,-31.250000
8920,-31.250000
8921,-31.250000
8922,-31.250000
8923,-31.250000
8924,-31.250000
8925,-31.250000
8926,-31.250000
8927,-31.250000
8928,-31.250000
8929,-31.250000
8930,-31.250000
8931,-31.250000
8932,-31.250000
8933,-31.250000
8934,-31.250000
8935,-31.250000
8936,-31.250000
8937,-27.343750
8938,-27.343750
8939,-27.343750
8940,-27.343750
8941,-27.343750
8942,-27.343750
8943,-27.343750
8944,-27.343750
8945,-27.343750
8946,-27.343750
8947,-27.343750
8948,-27.343750
8949,-27.343750
8950,-23.437500
8951,-23.437500
8952,-23.437500
8953,-23.437500
8954,-23.437500
8955,-23.437500
8956,-23.437500
8957,-23.437500
8958,-23.437500
8959,-23.437500
8960,-23.437500
8961,-23.437500
8962,-23.437500
8963,-23.437500
8964,-23.437500
8965,-23.437500
8966,-19.531250
8967,-19.531250
8968,-19.531250
8969,-19.531250
8970,-19.531250
8971,-19.531250
8972,-19.531250
8973,-19.531250
8974,-19.531250
8975,-19.531250
8976,-19.531250
8977,-19.531250
8978,-19.531250
8979,-19.531250
8980,-19.531250
8981,-19.531250
8982,-15.625000
8983,-15.625000
8984,-15.625000
8985,-15.625000
8986,-15.625000
8987,-15.625000
8988,-15.625000
8989,-15.625000
8990,-15.625000
8991,-15.625000
8992,-15.625000
8993,-15.625000
8994,-15.625000
8995,-15.625000
8996,-11.718750
8997,-11.718750
8998,-11.718750
8999,-11.718750
9000,-11.718750
9001,-11.718750
9002,-11.718750
9003,-11.718750
9004,-11.718750
9005,-11.718750
9006,-11.718750
9007,-11.718750
9008,-11.718750
9009,-11.718750
9010,-11.718750
9011,-7.812500
9012,-7.812500
9013,-7.812500
9014,-11.718750
9015,-7.812500
9016,-7.812500
9017,-7.812500
9018,-7.812500
9019,-7.812500
9020,-7.812500
9021,-7.812500
9022,-7.812500
9023,-7.812500
9024,-7.812500
9025,-7.812500
9026,-7.812500
9027,-7.812500
9028,-7.812500
9029,-7.812500
9030,-3.906250
9031,-3.906250
9032,-3.906250
9033,-3.906250
9034,-3.906250
9035,-3.906250
9036,-3.906250
9037,-3.906250
9038,-3.906250
9039,-3.906250
9040,-3.906250
9041,-3.906250
9042,-3.906250
9043,-3.906250
9044,-3.906250
9045,0.000000
9046,0.000000
9047,0.000000
9048,0.000000
9049,0.000000
9050,0.000000
9051,0.000000
9052,0.000000
9053,0.000000
9054,0.000000
9055,0.000000
9056,0.000000
9057,0.000000
9058,0.000000
9059,0.000000
9060,0.000000
9061,0.000000
9062,0.000000
9063,3.906250
9064,3.906250
9065,3.906250
9066,3.906250
9067,3.906250
9068,3.906250
9069,3.906250
9070,3.906250
9071,3.906250
9072,3.906250
9073,3.906250
9074,3.906250
9075,3.906250
9076,3.906250
9077,7.812500
9078,7.812500
9079,7.812500
9080,7.812500
9081,7.812500
9082,7.812500
9083,7.812500
9084,7.812500
9085,7.812500
9086,7.812500
9087,7.812500
9088,7.812500
9089,7.812500
9090,7.812500
9091,7.812500
9092,7.812500
9093,7.812500
9094,7.812500
9095,7.812500
9096,7.812500
9097,7.812500
9098,11.718750
9099,11.718750
9100,11.718750
9101,11.718750
9102,11.718750
9103,11.718750
9104,11.718750
9105,11.718750
9106,11.718750
9107,11.718750
9108,11.718750
9109,11.718750
9110,11.718750
9111,11.718750
9112,11.718750
9113,11.718750
9114,11.718750
9115,11.718750
9116,11.718750
9117,11.718750
9118,15.625000
9119,15.625000
9120,15.625000
9121,15.625000
9122,15.625000
9123,15.625000
9124,15.625000
9125,15.625000
9126,15.625000
9127,15.625000
9128,15.625000
9129,15.625000
9130,15.625000
9131,15.625000
9132,15.625000
9133,15.625000
9134,15.625000
9135,15.625000
9136,15.625000
9137,15.625000
9138,15.625000
9139,15.625000
9140,15.625000
9141,19.531250
9142,19.531250
9143,19.531250
9144,19.531250
9145,19.531250
9146,19.531250
9147,19.531250
9148,19.531250
9149,19.531250
9150,19.531250
9151,19.531250
9152,19.531250
9153,19.531250
9154,19.531250
9155,19.531250
9156,19.531250
9157,19.531250
9158,19.531250
9159,19.531250
9160,19.531250
9161,19.531250
9162,19.531250
9163,19.531250
9164,19.531250
9165,19.531250
9166,19.531250
9167,19.531250
9168,19.531250
9169,23.437500
9170,23.437500
9171,23.437500
9172,23.437500
9173,23.437500
9174,23.437500
9175,19.531250
9176,23.437500
9177,23.437500
9178,23.437500
9179,23.437500
9180,23.437500
9181,23.437500
9182,23.437500
9183,23.437500
9184,23.437500
9185,23.437500
9186,23.437500
9187,23.437500
9188,23.437500
9189,23.437500
9190,23.437500
9191,23.437500
9192,23.437500
9193,23.437500
9194,23.437500
9195,23.437500
9196,23.437500
9197,23.437500
9198,23.437500
9199,23.437500
9200,23.437500
9201,23.437500
9202,23.437500
9203,23.437500
9204,23.437500
9205,23.437500
9206,27.343750
9207,23.437500
9208,27.343750
9209,27.343750
9210,27.343750
9211,27.343750
9212,27.343750
9213,23.437500
9214,23.437500
9215,27.343750
9216,27.343750
9217,27.343750
9218,27.343750
9219,27.343750
9220,27.343750
9221,27.343750
9222,27.343750
9223,27.343750
9224,27.343750
9225,27.343750
9226,27.343750
9227,27.343750
9228,27.343750
9229,27.343750
9230,27.343750
9231,27.343750
9232,27.343750
9233,27.343750
9234,27.343750
9235,27.343750
9236,27.343750
9237,27.343750
9238,27.343750
9239,27.343750
9240,27.343750
9241,27.343750
9242,27.343750
9243,27.343750
9244,27.343750
9245,27.343750
9246,27.343750
9247,27.343750
9248,27.343750
9249,27.343750
9250,27.343750
9251,27.343750
9252,27.343750
9253,27.343750
9254,27.343750
9255,27.343750
9256,27.343750
9257,27.343750
9258,27.343750
9259,27.343750
9260,27.343750
9261,27.343750
9262,27.343750
9263,27.343750
9264,27.343750
9265,27.343750
9266,27.343750
9267,27.343750
9268,27.343750
9269,27.343750
9270,27.343750
9271,27.343750
9272,27.343750
9273,27.343750
9274,27.343750
9275,27.343750
9276,27.343750
9277,27.343750
9278,27.343750
9279,27.343750
9280,27.343750
9281,27.343750
9282,27.343750
9283,27.343750
9284,27.343750
9285,27.343750
9286,27.343750
9287,27.343750
9288,27.343750
9289,27.343750
9290,27.343750
9291,27.343750
9292,27.343750
9293,27.343750
9294,27.343750
9295,27.343750
9296,27.343750
9297,27.343750
9298,27.343750
9299,27.343750
9300,27.343750
9301,27.343750
9302,27.343750
9303,27.343750
9304,27.343750
9305,23.437500
9306,23.437500
9307,23.437500
9308,23.437500
9309,27.343750
9310,23.437500
9311,23.437500
9312,23.437500
9313,23.437500
9314,23.437500
9315,23.437500
9316,23.437500
9317,23.437500
9318,23.437500
9319,23.437500
9320,23.437500
9321,23.437500
9322,23.437500
9323,23.437500
9324,23.437500
9325,23.437500
9326,23.437500
9327,23.437500
9328,23.437500
9329,23.437500
9330,23.437500
9331,23.437500
9332,23.437500
9333,23.437500
9334,23.437500
9335,23.437500
9336,23.437500
9337,23.437500
9338,23.437500
9339,23.437500
9340,23.437500
9341,23.437500
9342,23.437500
9343,23.437500
9344,19.531250
9345,19.531250
9346,19.531250
9347,19.531250
9348,19.531250
9349,19.531250
9350,19.531250
9351,19.531250
9352,19.531250
9353,23.437500
9354,19.531250
9355,23.437500
9356,19.531250
9357,19.531250
9358,19.531250
9359,19.531250
9360,19.531250
9361,19.531250
9362,19.531250
9363,19.531250
9364,19.531250
9365,19.531250
9366,19.531250
9367,19.531250
9368,19.531250
9369,19.531250
9370,19.531250
9371,15.625000
9372,15.625000
9373,15.625000
9374,15.625000
9375,15.625000
9376,15.625000
9377,15.625000
9378,15.625000
9379,15.625000
9380,15.625000
9381,15.625000
9382,15.625000
9383,15.625000
9384,15.625000
9385,15.625000
9386,15.625000
9387,15.625000
9388,15.625000
9389,15.625000
9390,15.625000
9391,15.625000
9392,15.625000
9393,15.625000
9394,15.625000
9395,15.625000
9396,11.718750
9397,11.718750
9398,11.718750
9399,11.718750
9400,11.718750
9401,11.718750
9402,11.718750
9403,11.718750
9404,11.718750
9405,11.718750
9406,11.718750
9407,11.718750
9408,11.718750
9409,11.718750
9410,11.718750
9411,11.718750
9412,11.718750
9413,11.718750
9414,11.718750
9415,7.812500
9416,7.812500
9417,7.812500
9418,7.812500
9419,7.812500
9420,7.812500
9421,7.812500
9422,7.812500
9423,7.812500
9424,7.812500
9425,7.812500
9426,7.812500
9427,7.812500
9428,7.812500
9429,7.812500
9430,7.812500
9431,7.812500
9432,3.906250
9433,3.906250
9434,3.906250
9435,3.906250
9436,3.906250
9437,3.906250
9438,3.906250
9439,3.906250
9440,3.906250
9441,3.906250
9442,3.906250
9443,3.906250
9444,3.906250
9445,3.906250
9446,3.906250
9447,0.000000
9448,0.000000
9449,0.000000
9450,0.000000
9451,0.000000
9452,0.000000
9453,0.000000
9454,0.000000
9455,0.000000
9456,0.000000
9457,0.000000
9458,0.000000
9459,-3.906250
9460,0.000000
9461,0.000000
9462,0.000000
9463,0.000000
9464,0.000000
9465,0.000000
9466,-3.906250
9467,-3.906250
9468,-3.906250
9469,-3.906250
9470,-3.906250
9471,-3.906250
9472,-3.906250
9473,-3.906250
9474,-3.906250
9475,-3.906250
9476,-3.906250
9477,-3.906250
9478,-3.906250
9479,-3.906250
9480,-3.906250
9481,-7.812500
9482,-7.812500
9483,-7.812500
9484,-7.812500
9485,-7.812500
9486,-7.812500
9487,-7.812500
9488,-7.812500
9489,-7.812500
9490,-7.812500
9491,-7.812500
9492,-7.812500
9493,-7.812500
9494,-7.812500
9495,-7.812500
9496,-7.812500
9497,-11.718750
9498,-11.718750
9499,-11.718750
9500,-11.718750
9501,-11.718750
9502,-11.718750
9503,-11.718750
9504,-11.718750
9505,-11.718750
9506,-11.718750
9507,-11.718750
9508,-11.718750
9509,-11.718750
9510,-11.718750
9511,-11.718750
9512,-11.718750
9513,-15.625000
9514,-15.625000
9515,-15.625000
9516,-15.625000
9517,-15.625000
9518,-15.625000
9519,-15.625000
9520,-15.625000
9521,-15.625000
9522,-15.625000
9523,-15.625000
9524,-15.625000
9525,-19.531250
9526,-19.531250
9527,-19.531250
9528,-19.531250
9529,-19.531250
9530,-19.531250
9531,-19.531250
9532,-19.531250
9533,-19.531250
9534,-19.531250
9535,-19.531250
9536,-19.531250
9537,-23.437500
9538,-23.437500
9539,-23.437500
9540,-23.437500
9541,-23.437500
9542,-19.531250
9543,-23.437500
9544,-23.437500
9545,-23.437500
9546,-23.437500
9547,-23.437500
9548,-23.437500
9549,-23.437500
9550,-23.437500
9551,-23.437500
9552,-23.437500
9553,-27.343750
9554,-23.437500
9555,-27.343750
9556,-27.343750
9557,-27.343750
9558,-27.343750
9559,-27.343750
9560,-27.343750
9561,-27.343750
9562,-27.343750
9563,-27.343750
9564,-27.343750
9565,-27.343750
9566,-27.343750
9567,-27.343750
9568,-27.343750
9569,-27.343750
9570,-27.343750
9571,-31.250000
9572,-31.250000
9573,-31.250000
9574,-31.250000
9575,-31.250000
9576,-31.250000
9577,-31.250000
9578,-31.250000
9579,-31.250000
9580,-31.250000
9581,-31.250000
9582,-31.250000
9583,-31.250000
9584,-31.250000
9585,-31.250000
9586,-31.250000
9587,-35.156250
9588,-35.156250
9589,-35.156250
9590,-35.156250
9591,-35.156250
9592,-35.156250
9593,-35.156250
9594,-35.156250
9595,-35.156250
9596,-35.156250
9597,-35.156250
9598,-35.156250
9599,-35.156250
9600,-35.156250
9601,-35.156250
9602,-35.156250
9603,-39.062500
9604,-35.156250
9605,-35.156250
9606,-39.062500
9607,-39.062500
9608,-39.062500
9609,-39.062500
9610,-39.062500
9611,-39.062500
9612,-39.062500
9613,-39.062500
9614,-39.062500
9615,-39.062500
9616,-39.062500
9617,-39.062500
9618,-39.062500
9619,-39.062500
9620,-39.062500
9621,-39.062500
9622,-39.062500
9623,-42.968750
9624,-39.062500
9625,-42.968750
9626,-42.968750
9627,-42.968750
9628,-42.968750
9629,-42.968750
9630,-42.968750
9631,-42.968750
9632,-42.968750
9633,-42.968750
9634,-42.968750
9635,-42.968750
9636,-42.968750
9637,-42.968750
9638,-42.968750
9639,-42.968750
9640,-42.968750
9641,-42.968750
9642,-42.968750
9643,-42.968750
9644,-42.968750
9645,-46.875000
9646,-42.968750
9647,-46.875000
9648,-46.875000
9649,-42.968750
9650,-46.875000
9651,-46.875000
9652,-46.875000
9653,-46.875000
9654,-46.875000
9655,-46.875000
9656,-46.875000
9657,-46.875000
9658,-46.875000
9659,-46.875000
9660,-46.875000
9661,-46.875000
9662,-46.875000
9663,-46.875000
9664,-46.875000
9665,-46.875000
9666,-46.875000
9667,-46.875000
9668,-46.875000
9669,-46.875000
9670,-46.875000
9671,-46.875000
9672,-46.875000
9673,-50.781250
9674,-50.781250
9675,-50.781250
9676,-50.781250
9677,-50.781250
9678,-50.781250
9679,-50.781250
9680,-50.781250
9681,-50.781250
9682,-50.781250
9683,-50.781250
9684,-50.781250
9685,-50.781250
9686,-50.781250
9687,-50.781250
9688,-50.781250
9689,-50.781250
9690,-50.781250
9691,-50.781250
9692,-50.781250
9693,-50.781250
9694,-50.781250
9695,-50.781250
9696,-50.781250
9697,-50.781250
9698,-50.781250
9699,-50.781250
9700,-50.781250
9701,-50.781250
9702,-50.781250
9703,-50.781250
9704,-54.687500
9705,-50.781250
9706,-54.687500
9707,-54.687500
9708,-50.781250
9709,-50.781250
9710,-50.781250
9711,-50.781250
9712,-54.687500
9713,-50.781250
9714,-54.687500
9715,-54.687500
9716,-54.687500
9717,-54.687500
9718,-54.687500
9719,-54.687500
9720,-54.687500
9721,-54.687500
9722,-54.687500
9723,-54.687500
9724,-54.687500
9725,-54.687500
9726,-54.687500
9727,-54.687500
9728,-54.687500
9729,-54.687500
9730,-54.687500
9731,-54.687500
9732,-54.687500
9733,-54.687500
9734,-54.687500
9735,-54.687500
9736,-54.687500
9737,-54.687500
9738,-54.687500
9739,-54.687500
9740,-54.687500
9741,-54.687500
9742,-54.687500
9743,-54.687500
9744,-54.687500
9745,-54.687500
9746,-54.687500
9747,-54.687500
9748,-54.687500
9749,-54.687500
9750,-50.781250
9751,-54.687500
9752,-54.687500
9753,-50.781250
9754,-54.687500
9755,-54.687500
9756,-54.687500
9757,-54.687500
9758,-54.687500
9759,-54.687500
9760,-54.687500
9761,-54.687500
9762,-54.687500
9763,-54.687500
9764,-54.687500
9765,-54.687500
9766,-54.687500
9767,-54.687500
9768,-54.687500
9769,-54.687500
9770,-54.687500
9771,-54.687500
9772,-54.687500
9773,-54.687500
9774,-54.687500
9775,-54.687500
9776,-54.687500
9777,-50.781250
9778,-54.687500
9779,-50.781250
9780,-50.781250
9781,-50.781250
9782,-54.687500
9783,-50.781250
9784,-54.687500
9785,-54.687500
9786,-54.687500
9787,-54.687500
9788,-50.781250
9789,-50.781250
9790,-50.781250
9791,-50.781250
9792,-50.781250
9793,-50.781250
9794,-50.781250
9795,-50.781250
9796,-50.781250
9797,-50.781250
9798,-50.781250
9799,-50.781250
9800,-50.781250
9801,-50.781250
9802,-50.781250
9803,-50.781250
9804,-50.781250
9805,-50.781250
9806,-50.781250
9807,-50.781250
9808,-50.781250
9809,-50.781250
9810,-50.781250
9811,-50.781250
9812,-50.781250
9813,-50.781250
9814,-54.687500
9815,-50.781250
9816,-50.781250
9817,-50.781250
9818,-50.781250
9819,-50.781250
9820,-50.781250
9821,-50.781250
9822,-50.781250
9823,-46.875000
9824,-50.781250
9825,-46.875000
9826,-46.875000
9827,-46.875000
9828,-46.875000
9829,-46.875000
9830,-46.875000
9831,-46.875000
9832,-46.875000
9833,-46.875000
9834,-46.875000
9835,-46.875000
9836,-46.875000
9837,-46.875000
9838,-46.875000
9839,-46.875000
9840,-46.875000
9841,-46.875000
9842,-46.875000
9843,-46.875000
9844,-46.875000
9845,-46.875000
9846,-46.875000
9847,-46.875000
9848,-46.875000
9849,-46.875000
9850,-42.968750
9851,-42.968750
9852,-42.968750
9853,-42.968750
9854,-42.968750
9855,-42.968750
9856,-42.968750
9857,-42.968750
9858,-42.968750
9859,-42.968750
9860,-42.968750
9861,-42.968750
9862,-42.968750
9863,-42.968750
9864,-42.968750
9865,-42.968750
9866,-42.968750
9867,-42.968750
9868,-42.968750
9869,-42.968750
9870,-42.968750
9871,-42.968750
9872,-39.062500
9873,-39.062500
9874,-39.062500
9875,-39.062500
9876,-39.062500
9877,-39.062500
9878,-39.062500
9879,-39.062500
9880,-39.062500
9881,-39.062500
9882,-39.062500
9883,-39.062500
9884,-39.062500
9885,-39.062500
9886,-39.062500
9887,-39.062500
9888,-39.062500
9889,-39.062500
9890,-39.062500
9891,-39.062500
9892,-35.156250
9893,-35.156250
9894,-35.156250
9895,-35.156250
9896,-35.156250
9897,-35.156250
9898,-35.156250
9899,-35.156250
9900,-35.156250
9901,-35.156250
9902,-35.156250
9903,-35.156250
9904,-35.156250
9905,-35.156250
9906,-35.156250
9907,-35.156250
9908,-35.156250
9909,-31.250000
9910,-31.250000
9911,-31.250000
9912,-31.250000
9913,-31.250000
9914,-31.250000
9915,-31.250000
9916,-31.250000
9917,-31.250000
9918,-31.250000
9919,-31.250000
9920,-31.250000
9921,-31.250000
9922,-31.250000
9923,-31.250000
9924,-31.250000
9925,-27.343750
9926,-27.343750
9927,-27.343750
9928,-27.343750
9929,-27.343750
9930,-27.343750
9931,-27.343750
9932,-27.343750
9933,-27.343750
9934,-27.343750
9935,-27.343750
9936,-27.343750
9937,-27.343750
9938,-27.343750
9939,-27.343750
9940,-27.343750
9941,-27.343750
9942,-27.343750
9943,-27.343750
9944,-23.437500
9945,-23.437500
9946,-23.437500
9947,-23.437500
9948,-23.437500
9949,-23.437500
9950,-23.437500
9951,-23.437500
9952,-23.437500
9953,-23.437500
9954,-23.437500
9955,-23.437500
9956,-23.437500
9957,-23.437500
9958,-23.437500
9959,-19.531250
9960,-19.531250
9961,-19.531250
9962,-19.531250
9963,-19.531250
9964,-19.531250
9965,-19.531250
9966,-19.531250
9967,-19.531250
9968,-19.531250
9969,-19.531250
9970,-19.531250
9971,-19.531250
9972,-19.531250
9973,-19.531250
9974,-15.625000
9975,-15.625000
9976,-15.625000
9977,-15.625000
9978,-15.625000
9979,-15.625000
9980,-15.625000
9981,-15.625000
9982,-15.625000
9983,-15.625000
9984,-15.625000
9985,-15.625000
9986,-15.625000
9987,-15.625000
9988,-15.625000
9989,-11.718750
9990,-11.718750
9991,-11.718750
9992,-11.718750
9993,-11.718750
9994,-11.718750
9995,-11.718750
9996,-11.718750
9997,-11.718750
9998,-11.718750
9999,-11.718750
10000,-11.718750
