Channel              :,CH1
Frequency            :,1.012kHz
Period               :,0.989ms
PK-PK                :,316.4mV
Probe attenuation    :,1X
Voltage per ADC value:,0.244141mV
Time interval        :,1.00000us

index,CH1_Voltage(mV)
1,-78.125000
2,-78.125000
3,-78.125000
4,-78.125000
5,-74.218750
6,-74.218750
7,-74.218750
8,-74.218750
9,-70.312500
10,-70.312500
11,-70.312500
12,-70.312500
13,-66.406250
14,-66.406250
15,-66.406250
16,-66.406250
17,-66.406250
18,-62.500000
19,-62.500000
20,-62.500000
21,-58.593750
22,-58.593750
23,-58.593750
24,-58.593750
25,-54.687500
26,-54.687500
27,-54.687500
28,-50.781250
29,-50.781250
30,-50.781250
31,-50.781250
32,-50.781250
33,-46.875000
34,-46.875000
35,-46.875000
36,-46.875000
37,-42.968750
38,-42.968750
39,-42.968750
40,-39.062500
41,-39.062500
42,-39.062500
43,-39.062500
44,-35.156250
45,-35.156250
46,-35.156250
47,-31.250000
48,-31.250000
49,-31.250000
50,-31.250000
51,-27.343750
52,-27.343750
53,-27.343750
54,-27.343750
55,-23.437500
56,-23.437500
57,-23.437500
58,-23.437500
59,-19.531250
60,-19.531250
61,-19.531250
62,-19.531250
63,-19.531250
64,-15.625000
65,-15.625000
66,-11.718750
67,-11.718750
68,-11.718750
69,-11.718750
70,-7.812500
71,-7.812500
72,-7.812500
73,-7.812500
74,-7.812500
75,-3.906250
76,-3.906250
77,-3.906250
78,0.000000
79,0.000000
80,0.000000
81,0.000000
82,3.906250
83,3.906250
84,3.906250
85,3.906250
86,3.906250
87,7.812500
88,7.812500
89,7.812500
90,11.718750
91,11.718750
92,11.718750
93,11.718750
94,15.625000
95,15.625000
96,15.625000
97,15.625000
98,19.531250
99,19.531250
100,19.531250
101,19.531250
102,19.531250
103,23.437500
104,23.437500
105,23.437500
106,27.343750
107,27.343750
108,27.343750
109,27.343750
110,31.250000
111,31.250000
112,31.250000
113,31.250000
114,35.156250
115,35.156250
116,35.156250
117,35.156250
118,35.156250
119,39.062500
120,39.062500
121,39.062500
122,39.062500
123,42.968750
124,42.968750
125,42.968750
126,42.968750
127,46.875000
128,46.875000
129,46.875000
130,46.875000
131,50.781250
132,50.781250
133,50.781250
134,50.781250
135,50.781250
136,50.781250
137,54.687500
138,54.687500
139,54.687500
140,54.687500
141,58.593750
142,58.593750
143,58.593750
144,58.593750
145,62.500000
146,62.500000
147,62.500000
148,62.500000
149,62.500000
150,62.500000
151,66.406250
152,66.406250
153,66.406250
154,66.406250
155,70.312500
156,70.312500
157,70.312500
158,70.312500
159,70.312500
160,70.312500
161,70.312500
162,74.218750
163,74.218750
164,74.218750
165,74.218750
166,78.125000
167,78.125000
168,78.125000
169,78.125000
170,78.125000
171,82.031250
172,82.031250
173,82.031250
174,82.031250
175,82.031250
176,82.031250
177,85.937500
178,85.937500
179,85.937500
180,85.937500
181,85.937500
182,85.937500
183,89.843750
184,89.843750
185,89.843750
186,89.843750
187,89.843750
188,89.843750
189,93.750000
190,93.750000
191,93.750000
192,93.750000
193,93.750000
194,93.750000
195,97.656250
196,97.656250
197,97.656250
198,97.656250
199,97.656250
200,97.656250
201,97.656250
202,97.656250
203,101.562500
204,101.562500
205,101.562500
206,101.562500
207,101.562500
208,101.562500
209,105.468750
210,101.562500
211,105.468750
212,105.468750
213,105.468750
214,105.468750
215,105.468750
216,105.468750
217,109.375000
218,109.375000
219,109.375000
220,109.375000
221,109.375000
222,109.375000
223,109.375000
224,109.375000
225,113.281250
226,113.281250
227,113.281250
228,113.281250
229,113.281250
230,113.281250
231,113.281250
232,113.281250
233,113.281250
234,113.281250
235,117.187500
236,117.187500
237,117.187500
238,117.187500
239,117.187500
240,117.187500
241,117.187500
242,117.187500
243,117.187500
244,117.187500
245,121.093750
246,121.093750
247,121.093750
248,121.093750
249,121.093750
250,121.093750
251,121.093750
252,125.000000
253,125.000000
254,121.093750
255,125.000000
256,125.000000
257,125.000000
258,125.000000
259,125.000000
260,125.000000
261,125.000000
262,125.000000
263,125.000000
264,125.000000
265,125.000000
266,125.000000
267,125.000000
268,125.000000
269,128.906250
270,128.906250
271,128.906250
272,128.906250
273,128.906250
274,128.906250
275,128.906250
276,128.906250
277,128.906250
278,128.906250
279,128.906250
280,128.906250
281,128.906250
282,128.906250
283,128.906250
284,128.906250
285,128.906250
286,128.906250
287,128.906250
288,128.906250
289,132.812500
290,132.812500
291,132.812500
292,132.812500
293,132.812500
294,132.812500
295,132.812500
296,132.812500
297,132.812500
298,132.812500
299,132.812500
300,132.812500
301,132.812500
302,132.812500
303,132.812500
304,132.812500
305,132.812500
306,132.812500
307,132.812500
308,132.812500
309,132.812500
310,132.812500
311,132.812500
312,132.812500
313,132.812500
314,132.812500
315,132.812500
316,132.812500
317,132.812500
318,132.812500
319,132.812500
320,132.812500
321,132.812500
322,132.812500
323,132.812500
324,132.812500
325,132.812500
326,132.812500
327,132.812500
328,132.812500
329,132.812500
330,132.812500
331,132.812500
332,132.812500
333,132.812500
334,132.812500
335,132.812500
336,132.812500
337,132.812500
338,132.812500
339,132.812500
340,132.812500
341,132.812500
342,132.812500
343,132.812500
344,132.812500
345,132.812500
346,132.812500
347,132.812500
348,132.812500
349,132.812500
350,132.812500
351,132.812500
352,132.812500
353,132.812500
354,128.906250
355,132.812500
356,128.906250
357,128.906250
358,128.906250
359,128.906250
360,128.906250
361,128.906250
362,128.906250
363,128.906250
364,128.906250
365,128.906250
366,128.906250
367,132.812500
368,128.906250
369,128.906250
370,128.906250
371,128.906250
372,128.906250
373,128.906250
374,125.000000
375,125.000000
376,125.000000
377,125.000000
378,125.000000
379,125.000000
380,125.000000
381,125.000000
382,125.000000
383,125.000000
384,125.000000
385,125.000000
386,125.000000
387,125.000000
388,121.093750
389,121.093750
390,121.093750
391,121.093750
392,121.093750
393,121.093750
394,121.093750
395,121.093750
396,117.187500
397,117.187500
398,117.187500
399,117.187500
400,117.187500
401,117.187500
402,117.187500
403,117.187500
404,117.187500
405,117.187500
406,117.187500
407,113.281250
408,113.281250
409,113.281250
410,113.281250
411,113.281250
412,113.281250
413,113.281250
414,113.281250
415,113.281250
416,109.375000
417,109.375000
418,109.375000
419,109.375000
420,109.375000
421,109.375000
422,109.375000
423,109.375000
424,105.468750
425,105.468750
426,105.468750
427,105.468750
428,105.468750
429,105.468750
430,105.468750
431,105.468750
432,101.562500
433,101.562500
434,101.562500
435,101.562500
436,101.562500
437,101.562500
438,101.562500
439,97.656250
440,97.656250
441,97.656250
442,97.656250
443,97.656250
444,97.656250
445,97.656250
446,93.750000
447,93.750000
448,93.750000
449,93.750000
450,93.750000
451,93.750000
452,89.843750
453,89.843750
454,89.843750
455,89.843750
456,89.843750
457,89.843750
458,89.843750
459,85.937500
460,85.937500
461,85.937500
462,85.937500
463,85.937500
464,85.937500
465,82.031250
466,82.031250
467,82.031250
468,82.031250
469,82.031250
470,78.125000
471,78.125000
472,78.125000
473,78.125000
474,78.125000
475,74.218750
476,74.218750
477,74.218750
478,74.218750
479,74.218750
480,70.312500
481,70.312500
482,70.312500
483,70.312500
484,70.312500
485,70.312500
486,66.406250
487,66.406250
488,66.406250
489,66.406250
490,66.406250
491,62.500000
492,62.500000
493,62.500000
494,62.500000
495,62.500000
496,58.593750
497,58.593750
498,58.593750
499,58.593750
500,58.593750
501,54.687500
502,54.687500
503,54.687500
504,50.781250
505,50.781250
506,50.781250
507,50.781250
508,50.781250
509,50.781250
510,46.875000
511,46.875000
512,46.875000
513,46.875000
514,42.968750
515,42.968750
516,42.968750
517,42.968750
518,39.062500
519,39.062500
520,39.062500
521,39.062500
522,39.062500
523,35.156250
524,35.156250
525,35.156250
526,31.250000
527,31.250000
528,31.250000
529,31.250000
530,27.343750
531,27.343750
532,27.343750
533,27.343750
534,27.343750
535,23.437500
536,23.437500
537,23.437500
538,19.531250
539,19.531250
540,19.531250
541,19.531250
542,19.531250
543,15.625000
544,15.625000
545,15.625000
546,11.718750
547,11.718750
548,11.718750
549,11.718750
550,11.718750
551,7.812500
552,7.812500
553,7.812500
554,3.906250
555,3.906250
556,3.906250
557,3.906250
558,3.906250
559,0.000000
560,0.000000
561,0.000000
562,-3.906250
563,-3.906250
564,-3.906250
565,-3.906250
566,-7.812500
567,-7.812500
568,-7.812500
569,-7.812500
570,-11.718750
571,-11.718750
572,-11.718750
573,-11.718750
574,-15.625000
575,-15.625000
576,-15.625000
577,-15.625000
578,-19.531250
579,-19.531250
580,-19.531250
581,-19.531250
582,-23.437500
583,-23.437500
584,-23.437500
585,-27.343750
586,-27.343750
587,-27.343750
588,-27.343750
589,-31.250000
590,-31.250000
591,-31.250000
592,-31.250000
593,-35.156250
594,-35.156250
595,-35.156250
596,-39.062500
597,-39.062500
598,-39.062500
599,-39.062500
600,-42.968750
601,-42.968750
602,-42.968750
603,-42.968750
604,-46.875000
605,-46.875000
606,-46.875000
607,-46.875000
608,-50.781250
609,-50.781250
610,-50.781250
611,-50.781250
612,-54.687500
613,-54.687500
614,-54.687500
615,-54.687500
616,-58.593750
617,-58.593750
618,-58.593750
619,-58.593750
620,-62.500000
621,-62.500000
622,-62.500000
623,-62.500000
624,-66.406250
625,-66.406250
626,-66.406250
627,-66.406250
628,-70.312500
629,-70.312500
630,-70.312500
631,-74.218750
632,-74.218750
633,-74.218750
634,-74.218750
635,-78.125000
636,-78.125000
637,-78.125000
638,-78.125000
639,-82.031250
640,-82.031250
641,-82.031250
642,-82.031250
643,-82.031250
644,-85.937500
645,-85.937500
646,-85.937500
647,-85.937500
648,-89.843750
649,-89.843750
650,-89.843750
651,-93.750000
652,-93.750000
653,-93.750000
654,-93.750000
655,-93.750000
656,-97.656250
657,-97.656250
658,-97.656250
659,-97.656250
660,-101.562500
661,-101.562500
662,-101.562500
663,-101.562500
664,-105.468750
665,-105.468750
666,-105.468750
667,-105.468750
668,-109.375000
669,-109.375000
670,-109.375000
671,-109.375000
672,-113.281250
673,-113.281250
674,-113.281250
675,-113.281250
676,-113.281250
677,-117.187500
678,-117.187500
679,-117.187500
680,-117.187500
681,-117.187500
682,-121.093750
683,-121.093750
684,-121.093750
685,-121.093750
686,-125.000000
687,-125.000000
688,-125.000000
689,-125.000000
690,-128.906250
691,-128.906250
692,-128.906250
693,-128.906250
694,-128.906250
695,-128.906250
696,-132.812500
697,-132.812500
698,-132.812500
699,-132.812500
700,-136.718750
701,-136.718750
702,-136.718750
703,-136.718750
704,-136.718750
705,-140.625000
706,-140.625000
707,-140.625000
708,-140.625000
709,-140.625000
710,-140.625000
711,-144.531250
712,-144.531250
713,-144.531250
714,-144.531250
715,-144.531250
716,-148.437500
717,-148.437500
718,-148.437500
719,-148.437500
720,-148.437500
721,-148.437500
722,-148.437500
723,-148.437500
724,-152.343750
725,-152.343750
726,-152.343750
727,-152.343750
728,-152.343750
729,-152.343750
730,-156.250000
731,-156.250000
732,-156.250000
733,-156.250000
734,-156.250000
735,-160.156250
736,-160.156250
737,-160.156250
738,-160.156250
739,-160.156250
740,-160.156250
741,-160.156250
742,-160.156250
743,-164.062500
744,-164.062500
745,-160.156250
746,-164.062500
747,-164.062500
748,-164.062500
749,-164.062500
750,-164.062500
751,-164.062500
752,-164.062500
753,-167.968750
754,-167.968750
755,-167.968750
756,-167.968750
757,-167.968750
758,-167.968750
759,-167.968750
760,-171.875000
761,-171.875000
762,-171.875000
763,-171.875000
764,-171.875000
765,-171.875000
766,-171.875000
767,-171.875000
768,-171.875000
769,-171.875000
770,-171.875000
771,-171.875000
772,-171.875000
773,-171.875000
774,-175.781250
775,-175.781250
776,-175.781250
777,-175.781250
778,-175.781250
779,-175.781250
780,-175.781250
781,-175.781250
782,-175.781250
783,-175.781250
784,-175.781250
785,-175.781250
786,-175.781250
787,-179.687500
788,-179.687500
789,-179.687500
790,-179.687500
791,-179.687500
792,-179.687500
793,-179.687500
794,-179.687500
795,-179.687500
796,-179.687500
797,-179.687500
798,-179.687500
799,-179.687500
800,-179.687500
801,-179.687500
802,-179.687500
803,-179.687500
804,-179.687500
805,-179.687500
806,-179.687500
807,-179.687500
808,-179.687500
809,-179.687500
810,-179.687500
811,-179.687500
812,-179.687500
813,-179.687500
814,-179.687500
815,-179.687500
816,-179.687500
817,-179.687500
818,-179.687500
819,-179.687500
820,-179.687500
821,-179.687500
822,-179.687500
823,-179.687500
824,-179.687500
825,-179.687500
826,-179.687500
827,-179.687500
828,-179.687500
829,-179.687500
830,-179.687500
831,-179.687500
832,-179.687500
833,-179.687500
834,-179.687500
835,-179.687500
836,-179.687500
837,-179.687500
838,-179.687500
839,-179.687500
840,-179.687500
841,-179.687500
842,-179.687500
843,-179.687500
844,-175.781250
845,-175.781250
846,-175.781250
847,-175.781250
848,-175.781250
849,-175.781250
850,-175.781250
851,-175.781250
852,-175.781250
853,-175.781250
854,-175.781250
855,-175.781250
856,-175.781250
857,-171.875000
858,-171.875000
859,-171.875000
860,-171.875000
861,-171.875000
862,-171.875000
863,-171.875000
864,-171.875000
865,-171.875000
866,-171.875000
867,-171.875000
868,-171.875000
869,-167.968750
870,-167.968750
871,-167.968750
872,-167.968750
873,-167.968750
874,-167.968750
875,-167.968750
876,-167.968750
877,-167.968750
878,-164.062500
879,-164.062500
880,-164.062500
881,-164.062500
882,-164.062500
883,-164.062500
884,-164.062500
885,-164.062500
886,-164.062500
887,-160.156250
888,-160.156250
889,-160.156250
890,-160.156250
891,-160.156250
892,-160.156250
893,-160.156250
894,-156.250000
895,-156.250000
896,-156.250000
897,-156.250000
898,-156.250000
899,-156.250000
900,-156.250000
901,-152.343750
902,-152.343750
903,-152.343750
904,-152.343750
905,-152.343750
906,-152.343750
907,-148.437500
908,-148.437500
909,-148.437500
910,-148.437500
911,-148.437500
912,-148.437500
913,-148.437500
914,-144.531250
915,-144.531250
916,-144.531250
917,-144.531250
918,-140.625000
919,-140.625000
920,-140.625000
921,-140.625000
922,-140.625000
923,-140.625000
924,-136.718750
925,-136.718750
926,-136.718750
927,-136.718750
928,-136.718750
929,-132.812500
930,-132.812500
931,-132.812500
932,-132.812500
933,-132.812500
934,-132.812500
935,-128.906250
936,-128.906250
937,-128.906250
938,-128.906250
939,-128.906250
940,-125.000000
941,-125.000000
942,-125.000000
943,-125.000000
944,-125.000000
945,-121.093750
946,-121.093750
947,-121.093750
948,-121.093750
949,-117.187500
950,-117.187500
951,-117.187500
952,-117.187500
953,-113.281250
954,-113.281250
955,-113.281250
956,-113.281250
957,-113.281250
958,-113.281250
959,-109.375000
960,-109.375000
961,-109.375000
962,-109.375000
963,-105.468750
964,-105.468750
965,-105.468750
966,-105.468750
967,-101.562500
968,-101.562500
969,-101.562500
970,-101.562500
971,-97.656250
972,-97.656250
973,-97.656250
974,-97.656250
975,-97.656250
976,-93.750000
977,-93.750000
978,-93.750000
979,-93.750000
980,-89.843750
981,-89.843750
982,-89.843750
983,-85.937500
984,-85.937500
985,-85.937500
986,-82.031250
987,-82.031250
988,-82.031250
989,-82.031250
990,-82.031250
991,-78.125000
992,-78.125000
993,-78.125000
994,-78.125000
995,-74.218750
996,-74.218750
997,-74.218750
998,-74.218750
999,-70.312500
1000,-70.312500
1001,-70.312500
1002,-70.312500
1003,-66.406250
1004,-66.406250
1005,-66.406250
1006,-66.406250
1007,-62.500000
1008,-62.500000
1009,-62.500000
1010,-62.500000
1011,-58.593750
1012,-58.593750
1013,-58.593750
1014,-54.687500
1015,-54.687500
1016,-54.687500
1017,-54.687500
1018,-50.781250
1019,-50.781250
1020,-50.781250
1021,-46.875000
1022,-46.875000
1023,-46.875000
1024,-46.875000
1025,-42.968750
1026,-42.968750
1027,-42.968750
1028,-42.968750
1029,-39.062500
1030,-39.062500
1031,-39.062500
1032,-39.062500
1033,-35.156250
1034,-35.156250
1035,-35.156250
1036,-35.156250
1037,-31.250000
1038,-31.250000
1039,-31.250000
1040,-31.250000
1041,-27.343750
1042,-27.343750
1043,-27.343750
1044,-27.343750
1045,-23.437500
1046,-23.437500
1047,-23.437500
1048,-23.437500
1049,-19.531250
1050,-19.531250
1051,-19.531250
1052,-15.625000
1053,-15.625000
1054,-15.625000
1055,-15.625000
1056,-11.718750
1057,-11.718750
1058,-11.718750
1059,-7.812500
1060,-7.812500
1061,-7.812500
1062,-7.812500
1063,-3.906250
1064,-3.906250
1065,-3.906250
1066,-3.906250
1067,-3.906250
1068,0.000000
1069,0.000000
1070,0.000000
1071,0.000000
1072,3.906250
1073,3.906250
1074,3.906250
1075,3.906250
1076,7.812500
1077,7.812500
1078,7.812500
1079,7.812500
1080,11.718750
1081,11.718750
1082,11.718750
1083,11.718750
1084,15.625000
1085,15.625000
1086,15.625000
1087,15.625000
1088,19.531250
1089,19.531250
1090,19.531250
1091,23.437500
1092,23.437500
1093,23.437500
1094,23.437500
1095,23.437500
1096,27.343750
1097,27.343750
1098,27.343750
1099,31.250000
1100,31.250000
1101,31.250000
1102,31.250000
1103,31.250000
1104,31.250000
1105,35.156250
1106,35.156250
1107,35.156250
1108,35.156250
1109,39.062500
1110,39.062500
1111,39.062500
1112,39.062500
1113,42.968750
1114,42.968750
1115,42.968750
1116,42.968750
1117,46.875000
1118,46.875000
1119,46.875000
1120,46.875000
1121,50.781250
1122,50.781250
1123,50.781250
1124,50.781250
1125,54.687500
1126,54.687500
1127,54.687500
1128,54.687500
1129,54.687500
1130,54.687500
1131,58.593750
1132,58.593750
1133,58.593750
1134,58.593750
1135,58.593750
1136,62.500000
1137,62.500000
1138,62.500000
1139,62.500000
1140,62.500000
1141,66.406250
1142,66.406250
1143,66.406250
1144,66.406250
1145,70.312500
1146,70.312500
1147,70.312500
1148,70.312500
1149,70.312500
1150,74.218750
1151,74.218750
1152,74.218750
1153,74.218750
1154,74.218750
1155,78.125000
1156,78.125000
1157,78.125000
1158,78.125000
1159,78.125000
1160,78.125000
1161,82.031250
1162,82.031250
1163,82.031250
1164,82.031250
1165,82.031250
1166,85.937500
1167,85.937500
1168,85.937500
1169,85.937500
1170,85.937500
1171,85.937500
1172,85.937500
1173,89.843750
1174,89.843750
1175,89.843750
1176,89.843750
1177,89.843750
1178,89.843750
1179,93.750000
1180,93.750000
1181,93.750000
1182,93.750000
1183,93.750000
1184,93.750000
1185,97.656250
1186,97.656250
1187,97.656250
1188,97.656250
1189,101.562500
1190,97.656250
1191,101.562500
1192,101.562500
1193,101.562500
1194,101.562500
1195,101.562500
1196,101.562500
1197,101.562500
1198,101.562500
1199,105.468750
1200,105.468750
1201,105.468750
1202,105.468750
1203,105.468750
1204,105.468750
1205,105.468750
1206,105.468750
1207,109.375000
1208,109.375000
1209,109.375000
1210,109.375000
1211,109.375000
1212,109.375000
1213,109.375000
1214,109.375000
1215,113.281250
1216,113.281250
1217,113.281250
1218,113.281250
1219,113.281250
1220,113.281250
1221,113.281250
1222,113.281250
1223,117.187500
1224,117.187500
1225,117.187500
1226,117.187500
1227,117.187500
1228,117.187500
1229,117.187500
1230,117.187500
1231,117.187500
1232,117.187500
1233,117.187500
1234,117.187500
1235,121.093750
1236,121.093750
1237,121.093750
1238,121.093750
1239,121.093750
1240,121.093750
1241,121.093750
1242,121.093750
1243,125.000000
1244,121.093750
1245,125.000000
1246,125.000000
1247,125.000000
1248,125.000000
1249,125.000000
1250,125.000000
1251,125.000000
1252,125.000000
1253,125.000000
1254,125.000000
1255,125.000000
1256,125.000000
1257,125.000000
1258,125.000000
1259,125.000000
1260,128.906250
1261,128.906250
1262,128.906250
1263,128.906250
1264,128.906250
1265,128.906250
1266,128.906250
1267,128.906250
1268,128.906250
1269,128.906250
1270,128.906250
1271,128.906250
1272,128.906250
1273,128.906250
1274,128.906250
1275,132.812500
1276,132.812500
1277,132.812500
1278,132.812500
1279,132.812500
1280,132.812500
1281,132.812500
1282,128.906250
1283,132.812500
1284,132.812500
1285,132.812500
1286,132.812500
1287,132.812500
1288,132.812500
1289,132.812500
1290,132.812500
1291,132.812500
1292,132.812500
1293,132.812500
1294,132.812500
1295,132.812500
1296,132.812500
1297,132.812500
1298,132.812500
1299,132.812500
1300,132.812500
1301,132.812500
1302,132.812500
1303,132.812500
1304,132.812500
1305,132.812500
1306,132.812500
1307,132.812500
1308,132.812500
1309,132.812500
1310,132.812500
1311,132.812500
1312,132.812500
1313,132.812500
1314,132.812500
1315,132.812500
1316,132.812500
1317,132.812500
1318,132.812500
1319,132.812500
1320,132.812500
1321,132.812500
1322,132.812500
1323,132.812500
1324,132.812500
1325,132.812500
1326,132.812500
1327,132.812500
1328,132.812500
1329,132.812500
1330,132.812500
1331,132.812500
1332,132.812500
1333,132.812500
1334,132.812500
1335,132.812500
1336,128.906250
1337,132.812500
1338,132.812500
1339,132.812500
1340,128.906250
1341,132.812500
1342,128.906250
1343,132.812500
1344,128.906250
1345,128.906250
1346,128.906250
1347,128.906250
1348,128.906250
1349,128.906250
1350,128.906250
1351,128.906250
1352,128.906250
1353,128.906250
1354,128.906250
1355,128.906250
1356,128.906250
1357,128.906250
1358,128.906250
1359,128.906250
1360,125.000000
1361,128.906250
1362,125.000000
1363,128.906250
1364,125.000000
1365,125.000000
1366,125.000000
1367,125.000000
1368,125.000000
1369,125.000000
1370,125.000000
1371,125.000000
1372,125.000000
1373,125.000000
1374,125.000000
1375,125.000000
1376,121.093750
1377,121.093750
1378,121.093750
1379,121.093750
1380,121.093750
1381,121.093750
1382,121.093750
1383,121.093750
1384,121.093750
1385,121.093750
1386,117.187500
1387,121.093750
1388,121.093750
1389,117.187500
1390,117.187500
1391,117.187500
1392,117.187500
1393,117.187500
1394,117.187500
1395,117.187500
1396,113.281250
1397,117.187500
1398,113.281250
1399,113.281250
1400,113.281250
1401,113.281250
1402,113.281250
1403,113.281250
1404,113.281250
1405,113.281250
1406,109.375000
1407,113.281250
1408,109.375000
1409,109.375000
1410,109.375000
1411,109.375000
1412,109.375000
1413,109.375000
1414,109.375000
1415,105.468750
1416,105.468750
1417,105.468750
1418,105.468750
1419,105.468750
1420,105.468750
1421,105.468750
1422,105.468750
1423,105.468750
1424,101.562500
1425,101.562500
1426,101.562500
1427,101.562500
1428,101.562500
1429,101.562500
1430,97.656250
1431,101.562500
1432,97.656250
1433,97.656250
1434,97.656250
1435,97.656250
1436,93.750000
1437,93.750000
1438,93.750000
1439,93.750000
1440,93.750000
1441,93.750000
1442,93.750000
1443,89.843750
1444,89.843750
1445,89.843750
1446,89.843750
1447,89.843750
1448,89.843750
1449,85.937500
1450,85.937500
1451,85.937500
1452,85.937500
1453,85.937500
1454,85.937500
1455,82.031250
1456,82.031250
1457,82.031250
1458,82.031250
1459,82.031250
1460,78.125000
1461,78.125000
1462,78.125000
1463,78.125000
1464,74.218750
1465,74.218750
1466,74.218750
1467,74.218750
1468,74.218750
1469,74.218750
1470,70.312500
1471,70.312500
1472,70.312500
1473,70.312500
1474,70.312500
1475,70.312500
1476,66.406250
1477,66.406250
1478,66.406250
1479,66.406250
1480,62.500000
1481,62.500000
1482,62.500000
1483,62.500000
1484,62.500000
1485,58.593750
1486,58.593750
1487,58.593750
1488,58.593750
1489,58.593750
1490,58.593750
1491,54.687500
1492,54.687500
1493,54.687500
1494,54.687500
1495,50.781250
1496,50.781250
1497,50.781250
1498,46.875000
1499,46.875000
1500,46.875000
1501,46.875000
1502,46.875000
1503,46.875000
1504,42.968750
1505,42.968750
1506,42.968750
1507,42.968750
1508,39.062500
1509,39.062500
1510,39.062500
1511,39.062500
1512,35.156250
1513,35.156250
1514,35.156250
1515,35.156250
1516,31.250000
1517,31.250000
1518,31.250000
1519,31.250000
1520,27.343750
1521,27.343750
1522,27.343750
1523,27.343750
1524,27.343750
1525,23.437500
1526,23.437500
1527,23.437500
1528,23.437500
1529,23.437500
1530,19.531250
1531,19.531250
1532,19.531250
1533,15.625000
1534,15.625000
1535,15.625000
1536,11.718750
1537,11.718750
1538,11.718750
1539,11.718750
1540,11.718750
1541,7.812500
1542,7.812500
1543,7.812500
1544,7.812500
1545,3.906250
1546,3.906250
1547,3.906250
1548,3.906250
1549,0.000000
1550,0.000000
1551,0.000000
1552,0.000000
1553,-3.906250
1554,-3.906250
1555,-3.906250
1556,-3.906250
1557,-7.812500
1558,-7.812500
1559,-7.812500
1560,-11.718750
1561,-11.718750
1562,-11.718750
1563,-15.625000
1564,-15.625000
1565,-15.625000
1566,-15.625000
1567,-19.531250
1568,-19.531250
1569,-19.531250
1570,-19.531250
1571,-19.531250
1572,-23.437500
1573,-23.437500
1574,-23.437500
1575,-23.437500
1576,-27.343750
1577,-27.343750
1578,-27.343750
1579,-27.343750
1580,-31.250000
1581,-31.250000
1582,-31.250000
1583,-35.156250
1584,-35.156250
1585,-35.156250
1586,-35.156250
1587,-39.062500
1588,-39.062500
1589,-39.062500
1590,-42.968750
1591,-42.968750
1592,-42.968750
1593,-42.968750
1594,-46.875000
1595,-46.875000
1596,-46.875000
1597,-46.875000
1598,-50.781250
1599,-50.781250
1600,-50.781250
1601,-50.781250
1602,-54.687500
1603,-54.687500
1604,-54.687500
1605,-54.687500
1606,-58.593750
1607,-58.593750
1608,-62.500000
1609,-62.500000
1610,-62.500000
1611,-62.500000
1612,-62.500000
1613,-66.406250
1614,-66.406250
1615,-66.406250
1616,-70.312500
1617,-70.312500
1618,-70.312500
1619,-70.312500
1620,-74.218750
1621,-74.218750
1622,-74.218750
1623,-74.218750
1624,-74.218750
1625,-78.125000
1626,-78.125000
1627,-78.125000
1628,-78.125000
1629,-82.031250
1630,-82.031250
1631,-82.031250
1632,-85.937500
1633,-85.937500
1634,-85.937500
1635,-85.937500
1636,-85.937500
1637,-89.843750
1638,-89.843750
1639,-89.843750
1640,-89.843750
1641,-93.750000
1642,-93.750000
1643,-93.750000
1644,-93.750000
1645,-97.656250
1646,-97.656250
1647,-97.656250
1648,-97.656250
1649,-101.562500
1650,-101.562500
1651,-101.562500
1652,-101.562500
1653,-105.468750
1654,-105.468750
1655,-105.468750
1656,-105.468750
1657,-109.375000
1658,-109.375000
1659,-109.375000
1660,-109.375000
1661,-109.375000
1662,-113.281250
1663,-113.281250
1664,-113.281250
1665,-113.281250
1666,-113.281250
1667,-117.187500
1668,-117.187500
1669,-117.187500
1670,-121.093750
1671,-121.093750
1672,-121.093750
1673,-121.093750
1674,-121.093750
1675,-125.000000
1676,-125.000000
1677,-125.000000
1678,-125.000000
1679,-125.000000
1680,-125.000000
1681,-128.906250
1682,-128.906250
1683,-128.906250
1684,-128.906250
1685,-128.906250
1686,-132.812500
1687,-132.812500
1688,-132.812500
1689,-132.812500
1690,-132.812500
1691,-136.718750
1692,-136.718750
1693,-136.718750
1694,-136.718750
1695,-136.718750
1696,-140.625000
1697,-140.625000
1698,-140.625000
1699,-140.625000
1700,-140.625000
1701,-144.531250
1702,-144.531250
1703,-144.531250
1704,-144.531250
1705,-144.531250
1706,-144.531250
1707,-144.531250
1708,-148.437500
1709,-148.437500
1710,-148.437500
1711,-148.437500
1712,-148.437500
1713,-152.343750
1714,-152.343750
1715,-152.343750
1716,-152.343750
1717,-152.343750
1718,-152.343750
1719,-156.250000
1720,-156.250000
1721,-156.250000
1722,-156.250000
1723,-156.250000
1724,-156.250000
1725,-156.250000
1726,-160.156250
1727,-160.156250
1728,-160.156250
1729,-160.156250
1730,-160.156250
1731,-160.156250
1732,-160.156250
1733,-160.156250
1734,-164.062500
1735,-164.062500
1736,-164.062500
1737,-164.062500
1738,-164.062500
1739,-164.062500
1740,-164.062500
1741,-167.968750
1742,-167.968750
1743,-167.968750
1744,-167.968750
1745,-167.968750
1746,-167.968750
1747,-167.968750
1748,-167.968750
1749,-167.968750
1750,-167.968750
1751,-167.968750
1752,-171.875000
1753,-171.875000
1754,-171.875000
1755,-171.875000
1756,-171.875000
1757,-171.875000
1758,-171.875000
1759,-171.875000
1760,-171.875000
1761,-171.875000
1762,-175.781250
1763,-175.781250
1764,-175.781250
1765,-175.781250
1766,-175.781250
1767,-175.781250
1768,-175.781250
1769,-175.781250
1770,-175.781250
1771,-175.781250
1772,-175.781250
1773,-175.781250
1774,-175.781250
1775,-179.687500
1776,-175.781250
1777,-175.781250
1778,-175.781250
1779,-179.687500
1780,-179.687500
1781,-179.687500
1782,-179.687500
1783,-179.687500
1784,-179.687500
1785,-179.687500
1786,-179.687500
1787,-179.687500
1788,-179.687500
1789,-179.687500
1790,-179.687500
1791,-179.687500
1792,-179.687500
1793,-179.687500
1794,-179.687500
1795,-179.687500
1796,-179.687500
1797,-179.687500
1798,-179.687500
1799,-179.687500
1800,-179.687500
1801,-179.687500
1802,-179.687500
1803,-179.687500
1804,-179.687500
1805,-179.687500
1806,-179.687500
1807,-179.687500
1808,-179.687500
1809,-179.687500
1810,-179.687500
1811,-179.687500
1812,-179.687500
1813,-179.687500
1814,-179.687500
1815,-179.687500
1816,-179.687500
1817,-179.687500
1818,-179.687500
1819,-179.687500
1820,-179.687500
1821,-179.687500
1822,-179.687500
1823,-179.687500
1824,-179.687500
1825,-179.687500
1826,-179.687500
1827,-179.687500
1828,-179.687500
1829,-179.687500
1830,-179.687500
1831,-175.781250
1832,-175.781250
1833,-175.781250
1834,-179.687500
1835,-175.781250
1836,-175.781250
1837,-175.781250
1838,-175.781250
1839,-175.781250
1840,-175.781250
1841,-175.781250
1842,-175.781250
1843,-175.781250
1844,-175.781250
1845,-175.781250
1846,-175.781250
1847,-175.781250
1848,-171.875000
1849,-171.875000
1850,-171.875000
1851,-171.875000
1852,-171.875000
1853,-171.875000
1854,-171.875000
1855,-171.875000
1856,-171.875000
1857,-171.875000
1858,-171.875000
1859,-167.968750
1860,-167.968750
1861,-167.968750
1862,-167.968750
1863,-167.968750
1864,-167.968750
1865,-167.968750
1866,-167.968750
1867,-167.968750
1868,-167.968750
1869,-164.062500
1870,-164.062500
1871,-164.062500
1872,-164.062500
1873,-164.062500
1874,-164.062500
1875,-164.062500
1876,-160.156250
1877,-160.156250
1878,-160.156250
1879,-160.156250
1880,-160.156250
1881,-160.156250
1882,-160.156250
1883,-156.250000
1884,-156.250000
1885,-156.250000
1886,-156.250000
1887,-156.250000
1888,-156.250000
1889,-156.250000
1890,-152.343750
1891,-156.250000
1892,-152.343750
1893,-152.343750
1894,-152.343750
1895,-148.437500
1896,-152.343750
1897,-152.343750
1898,-148.437500
1899,-148.437500
1900,-148.437500
1901,-148.437500
1902,-148.437500
1903,-148.437500
1904,-144.531250
1905,-144.531250
1906,-144.531250
1907,-144.531250
1908,-144.531250
1909,-140.625000
1910,-140.625000
1911,-140.625000
1912,-140.625000
1913,-136.718750
1914,-136.718750
1915,-136.718750
1916,-136.718750
1917,-136.718750
1918,-136.718750
1919,-132.812500
1920,-132.812500
1921,-132.812500
1922,-132.812500
1923,-128.906250
1924,-132.812500
1925,-128.906250
1926,-128.906250
1927,-128.906250
1928,-128.906250
1929,-125.000000
1930,-125.000000
1931,-125.000000
1932,-125.000000
1933,-121.093750
1934,-121.093750
1935,-121.093750
1936,-121.093750
1937,-121.093750
1938,-121.093750
1939,-117.187500
1940,-117.187500
1941,-117.187500
1942,-117.187500
1943,-113.281250
1944,-113.281250
1945,-113.281250
1946,-113.281250
1947,-113.281250
1948,-109.375000
1949,-109.375000
1950,-109.375000
1951,-109.375000
1952,-105.468750
1953,-105.468750
1954,-105.468750
1955,-105.468750
1956,-105.468750
1957,-101.562500
1958,-101.562500
1959,-101.562500
1960,-97.656250
1961,-97.656250
1962,-97.656250
1963,-97.656250
1964,-97.656250
1965,-93.750000
1966,-93.750000
1967,-93.750000
1968,-89.843750
1969,-89.843750
1970,-89.843750
1971,-89.843750
1972,-89.843750
1973,-85.937500
1974,-85.937500
1975,-85.937500
1976,-85.937500
1977,-82.031250
1978,-82.031250
1979,-82.031250
1980,-82.031250
1981,-78.125000
1982,-78.125000
1983,-78.125000
1984,-78.125000
1985,-74.218750
1986,-74.218750
1987,-74.218750
1988,-74.218750
1989,-70.312500
1990,-70.312500
1991,-70.312500
1992,-70.312500
1993,-66.406250
1994,-66.406250
1995,-66.406250
1996,-66.406250
1997,-62.500000
1998,-62.500000
1999,-62.500000
2000,-62.500000
2001,-58.593750
2002,-58.593750
2003,-58.593750
2004,-58.593750
2005,-54.687500
2006,-54.687500
2007,-54.687500
2008,-50.781250
2009,-50.781250
2010,-50.781250
2011,-50.781250
2012,-50.781250
2013,-46.875000
2014,-46.875000
2015,-46.875000
2016,-42.968750
2017,-42.968750
2018,-42.968750
2019,-39.062500
2020,-39.062500
2021,-39.062500
2022,-39.062500
2023,-35.156250
2024,-35.156250
2025,-35.156250
2026,-35.156250
2027,-31.250000
2028,-31.250000
2029,-31.250000
2030,-31.250000
2031,-27.343750
2032,-27.343750
2033,-27.343750
2034,-27.343750
2035,-23.437500
2036,-23.437500
2037,-23.437500
2038,-23.437500
2039,-19.531250
2040,-19.531250
2041,-19.531250
2042,-19.531250
2043,-15.625000
2044,-15.625000
2045,-15.625000
2046,-11.718750
2047,-11.718750
2048,-11.718750
2049,-7.812500
2050,-7.812500
2051,-7.812500
2052,-7.812500
2053,-3.906250
2054,-3.906250
2055,-3.906250
2056,-3.906250
2057,0.000000
2058,0.000000
2059,0.000000
2060,0.000000
2061,0.000000
2062,3.906250
2063,3.906250
2064,3.906250
2065,7.812500
2066,7.812500
2067,7.812500
2068,7.812500
2069,11.718750
2070,11.718750
2071,11.718750
2072,11.718750
2073,15.625000
2074,15.625000
2075,15.625000
2076,15.625000
2077,19.531250
2078,19.531250
2079,19.531250
2080,19.531250
2081,23.437500
2082,23.437500
2083,23.437500
2084,23.437500
2085,27.343750
2086,27.343750
2087,27.343750
2088,27.343750
2089,27.343750
2090,31.250000
2091,31.250000
2092,31.250000
2093,31.250000
2094,35.156250
2095,35.156250
2096,35.156250
2097,35.156250
2098,35.156250
2099,39.062500
2100,39.062500
2101,39.062500
2102,39.062500
2103,42.968750
2104,42.968750
2105,42.968750
2106,42.968750
2107,46.875000
2108,46.875000
2109,46.875000
2110,46.875000
2111,46.875000
2112,50.781250
2113,50.781250
2114,50.781250
2115,50.781250
2116,50.781250
2117,54.687500
2118,54.687500
2119,54.687500
2120,54.687500
2121,58.593750
2122,58.593750
2123,58.593750
2124,58.593750
2125,62.500000
2126,62.500000
2127,62.500000
2128,62.500000
2129,62.500000
2130,62.500000
2131,66.406250
2132,66.406250
2133,66.406250
2134,66.406250
2135,66.406250
2136,70.312500
2137,70.312500
2138,70.312500
2139,70.312500
2140,70.312500
2141,74.218750
2142,74.218750
2143,74.218750
2144,74.218750
2145,74.218750
2146,78.125000
2147,78.125000
2148,78.125000
2149,78.125000
2150,78.125000
2151,78.125000
2152,82.031250
2153,82.031250
2154,82.031250
2155,82.031250
2156,82.031250
2157,85.937500
2158,85.937500
2159,85.937500
2160,85.937500
2161,85.937500
2162,89.843750
2163,89.843750
2164,89.843750
2165,89.843750
2166,89.843750
2167,89.843750
2168,93.750000
2169,93.750000
2170,93.750000
2171,93.750000
2172,93.750000
2173,93.750000
2174,93.750000
2175,97.656250
2176,97.656250
2177,97.656250
2178,97.656250
2179,97.656250
2180,97.656250
2181,101.562500
2182,101.562500
2183,101.562500
2184,101.562500
2185,101.562500
2186,101.562500
2187,101.562500
2188,105.468750
2189,105.468750
2190,105.468750
2191,105.468750
2192,105.468750
2193,105.468750
2194,105.468750
2195,105.468750
2196,109.375000
2197,109.375000
2198,109.375000
2199,109.375000
2200,109.375000
2201,109.375000
2202,109.375000
2203,109.375000
2204,109.375000
2205,109.375000
2206,113.281250
2207,113.281250
2208,113.281250
2209,113.281250
2210,113.281250
2211,113.281250
2212,113.281250
2213,117.187500
2214,117.187500
2215,117.187500
2216,117.187500
2217,117.187500
2218,117.187500
2219,117.187500
2220,117.187500
2221,117.187500
2222,117.187500
2223,117.187500
2224,121.093750
2225,121.093750
2226,121.093750
2227,121.093750
2228,121.093750
2229,121.093750
2230,121.093750
2231,121.093750
2232,121.093750
2233,121.093750
2234,121.093750
2235,125.000000
2236,125.000000
2237,125.000000
2238,125.000000
2239,125.000000
2240,125.000000
2241,125.000000
2242,125.000000
2243,125.000000
2244,125.000000
2245,125.000000
2246,125.000000
2247,125.000000
2248,125.000000
2249,128.906250
2250,128.906250
2251,128.906250
2252,128.906250
2253,128.906250
2254,128.906250
2255,128.906250
2256,128.906250
2257,128.906250
2258,128.906250
2259,128.906250
2260,128.906250
2261,128.906250
2262,128.906250
2263,128.906250
2264,128.906250
2265,132.812500
2266,128.906250
2267,128.906250
2268,128.906250
2269,128.906250
2270,128.906250
2271,132.812500
2272,132.812500
2273,132.812500
2274,132.812500
2275,132.812500
2276,128.906250
2277,132.812500
2278,132.812500
2279,132.812500
2280,132.812500
2281,132.812500
2282,132.812500
2283,132.812500
2284,132.812500
2285,132.812500
2286,132.812500
2287,132.812500
2288,132.812500
2289,132.812500
2290,132.812500
2291,132.812500
2292,132.812500
2293,132.812500
2294,132.812500
2295,132.812500
2296,132.812500
2297,132.812500
2298,132.812500
2299,132.812500
2300,132.812500
2301,132.812500
2302,132.812500
2303,132.812500
2304,132.812500
2305,132.812500
2306,132.812500
2307,132.812500
2308,132.812500
2309,132.812500
2310,132.812500
2311,132.812500
2312,132.812500
2313,132.812500
2314,132.812500
2315,132.812500
2316,132.812500
2317,132.812500
2318,132.812500
2319,132.812500
2320,132.812500
2321,132.812500
2322,132.812500
2323,132.812500
2324,132.812500
2325,132.812500
2326,132.812500
2327,132.812500
2328,132.812500
2329,132.812500
2330,132.812500
2331,132.812500
2332,128.906250
2333,128.906250
2334,128.906250
2335,132.812500
2336,128.906250
2337,132.812500
2338,128.906250
2339,128.906250
2340,128.906250
2341,128.906250
2342,128.906250
2343,128.906250
2344,128.906250
2345,128.906250
2346,128.906250
2347,128.906250
2348,128.906250
2349,128.906250
2350,128.906250
2351,125.000000
2352,125.000000
2353,125.000000
2354,125.000000
2355,125.000000
2356,125.000000
2357,125.000000
2358,125.000000
2359,125.000000
2360,125.000000
2361,125.000000
2362,125.000000
2363,125.000000
2364,121.093750
2365,125.000000
2366,121.093750
2367,121.093750
2368,121.093750
2369,121.093750
2370,121.093750
2371,121.093750
2372,121.093750
2373,121.093750
2374,121.093750
2375,121.093750
2376,117.187500
2377,117.187500
2378,117.187500
2379,117.187500
2380,117.187500
2381,117.187500
2382,117.187500
2383,117.187500
2384,117.187500
2385,117.187500
2386,113.281250
2387,113.281250
2388,113.281250
2389,113.281250
2390,113.281250
2391,113.281250
2392,113.281250
2393,113.281250
2394,113.281250
2395,113.281250
2396,109.375000
2397,109.375000
2398,109.375000
2399,109.375000
2400,109.375000
2401,109.375000
2402,109.375000
2403,109.375000
2404,105.468750
2405,105.468750
2406,105.468750
2407,105.468750
2408,105.468750
2409,105.468750
2410,105.468750
2411,101.562500
2412,101.562500
2413,101.562500
2414,101.562500
2415,101.562500
2416,101.562500
2417,101.562500
2418,97.656250
2419,97.656250
2420,97.656250
2421,97.656250
2422,97.656250
2423,97.656250
2424,97.656250
2425,93.750000
2426,93.750000
2427,93.750000
2428,93.750000
2429,93.750000
2430,93.750000
2431,93.750000
2432,89.843750
2433,89.843750
2434,89.843750
2435,89.843750
2436,89.843750
2437,89.843750
2438,85.937500
2439,85.937500
2440,85.937500
2441,85.937500
2442,85.937500
2443,85.937500
2444,82.031250
2445,82.031250
2446,82.031250
2447,82.031250
2448,82.031250
2449,78.125000
2450,78.125000
2451,78.125000
2452,78.125000
2453,78.125000
2454,78.125000
2455,74.218750
2456,74.218750
2457,74.218750
2458,74.218750
2459,74.218750
2460,74.218750
2461,70.312500
2462,70.312500
2463,70.312500
2464,70.312500
2465,66.406250
2466,66.406250
2467,66.406250
2468,66.406250
2469,66.406250
2470,66.406250
2471,62.500000
2472,62.500000
2473,62.500000
2474,62.500000
2475,58.593750
2476,58.593750
2477,58.593750
2478,58.593750
2479,58.593750
2480,54.687500
2481,54.687500
2482,54.687500
2483,54.687500
2484,50.781250
2485,50.781250
2486,50.781250
2487,50.781250
2488,50.781250
2489,46.875000
2490,46.875000
2491,46.875000
2492,46.875000
2493,46.875000
2494,42.968750
2495,42.968750
2496,42.968750
2497,39.062500
2498,39.062500
2499,39.062500
2500,39.062500
2501,39.062500
2502,35.156250
2503,35.156250
2504,35.156250
2505,35.156250
2506,31.250000
2507,31.250000
2508,31.250000
2509,31.250000
2510,31.250000
2511,27.343750
2512,27.343750
2513,27.343750
2514,27.343750
2515,23.437500
2516,23.437500
2517,23.437500
2518,19.531250
2519,19.531250
2520,19.531250
2521,19.531250
2522,15.625000
2523,15.625000
2524,15.625000
2525,15.625000
2526,11.718750
2527,11.718750
2528,11.718750
2529,11.718750
2530,7.812500
2531,7.812500
2532,7.812500
2533,7.812500
2534,3.906250
2535,3.906250
2536,3.906250
2537,3.906250
2538,3.906250
2539,0.000000
2540,0.000000
2541,0.000000
2542,-3.906250
2543,-3.906250
2544,-3.906250
2545,-3.906250
2546,-7.812500
2547,-7.812500
2548,-7.812500
2549,-7.812500
2550,-11.718750
2551,-11.718750
2552,-11.718750
2553,-11.718750
2554,-11.718750
2555,-15.625000
2556,-15.625000
2557,-15.625000
2558,-19.531250
2559,-19.531250
2560,-19.531250
2561,-19.531250
2562,-23.437500
2563,-23.437500
2564,-23.437500
2565,-27.343750
2566,-27.343750
2567,-27.343750
2568,-27.343750
2569,-31.250000
2570,-31.250000
2571,-31.250000
2572,-35.156250
2573,-35.156250
2574,-35.156250
2575,-35.156250
2576,-35.156250
2577,-39.062500
2578,-39.062500
2579,-39.062500
2580,-42.968750
2581,-42.968750
2582,-42.968750
2583,-42.968750
2584,-46.875000
2585,-46.875000
2586,-46.875000
2587,-46.875000
2588,-46.875000
2589,-50.781250
2590,-50.781250
2591,-50.781250
2592,-54.687500
2593,-54.687500
2594,-54.687500
2595,-58.593750
2596,-58.593750
2597,-58.593750
2598,-58.593750
2599,-58.593750
2600,-62.500000
2601,-62.500000
2602,-62.500000
2603,-62.500000
2604,-66.406250
2605,-66.406250
2606,-66.406250
2607,-70.312500
2608,-70.312500
2609,-70.312500
2610,-70.312500
2611,-74.218750
2612,-74.218750
2613,-74.218750
2614,-78.125000
2615,-78.125000
2616,-78.125000
2617,-78.125000
2618,-78.125000
2619,-82.031250
2620,-82.031250
2621,-82.031250
2622,-85.937500
2623,-85.937500
2624,-85.937500
2625,-85.937500
2626,-85.937500
2627,-89.843750
2628,-89.843750
2629,-89.843750
2630,-93.750000
2631,-93.750000
2632,-93.750000
2633,-93.750000
2634,-93.750000
2635,-97.656250
2636,-97.656250
2637,-97.656250
2638,-97.656250
2639,-101.562500
2640,-101.562500
2641,-101.562500
2642,-101.562500
2643,-105.468750
2644,-105.468750
2645,-105.468750
2646,-105.468750
2647,-109.375000
2648,-109.375000
2649,-109.375000
2650,-109.375000
2651,-109.375000
2652,-113.281250
2653,-113.281250
2654,-113.281250
2655,-113.281250
2656,-117.187500
2657,-117.187500
2658,-117.187500
2659,-117.187500
2660,-117.187500
2661,-121.093750
2662,-121.093750
2663,-121.093750
2664,-121.093750
2665,-121.093750
2666,-125.000000
2667,-125.000000
2668,-125.000000
2669,-125.000000
2670,-128.906250
2671,-128.906250
2672,-128.906250
2673,-128.906250
2674,-128.906250
2675,-128.906250
2676,-132.812500
2677,-132.812500
2678,-132.812500
2679,-132.812500
2680,-136.718750
2681,-136.718750
2682,-136.718750
2683,-136.718750
2684,-136.718750
2685,-136.718750
2686,-140.625000
2687,-140.625000
2688,-140.625000
2689,-140.625000
2690,-140.625000
2691,-140.625000
2692,-144.531250
2693,-144.531250
2694,-144.531250
2695,-144.531250
2696,-148.437500
2697,-148.437500
2698,-148.437500
2699,-148.437500
2700,-148.437500
2701,-148.437500
2702,-152.343750
2703,-152.343750
2704,-152.343750
2705,-152.343750
2706,-152.343750
2707,-152.343750
2708,-152.343750
2709,-152.343750
2710,-156.250000
2711,-156.250000
2712,-156.250000
2713,-156.250000
2714,-156.250000
2715,-156.250000
2716,-160.156250
2717,-160.156250
2718,-160.156250
2719,-160.156250
2720,-160.156250
2721,-160.156250
2722,-160.156250
2723,-160.156250
2724,-164.062500
2725,-164.062500
2726,-164.062500
2727,-164.062500
2728,-164.062500
2729,-164.062500
2730,-164.062500
2731,-164.062500
2732,-167.968750
2733,-167.968750
2734,-167.968750
2735,-167.968750
2736,-167.968750
2737,-167.968750
2738,-167.968750
2739,-167.968750
2740,-171.875000
2741,-171.875000
2742,-171.875000
2743,-171.875000
2744,-171.875000
2745,-171.875000
2746,-171.875000
2747,-171.875000
2748,-171.875000
2749,-171.875000
2750,-171.875000
2751,-171.875000
2752,-171.875000
2753,-175.781250
2754,-175.781250
2755,-175.781250
2756,-175.781250
2757,-175.781250
2758,-175.781250
2759,-175.781250
2760,-175.781250
2761,-175.781250
2762,-175.781250
2763,-175.781250
2764,-175.781250
2765,-175.781250
2766,-175.781250
2767,-175.781250
2768,-179.687500
2769,-175.781250
2770,-175.781250
2771,-179.687500
2772,-179.687500
2773,-179.687500
2774,-179.687500
2775,-179.687500
2776,-179.687500
2777,-179.687500
2778,-179.687500
2779,-183.593750
2780,-179.687500
2781,-179.687500
2782,-179.687500
2783,-179.687500
2784,-179.687500
2785,-179.687500
2786,-179.687500
2787,-179.687500
2788,-179.687500
2789,-179.687500
2790,-179.687500
2791,-179.687500
2792,-179.687500
2793,-179.687500
2794,-179.687500
2795,-179.687500
2796,-179.687500
2797,-179.687500
2798,-179.687500
2799,-179.687500
2800,-179.687500
2801,-179.687500
2802,-179.687500
2803,-179.687500
2804,-179.687500
2805,-179.687500
2806,-179.687500
2807,-179.687500
2808,-179.687500
2809,-179.687500
2810,-179.687500
2811,-179.687500
2812,-179.687500
2813,-179.687500
2814,-179.687500
2815,-179.687500
2816,-175.781250
2817,-179.687500
2818,-179.687500
2819,-179.687500
2820,-179.687500
2821,-179.687500
2822,-175.781250
2823,-179.687500
2824,-175.781250
2825,-175.781250
2826,-175.781250
2827,-175.781250
2828,-175.781250
2829,-175.781250
2830,-175.781250
2831,-175.781250
2832,-175.781250
2833,-175.781250
2834,-175.781250
2835,-171.875000
2836,-171.875000
2837,-171.875000
2838,-171.875000
2839,-171.875000
2840,-171.875000
2841,-171.875000
2842,-171.875000
2843,-171.875000
2844,-171.875000
2845,-171.875000
2846,-171.875000
2847,-171.875000
2848,-171.875000
2849,-167.968750
2850,-167.968750
2851,-167.968750
2852,-167.968750
2853,-167.968750
2854,-167.968750
2855,-167.968750
2856,-167.968750
2857,-167.968750
2858,-164.062500
2859,-164.062500
2860,-164.062500
2861,-164.062500
2862,-164.062500
2863,-164.062500
2864,-164.062500
2865,-160.156250
2866,-160.156250
2867,-160.156250
2868,-160.156250
2869,-160.156250
2870,-160.156250
2871,-160.156250
2872,-160.156250
2873,-156.250000
2874,-156.250000
2875,-156.250000
2876,-156.250000
2877,-156.250000
2878,-156.250000
2879,-156.250000
2880,-156.250000
2881,-152.343750
2882,-152.343750
2883,-152.343750
2884,-152.343750
2885,-152.343750
2886,-152.343750
2887,-148.437500
2888,-148.437500
2889,-148.437500
2890,-148.437500
2891,-148.437500
2892,-148.437500
2893,-144.531250
2894,-144.531250
2895,-144.531250
2896,-144.531250
2897,-144.531250
2898,-140.625000
2899,-140.625000
2900,-140.625000
2901,-140.625000
2902,-140.625000
2903,-136.718750
2904,-140.625000
2905,-136.718750
2906,-136.718750
2907,-136.718750
2908,-136.718750
2909,-132.812500
2910,-132.812500
2911,-132.812500
2912,-132.812500
2913,-132.812500
2914,-132.812500
2915,-128.906250
2916,-128.906250
2917,-128.906250
2918,-128.906250
2919,-125.000000
2920,-125.000000
2921,-125.000000
2922,-125.000000
2923,-125.000000
2924,-121.093750
2925,-121.093750
2926,-121.093750
2927,-121.093750
2928,-121.093750
2929,-117.187500
2930,-117.187500
2931,-117.187500
2932,-117.187500
2933,-113.281250
2934,-113.281250
2935,-113.281250
2936,-113.281250
2937,-109.375000
2938,-109.375000
2939,-109.375000
2940,-109.375000
2941,-109.375000
2942,-105.468750
2943,-105.468750
2944,-105.468750
2945,-105.468750
2946,-101.562500
2947,-101.562500
2948,-101.562500
2949,-97.656250
2950,-97.656250
2951,-97.656250
2952,-97.656250
2953,-97.656250
2954,-93.750000
2955,-93.750000
2956,-93.750000
2957,-93.750000
2958,-93.750000
2959,-89.843750
2960,-89.843750
2961,-89.843750
2962,-89.843750
2963,-85.937500
2964,-85.937500
2965,-85.937500
2966,-82.031250
2967,-82.031250
2968,-82.031250
2969,-82.031250
2970,-78.125000
2971,-78.125000
2972,-78.125000
2973,-78.125000
2974,-74.218750
2975,-74.218750
2976,-74.218750
2977,-74.218750
2978,-74.218750
2979,-70.312500
2980,-70.312500
2981,-70.312500
2982,-66.406250
2983,-66.406250
2984,-66.406250
2985,-66.406250
2986,-62.500000
2987,-62.500000
2988,-62.500000
2989,-58.593750
2990,-58.593750
2991,-58.593750
2992,-58.593750
2993,-58.593750
2994,-54.687500
2995,-54.687500
2996,-54.687500
2997,-54.687500
2998,-50.781250
2999,-50.781250
3000,-50.781250
3001,-46.875000
3002,-46.875000
3003,-46.875000
3004,-46.875000
3005,-42.968750
3006,-42.968750
3007,-42.968750
3008,-42.968750
3009,-42.968750
3010,-39.062500
3011,-39.062500
3012,-39.062500
3013,-35.156250
3014,-35.156250
3015,-35.156250
3016,-35.156250
3017,-31.250000
3018,-31.250000
3019,-31.250000
3020,-27.343750
3021,-27.343750
3022,-27.343750
3023,-27.343750
3024,-23.437500
3025,-23.437500
3026,-23.437500
3027,-23.437500
3028,-19.531250
3029,-19.531250
3030,-19.531250
3031,-19.531250
3032,-15.625000
3033,-15.625000
3034,-15.625000
3035,-11.718750
3036,-11.718750
3037,-11.718750
3038,-11.718750
3039,-7.812500
3040,-7.812500
3041,-7.812500
3042,-7.812500
3043,-3.906250
3044,-3.906250
3045,-3.906250
3046,-3.906250
3047,0.000000
3048,0.000000
3049,0.000000
3050,0.000000
3051,3.906250
3052,3.906250
3053,3.906250
3054,3.906250
3055,7.812500
3056,7.812500
3057,7.812500
3058,7.812500
3059,11.718750
3060,11.718750
3061,11.718750
3062,11.718750
3063,15.625000
3064,15.625000
3065,15.625000
3066,15.625000
3067,19.531250
3068,19.531250
3069,19.531250
3070,19.531250
3071,23.437500
3072,23.437500
3073,23.437500
3074,23.437500
3075,23.437500
3076,27.343750
3077,27.343750
3078,27.343750
3079,31.250000
3080,31.250000
3081,31.250000
3082,31.250000
3083,35.156250
3084,35.156250
3085,35.156250
3086,35.156250
3087,35.156250
3088,39.062500
3089,39.062500
3090,39.062500
3091,39.062500
3092,42.968750
3093,42.968750
3094,42.968750
3095,42.968750
3096,46.875000
3097,46.875000
3098,46.875000
3099,46.875000
3100,50.781250
3101,50.781250
3102,50.781250
3103,50.781250
3104,50.781250
3105,54.687500
3106,54.687500
3107,54.687500
3108,54.687500
3109,54.687500
3110,58.593750
3111,58.593750
3112,58.593750
3113,58.593750
3114,58.593750
3115,62.500000
3116,62.500000
3117,62.500000
3118,62.500000
3119,66.406250
3120,66.406250
3121,66.406250
3122,66.406250
3123,66.406250
3124,66.406250
3125,70.312500
3126,70.312500
3127,70.312500
3128,70.312500
3129,70.312500
3130,74.218750
3131,74.218750
3132,74.218750
3133,74.218750
3134,74.218750
3135,78.125000
3136,78.125000
3137,74.218750
3138,78.125000
3139,78.125000
3140,78.125000
3141,82.031250
3142,82.031250
3143,82.031250
3144,82.031250
3145,82.031250
3146,82.031250
3147,85.937500
3148,85.937500
3149,85.937500
3150,85.937500
3151,85.937500
3152,89.843750
3153,85.937500
3154,89.843750
3155,89.843750
3156,89.843750
3157,89.843750
3158,93.750000
3159,93.750000
3160,93.750000
3161,93.750000
3162,93.750000
3163,93.750000
3164,97.656250
3165,97.656250
3166,97.656250
3167,97.656250
3168,97.656250
3169,97.656250
3170,97.656250
3171,97.656250
3172,101.562500
3173,101.562500
3174,101.562500
3175,101.562500
3176,101.562500
3177,101.562500
3178,101.562500
3179,105.468750
3180,105.468750
3181,105.468750
3182,105.468750
3183,105.468750
3184,105.468750
3185,105.468750
3186,109.375000
3187,109.375000
3188,109.375000
3189,109.375000
3190,109.375000
3191,109.375000
3192,109.375000
3193,109.375000
3194,113.281250
3195,113.281250
3196,113.281250
3197,113.281250
3198,113.281250
3199,113.281250
3200,113.281250
3201,113.281250
3202,113.281250
3203,117.187500
3204,117.187500
3205,117.187500
3206,117.187500
3207,117.187500
3208,117.187500
3209,117.187500
3210,117.187500
3211,117.187500
3212,121.093750
3213,121.093750
3214,117.187500
3215,121.093750
3216,121.093750
3217,121.093750
3218,121.093750
3219,121.093750
3220,121.093750
3221,121.093750
3222,125.000000
3223,121.093750
3224,125.000000
3225,125.000000
3226,125.000000
3227,125.000000
3228,125.000000
3229,125.000000
3230,125.000000
3231,125.000000
3232,125.000000
3233,125.000000
3234,125.000000
3235,125.000000
3236,125.000000
3237,128.906250
3238,128.906250
3239,128.906250
3240,128.906250
3241,128.906250
3242,128.906250
3243,128.906250
3244,128.906250
3245,128.906250
3246,128.906250
3247,128.906250
3248,128.906250
3249,128.906250
3250,128.906250
3251,128.906250
3252,128.906250
3253,132.812500
3254,128.906250
3255,128.906250
3256,128.906250
3257,132.812500
3258,128.906250
3259,132.812500
3260,128.906250
3261,132.812500
3262,132.812500
3263,132.812500
3264,132.812500
3265,132.812500
3266,132.812500
3267,132.812500
3268,132.812500
3269,132.812500
3270,132.812500
3271,132.812500
3272,132.812500
3273,132.812500
3274,132.812500
3275,132.812500
3276,132.812500
3277,132.812500
3278,132.812500
3279,132.812500
3280,132.812500
3281,132.812500
3282,132.812500
3283,132.812500
3284,132.812500
3285,132.812500
3286,132.812500
3287,132.812500
3288,132.812500
3289,132.812500
3290,132.812500
3291,132.812500
3292,132.812500
3293,132.812500
3294,132.812500
3295,132.812500
3296,132.812500
3297,132.812500
3298,132.812500
3299,132.812500
3300,132.812500
3301,132.812500
3302,132.812500
3303,132.812500
3304,132.812500
3305,132.812500
3306,132.812500
3307,132.812500
3308,132.812500
3309,132.812500
3310,132.812500
3311,132.812500
3312,132.812500
3313,132.812500
3314,132.812500
3315,132.812500
3316,132.812500
3317,132.812500
3318,132.812500
3319,132.812500
3320,128.906250
3321,132.812500
3322,132.812500
3323,128.906250
3324,128.906250
3325,128.906250
3326,128.906250
3327,128.906250
3328,128.906250
3329,128.906250
3330,128.906250
3331,128.906250
3332,128.906250
3333,128.906250
3334,128.906250
3335,128.906250
3336,128.906250
3337,128.906250
3338,128.906250
3339,128.906250
3340,128.906250
3341,128.906250
3342,128.906250
3343,128.906250
3344,125.000000
3345,128.906250
3346,125.000000
3347,125.000000
3348,125.000000
3349,125.000000
3350,125.000000
3351,125.000000
3352,125.000000
3353,125.000000
3354,125.000000
3355,125.000000
3356,121.093750
3357,125.000000
3358,121.093750
3359,121.093750
3360,121.093750
3361,121.093750
3362,121.093750
3363,121.093750
3364,121.093750
3365,121.093750
3366,121.093750
3367,121.093750
3368,117.187500
3369,121.093750
3370,117.187500
3371,117.187500
3372,117.187500
3373,117.187500
3374,117.187500
3375,117.187500
3376,117.187500
3377,117.187500
3378,117.187500
3379,113.281250
3380,113.281250
3381,113.281250
3382,113.281250
3383,113.281250
3384,113.281250
3385,113.281250
3386,113.281250
3387,113.281250
3388,109.375000
3389,109.375000
3390,109.375000
3391,109.375000
3392,109.375000
3393,109.375000
3394,105.468750
3395,109.375000
3396,105.468750
3397,105.468750
3398,105.468750
3399,105.468750
3400,105.468750
3401,105.468750
3402,105.468750
3403,105.468750
3404,101.562500
3405,101.562500
3406,101.562500
3407,101.562500
3408,101.562500
3409,97.656250
3410,97.656250
3411,97.656250
3412,97.656250
3413,97.656250
3414,97.656250
3415,97.656250
3416,97.656250
3417,93.750000
3418,93.750000
3419,93.750000
3420,89.843750
3421,89.843750
3422,89.843750
3423,89.843750
3424,89.843750
3425,89.843750
3426,89.843750
3427,89.843750
3428,89.843750
3429,85.937500
3430,85.937500
3431,85.937500
3432,85.937500
3433,85.937500
3434,82.031250
3435,82.031250
3436,82.031250
3437,82.031250
3438,82.031250
3439,82.031250
3440,78.125000
3441,78.125000
3442,78.125000
3443,78.125000
3444,74.218750
3445,74.218750
3446,74.218750
3447,74.218750
3448,74.218750
3449,74.218750
3450,70.312500
3451,70.312500
3452,70.312500
3453,70.312500
3454,66.406250
3455,70.312500
3456,70.312500
3457,66.406250
3458,66.406250
3459,66.406250
3460,62.500000
3461,62.500000
3462,62.500000
3463,62.500000
3464,62.500000
3465,58.593750
3466,58.593750
3467,58.593750
3468,58.593750
3469,58.593750
3470,54.687500
3471,54.687500
3472,54.687500
3473,54.687500
3474,54.687500
3475,50.781250
3476,50.781250
3477,50.781250
3478,50.781250
3479,46.875000
3480,46.875000
3481,46.875000
3482,46.875000
3483,46.875000
3484,42.968750
3485,42.968750
3486,42.968750
3487,42.968750
3488,39.062500
3489,39.062500
3490,39.062500
3491,39.062500
3492,35.156250
3493,35.156250
3494,35.156250
3495,35.156250
3496,31.250000
3497,31.250000
3498,31.250000
3499,31.250000
3500,27.343750
3501,27.343750
3502,27.343750
3503,27.343750
3504,23.437500
3505,23.437500
3506,23.437500
3507,23.437500
3508,23.437500
3509,19.531250
3510,19.531250
3511,19.531250
3512,15.625000
3513,15.625000
3514,15.625000
3515,15.625000
3516,11.718750
3517,11.718750
3518,11.718750
3519,11.718750
3520,7.812500
3521,7.812500
3522,7.812500
3523,3.906250
3524,7.812500
3525,3.906250
3526,3.906250
3527,3.906250
3528,0.000000
3529,0.000000
3530,0.000000
3531,0.000000
3532,-3.906250
3533,-3.906250
3534,-3.906250
3535,-3.906250
3536,-7.812500
3537,-7.812500
3538,-7.812500
3539,-7.812500
3540,-11.718750
3541,-11.718750
3542,-11.718750
3543,-11.718750
3544,-15.625000
3545,-15.625000
3546,-15.625000
3547,-19.531250
3548,-19.531250
3549,-19.531250
3550,-19.531250
3551,-23.437500
3552,-23.437500
3553,-23.437500
3554,-23.437500
3555,-23.437500
3556,-27.343750
3557,-27.343750
3558,-27.343750
3559,-31.250000
3560,-31.250000
3561,-31.250000
3562,-31.250000
3563,-35.156250
3564,-35.156250
3565,-35.156250
3566,-35.156250
3567,-39.062500
3568,-39.062500
3569,-39.062500
3570,-42.968750
3571,-42.968750
3572,-42.968750
3573,-42.968750
3574,-42.968750
3575,-46.875000
3576,-46.875000
3577,-50.781250
3578,-50.781250
3579,-50.781250
3580,-50.781250
3581,-50.781250
3582,-54.687500
3583,-54.687500
3584,-54.687500
3585,-58.593750
3586,-58.593750
3587,-58.593750
3588,-58.593750
3589,-62.500000
3590,-62.500000
3591,-62.500000
3592,-62.500000
3593,-62.500000
3594,-66.406250
3595,-66.406250
3596,-66.406250
3597,-70.312500
3598,-70.312500
3599,-70.312500
3600,-74.218750
3601,-74.218750
3602,-74.218750
3603,-74.218750
3604,-74.218750
3605,-78.125000
3606,-78.125000
3607,-78.125000
3608,-82.031250
3609,-82.031250
3610,-82.031250
3611,-82.031250
3612,-82.031250
3613,-85.937500
3614,-85.937500
3615,-85.937500
3616,-85.937500
3617,-89.843750
3618,-89.843750
3619,-89.843750
3620,-89.843750
3621,-93.750000
3622,-93.750000
3623,-93.750000
3624,-93.750000
3625,-97.656250
3626,-97.656250
3627,-97.656250
3628,-97.656250
3629,-97.656250
3630,-101.562500
3631,-101.562500
3632,-101.562500
3633,-105.468750
3634,-105.468750
3635,-105.468750
3636,-105.468750
3637,-105.468750
3638,-109.375000
3639,-109.375000
3640,-109.375000
3641,-109.375000
3642,-113.281250
3643,-113.281250
3644,-113.281250
3645,-113.281250
3646,-117.187500
3647,-117.187500
3648,-117.187500
3649,-117.187500
3650,-117.187500
3651,-121.093750
3652,-121.093750
3653,-121.093750
3654,-121.093750
3655,-121.093750
3656,-125.000000
3657,-125.000000
3658,-125.000000
3659,-125.000000
3660,-125.000000
3661,-128.906250
3662,-128.906250
3663,-128.906250
3664,-128.906250
3665,-128.906250
3666,-132.812500
3667,-132.812500
3668,-132.812500
3669,-132.812500
3670,-136.718750
3671,-136.718750
3672,-136.718750
3673,-136.718750
3674,-136.718750
3675,-136.718750
3676,-140.625000
3677,-140.625000
3678,-140.625000
3679,-140.625000
3680,-140.625000
3681,-144.531250
3682,-144.531250
3683,-144.531250
3684,-144.531250
3685,-144.531250
3686,-144.531250
3687,-148.437500
3688,-148.437500
3689,-148.437500
3690,-148.437500
3691,-148.437500
3692,-152.343750
3693,-152.343750
3694,-152.343750
3695,-152.343750
3696,-152.343750
3697,-152.343750
3698,-152.343750
3699,-152.343750
3700,-156.250000
3701,-156.250000
3702,-156.250000
3703,-156.250000
3704,-156.250000
3705,-156.250000
3706,-160.156250
3707,-160.156250
3708,-160.156250
3709,-160.156250
3710,-160.156250
3711,-160.156250
3712,-164.062500
3713,-164.062500
3714,-164.062500
3715,-164.062500
3716,-164.062500
3717,-164.062500
3718,-164.062500
3719,-164.062500
3720,-164.062500
3721,-167.968750
3722,-167.968750
3723,-167.968750
3724,-167.968750
3725,-167.968750
3726,-167.968750
3727,-167.968750
3728,-167.968750
3729,-167.968750
3730,-171.875000
3731,-167.968750
3732,-167.968750
3733,-167.968750
3734,-171.875000
3735,-171.875000
3736,-171.875000
3737,-171.875000
3738,-171.875000
3739,-171.875000
3740,-171.875000
3741,-171.875000
3742,-171.875000
3743,-171.875000
3744,-175.781250
3745,-171.875000
3746,-175.781250
3747,-175.781250
3748,-175.781250
3749,-175.781250
3750,-175.781250
3751,-175.781250
3752,-175.781250
3753,-175.781250
3754,-175.781250
3755,-175.781250
3756,-175.781250
3757,-175.781250
3758,-179.687500
3759,-179.687500
3760,-179.687500
3761,-179.687500
3762,-179.687500
3763,-179.687500
3764,-179.687500
3765,-179.687500
3766,-179.687500
3767,-179.687500
3768,-179.687500
3769,-179.687500
3770,-179.687500
3771,-179.687500
3772,-179.687500
3773,-179.687500
3774,-179.687500
3775,-179.687500
3776,-179.687500
3777,-179.687500
3778,-179.687500
3779,-179.687500
3780,-179.687500
3781,-179.687500
3782,-179.687500
3783,-179.687500
3784,-179.687500
3785,-179.687500
3786,-179.687500
3787,-179.687500
3788,-179.687500
3789,-179.687500
3790,-179.687500
3791,-179.687500
3792,-179.687500
3793,-179.687500
3794,-179.687500
3795,-179.687500
3796,-179.687500
3797,-179.687500
3798,-179.687500
3799,-179.687500
3800,-179.687500
3801,-179.687500
3802,-179.687500
3803,-179.687500
3804,-179.687500
3805,-175.781250
3806,-179.687500
3807,-175.781250
3808,-179.687500
3809,-179.687500
3810,-179.687500
3811,-179.687500
3812,-179.687500
3813,-175.781250
3814,-175.781250
3815,-175.781250
3816,-175.781250
3817,-175.781250
3818,-175.781250
3819,-175.781250
3820,-175.781250
3821,-175.781250
3822,-175.781250
3823,-175.781250
3824,-175.781250
3825,-175.781250
3826,-175.781250
3827,-175.781250
3828,-171.875000
3829,-171.875000
3830,-171.875000
3831,-171.875000
3832,-171.875000
3833,-171.875000
3834,-171.875000
3835,-171.875000
3836,-171.875000
3837,-171.875000
3838,-167.968750
3839,-167.968750
3840,-167.968750
3841,-167.968750
3842,-167.968750
3843,-167.968750
3844,-167.968750
3845,-167.968750
3846,-167.968750
3847,-164.062500
3848,-164.062500
3849,-164.062500
3850,-164.062500
3851,-164.062500
3852,-164.062500
3853,-164.062500
3854,-160.156250
3855,-160.156250
3856,-160.156250
3857,-160.156250
3858,-160.156250
3859,-160.156250
3860,-160.156250
3861,-156.250000
3862,-156.250000
3863,-156.250000
3864,-156.250000
3865,-156.250000
3866,-156.250000
3867,-156.250000
3868,-156.250000
3869,-152.343750
3870,-152.343750
3871,-152.343750
3872,-152.343750
3873,-152.343750
3874,-152.343750
3875,-152.343750
3876,-152.343750
3877,-148.437500
3878,-148.437500
3879,-148.437500
3880,-148.437500
3881,-144.531250
3882,-144.531250
3883,-144.531250
3884,-144.531250
3885,-144.531250
3886,-144.531250
3887,-140.625000
3888,-140.625000
3889,-140.625000
3890,-140.625000
3891,-140.625000
3892,-140.625000
3893,-136.718750
3894,-136.718750
3895,-136.718750
3896,-136.718750
3897,-136.718750
3898,-132.812500
3899,-132.812500
3900,-132.812500
3901,-132.812500
3902,-132.812500
3903,-128.906250
3904,-128.906250
3905,-128.906250
3906,-128.906250
3907,-128.906250
3908,-128.906250
3909,-125.000000
3910,-125.000000
3911,-125.000000
3912,-125.000000
3913,-121.093750
3914,-121.093750
3915,-121.093750
3916,-121.093750
3917,-117.187500
3918,-117.187500
3919,-117.187500
3920,-117.187500
3921,-117.187500
3922,-113.281250
3923,-113.281250
3924,-113.281250
3925,-113.281250
3926,-113.281250
3927,-109.375000
3928,-109.375000
3929,-109.375000
3930,-109.375000
3931,-109.375000
3932,-105.468750
3933,-105.468750
3934,-105.468750
3935,-105.468750
3936,-101.562500
3937,-101.562500
3938,-101.562500
3939,-101.562500
3940,-97.656250
3941,-97.656250
3942,-97.656250
3943,-97.656250
3944,-93.750000
3945,-93.750000
3946,-93.750000
3947,-93.750000
3948,-89.843750
3949,-89.843750
3950,-89.843750
3951,-89.843750
3952,-89.843750
3953,-85.937500
3954,-85.937500
3955,-85.937500
3956,-85.937500
3957,-82.031250
3958,-82.031250
3959,-82.031250
3960,-78.125000
3961,-78.125000
3962,-78.125000
3963,-78.125000
3964,-74.218750
3965,-74.218750
3966,-74.218750
3967,-74.218750
3968,-70.312500
3969,-70.312500
3970,-70.312500
3971,-70.312500
3972,-70.312500
3973,-66.406250
3974,-66.406250
3975,-62.500000
3976,-62.500000
3977,-62.500000
3978,-62.500000
3979,-62.500000
3980,-58.593750
3981,-58.593750
3982,-58.593750
3983,-54.687500
3984,-54.687500
3985,-54.687500
3986,-54.687500
3987,-50.781250
3988,-50.781250
3989,-50.781250
3990,-50.781250
3991,-50.781250
3992,-46.875000
3993,-46.875000
3994,-46.875000
3995,-42.968750
3996,-42.968750
3997,-42.968750
3998,-42.968750
3999,-39.062500
4000,-39.062500
4001,-39.062500
4002,-39.062500
4003,-35.156250
4004,-35.156250
4005,-35.156250
4006,-31.250000
4007,-31.250000
4008,-31.250000
4009,-31.250000
4010,-27.343750
4011,-27.343750
4012,-27.343750
4013,-27.343750
4014,-23.437500
4015,-23.437500
4016,-23.437500
4017,-23.437500
4018,-19.531250
4019,-19.531250
4020,-19.531250
4021,-19.531250
4022,-15.625000
4023,-15.625000
4024,-15.625000
4025,-11.718750
4026,-11.718750
4027,-11.718750
4028,-11.718750
4029,-11.718750
4030,-7.812500
4031,-7.812500
4032,-3.906250
4033,-3.906250
4034,-3.906250
4035,-3.906250
4036,-3.906250
4037,0.000000
4038,0.000000
4039,0.000000
4040,0.000000
4041,3.906250
4042,3.906250
4043,3.906250
4044,3.906250
4045,7.812500
4046,7.812500
4047,7.812500
4048,7.812500
4049,11.718750
4050,11.718750
4051,11.718750
4052,11.718750
4053,15.625000
4054,15.625000
4055,15.625000
4056,15.625000
4057,19.531250
4058,19.531250
4059,19.531250
4060,23.437500
4061,23.437500
4062,23.437500
4063,23.437500
4064,23.437500
4065,27.343750
4066,27.343750
4067,27.343750
4068,27.343750
4069,31.250000
4070,31.250000
4071,31.250000
4072,31.250000
4073,35.156250
4074,35.156250
4075,35.156250
4076,35.156250
4077,39.062500
4078,39.062500
4079,39.062500
4080,39.062500
4081,39.062500
4082,42.968750
4083,42.968750
4084,42.968750
4085,42.968750
4086,46.875000
4087,46.875000
4088,46.875000
4089,46.875000
4090,46.875000
4091,50.781250
4092,50.781250
4093,50.781250
4094,50.781250
4095,54.687500
4096,54.687500
4097,54.687500
4098,54.687500
4099,58.593750
4100,58.593750
4101,58.593750
4102,58.593750
4103,58.593750
4104,62.500000
4105,62.500000
4106,62.500000
4107,62.500000
4108,62.500000
4109,66.406250
4110,66.406250
4111,66.406250
4112,66.406250
4113,70.312500
4114,70.312500
4115,70.312500
4116,70.312500
4117,70.312500
4118,70.312500
4119,74.218750
4120,74.218750
4121,74.218750
4122,74.218750
4123,74.218750
4124,74.218750
4125,78.125000
4126,78.125000
4127,78.125000
4128,78.125000
4129,82.031250
4130,82.031250
4131,82.031250
4132,82.031250
4133,82.031250
4134,82.031250
4135,85.937500
4136,85.937500
4137,85.937500
4138,85.937500
4139,85.937500
4140,85.937500
4141,89.843750
4142,89.843750
4143,89.843750
4144,89.843750
4145,89.843750
4146,89.843750
4147,93.750000
4148,93.750000
4149,93.750000
4150,93.750000
4151,93.750000
4152,93.750000
4153,97.656250
4154,97.656250
4155,97.656250
4156,97.656250
4157,97.656250
4158,97.656250
4159,97.656250
4160,101.562500
4161,101.562500
4162,101.562500
4163,101.562500
4164,101.562500
4165,101.562500
4166,101.562500
4167,101.562500
4168,105.468750
4169,105.468750
4170,105.468750
4171,105.468750
4172,105.468750
4173,109.375000
4174,109.375000
4175,109.375000
4176,109.375000
4177,109.375000
4178,109.375000
4179,109.375000
4180,109.375000
4181,109.375000
4182,109.375000
4183,109.375000
4184,113.281250
4185,113.281250
4186,113.281250
4187,113.281250
4188,113.281250
4189,113.281250
4190,113.281250
4191,113.281250
4192,113.281250
4193,117.187500
4194,117.187500
4195,117.187500
4196,117.187500
4197,117.187500
4198,117.187500
4199,117.187500
4200,117.187500
4201,117.187500
4202,117.187500
4203,121.093750
4204,121.093750
4205,121.093750
4206,121.093750
4207,121.093750
4208,121.093750
4209,121.093750
4210,121.093750
4211,121.093750
4212,121.093750
4213,121.093750
4214,121.093750
4215,121.093750
4216,125.000000
4217,125.000000
4218,125.000000
4219,125.000000
4220,125.000000
4221,125.000000
4222,125.000000
4223,125.000000
4224,125.000000
4225,125.000000
4226,128.906250
4227,128.906250
4228,125.000000
4229,128.906250
4230,128.906250
4231,128.906250
4232,128.906250
4233,128.906250
4234,128.906250
4235,128.906250
4236,128.906250
4237,128.906250
4238,128.906250
4239,128.906250
4240,128.906250
4241,128.906250
4242,128.906250
4243,128.906250
4244,128.906250
4245,128.906250
4246,132.812500
4247,132.812500
4248,132.812500
4249,132.812500
4250,128.906250
4251,132.812500
4252,132.812500
4253,132.812500
4254,132.812500
4255,132.812500
4256,132.812500
4257,132.812500
4258,132.812500
4259,132.812500
4260,132.812500
4261,132.812500
4262,132.812500
4263,132.812500
4264,132.812500
4265,132.812500
4266,132.812500
4267,132.812500
4268,132.812500
4269,132.812500
4270,132.812500
4271,132.812500
4272,132.812500
4273,132.812500
4274,132.812500
4275,132.812500
4276,132.812500
4277,132.812500
4278,132.812500
4279,132.812500
4280,132.812500
4281,132.812500
4282,132.812500
4283,132.812500
4284,132.812500
4285,132.812500
4286,132.812500
4287,132.812500
4288,132.812500
4289,132.812500
4290,132.812500
4291,132.812500
4292,132.812500
4293,132.812500
4294,132.812500
4295,132.812500
4296,132.812500
4297,132.812500
4298,132.812500
4299,132.812500
4300,132.812500
4301,132.812500
4302,132.812500
4303,132.812500
4304,128.906250
4305,132.812500
4306,132.812500
4307,132.812500
4308,132.812500
4309,132.812500
4310,128.906250
4311,128.906250
4312,128.906250
4313,132.812500
4314,128.906250
4315,132.812500
4316,128.906250
4317,128.906250
4318,128.906250
4319,128.906250
4320,128.906250
4321,128.906250
4322,128.906250
4323,128.906250
4324,128.906250
4325,128.906250
4326,128.906250
4327,128.906250
4328,128.906250
4329,128.906250
4330,125.000000
4331,128.906250
4332,125.000000
4333,125.000000
4334,125.000000
4335,125.000000
4336,125.000000
4337,125.000000
4338,125.000000
4339,125.000000
4340,125.000000
4341,125.000000
4342,125.000000
4343,125.000000
4344,125.000000
4345,121.093750
4346,125.000000
4347,121.093750
4348,121.093750
4349,121.093750
4350,121.093750
4351,121.093750
4352,121.093750
4353,121.093750
4354,121.093750
4355,121.093750
4356,121.093750
4357,117.187500
4358,117.187500
4359,117.187500
4360,117.187500
4361,117.187500
4362,117.187500
4363,117.187500
4364,117.187500
4365,117.187500
4366,113.281250
4367,117.187500
4368,113.281250
4369,113.281250
4370,113.281250
4371,113.281250
4372,113.281250
4373,113.281250
4374,113.281250
4375,113.281250
4376,109.375000
4377,109.375000
4378,109.375000
4379,109.375000
4380,109.375000
4381,109.375000
4382,109.375000
4383,105.468750
4384,105.468750
4385,105.468750
4386,105.468750
4387,105.468750
4388,105.468750
4389,105.468750
4390,105.468750
4391,105.468750
4392,105.468750
4393,101.562500
4394,101.562500
4395,101.562500
4396,101.562500
4397,101.562500
4398,101.562500
4399,101.562500
4400,97.656250
4401,97.656250
4402,97.656250
4403,97.656250
4404,97.656250
4405,97.656250
4406,93.750000
4407,93.750000
4408,93.750000
4409,93.750000
4410,93.750000
4411,93.750000
4412,89.843750
4413,89.843750
4414,89.843750
4415,89.843750
4416,89.843750
4417,89.843750
4418,85.937500
4419,85.937500
4420,85.937500
4421,85.937500
4422,85.937500
4423,85.937500
4424,82.031250
4425,82.031250
4426,82.031250
4427,82.031250
4428,82.031250
4429,78.125000
4430,78.125000
4431,78.125000
4432,78.125000
4433,78.125000
4434,78.125000
4435,74.218750
4436,74.218750
4437,74.218750
4438,74.218750
4439,74.218750
4440,70.312500
4441,70.312500
4442,70.312500
4443,70.312500
4444,70.312500
4445,70.312500
4446,66.406250
4447,66.406250
4448,66.406250
4449,66.406250
4450,62.500000
4451,62.500000
4452,62.500000
4453,62.500000
4454,58.593750
4455,58.593750
4456,58.593750
4457,58.593750
4458,58.593750
4459,54.687500
4460,54.687500
4461,54.687500
4462,54.687500
4463,54.687500
4464,54.687500
4465,50.781250
4466,50.781250
4467,50.781250
4468,46.875000
4469,50.781250
4470,46.875000
4471,46.875000
4472,42.968750
4473,42.968750
4474,42.968750
4475,42.968750
4476,42.968750
4477,39.062500
4478,39.062500
4479,39.062500
4480,39.062500
4481,35.156250
4482,35.156250
4483,35.156250
4484,35.156250
4485,31.250000
4486,31.250000
4487,31.250000
4488,31.250000
4489,31.250000
4490,27.343750
4491,27.343750
4492,27.343750
4493,27.343750
4494,23.437500
4495,23.437500
4496,23.437500
4497,23.437500
4498,23.437500
4499,19.531250
4500,19.531250
4501,19.531250
4502,19.531250
4503,15.625000
4504,15.625000
4505,15.625000
4506,15.625000
4507,11.718750
4508,11.718750
4509,11.718750
4510,7.812500
4511,7.812500
4512,7.812500
4513,7.812500
4514,3.906250
4515,3.906250
4516,3.906250
4517,3.906250
4518,0.000000
4519,0.000000
4520,0.000000
4521,0.000000
4522,-3.906250
4523,-3.906250
4524,-3.906250
4525,-3.906250
4526,-7.812500
4527,-7.812500
4528,-7.812500
4529,-7.812500
4530,-11.718750
4531,-11.718750
4532,-11.718750
4533,-11.718750
4534,-15.625000
4535,-15.625000
4536,-15.625000
4537,-15.625000
4538,-19.531250
4539,-19.531250
4540,-19.531250
4541,-19.531250
4542,-23.437500
4543,-23.437500
4544,-27.343750
4545,-27.343750
4546,-27.343750
4547,-27.343750
4548,-27.343750
4549,-31.250000
4550,-31.250000
4551,-31.250000
4552,-31.250000
4553,-35.156250
4554,-35.156250
4555,-35.156250
4556,-39.062500
4557,-39.062500
4558,-39.062500
4559,-39.062500
4560,-42.968750
4561,-42.968750
4562,-42.968750
4563,-42.968750
4564,-46.875000
4565,-46.875000
4566,-46.875000
4567,-50.781250
4568,-50.781250
4569,-50.781250
4570,-50.781250
4571,-50.781250
4572,-54.687500
4573,-54.687500
4574,-54.687500
4575,-54.687500
4576,-58.593750
4577,-58.593750
4578,-62.500000
4579,-62.500000
4580,-62.500000
4581,-62.500000
4582,-66.406250
4583,-66.406250
4584,-66.406250
4585,-66.406250
4586,-66.406250
4587,-70.312500
4588,-70.312500
4589,-70.312500
4590,-74.218750
4591,-74.218750
4592,-74.218750
4593,-74.218750
4594,-74.218750
4595,-78.125000
4596,-78.125000
4597,-78.125000
4598,-82.031250
4599,-82.031250
4600,-82.031250
4601,-82.031250
4602,-85.937500
4603,-85.937500
4604,-85.937500
4605,-85.937500
4606,-85.937500
4607,-89.843750
4608,-89.843750
4609,-89.843750
4610,-93.750000
4611,-93.750000
4612,-93.750000
4613,-93.750000
4614,-93.750000
4615,-97.656250
4616,-97.656250
4617,-97.656250
4618,-97.656250
4619,-101.562500
4620,-101.562500
4621,-101.562500
4622,-101.562500
4623,-105.468750
4624,-105.468750
4625,-105.468750
4626,-105.468750
4627,-105.468750
4628,-109.375000
4629,-109.375000
4630,-109.375000
4631,-113.281250
4632,-113.281250
4633,-113.281250
4634,-117.187500
4635,-113.281250
4636,-113.281250
4637,-117.187500
4638,-117.187500
4639,-117.187500
4640,-121.093750
4641,-121.093750
4642,-121.093750
4643,-121.093750
4644,-121.093750
4645,-121.093750
4646,-125.000000
4647,-125.000000
4648,-125.000000
4649,-125.000000
4650,-125.000000
4651,-128.906250
4652,-128.906250
4653,-128.906250
4654,-128.906250
4655,-132.812500
4656,-132.812500
4657,-132.812500
4658,-132.812500
4659,-132.812500
4660,-132.812500
4661,-136.718750
4662,-136.718750
4663,-136.718750
4664,-136.718750
4665,-136.718750
4666,-140.625000
4667,-140.625000
4668,-140.625000
4669,-140.625000
4670,-140.625000
4671,-144.531250
4672,-144.531250
4673,-144.531250
4674,-144.531250
4675,-144.531250
4676,-144.531250
4677,-148.437500
4678,-148.437500
4679,-148.437500
4680,-148.437500
4681,-148.437500
4682,-148.437500
4683,-148.437500
4684,-152.343750
4685,-152.343750
4686,-152.343750
4687,-152.343750
4688,-152.343750
4689,-152.343750
4690,-156.250000
4691,-156.250000
4692,-156.250000
4693,-156.250000
4694,-156.250000
4695,-156.250000
4696,-160.156250
4697,-160.156250
4698,-160.156250
4699,-160.156250
4700,-160.156250
4701,-160.156250
4702,-160.156250
4703,-160.156250
4704,-164.062500
4705,-164.062500
4706,-164.062500
4707,-164.062500
4708,-164.062500
4709,-164.062500
4710,-167.968750
4711,-167.968750
4712,-167.968750
4713,-167.968750
4714,-167.968750
4715,-167.968750
4716,-167.968750
4717,-167.968750
4718,-167.968750
4719,-167.968750
4720,-167.968750
4721,-167.968750
4722,-171.875000
4723,-171.875000
4724,-171.875000
4725,-171.875000
4726,-171.875000
4727,-171.875000
4728,-171.875000
4729,-171.875000
4730,-171.875000
4731,-171.875000
4732,-175.781250
4733,-175.781250
4734,-175.781250
4735,-171.875000
4736,-175.781250
4737,-175.781250
4738,-175.781250
4739,-175.781250
4740,-175.781250
4741,-175.781250
4742,-175.781250
4743,-175.781250
4744,-175.781250
4745,-175.781250
4746,-175.781250
4747,-175.781250
4748,-175.781250
4749,-179.687500
4750,-179.687500
4751,-179.687500
4752,-179.687500
4753,-175.781250
4754,-179.687500
4755,-179.687500
4756,-179.687500
4757,-179.687500
4758,-179.687500
4759,-179.687500
4760,-179.687500
4761,-179.687500
4762,-179.687500
4763,-179.687500
4764,-179.687500
4765,-179.687500
4766,-179.687500
4767,-179.687500
4768,-179.687500
4769,-179.687500
4770,-179.687500
4771,-179.687500
4772,-179.687500
4773,-179.687500
4774,-179.687500
4775,-179.687500
4776,-179.687500
4777,-179.687500
4778,-179.687500
4779,-179.687500
4780,-179.687500
4781,-179.687500
4782,-179.687500
4783,-179.687500
4784,-179.687500
4785,-179.687500
4786,-179.687500
4787,-179.687500
4788,-179.687500
4789,-179.687500
4790,-179.687500
4791,-179.687500
4792,-179.687500
4793,-179.687500
4794,-179.687500
4795,-179.687500
4796,-179.687500
4797,-179.687500
4798,-179.687500
4799,-175.781250
4800,-179.687500
4801,-175.781250
4802,-175.781250
4803,-175.781250
4804,-175.781250
4805,-175.781250
4806,-175.781250
4807,-175.781250
4808,-175.781250
4809,-175.781250
4810,-175.781250
4811,-175.781250
4812,-175.781250
4813,-171.875000
4814,-175.781250
4815,-175.781250
4816,-171.875000
4817,-171.875000
4818,-171.875000
4819,-171.875000
4820,-171.875000
4821,-171.875000
4822,-171.875000
4823,-171.875000
4824,-171.875000
4825,-171.875000
4826,-171.875000
4827,-171.875000
4828,-167.968750
4829,-167.968750
4830,-167.968750
4831,-167.968750
4832,-167.968750
4833,-167.968750
4834,-167.968750
4835,-167.968750
4836,-167.968750
4837,-167.968750
4838,-164.062500
4839,-164.062500
4840,-164.062500
4841,-164.062500
4842,-164.062500
4843,-160.156250
4844,-164.062500
4845,-160.156250
4846,-160.156250
4847,-160.156250
4848,-160.156250
4849,-160.156250
4850,-160.156250
4851,-160.156250
4852,-160.156250
4853,-156.250000
4854,-156.250000
4855,-156.250000
4856,-156.250000
4857,-156.250000
4858,-156.250000
4859,-152.343750
4860,-152.343750
4861,-152.343750
4862,-152.343750
4863,-152.343750
4864,-152.343750
4865,-152.343750
4866,-148.437500
4867,-148.437500
4868,-148.437500
4869,-148.437500
4870,-148.437500
4871,-148.437500
4872,-144.531250
4873,-144.531250
4874,-144.531250
4875,-144.531250
4876,-144.531250
4877,-144.531250
4878,-140.625000
4879,-140.625000
4880,-140.625000
4881,-140.625000
4882,-140.625000
4883,-140.625000
4884,-136.718750
4885,-136.718750
4886,-136.718750
4887,-132.812500
4888,-132.812500
4889,-132.812500
4890,-132.812500
4891,-132.812500
4892,-132.812500
4893,-128.906250
4894,-128.906250
4895,-128.906250
4896,-128.906250
4897,-128.906250
4898,-125.000000
4899,-125.000000
4900,-125.000000
4901,-125.000000
4902,-125.000000
4903,-121.093750
4904,-121.093750
4905,-121.093750
4906,-121.093750
4907,-121.093750
4908,-117.187500
4909,-117.187500
4910,-117.187500
4911,-113.281250
4912,-113.281250
4913,-113.281250
4914,-113.281250
4915,-113.281250
4916,-109.375000
4917,-109.375000
4918,-109.375000
4919,-109.375000
4920,-109.375000
4921,-105.468750
4922,-105.468750
4923,-105.468750
4924,-105.468750
4925,-101.562500
4926,-101.562500
4927,-101.562500
4928,-101.562500
4929,-97.656250
4930,-97.656250
4931,-97.656250
4932,-97.656250
4933,-97.656250
4934,-93.750000
4935,-93.750000
4936,-93.750000
4937,-93.750000
4938,-89.843750
4939,-89.843750
4940,-89.843750
4941,-89.843750
4942,-89.843750
4943,-85.937500
4944,-85.937500
4945,-85.937500
4946,-82.031250
4947,-82.031250
4948,-82.031250
4949,-82.031250
4950,-82.031250
4951,-78.125000
4952,-78.125000
4953,-74.218750
4954,-74.218750
4955,-74.218750
4956,-74.218750
4957,-74.218750
4958,-70.312500
4959,-70.312500
4960,-70.312500
4961,-66.406250
4962,-66.406250
4963,-66.406250
4964,-66.406250
4965,-62.500000
4966,-62.500000
4967,-62.500000
4968,-62.500000
4969,-62.500000
4970,-58.593750
4971,-58.593750
4972,-58.593750
4973,-54.687500
4974,-54.687500
4975,-54.687500
4976,-54.687500
4977,-50.781250
4978,-50.781250
4979,-50.781250
4980,-50.781250
4981,-46.875000
4982,-46.875000
4983,-46.875000
4984,-42.968750
4985,-42.968750
4986,-42.968750
4987,-42.968750
4988,-39.062500
4989,-39.062500
4990,-39.062500
4991,-39.062500
4992,-35.156250
4993,-35.156250
4994,-35.156250
4995,-31.250000
4996,-31.250000
4997,-31.250000
4998,-31.250000
4999,-31.250000
5000,-27.343750
5001,-27.343750
5002,-27.343750
5003,-23.437500
5004,-23.437500
5005,-23.437500
5006,-23.437500
5007,-19.531250
5008,-19.531250
5009,-19.531250
5010,-19.531250
5011,-15.625000
5012,-15.625000
5013,-15.625000
5014,-11.718750
5015,-11.718750
5016,-15.625000
5017,-11.718750
5018,-11.718750
5019,-7.812500
5020,-7.812500
5021,-7.812500
5022,-7.812500
5023,-3.906250
5024,-3.906250
5025,0.000000
5026,0.000000
5027,0.000000
5028,0.000000
5029,0.000000
5030,0.000000
5031,3.906250
5032,3.906250
5033,7.812500
5034,7.812500
5035,7.812500
5036,7.812500
5037,11.718750
5038,11.718750
5039,11.718750
5040,11.718750
5041,15.625000
5042,15.625000
5043,15.625000
5044,15.625000
5045,15.625000
5046,19.531250
5047,19.531250
5048,19.531250
5049,23.437500
5050,23.437500
5051,23.437500
5052,23.437500
5053,23.437500
5054,23.437500
5055,27.343750
5056,27.343750
5057,27.343750
5058,31.250000
5059,31.250000
5060,31.250000
5061,31.250000
5062,35.156250
5063,35.156250
5064,35.156250
5065,35.156250
5066,35.156250
5067,39.062500
5068,39.062500
5069,39.062500
5070,39.062500
5071,42.968750
5072,42.968750
5073,42.968750
5074,42.968750
5075,42.968750
5076,46.875000
5077,46.875000
5078,46.875000
5079,46.875000
5080,50.781250
5081,50.781250
5082,50.781250
5083,54.687500
5084,54.687500
5085,54.687500
5086,54.687500
5087,54.687500
5088,54.687500
5089,58.593750
5090,58.593750
5091,58.593750
5092,58.593750
5093,58.593750
5094,62.500000
5095,62.500000
5096,62.500000
5097,62.500000
5098,62.500000
5099,66.406250
5100,66.406250
5101,66.406250
5102,66.406250
5103,66.406250
5104,70.312500
5105,70.312500
5106,70.312500
5107,70.312500
5108,70.312500
5109,74.218750
5110,74.218750
5111,74.218750
5112,74.218750
5113,74.218750
5114,74.218750
5115,78.125000
5116,78.125000
5117,78.125000
5118,78.125000
5119,82.031250
5120,82.031250
5121,82.031250
5122,82.031250
5123,82.031250
5124,82.031250
5125,85.937500
5126,85.937500
5127,85.937500
5128,85.937500
5129,85.937500
5130,85.937500
5131,89.843750
5132,89.843750
5133,89.843750
5134,89.843750
5135,89.843750
5136,89.843750
5137,89.843750
5138,93.750000
5139,93.750000
5140,93.750000
5141,93.750000
5142,93.750000
5143,97.656250
5144,93.750000
5145,97.656250
5146,97.656250
5147,97.656250
5148,97.656250
5149,97.656250
5150,101.562500
5151,97.656250
5152,101.562500
5153,101.562500
5154,101.562500
5155,101.562500
5156,101.562500
5157,105.468750
5158,105.468750
5159,105.468750
5160,105.468750
5161,105.468750
5162,105.468750
5163,105.468750
5164,109.375000
5165,109.375000
5166,109.375000
5167,109.375000
5168,109.375000
5169,109.375000
5170,109.375000
5171,109.375000
5172,113.281250
5173,113.281250
5174,113.281250
5175,113.281250
5176,113.281250
5177,113.281250
5178,113.281250
5179,113.281250
5180,113.281250
5181,117.187500
5182,113.281250
5183,117.187500
5184,117.187500
5185,117.187500
5186,117.187500
5187,117.187500
5188,117.187500
5189,121.093750
5190,117.187500
5191,117.187500
5192,117.187500
5193,121.093750
5194,121.093750
5195,121.093750
5196,121.093750
5197,121.093750
5198,121.093750
5199,121.093750
5200,121.093750
5201,125.000000
5202,121.093750
5203,121.093750
5204,125.000000
5205,125.000000
5206,125.000000
5207,125.000000
5208,125.000000
5209,125.000000
5210,125.000000
5211,125.000000
5212,125.000000
5213,128.906250
5214,125.000000
5215,128.906250
5216,125.000000
5217,128.906250
5218,128.906250
5219,128.906250
5220,128.906250
5221,128.906250
5222,128.906250
5223,128.906250
5224,128.906250
5225,128.906250
5226,128.906250
5227,128.906250
5228,128.906250
5229,128.906250
5230,128.906250
5231,132.812500
5232,128.906250
5233,128.906250
5234,132.812500
5235,132.812500
5236,128.906250
5237,132.812500
5238,132.812500
5239,132.812500
5240,132.812500
5241,132.812500
5242,132.812500
5243,132.812500
5244,132.812500
5245,132.812500
5246,132.812500
5247,132.812500
5248,132.812500
5249,132.812500
5250,132.812500
5251,132.812500
5252,132.812500
5253,132.812500
5254,132.812500
5255,132.812500
5256,132.812500
5257,132.812500
5258,132.812500
5259,132.812500
5260,132.812500
5261,132.812500
5262,132.812500
5263,132.812500
5264,132.812500
5265,132.812500
5266,132.812500
5267,132.812500
5268,132.812500
5269,132.812500
5270,132.812500
5271,132.812500
5272,132.812500
5273,132.812500
5274,132.812500
5275,132.812500
5276,132.812500
5277,132.812500
5278,132.812500
5279,132.812500
5280,132.812500
5281,132.812500
5282,132.812500
5283,132.812500
5284,132.812500
5285,132.812500
5286,132.812500
5287,132.812500
5288,132.812500
5289,132.812500
5290,132.812500
5291,132.812500
5292,132.812500
5293,132.812500
5294,132.812500
5295,132.812500
5296,132.812500
5297,132.812500
5298,132.812500
5299,132.812500
5300,132.812500
5301,132.812500
5302,132.812500
5303,132.812500
5304,128.906250
5305,128.906250
5306,128.906250
5307,132.812500
5308,128.906250
5309,128.906250
5310,128.906250
5311,128.906250
5312,128.906250
5313,128.906250
5314,128.906250
5315,128.906250
5316,128.906250
5317,128.906250
5318,128.906250
5319,128.906250
5320,128.906250
5321,128.906250
5322,125.000000
5323,128.906250
5324,125.000000
5325,125.000000
5326,125.000000
5327,125.000000
5328,125.000000
5329,125.000000
5330,125.000000
5331,125.000000
5332,125.000000
5333,125.000000
5334,125.000000
5335,121.093750
5336,121.093750
5337,121.093750
5338,121.093750
5339,121.093750
5340,121.093750
5341,121.093750
5342,121.093750
5343,121.093750
5344,121.093750
5345,121.093750
5346,117.187500
5347,117.187500
5348,117.187500
5349,117.187500
5350,117.187500
5351,117.187500
5352,117.187500
5353,117.187500
5354,117.187500
5355,117.187500
5356,113.281250
5357,113.281250
5358,113.281250
5359,113.281250
5360,113.281250
5361,113.281250
5362,113.281250
5363,113.281250
5364,109.375000
5365,109.375000
5366,109.375000
5367,109.375000
5368,109.375000
5369,109.375000
5370,109.375000
5371,109.375000
5372,109.375000
5373,105.468750
5374,105.468750
5375,105.468750
5376,105.468750
5377,105.468750
5378,105.468750
5379,105.468750
5380,105.468750
5381,105.468750
5382,101.562500
5383,101.562500
5384,101.562500
5385,101.562500
5386,101.562500
5387,101.562500
5388,97.656250
5389,97.656250
5390,97.656250
5391,97.656250
5392,97.656250
5393,97.656250
5394,93.750000
5395,97.656250
5396,93.750000
5397,93.750000
5398,93.750000
5399,93.750000
5400,93.750000
5401,89.843750
5402,89.843750
5403,89.843750
5404,89.843750
5405,89.843750
5406,89.843750
5407,89.843750
5408,85.937500
5409,85.937500
5410,85.937500
5411,85.937500
5412,85.937500
5413,85.937500
5414,82.031250
5415,82.031250
5416,82.031250
5417,82.031250
5418,82.031250
5419,78.125000
5420,78.125000
5421,78.125000
5422,78.125000
5423,78.125000
5424,78.125000
5425,74.218750
5426,74.218750
5427,74.218750
5428,74.218750
5429,74.218750
5430,70.312500
5431,70.312500
5432,70.312500
5433,70.312500
5434,70.312500
5435,70.312500
5436,66.406250
5437,66.406250
5438,66.406250
5439,66.406250
5440,62.500000
5441,62.500000
5442,62.500000
5443,62.500000
5444,62.500000
5445,58.593750
5446,58.593750
5447,58.593750
5448,58.593750
5449,54.687500
5450,54.687500
5451,54.687500
5452,54.687500
5453,54.687500
5454,54.687500
5455,50.781250
5456,50.781250
5457,50.781250
5458,50.781250
5459,46.875000
5460,46.875000
5461,46.875000
5462,46.875000
5463,46.875000
5464,42.968750
5465,42.968750
5466,42.968750
5467,39.062500
5468,39.062500
5469,39.062500
5470,39.062500
5471,39.062500
5472,35.156250
5473,35.156250
5474,35.156250
5475,35.156250
5476,31.250000
5477,31.250000
5478,31.250000
5479,27.343750
5480,27.343750
5481,27.343750
5482,27.343750
5483,27.343750
5484,23.437500
5485,23.437500
5486,23.437500
5487,23.437500
5488,19.531250
5489,19.531250
5490,19.531250
5491,19.531250
5492,15.625000
5493,15.625000
5494,15.625000
5495,15.625000
5496,11.718750
5497,11.718750
5498,11.718750
5499,11.718750
5500,7.812500
5501,7.812500
5502,7.812500
5503,7.812500
5504,3.906250
5505,3.906250
5506,3.906250
5507,0.000000
5508,0.000000
5509,0.000000
5510,0.000000
5511,0.000000
5512,-3.906250
5513,-3.906250
5514,-3.906250
5515,-3.906250
5516,-7.812500
5517,-7.812500
5518,-7.812500
5519,-11.718750
5520,-11.718750
5521,-11.718750
5522,-11.718750
5523,-15.625000
5524,-15.625000
5525,-15.625000
5526,-15.625000
5527,-19.531250
5528,-19.531250
5529,-19.531250
5530,-19.531250
5531,-23.437500
5532,-23.437500
5533,-23.437500
5534,-27.343750
5535,-27.343750
5536,-27.343750
5537,-27.343750
5538,-27.343750
5539,-31.250000
5540,-31.250000
5541,-35.156250
5542,-35.156250
5543,-35.156250
5544,-35.156250
5545,-35.156250
5546,-35.156250
5547,-39.062500
5548,-39.062500
5549,-42.968750
5550,-42.968750
5551,-42.968750
5552,-42.968750
5553,-42.968750
5554,-46.875000
5555,-46.875000
5556,-46.875000
5557,-46.875000
5558,-50.781250
5559,-50.781250
5560,-50.781250
5561,-54.687500
5562,-54.687500
5563,-54.687500
5564,-54.687500
5565,-54.687500
5566,-58.593750
5567,-58.593750
5568,-58.593750
5569,-62.500000
5570,-62.500000
5571,-62.500000
5572,-62.500000
5573,-66.406250
5574,-66.406250
5575,-66.406250
5576,-70.312500
5577,-70.312500
5578,-70.312500
5579,-70.312500
5580,-74.218750
5581,-74.218750
5582,-74.218750
5583,-74.218750
5584,-78.125000
5585,-78.125000
5586,-78.125000
5587,-78.125000
5588,-82.031250
5589,-82.031250
5590,-82.031250
5591,-82.031250
5592,-85.937500
5593,-85.937500
5594,-85.937500
5595,-85.937500
5596,-89.843750
5597,-89.843750
5598,-89.843750
5599,-89.843750
5600,-93.750000
5601,-93.750000
5602,-93.750000
5603,-93.750000
5604,-97.656250
5605,-97.656250
5606,-97.656250
5607,-97.656250
5608,-97.656250
5609,-101.562500
5610,-101.562500
5611,-101.562500
5612,-105.468750
5613,-105.468750
5614,-105.468750
5615,-105.468750
5616,-105.468750
5617,-109.375000
5618,-109.375000
5619,-109.375000
5620,-109.375000
5621,-113.281250
5622,-113.281250
5623,-113.281250
5624,-113.281250
5625,-117.187500
5626,-117.187500
5627,-117.187500
5628,-117.187500
5629,-117.187500
5630,-117.187500
5631,-121.093750
5632,-121.093750
5633,-121.093750
5634,-125.000000
5635,-125.000000
5636,-125.000000
5637,-125.000000
5638,-125.000000
5639,-125.000000
5640,-125.000000
5641,-128.906250
5642,-128.906250
5643,-128.906250
5644,-132.812500
5645,-132.812500
5646,-132.812500
5647,-132.812500
5648,-132.812500
5649,-132.812500
5650,-132.812500
5651,-136.718750
5652,-136.718750
5653,-136.718750
5654,-136.718750
5655,-140.625000
5656,-140.625000
5657,-140.625000
5658,-140.625000
5659,-140.625000
5660,-140.625000
5661,-144.531250
5662,-144.531250
5663,-144.531250
5664,-144.531250
5665,-144.531250
5666,-148.437500
5667,-148.437500
5668,-148.437500
5669,-148.437500
5670,-148.437500
5671,-148.437500
5672,-148.437500
5673,-152.343750
5674,-152.343750
5675,-152.343750
5676,-152.343750
5677,-152.343750
5678,-152.343750
5679,-156.250000
5680,-156.250000
5681,-156.250000
5682,-156.250000
5683,-156.250000
5684,-156.250000
5685,-156.250000
5686,-160.156250
5687,-160.156250
5688,-160.156250
5689,-160.156250
5690,-160.156250
5691,-160.156250
5692,-160.156250
5693,-160.156250
5694,-160.156250
5695,-164.062500
5696,-164.062500
5697,-164.062500
5698,-164.062500
5699,-164.062500
5700,-164.062500
5701,-164.062500
5702,-167.968750
5703,-167.968750
5704,-167.968750
5705,-167.968750
5706,-167.968750
5707,-167.968750
5708,-167.968750
5709,-167.968750
5710,-167.968750
5711,-171.875000
5712,-171.875000
5713,-171.875000
5714,-171.875000
5715,-171.875000
5716,-171.875000
5717,-171.875000
5718,-171.875000
5719,-171.875000
5720,-171.875000
5721,-171.875000
5722,-171.875000
5723,-175.781250
5724,-175.781250
5725,-175.781250
5726,-175.781250
5727,-175.781250
5728,-175.781250
5729,-175.781250
5730,-175.781250
5731,-175.781250
5732,-175.781250
5733,-175.781250
5734,-175.781250
5735,-175.781250
5736,-175.781250
5737,-175.781250
5738,-179.687500
5739,-179.687500
5740,-179.687500
5741,-179.687500
5742,-179.687500
5743,-179.687500
5744,-179.687500
5745,-179.687500
5746,-179.687500
5747,-179.687500
5748,-179.687500
5749,-179.687500
5750,-179.687500
5751,-179.687500
5752,-179.687500
5753,-179.687500
5754,-179.687500
5755,-179.687500
5756,-179.687500
5757,-179.687500
5758,-179.687500
5759,-179.687500
5760,-179.687500
5761,-179.687500
5762,-179.687500
5763,-179.687500
5764,-179.687500
5765,-179.687500
5766,-179.687500
5767,-179.687500
5768,-179.687500
5769,-179.687500
5770,-179.687500
5771,-179.687500
5772,-179.687500
5773,-179.687500
5774,-179.687500
5775,-179.687500
5776,-179.687500
5777,-179.687500
5778,-179.687500
5779,-179.687500
5780,-179.687500
5781,-179.687500
5782,-179.687500
5783,-179.687500
5784,-179.687500
5785,-175.781250
5786,-179.687500
5787,-179.687500
5788,-179.687500
5789,-175.781250
5790,-175.781250
5791,-175.781250
5792,-175.781250
5793,-175.781250
5794,-175.781250
5795,-175.781250
5796,-175.781250
5797,-175.781250
5798,-175.781250
5799,-175.781250
5800,-175.781250
5801,-175.781250
5802,-175.781250
5803,-171.875000
5804,-171.875000
5805,-175.781250
5806,-171.875000
5807,-171.875000
5808,-171.875000
5809,-171.875000
5810,-171.875000
5811,-171.875000
5812,-171.875000
5813,-171.875000
5814,-171.875000
5815,-171.875000
5816,-167.968750
5817,-167.968750
5818,-167.968750
5819,-167.968750
5820,-167.968750
5821,-167.968750
5822,-167.968750
5823,-167.968750
5824,-167.968750
5825,-167.968750
5826,-164.062500
5827,-164.062500
5828,-164.062500
5829,-164.062500
5830,-164.062500
5831,-164.062500
5832,-164.062500
5833,-164.062500
5834,-160.156250
5835,-160.156250
5836,-160.156250
5837,-160.156250
5838,-160.156250
5839,-160.156250
5840,-160.156250
5841,-156.250000
5842,-160.156250
5843,-156.250000
5844,-156.250000
5845,-156.250000
5846,-156.250000
5847,-156.250000
5848,-152.343750
5849,-152.343750
5850,-152.343750
5851,-152.343750
5852,-152.343750
5853,-152.343750
5854,-152.343750
5855,-148.437500
5856,-148.437500
5857,-148.437500
5858,-148.437500
5859,-148.437500
5860,-148.437500
5861,-144.531250
5862,-144.531250
5863,-144.531250
5864,-144.531250
5865,-144.531250
5866,-144.531250
5867,-144.531250
5868,-140.625000
5869,-140.625000
5870,-140.625000
5871,-140.625000
5872,-140.625000
5873,-136.718750
5874,-136.718750
5875,-136.718750
5876,-136.718750
5877,-136.718750
5878,-136.718750
5879,-132.812500
5880,-132.812500
5881,-132.812500
5882,-132.812500
5883,-132.812500
5884,-128.906250
5885,-128.906250
5886,-128.906250
5887,-128.906250
5888,-125.000000
5889,-125.000000
5890,-125.000000
5891,-125.000000
5892,-125.000000
5893,-121.093750
5894,-121.093750
5895,-121.093750
5896,-121.093750
5897,-117.187500
5898,-117.187500
5899,-117.187500
5900,-117.187500
5901,-117.187500
5902,-113.281250
5903,-113.281250
5904,-113.281250
5905,-113.281250
5906,-109.375000
5907,-109.375000
5908,-109.375000
5909,-109.375000
5910,-109.375000
5911,-105.468750
5912,-105.468750
5913,-105.468750
5914,-105.468750
5915,-101.562500
5916,-101.562500
5917,-101.562500
5918,-101.562500
5919,-101.562500
5920,-97.656250
5921,-97.656250
5922,-97.656250
5923,-97.656250
5924,-93.750000
5925,-93.750000
5926,-93.750000
5927,-89.843750
5928,-89.843750
5929,-89.843750
5930,-89.843750
5931,-85.937500
5932,-85.937500
5933,-85.937500
5934,-85.937500
5935,-82.031250
5936,-82.031250
5937,-82.031250
5938,-82.031250
5939,-78.125000
5940,-78.125000
5941,-78.125000
5942,-78.125000
5943,-78.125000
5944,-74.218750
5945,-74.218750
5946,-74.218750
5947,-70.312500
5948,-70.312500
5949,-70.312500
5950,-70.312500
5951,-66.406250
5952,-66.406250
5953,-66.406250
5954,-66.406250
5955,-62.500000
5956,-62.500000
5957,-62.500000
5958,-62.500000
5959,-58.593750
5960,-58.593750
5961,-58.593750
5962,-58.593750
5963,-54.687500
5964,-54.687500
5965,-54.687500
5966,-54.687500
5967,-50.781250
5968,-50.781250
5969,-50.781250
5970,-46.875000
5971,-46.875000
5972,-46.875000
5973,-46.875000
5974,-46.875000
5975,-42.968750
5976,-42.968750
5977,-42.968750
5978,-39.062500
5979,-39.062500
5980,-39.062500
5981,-39.062500
5982,-35.156250
5983,-35.156250
5984,-35.156250
5985,-35.156250
5986,-31.250000
5987,-31.250000
5988,-31.250000
5989,-27.343750
5990,-27.343750
5991,-27.343750
5992,-27.343750
5993,-23.437500
5994,-23.437500
5995,-23.437500
5996,-23.437500
5997,-19.531250
5998,-19.531250
5999,-19.531250
6000,-19.531250
6001,-15.625000
6002,-15.625000
6003,-15.625000
6004,-15.625000
6005,-11.718750
6006,-11.718750
6007,-11.718750
6008,-7.812500
6009,-7.812500
6010,-7.812500
6011,-7.812500
6012,-3.906250
6013,-3.906250
6014,-3.906250
6015,-3.906250
6016,-3.906250
6017,0.000000
6018,0.000000
6019,0.000000
6020,0.000000
6021,3.906250
6022,3.906250
6023,3.906250
6024,3.906250
6025,7.812500
6026,7.812500
6027,7.812500
6028,11.718750
6029,11.718750
6030,11.718750
6031,11.718750
6032,15.625000
6033,15.625000
6034,15.625000
6035,15.625000
6036,19.531250
6037,19.531250
6038,19.531250
6039,19.531250
6040,23.437500
6041,23.437500
6042,23.437500
6043,23.437500
6044,27.343750
6045,27.343750
6046,27.343750
6047,27.343750
6048,31.250000
6049,31.250000
6050,31.250000
6051,31.250000
6052,31.250000
6053,35.156250
6054,35.156250
6055,35.156250
6056,39.062500
6057,39.062500
6058,39.062500
6059,39.062500
6060,42.968750
6061,42.968750
6062,42.968750
6063,42.968750
6064,42.968750
6065,42.968750
6066,46.875000
6067,46.875000
6068,46.875000
6069,46.875000
6070,50.781250
6071,50.781250
6072,50.781250
6073,50.781250
6074,54.687500
6075,54.687500
6076,54.687500
6077,54.687500
6078,54.687500
6079,58.593750
6080,58.593750
6081,58.593750
6082,58.593750
6083,62.500000
6084,62.500000
6085,62.500000
6086,62.500000
6087,62.500000
6088,66.406250
6089,66.406250
6090,66.406250
6091,66.406250
6092,66.406250
6093,66.406250
6094,70.312500
6095,70.312500
6096,70.312500
6097,70.312500
6098,70.312500
6099,74.218750
6100,74.218750
6101,74.218750
6102,74.218750
6103,78.125000
6104,78.125000
6105,78.125000
6106,78.125000
6107,78.125000
6108,78.125000
6109,82.031250
6110,82.031250
6111,82.031250
6112,82.031250
6113,82.031250
6114,82.031250
6115,85.937500
6116,85.937500
6117,85.937500
6118,85.937500
6119,85.937500
6120,85.937500
6121,89.843750
6122,89.843750
6123,89.843750
6124,89.843750
6125,89.843750
6126,89.843750
6127,93.750000
6128,93.750000
6129,93.750000
6130,93.750000
6131,93.750000
6132,93.750000
6133,93.750000
6134,97.656250
6135,97.656250
6136,97.656250
6137,97.656250
6138,97.656250
6139,97.656250
6140,97.656250
6141,101.562500
6142,101.562500
6143,101.562500
6144,101.562500
6145,101.562500
6146,101.562500
6147,101.562500
6148,101.562500
6149,105.468750
6150,105.468750
6151,105.468750
6152,105.468750
6153,105.468750
6154,105.468750
6155,109.375000
6156,105.468750
6157,109.375000
6158,109.375000
6159,109.375000
6160,109.375000
6161,109.375000
6162,109.375000
6163,113.281250
6164,113.281250
6165,113.281250
6166,113.281250
6167,113.281250
6168,113.281250
6169,113.281250
6170,113.281250
6171,113.281250
6172,113.281250
6173,117.187500
6174,117.187500
6175,117.187500
6176,117.187500
6177,117.187500
6178,117.187500
6179,117.187500
6180,117.187500
6181,121.093750
6182,121.093750
6183,121.093750
6184,121.093750
6185,121.093750
6186,121.093750
6187,121.093750
6188,121.093750
6189,121.093750
6190,121.093750
6191,125.000000
6192,125.000000
6193,125.000000
6194,125.000000
6195,125.000000
6196,125.000000
6197,125.000000
6198,125.000000
6199,125.000000
6200,125.000000
6201,125.000000
6202,125.000000
6203,125.000000
6204,125.000000
6205,128.906250
6206,128.906250
6207,128.906250
6208,128.906250
6209,128.906250
6210,128.906250
6211,128.906250
6212,128.906250
6213,128.906250
6214,128.906250
6215,128.906250
6216,128.906250
6217,128.906250
6218,128.906250
6219,128.906250
6220,128.906250
6221,128.906250
6222,128.906250
6223,128.906250
6224,128.906250
6225,128.906250
6226,128.906250
6227,132.812500
6228,132.812500
6229,132.812500
6230,132.812500
6231,132.812500
6232,132.812500
6233,132.812500
6234,132.812500
6235,132.812500
6236,132.812500
6237,132.812500
6238,132.812500
6239,132.812500
6240,132.812500
6241,132.812500
6242,132.812500
6243,132.812500
6244,132.812500
6245,132.812500
6246,132.812500
6247,132.812500
6248,132.812500
6249,132.812500
6250,132.812500
6251,132.812500
6252,132.812500
6253,132.812500
6254,132.812500
6255,132.812500
6256,132.812500
6257,132.812500
6258,132.812500
6259,132.812500
6260,132.812500
6261,132.812500
6262,136.718750
6263,132.812500
6264,132.812500
6265,132.812500
6266,132.812500
6267,132.812500
6268,132.812500
6269,132.812500
6270,132.812500
6271,132.812500
6272,132.812500
6273,132.812500
6274,132.812500
6275,132.812500
6276,132.812500
6277,132.812500
6278,132.812500
6279,132.812500
6280,132.812500
6281,132.812500
6282,132.812500
6283,132.812500
6284,132.812500
6285,132.812500
6286,132.812500
6287,132.812500
6288,132.812500
6289,132.812500
6290,132.812500
6291,132.812500
6292,128.906250
6293,128.906250
6294,128.906250
6295,128.906250
6296,128.906250
6297,128.906250
6298,128.906250
6299,128.906250
6300,128.906250
6301,128.906250
6302,128.906250
6303,128.906250
6304,128.906250
6305,128.906250
6306,128.906250
6307,128.906250
6308,128.906250
6309,128.906250
6310,128.906250
6311,128.906250
6312,128.906250
6313,125.000000
6314,125.000000
6315,125.000000
6316,125.000000
6317,125.000000
6318,125.000000
6319,125.000000
6320,125.000000
6321,125.000000
6322,125.000000
6323,125.000000
6324,125.000000
6325,125.000000
6326,121.093750
6327,121.093750
6328,121.093750
6329,121.093750
6330,121.093750
6331,121.093750
6332,121.093750
6333,121.093750
6334,121.093750
6335,121.093750
6336,121.093750
6337,121.093750
6338,117.187500
6339,117.187500
6340,117.187500
6341,117.187500
6342,117.187500
6343,117.187500
6344,117.187500
6345,117.187500
6346,117.187500
6347,117.187500
6348,113.281250
6349,113.281250
6350,113.281250
6351,113.281250
6352,113.281250
6353,113.281250
6354,113.281250
6355,109.375000
6356,109.375000
6357,109.375000
6358,109.375000
6359,109.375000
6360,109.375000
6361,109.375000
6362,109.375000
6363,109.375000
6364,105.468750
6365,105.468750
6366,105.468750
6367,105.468750
6368,105.468750
6369,105.468750
6370,105.468750
6371,105.468750
6372,101.562500
6373,101.562500
6374,101.562500
6375,101.562500
6376,101.562500
6377,101.562500
6378,97.656250
6379,97.656250
6380,97.656250
6381,97.656250
6382,97.656250
6383,97.656250
6384,97.656250
6385,93.750000
6386,93.750000
6387,93.750000
6388,93.750000
6389,93.750000
6390,89.843750
6391,89.843750
6392,89.843750
6393,89.843750
6394,89.843750
6395,89.843750
6396,85.937500
6397,89.843750
6398,85.937500
6399,85.937500
6400,85.937500
6401,85.937500
6402,85.937500
6403,82.031250
6404,82.031250
6405,82.031250
6406,82.031250
6407,82.031250
6408,82.031250
6409,78.125000
6410,78.125000
6411,78.125000
6412,78.125000
6413,74.218750
6414,74.218750
6415,74.218750
6416,74.218750
6417,74.218750
6418,70.312500
6419,70.312500
6420,70.312500
6421,70.312500
6422,70.312500
6423,70.312500
6424,70.312500
6425,66.406250
6426,66.406250
6427,66.406250
6428,62.500000
6429,62.500000
6430,62.500000
6431,62.500000
6432,62.500000
6433,62.500000
6434,58.593750
6435,58.593750
6436,58.593750
6437,58.593750
6438,58.593750
6439,58.593750
6440,54.687500
6441,54.687500
6442,50.781250
6443,54.687500
6444,50.781250
6445,50.781250
6446,50.781250
6447,50.781250
6448,46.875000
6449,46.875000
6450,46.875000
6451,46.875000
6452,46.875000
6453,42.968750
6454,42.968750
6455,42.968750
6456,39.062500
6457,39.062500
6458,39.062500
6459,39.062500
6460,39.062500
6461,39.062500
6462,35.156250
6463,35.156250
6464,35.156250
6465,35.156250
6466,31.250000
6467,31.250000
6468,31.250000
6469,27.343750
6470,27.343750
6471,27.343750
6472,27.343750
6473,27.343750
6474,23.437500
6475,23.437500
6476,23.437500
6477,19.531250
6478,19.531250
6479,19.531250
6480,19.531250
6481,19.531250
6482,15.625000
6483,15.625000
6484,15.625000
6485,11.718750
6486,11.718750
6487,11.718750
6488,11.718750
6489,11.718750
6490,7.812500
6491,7.812500
6492,7.812500
6493,3.906250
6494,3.906250
6495,3.906250
6496,3.906250
6497,3.906250
6498,0.000000
6499,0.000000
6500,0.000000
6501,0.000000
6502,-3.906250
6503,-3.906250
6504,-3.906250
6505,-7.812500
6506,-7.812500
6507,-7.812500
6508,-7.812500
6509,-7.812500
6510,-11.718750
6511,-11.718750
6512,-11.718750
6513,-15.625000
6514,-15.625000
6515,-15.625000
6516,-19.531250
6517,-19.531250
6518,-19.531250
6519,-19.531250
6520,-23.437500
6521,-23.437500
6522,-23.437500
6523,-23.437500
6524,-23.437500
6525,-27.343750
6526,-27.343750
6527,-27.343750
6528,-31.250000
6529,-31.250000
6530,-31.250000
6531,-35.156250
6532,-35.156250
6533,-35.156250
6534,-35.156250
6535,-35.156250
6536,-39.062500
6537,-39.062500
6538,-39.062500
6539,-39.062500
6540,-42.968750
6541,-42.968750
6542,-42.968750
6543,-46.875000
6544,-46.875000
6545,-46.875000
6546,-46.875000
6547,-46.875000
6548,-50.781250
6549,-50.781250
6550,-50.781250
6551,-54.687500
6552,-54.687500
6553,-54.687500
6554,-54.687500
6555,-58.593750
6556,-58.593750
6557,-58.593750
6558,-58.593750
6559,-62.500000
6560,-62.500000
6561,-62.500000
6562,-66.406250
6563,-66.406250
6564,-66.406250
6565,-66.406250
6566,-66.406250
6567,-70.312500
6568,-70.312500
6569,-70.312500
6570,-70.312500
6571,-74.218750
6572,-74.218750
6573,-74.218750
6574,-78.125000
6575,-78.125000
6576,-78.125000
6577,-78.125000
6578,-82.031250
6579,-82.031250
6580,-82.031250
6581,-82.031250
6582,-85.937500
6583,-85.937500
6584,-85.937500
6585,-85.937500
6586,-85.937500
6587,-89.843750
6588,-93.750000
6589,-89.843750
6590,-93.750000
6591,-93.750000
6592,-93.750000
6593,-93.750000
6594,-97.656250
6595,-97.656250
6596,-97.656250
6597,-97.656250
6598,-101.562500
6599,-101.562500
6600,-101.562500
6601,-101.562500
6602,-101.562500
6603,-105.468750
6604,-105.468750
6605,-105.468750
6606,-105.468750
6607,-105.468750
6608,-109.375000
6609,-109.375000
6610,-109.375000
6611,-109.375000
6612,-113.281250
6613,-113.281250
6614,-117.187500
6615,-113.281250
6616,-117.187500
6617,-117.187500
6618,-117.187500
6619,-117.187500
6620,-117.187500
6621,-121.093750
6622,-121.093750
6623,-121.093750
6624,-121.093750
6625,-125.000000
6626,-125.000000
6627,-125.000000
6628,-125.000000
6629,-125.000000
6630,-128.906250
6631,-128.906250
6632,-128.906250
6633,-128.906250
6634,-132.812500
6635,-132.812500
6636,-132.812500
6637,-132.812500
6638,-132.812500
6639,-132.812500
6640,-136.718750
6641,-136.718750
6642,-136.718750
6643,-136.718750
6644,-136.718750
6645,-140.625000
6646,-140.625000
6647,-140.625000
6648,-140.625000
6649,-140.625000
6650,-144.531250
6651,-144.531250
6652,-144.531250
6653,-144.531250
6654,-144.531250
6655,-144.531250
6656,-148.437500
6657,-148.437500
6658,-148.437500
6659,-148.437500
6660,-148.437500
6661,-148.437500
6662,-152.343750
6663,-148.437500
6664,-152.343750
6665,-152.343750
6666,-152.343750
6667,-152.343750
6668,-156.250000
6669,-156.250000
6670,-156.250000
6671,-156.250000
6672,-156.250000
6673,-156.250000
6674,-156.250000
6675,-156.250000
6676,-160.156250
6677,-160.156250
6678,-160.156250
6679,-160.156250
6680,-160.156250
6681,-160.156250
6682,-164.062500
6683,-164.062500
6684,-164.062500
6685,-164.062500
6686,-164.062500
6687,-164.062500
6688,-164.062500
6689,-164.062500
6690,-167.968750
6691,-167.968750
6692,-167.968750
6693,-167.968750
6694,-167.968750
6695,-167.968750
6696,-167.968750
6697,-167.968750
6698,-167.968750
6699,-167.968750
6700,-167.968750
6701,-167.968750
6702,-171.875000
6703,-171.875000
6704,-171.875000
6705,-171.875000
6706,-171.875000
6707,-171.875000
6708,-171.875000
6709,-171.875000
6710,-171.875000
6711,-171.875000
6712,-171.875000
6713,-171.875000
6714,-175.781250
6715,-175.781250
6716,-175.781250
6717,-175.781250
6718,-175.781250
6719,-175.781250
6720,-175.781250
6721,-175.781250
6722,-175.781250
6723,-175.781250
6724,-175.781250
6725,-175.781250
6726,-175.781250
6727,-175.781250
6728,-175.781250
6729,-179.687500
6730,-175.781250
6731,-179.687500
6732,-179.687500
6733,-179.687500
6734,-179.687500
6735,-179.687500
6736,-179.687500
6737,-179.687500
6738,-179.687500
6739,-179.687500
6740,-179.687500
6741,-179.687500
6742,-179.687500
6743,-179.687500
6744,-179.687500
6745,-179.687500
6746,-179.687500
6747,-179.687500
6748,-179.687500
6749,-179.687500
6750,-179.687500
6751,-179.687500
6752,-179.687500
6753,-179.687500
6754,-179.687500
6755,-179.687500
6756,-179.687500
6757,-179.687500
6758,-179.687500
6759,-179.687500
6760,-179.687500
6761,-179.687500
6762,-179.687500
6763,-179.687500
6764,-179.687500
6765,-179.687500
6766,-179.687500
6767,-179.687500
6768,-179.687500
6769,-179.687500
6770,-179.687500
6771,-179.687500
6772,-179.687500
6773,-179.687500
6774,-175.781250
6775,-175.781250
6776,-179.687500
6777,-175.781250
6778,-179.687500
6779,-179.687500
6780,-175.781250
6781,-175.781250
6782,-175.781250
6783,-175.781250
6784,-175.781250
6785,-175.781250
6786,-175.781250
6787,-175.781250
6788,-175.781250
6789,-175.781250
6790,-175.781250
6791,-175.781250
6792,-175.781250
6793,-175.781250
6794,-171.875000
6795,-171.875000
6796,-171.875000
6797,-171.875000
6798,-171.875000
6799,-171.875000
6800,-171.875000
6801,-171.875000
6802,-171.875000
6803,-171.875000
6804,-171.875000
6805,-171.875000
6806,-171.875000
6807,-167.968750
6808,-167.968750
6809,-167.968750
6810,-167.968750
6811,-167.968750
6812,-167.968750
6813,-167.968750
6814,-167.968750
6815,-164.062500
6816,-164.062500
6817,-164.062500
6818,-164.062500
6819,-164.062500
6820,-164.062500
6821,-164.062500
6822,-164.062500
6823,-160.156250
6824,-160.156250
6825,-160.156250
6826,-160.156250
6827,-160.156250
6828,-160.156250
6829,-160.156250
6830,-160.156250
6831,-156.250000
6832,-156.250000
6833,-156.250000
6834,-156.250000
6835,-156.250000
6836,-156.250000
6837,-152.343750
6838,-152.343750
6839,-156.250000
6840,-152.343750
6841,-152.343750
6842,-152.343750
6843,-148.437500
6844,-148.437500
6845,-148.437500
6846,-148.437500
6847,-148.437500
6848,-148.437500
6849,-148.437500
6850,-144.531250
6851,-144.531250
6852,-144.531250
6853,-144.531250
6854,-144.531250
6855,-144.531250
6856,-140.625000
6857,-140.625000
6858,-140.625000
6859,-140.625000
6860,-140.625000
6861,-140.625000
6862,-136.718750
6863,-136.718750
6864,-136.718750
6865,-132.812500
6866,-132.812500
6867,-132.812500
6868,-132.812500
6869,-132.812500
6870,-132.812500
6871,-132.812500
6872,-128.906250
6873,-128.906250
6874,-128.906250
6875,-128.906250
6876,-125.000000
6877,-125.000000
6878,-125.000000
6879,-125.000000
6880,-125.000000
6881,-121.093750
6882,-121.093750
6883,-121.093750
6884,-121.093750
6885,-121.093750
6886,-117.187500
6887,-117.187500
6888,-117.187500
6889,-117.187500
6890,-117.187500
6891,-113.281250
6892,-113.281250
6893,-113.281250
6894,-113.281250
6895,-113.281250
6896,-109.375000
6897,-109.375000
6898,-109.375000
6899,-105.468750
6900,-105.468750
6901,-105.468750
6902,-105.468750
6903,-105.468750
6904,-105.468750
6905,-101.562500
6906,-101.562500
6907,-101.562500
6908,-101.562500
6909,-97.656250
6910,-97.656250
6911,-97.656250
6912,-97.656250
6913,-93.750000
6914,-93.750000
6915,-93.750000
6916,-93.750000
6917,-89.843750
6918,-89.843750
6919,-89.843750
6920,-89.843750
6921,-85.937500
6922,-85.937500
6923,-85.937500
6924,-85.937500
6925,-82.031250
6926,-82.031250
6927,-82.031250
6928,-82.031250
6929,-78.125000
6930,-82.031250
6931,-78.125000
6932,-78.125000
6933,-74.218750
6934,-74.218750
6935,-74.218750
6936,-70.312500
6937,-70.312500
6938,-70.312500
6939,-70.312500
6940,-70.312500
6941,-66.406250
6942,-66.406250
6943,-66.406250
6944,-66.406250
6945,-62.500000
6946,-62.500000
6947,-62.500000
6948,-62.500000
6949,-58.593750
6950,-58.593750
6951,-54.687500
6952,-54.687500
6953,-54.687500
6954,-54.687500
6955,-50.781250
6956,-50.781250
6957,-50.781250
6958,-50.781250
6959,-50.781250
6960,-46.875000
6961,-46.875000
6962,-46.875000
6963,-46.875000
6964,-42.968750
6965,-42.968750
6966,-42.968750
6967,-39.062500
6968,-39.062500
6969,-39.062500
6970,-39.062500
6971,-35.156250
6972,-35.156250
6973,-35.156250
6974,-35.156250
6975,-31.250000
6976,-31.250000
6977,-31.250000
6978,-31.250000
6979,-27.343750
6980,-27.343750
6981,-27.343750
6982,-27.343750
6983,-23.437500
6984,-23.437500
6985,-23.437500
6986,-19.531250
6987,-19.531250
6988,-19.531250
6989,-19.531250
6990,-19.531250
6991,-15.625000
6992,-15.625000
6993,-11.718750
6994,-11.718750
6995,-11.718750
6996,-11.718750
6997,-11.718750
6998,-7.812500
6999,-7.812500
7000,-7.812500
7001,-3.906250
7002,-3.906250
7003,-3.906250
7004,-3.906250
7005,-3.906250
7006,0.000000
7007,0.000000
7008,0.000000
7009,0.000000
7010,3.906250
7011,3.906250
7012,3.906250
7013,7.812500
7014,7.812500
7015,7.812500
7016,7.812500
7017,11.718750
7018,11.718750
7019,11.718750
7020,11.718750
7021,15.625000
7022,15.625000
7023,15.625000
7024,15.625000
7025,19.531250
7026,19.531250
7027,19.531250
7028,19.531250
7029,23.437500
7030,23.437500
7031,23.437500
7032,23.437500
7033,27.343750
7034,27.343750
7035,27.343750
7036,27.343750
7037,27.343750
7038,31.250000
7039,31.250000
7040,31.250000
7041,35.156250
7042,31.250000
7043,35.156250
7044,35.156250
7045,35.156250
7046,35.156250
7047,39.062500
7048,39.062500
7049,39.062500
7050,39.062500
7051,42.968750
7052,42.968750
7053,42.968750
7054,42.968750
7055,46.875000
7056,46.875000
7057,46.875000
7058,46.875000
7059,50.781250
7060,50.781250
7061,50.781250
7062,50.781250
7063,50.781250
7064,50.781250
7065,54.687500
7066,54.687500
7067,54.687500
7068,54.687500
7069,58.593750
7070,58.593750
7071,58.593750
7072,58.593750
7073,58.593750
7074,62.500000
7075,62.500000
7076,62.500000
7077,62.500000
7078,62.500000
7079,66.406250
7080,66.406250
7081,66.406250
7082,66.406250
7083,70.312500
7084,70.312500
7085,70.312500
7086,70.312500
7087,74.218750
7088,70.312500
7089,74.218750
7090,74.218750
7091,74.218750
7092,74.218750
7093,78.125000
7094,78.125000
7095,78.125000
7096,78.125000
7097,78.125000
7098,78.125000
7099,82.031250
7100,82.031250
7101,82.031250
7102,82.031250
7103,82.031250
7104,82.031250
7105,85.937500
7106,85.937500
7107,85.937500
7108,85.937500
7109,85.937500
7110,89.843750
7111,89.843750
7112,89.843750
7113,89.843750
7114,89.843750
7115,93.750000
7116,93.750000
7117,93.750000
7118,93.750000
7119,93.750000
7120,93.750000
7121,93.750000
7122,93.750000
7123,97.656250
7124,97.656250
7125,97.656250
7126,97.656250
7127,97.656250
7128,97.656250
7129,97.656250
7130,101.562500
7131,101.562500
7132,101.562500
7133,101.562500
7134,101.562500
7135,101.562500
7136,105.468750
7137,105.468750
7138,105.468750
7139,105.468750
7140,105.468750
7141,105.468750
7142,105.468750
7143,109.375000
7144,109.375000
7145,109.375000
7146,109.375000
7147,109.375000
7148,109.375000
7149,109.375000
7150,109.375000
7151,109.375000
7152,113.281250
7153,113.281250
7154,113.281250
7155,113.281250
7156,113.281250
7157,113.281250
7158,113.281250
7159,113.281250
7160,113.281250
7161,113.281250
7162,117.187500
7163,117.187500
7164,117.187500
7165,117.187500
7166,117.187500
7167,117.187500
7168,117.187500
7169,117.187500
7170,117.187500
7171,121.093750
7172,121.093750
7173,121.093750
7174,121.093750
7175,121.093750
7176,121.093750
7177,121.093750
7178,121.093750
7179,121.093750
7180,121.093750
7181,121.093750
7182,121.093750
7183,125.000000
7184,125.000000
7185,125.000000
7186,125.000000
7187,125.000000
7188,125.000000
7189,125.000000
7190,125.000000
7191,125.000000
7192,125.000000
7193,125.000000
7194,125.000000
7195,128.906250
7196,128.906250
7197,128.906250
7198,128.906250
7199,128.906250
7200,128.906250
7201,128.906250
7202,128.906250
7203,128.906250
7204,128.906250
7205,128.906250
7206,128.906250
7207,128.906250
7208,128.906250
7209,128.906250
7210,128.906250
7211,132.812500
7212,128.906250
7213,132.812500
7214,128.906250
7215,132.812500
7216,128.906250
7217,132.812500
7218,132.812500
7219,132.812500
7220,132.812500
7221,132.812500
7222,132.812500
7223,132.812500
7224,132.812500
7225,132.812500
7226,132.812500
7227,132.812500
7228,132.812500
7229,132.812500
7230,132.812500
7231,132.812500
7232,132.812500
7233,132.812500
7234,132.812500
7235,132.812500
7236,132.812500
7237,132.812500
7238,132.812500
7239,132.812500
7240,132.812500
7241,132.812500
7242,132.812500
7243,132.812500
7244,132.812500
7245,132.812500
7246,132.812500
7247,132.812500
7248,132.812500
7249,132.812500
7250,132.812500
7251,132.812500
7252,132.812500
7253,132.812500
7254,132.812500
7255,132.812500
7256,132.812500
7257,132.812500
7258,132.812500
7259,132.812500
7260,132.812500
7261,132.812500
7262,132.812500
7263,132.812500
7264,132.812500
7265,132.812500
7266,132.812500
7267,132.812500
7268,132.812500
7269,132.812500
7270,132.812500
7271,132.812500
7272,132.812500
7273,132.812500
7274,132.812500
7275,132.812500
7276,132.812500
7277,132.812500
7278,132.812500
7279,132.812500
7280,132.812500
7281,132.812500
7282,128.906250
7283,132.812500
7284,128.906250
7285,128.906250
7286,128.906250
7287,132.812500
7288,128.906250
7289,128.906250
7290,128.906250
7291,128.906250
7292,128.906250
7293,128.906250
7294,128.906250
7295,128.906250
7296,128.906250
7297,128.906250
7298,125.000000
7299,128.906250
7300,128.906250
7301,128.906250
7302,128.906250
7303,125.000000
7304,125.000000
7305,125.000000
7306,125.000000
7307,125.000000
7308,125.000000
7309,125.000000
7310,125.000000
7311,125.000000
7312,125.000000
7313,125.000000
7314,121.093750
7315,121.093750
7316,125.000000
7317,121.093750
7318,125.000000
7319,121.093750
7320,121.093750
7321,121.093750
7322,121.093750
7323,121.093750
7324,121.093750
7325,121.093750
7326,121.093750
7327,117.187500
7328,117.187500
7329,117.187500
7330,117.187500
7331,117.187500
7332,117.187500
7333,117.187500
7334,117.187500
7335,117.187500
7336,113.281250
7337,117.187500
7338,113.281250
7339,113.281250
7340,113.281250
7341,113.281250
7342,113.281250
7343,113.281250
7344,113.281250
7345,113.281250
7346,113.281250
7347,109.375000
7348,109.375000
7349,109.375000
7350,109.375000
7351,109.375000
7352,109.375000
7353,109.375000
7354,105.468750
7355,105.468750
7356,105.468750
7357,105.468750
7358,105.468750
7359,105.468750
7360,105.468750
7361,105.468750
7362,101.562500
7363,101.562500
7364,101.562500
7365,101.562500
7366,101.562500
7367,101.562500
7368,101.562500
7369,97.656250
7370,97.656250
7371,97.656250
7372,97.656250
7373,97.656250
7374,97.656250
7375,97.656250
7376,93.750000
7377,93.750000
7378,93.750000
7379,93.750000
7380,93.750000
7381,93.750000
7382,89.843750
7383,89.843750
7384,89.843750
7385,89.843750
7386,85.937500
7387,85.937500
7388,85.937500
7389,85.937500
7390,85.937500
7391,85.937500
7392,85.937500
7393,82.031250
7394,82.031250
7395,82.031250
7396,82.031250
7397,82.031250
7398,78.125000
7399,78.125000
7400,78.125000
7401,78.125000
7402,78.125000
7403,78.125000
7404,78.125000
7405,74.218750
7406,74.218750
7407,74.218750
7408,70.312500
7409,70.312500
7410,70.312500
7411,70.312500
7412,70.312500
7413,70.312500
7414,66.406250
7415,66.406250
7416,66.406250
7417,66.406250
7418,66.406250
7419,66.406250
7420,62.500000
7421,62.500000
7422,62.500000
7423,58.593750
7424,58.593750
7425,58.593750
7426,58.593750
7427,58.593750
7428,54.687500
7429,54.687500
7430,54.687500
7431,54.687500
7432,54.687500
7433,50.781250
7434,50.781250
7435,50.781250
7436,50.781250
7437,50.781250
7438,46.875000
7439,42.968750
7440,46.875000
7441,42.968750
7442,42.968750
7443,42.968750
7444,42.968750
7445,42.968750
7446,39.062500
7447,39.062500
7448,39.062500
7449,39.062500
7450,35.156250
7451,35.156250
7452,35.156250
7453,35.156250
7454,35.156250
7455,31.250000
7456,31.250000
7457,31.250000
7458,31.250000
7459,27.343750
7460,27.343750
7461,27.343750
7462,23.437500
7463,23.437500
7464,23.437500
7465,23.437500
7466,23.437500
7467,23.437500
7468,19.531250
7469,19.531250
7470,19.531250
7471,19.531250
7472,15.625000
7473,15.625000
7474,15.625000
7475,11.718750
7476,11.718750
7477,11.718750
7478,11.718750
7479,7.812500
7480,7.812500
7481,7.812500
7482,7.812500
7483,7.812500
7484,3.906250
7485,3.906250
7486,3.906250
7487,0.000000
7488,0.000000
7489,0.000000
7490,0.000000
7491,-3.906250
7492,-3.906250
7493,-3.906250
7494,-3.906250
7495,-7.812500
7496,-7.812500
7497,-7.812500
7498,-11.718750
7499,-11.718750
7500,-11.718750
7501,-11.718750
7502,-15.625000
7503,-15.625000
7504,-15.625000
7505,-15.625000
7506,-15.625000
7507,-19.531250
7508,-19.531250
7509,-19.531250
7510,-23.437500
7511,-23.437500
7512,-23.437500
7513,-23.437500
7514,-27.343750
7515,-27.343750
7516,-27.343750
7517,-27.343750
7518,-31.250000
7519,-31.250000
7520,-31.250000
7521,-35.156250
7522,-35.156250
7523,-35.156250
7524,-35.156250
7525,-39.062500
7526,-39.062500
7527,-39.062500
7528,-39.062500
7529,-42.968750
7530,-42.968750
7531,-42.968750
7532,-46.875000
7533,-46.875000
7534,-46.875000
7535,-46.875000
7536,-50.781250
7537,-50.781250
7538,-50.781250
7539,-50.781250
7540,-54.687500
7541,-54.687500
7542,-54.687500
7543,-54.687500
7544,-58.593750
7545,-58.593750
7546,-58.593750
7547,-58.593750
7548,-62.500000
7549,-62.500000
7550,-62.500000
7551,-62.500000
7552,-66.406250
7553,-66.406250
7554,-66.406250
7555,-70.312500
7556,-70.312500
7557,-70.312500
7558,-70.312500
7559,-70.312500
7560,-74.218750
7561,-74.218750
7562,-74.218750
7563,-78.125000
7564,-78.125000
7565,-78.125000
7566,-78.125000
7567,-78.125000
7568,-82.031250
7569,-82.031250
7570,-82.031250
7571,-85.937500
7572,-85.937500
7573,-85.937500
7574,-85.937500
7575,-85.937500
7576,-89.843750
7577,-89.843750
7578,-93.750000
7579,-93.750000
7580,-93.750000
7581,-93.750000
7582,-93.750000
7583,-93.750000
7584,-97.656250
7585,-97.656250
7586,-97.656250
7587,-97.656250
7588,-101.562500
7589,-101.562500
7590,-101.562500
7591,-101.562500
7592,-105.468750
7593,-105.468750
7594,-105.468750
7595,-105.468750
7596,-105.468750
7597,-109.375000
7598,-109.375000
7599,-109.375000
7600,-113.281250
7601,-113.281250
7602,-113.281250
7603,-113.281250
7604,-113.281250
7605,-113.281250
7606,-117.187500
7607,-117.187500
7608,-117.187500
7609,-117.187500
7610,-121.093750
7611,-121.093750
7612,-121.093750
7613,-121.093750
7614,-121.093750
7615,-125.000000
7616,-125.000000
7617,-125.000000
7618,-125.000000
7619,-125.000000
7620,-128.906250
7621,-128.906250
7622,-128.906250
7623,-128.906250
7624,-132.812500
7625,-132.812500
7626,-132.812500
7627,-132.812500
7628,-132.812500
7629,-136.718750
7630,-136.718750
7631,-136.718750
7632,-136.718750
7633,-136.718750
7634,-136.718750
7635,-140.625000
7636,-140.625000
7637,-140.625000
7638,-140.625000
7639,-140.625000
7640,-140.625000
7641,-144.531250
7642,-144.531250
7643,-144.531250
7644,-144.531250
7645,-144.531250
7646,-148.437500
7647,-148.437500
7648,-148.437500
7649,-148.437500
7650,-148.437500
7651,-148.437500
7652,-148.437500
7653,-152.343750
7654,-152.343750
7655,-152.343750
7656,-152.343750
7657,-152.343750
7658,-156.250000
7659,-152.343750
7660,-156.250000
7661,-156.250000
7662,-156.250000
7663,-156.250000
7664,-160.156250
7665,-160.156250
7666,-160.156250
7667,-160.156250
7668,-160.156250
7669,-160.156250
7670,-160.156250
7671,-160.156250
7672,-164.062500
7673,-164.062500
7674,-164.062500
7675,-164.062500
7676,-164.062500
7677,-164.062500
7678,-164.062500
7679,-164.062500
7680,-167.968750
7681,-167.968750
7682,-167.968750
7683,-167.968750
7684,-167.968750
7685,-167.968750
7686,-167.968750
7687,-167.968750
7688,-167.968750
7689,-167.968750
7690,-171.875000
7691,-171.875000
7692,-171.875000
7693,-171.875000
7694,-171.875000
7695,-171.875000
7696,-171.875000
7697,-171.875000
7698,-171.875000
7699,-171.875000
7700,-171.875000
7701,-175.781250
7702,-175.781250
7703,-175.781250
7704,-175.781250
7705,-175.781250
7706,-175.781250
7707,-175.781250
7708,-175.781250
7709,-175.781250
7710,-175.781250
7711,-175.781250
7712,-175.781250
7713,-175.781250
7714,-175.781250
7715,-175.781250
7716,-175.781250
7717,-175.781250
7718,-175.781250
7719,-175.781250
7720,-175.781250
7721,-179.687500
7722,-179.687500
7723,-179.687500
7724,-179.687500
7725,-179.687500
7726,-179.687500
7727,-179.687500
7728,-179.687500
7729,-179.687500
7730,-179.687500
7731,-183.593750
7732,-179.687500
7733,-179.687500
7734,-179.687500
7735,-179.687500
7736,-179.687500
7737,-179.687500
7738,-179.687500
7739,-179.687500
7740,-179.687500
7741,-179.687500
7742,-179.687500
7743,-179.687500
7744,-179.687500
7745,-179.687500
7746,-179.687500
7747,-179.687500
7748,-179.687500
7749,-179.687500
7750,-179.687500
7751,-179.687500
7752,-179.687500
7753,-179.687500
7754,-179.687500
7755,-179.687500
7756,-179.687500
7757,-179.687500
7758,-179.687500
7759,-179.687500
7760,-179.687500
7761,-179.687500
7762,-179.687500
7763,-175.781250
7764,-179.687500
7765,-175.781250
7766,-175.781250
7767,-175.781250
7768,-175.781250
7769,-175.781250
7770,-175.781250
7771,-175.781250
7772,-175.781250
7773,-175.781250
7774,-175.781250
7775,-175.781250
7776,-175.781250
7777,-175.781250
7778,-175.781250
7779,-175.781250
7780,-175.781250
7781,-175.781250
7782,-175.781250
7783,-171.875000
7784,-175.781250
7785,-171.875000
7786,-171.875000
7787,-171.875000
7788,-171.875000
7789,-171.875000
7790,-171.875000
7791,-171.875000
7792,-171.875000
7793,-171.875000
7794,-171.875000
7795,-167.968750
7796,-167.968750
7797,-167.968750
7798,-167.968750
7799,-167.968750
7800,-167.968750
7801,-167.968750
7802,-167.968750
7803,-167.968750
7804,-167.968750
7805,-167.968750
7806,-164.062500
7807,-164.062500
7808,-164.062500
7809,-164.062500
7810,-164.062500
7811,-164.062500
7812,-164.062500
7813,-164.062500
7814,-160.156250
7815,-160.156250
7816,-160.156250
7817,-160.156250
7818,-160.156250
7819,-160.156250
7820,-160.156250
7821,-156.250000
7822,-156.250000
7823,-156.250000
7824,-156.250000
7825,-156.250000
7826,-156.250000
7827,-156.250000
7828,-152.343750
7829,-152.343750
7830,-152.343750
7831,-152.343750
7832,-152.343750
7833,-148.437500
7834,-148.437500
7835,-148.437500
7836,-148.437500
7837,-148.437500
7838,-148.437500
7839,-148.437500
7840,-148.437500
7841,-148.437500
7842,-144.531250
7843,-144.531250
7844,-144.531250
7845,-144.531250
7846,-140.625000
7847,-140.625000
7848,-140.625000
7849,-140.625000
7850,-136.718750
7851,-136.718750
7852,-136.718750
7853,-136.718750
7854,-136.718750
7855,-136.718750
7856,-132.812500
7857,-132.812500
7858,-132.812500
7859,-132.812500
7860,-132.812500
7861,-132.812500
7862,-128.906250
7863,-128.906250
7864,-128.906250
7865,-128.906250
7866,-128.906250
7867,-128.906250
7868,-125.000000
7869,-125.000000
7870,-125.000000
7871,-121.093750
7872,-121.093750
7873,-121.093750
7874,-121.093750
7875,-121.093750
7876,-117.187500
7877,-117.187500
7878,-117.187500
7879,-117.187500
7880,-113.281250
7881,-113.281250
7882,-113.281250
7883,-113.281250
7884,-113.281250
7885,-109.375000
7886,-109.375000
7887,-109.375000
7888,-109.375000
7889,-109.375000
7890,-105.468750
7891,-105.468750
7892,-105.468750
7893,-105.468750
7894,-101.562500
7895,-101.562500
7896,-101.562500
7897,-101.562500
7898,-101.562500
7899,-97.656250
7900,-97.656250
7901,-97.656250
7902,-93.750000
7903,-93.750000
7904,-93.750000
7905,-93.750000
7906,-89.843750
7907,-89.843750
7908,-89.843750
7909,-89.843750
7910,-89.843750
7911,-85.937500
7912,-85.937500
7913,-82.031250
7914,-85.937500
7915,-82.031250
7916,-82.031250
7917,-82.031250
7918,-82.031250
7919,-78.125000
7920,-78.125000
7921,-78.125000
7922,-74.218750
7923,-74.218750
7924,-74.218750
7925,-74.218750
7926,-74.218750
7927,-70.312500
7928,-70.312500
7929,-70.312500
7930,-66.406250
7931,-66.406250
7932,-66.406250
7933,-66.406250
7934,-66.406250
7935,-62.500000
7936,-62.500000
7937,-62.500000
7938,-62.500000
7939,-58.593750
7940,-58.593750
7941,-54.687500
7942,-54.687500
7943,-54.687500
7944,-54.687500
7945,-54.687500
7946,-50.781250
7947,-50.781250
7948,-50.781250
7949,-50.781250
7950,-46.875000
7951,-46.875000
7952,-46.875000
7953,-46.875000
7954,-42.968750
7955,-42.968750
7956,-42.968750
7957,-39.062500
7958,-39.062500
7959,-39.062500
7960,-39.062500
7961,-35.156250
7962,-35.156250
7963,-35.156250
7964,-35.156250
7965,-31.250000
7966,-31.250000
7967,-31.250000
7968,-31.250000
7969,-27.343750
7970,-27.343750
7971,-27.343750
7972,-23.437500
7973,-23.437500
7974,-23.437500
7975,-23.437500
7976,-19.531250
7977,-19.531250
7978,-19.531250
7979,-19.531250
7980,-19.531250
7981,-15.625000
7982,-15.625000
7983,-15.625000
7984,-11.718750
7985,-11.718750
7986,-11.718750
7987,-7.812500
7988,-7.812500
7989,-7.812500
7990,-7.812500
7991,-3.906250
7992,-3.906250
7993,-3.906250
7994,-3.906250
7995,0.000000
7996,0.000000
7997,0.000000
7998,3.906250
7999,3.906250
8000,3.906250
8001,3.906250
8002,3.906250
8003,7.812500
8004,7.812500
8005,7.812500
8006,7.812500
8007,11.718750
8008,11.718750
8009,11.718750
8010,11.718750
8011,15.625000
8012,15.625000
8013,15.625000
8014,19.531250
8015,19.531250
8016,19.531250
8017,19.531250
8018,19.531250
8019,23.437500
8020,23.437500
8021,23.437500
8022,23.437500
8023,27.343750
8024,27.343750
8025,27.343750
8026,27.343750
8027,31.250000
8028,31.250000
8029,31.250000
8030,31.250000
8031,35.156250
8032,35.156250
8033,35.156250
8034,35.156250
8035,39.062500
8036,39.062500
8037,39.062500
8038,39.062500
8039,39.062500
8040,39.062500
8041,42.968750
8042,42.968750
8043,46.875000
8044,46.875000
8045,46.875000
8046,46.875000
8047,46.875000
8048,46.875000
8049,50.781250
8050,50.781250
8051,50.781250
8052,50.781250
8053,54.687500
8054,54.687500
8055,54.687500
8056,54.687500
8057,54.687500
8058,54.687500
8059,58.593750
8060,58.593750
8061,58.593750
8062,58.593750
8063,62.500000
8064,62.500000
8065,62.500000
8066,62.500000
8067,62.500000
8068,66.406250
8069,66.406250
8070,66.406250
8071,66.406250
8072,66.406250
8073,70.312500
8074,70.312500
8075,70.312500
8076,70.312500
8077,70.312500
8078,70.312500
8079,74.218750
8080,74.218750
8081,74.218750
8082,74.218750
8083,78.125000
8084,78.125000
8085,78.125000
8086,78.125000
8087,78.125000
8088,78.125000
8089,82.031250
8090,82.031250
8091,82.031250
8092,82.031250
8093,82.031250
8094,82.031250
8095,85.937500
8096,85.937500
8097,85.937500
8098,85.937500
8099,85.937500
8100,85.937500
8101,89.843750
8102,89.843750
8103,89.843750
8104,89.843750
8105,89.843750
8106,89.843750
8107,93.750000
8108,93.750000
8109,93.750000
8110,93.750000
8111,93.750000
8112,97.656250
8113,97.656250
8114,97.656250
8115,97.656250
8116,97.656250
8117,97.656250
8118,97.656250
8119,101.562500
8120,101.562500
8121,101.562500
8122,101.562500
8123,101.562500
8124,101.562500
8125,101.562500
8126,101.562500
8127,105.468750
8128,105.468750
8129,105.468750
8130,105.468750
8131,105.468750
8132,105.468750
8133,109.375000
8134,105.468750
8135,109.375000
8136,109.375000
8137,109.375000
8138,109.375000
8139,109.375000
8140,109.375000
8141,113.281250
8142,109.375000
8143,113.281250
8144,113.281250
8145,113.281250
8146,113.281250
8147,113.281250
8148,113.281250
8149,113.281250
8150,117.187500
8151,117.187500
8152,117.187500
8153,117.187500
8154,117.187500
8155,117.187500
8156,117.187500
8157,117.187500
8158,117.187500
8159,117.187500
8160,121.093750
8161,121.093750
8162,121.093750
8163,121.093750
8164,121.093750
8165,121.093750
8166,121.093750
8167,121.093750
8168,121.093750
8169,121.093750
8170,121.093750
8171,121.093750
8172,125.000000
8173,125.000000
8174,121.093750
8175,125.000000
8176,125.000000
8177,125.000000
8178,125.000000
8179,125.000000
8180,125.000000
8181,125.000000
8182,125.000000
8183,125.000000
8184,125.000000
8185,128.906250
8186,128.906250
8187,128.906250
8188,125.000000
8189,128.906250
8190,125.000000
8191,128.906250
8192,128.906250
8193,128.906250
8194,128.906250
8195,128.906250
8196,128.906250
8197,128.906250
8198,128.906250
8199,128.906250
8200,128.906250
8201,132.812500
8202,128.906250
8203,128.906250
8204,128.906250
8205,128.906250
8206,128.906250
8207,128.906250
8208,128.906250
8209,132.812500
8210,128.906250
8211,132.812500
8212,132.812500
8213,132.812500
8214,132.812500
8215,132.812500
8216,132.812500
8217,132.812500
8218,132.812500
8219,132.812500
8220,132.812500
8221,132.812500
8222,132.812500
8223,132.812500
8224,132.812500
8225,132.812500
8226,132.812500
8227,132.812500
8228,128.906250
8229,132.812500
8230,132.812500
8231,132.812500
8232,132.812500
8233,132.812500
8234,132.812500
8235,132.812500
8236,132.812500
8237,132.812500
8238,132.812500
8239,132.812500
8240,132.812500
8241,132.812500
8242,132.812500
8243,132.812500
8244,132.812500
8245,132.812500
8246,132.812500
8247,132.812500
8248,132.812500
8249,132.812500
8250,132.812500
8251,132.812500
8252,132.812500
8253,132.812500
8254,132.812500
8255,132.812500
8256,132.812500
8257,132.812500
8258,132.812500
8259,132.812500
8260,132.812500
8261,132.812500
8262,132.812500
8263,132.812500
8264,132.812500
8265,132.812500
8266,132.812500
8267,132.812500
8268,128.906250
8269,132.812500
8270,128.906250
8271,132.812500
8272,128.906250
8273,132.812500
8274,128.906250
8275,128.906250
8276,128.906250
8277,128.906250
8278,128.906250
8279,128.906250
8280,128.906250
8281,128.906250
8282,128.906250
8283,128.906250
8284,128.906250
8285,128.906250
8286,128.906250
8287,128.906250
8288,128.906250
8289,128.906250
8290,125.000000
8291,128.906250
8292,125.000000
8293,125.000000
8294,125.000000
8295,125.000000
8296,125.000000
8297,125.000000
8298,125.000000
8299,125.000000
8300,125.000000
8301,125.000000
8302,125.000000
8303,125.000000
8304,125.000000
8305,125.000000
8306,121.093750
8307,121.093750
8308,121.093750
8309,121.093750
8310,121.093750
8311,121.093750
8312,121.093750
8313,121.093750
8314,121.093750
8315,117.187500
8316,121.093750
8317,117.187500
8318,117.187500
8319,117.187500
8320,117.187500
8321,117.187500
8322,117.187500
8323,117.187500
8324,117.187500
8325,113.281250
8326,117.187500
8327,113.281250
8328,113.281250
8329,113.281250
8330,113.281250
8331,113.281250
8332,113.281250
8333,113.281250
8334,109.375000
8335,113.281250
8336,109.375000
8337,109.375000
8338,109.375000
8339,109.375000
8340,109.375000
8341,109.375000
8342,105.468750
8343,109.375000
8344,105.468750
8345,105.468750
8346,105.468750
8347,105.468750
8348,105.468750
8349,105.468750
8350,101.562500
8351,101.562500
8352,101.562500
8353,101.562500
8354,101.562500
8355,101.562500
8356,97.656250
8357,97.656250
8358,97.656250
8359,97.656250
8360,97.656250
8361,97.656250
8362,97.656250
8363,97.656250
8364,97.656250
8365,93.750000
8366,93.750000
8367,93.750000
8368,93.750000
8369,89.843750
8370,89.843750
8371,89.843750
8372,89.843750
8373,89.843750
8374,89.843750
8375,89.843750
8376,89.843750
8377,85.937500
8378,85.937500
8379,85.937500
8380,85.937500
8381,85.937500
8382,85.937500
8383,82.031250
8384,82.031250
8385,82.031250
8386,82.031250
8387,82.031250
8388,78.125000
8389,78.125000
8390,78.125000
8391,78.125000
8392,78.125000
8393,74.218750
8394,74.218750
8395,74.218750
8396,74.218750
8397,74.218750
8398,74.218750
8399,70.312500
8400,70.312500
8401,70.312500
8402,70.312500
8403,70.312500
8404,70.312500
8405,66.406250
8406,66.406250
8407,66.406250
8408,66.406250
8409,62.500000
8410,62.500000
8411,62.500000
8412,62.500000
8413,62.500000
8414,58.593750
8415,58.593750
8416,58.593750
8417,58.593750
8418,54.687500
8419,54.687500
8420,54.687500
8421,54.687500
8422,54.687500
8423,54.687500
8424,50.781250
8425,50.781250
8426,50.781250
8427,46.875000
8428,46.875000
8429,46.875000
8430,46.875000
8431,46.875000
8432,42.968750
8433,42.968750
8434,42.968750
8435,39.062500
8436,39.062500
8437,39.062500
8438,39.062500
8439,39.062500
8440,35.156250
8441,39.062500
8442,35.156250
8443,35.156250
8444,35.156250
8445,31.250000
8446,31.250000
8447,31.250000
8448,31.250000
8449,31.250000
8450,27.343750
8451,27.343750
8452,27.343750
8453,23.437500
8454,23.437500
8455,23.437500
8456,23.437500
8457,19.531250
8458,19.531250
8459,19.531250
8460,15.625000
8461,15.625000
8462,15.625000
8463,15.625000
8464,11.718750
8465,11.718750
8466,11.718750
8467,11.718750
8468,11.718750
8469,11.718750
8470,7.812500
8471,7.812500
8472,7.812500
8473,3.906250
8474,3.906250
8475,3.906250
8476,3.906250
8477,0.000000
8478,0.000000
8479,0.000000
8480,0.000000
8481,-3.906250
8482,-3.906250
8483,-3.906250
8484,-3.906250
8485,-7.812500
8486,-7.812500
8487,-7.812500
8488,-7.812500
8489,-11.718750
8490,-11.718750
8491,-11.718750
8492,-15.625000
8493,-15.625000
8494,-15.625000
8495,-15.625000
8496,-19.531250
8497,-19.531250
8498,-19.531250
8499,-23.437500
8500,-23.437500
8501,-23.437500
8502,-23.437500
8503,-27.343750
8504,-27.343750
8505,-27.343750
8506,-27.343750
8507,-27.343750
8508,-31.250000
8509,-31.250000
8510,-31.250000
8511,-35.156250
8512,-35.156250
8513,-35.156250
8514,-35.156250
8515,-35.156250
8516,-39.062500
8517,-39.062500
8518,-39.062500
8519,-42.968750
8520,-42.968750
8521,-42.968750
8522,-46.875000
8523,-46.875000
8524,-46.875000
8525,-46.875000
8526,-46.875000
8527,-50.781250
8528,-50.781250
8529,-50.781250
8530,-54.687500
8531,-54.687500
8532,-54.687500
8533,-54.687500
8534,-58.593750
8535,-58.593750
8536,-58.593750
8537,-58.593750
8538,-62.500000
8539,-62.500000
8540,-62.500000
8541,-62.500000
8542,-66.406250
8543,-66.406250
8544,-66.406250
8545,-70.312500
8546,-70.312500
8547,-70.312500
8548,-70.312500
8549,-74.218750
8550,-74.218750
8551,-74.218750
8552,-74.218750
8553,-74.218750
8554,-78.125000
8555,-78.125000
8556,-78.125000
8557,-82.031250
8558,-82.031250
8559,-82.031250
8560,-82.031250
8561,-82.031250
8562,-85.937500
8563,-85.937500
8564,-85.937500
8565,-89.843750
8566,-89.843750
8567,-89.843750
8568,-89.843750
8569,-93.750000
8570,-93.750000
8571,-93.750000
8572,-93.750000
8573,-97.656250
8574,-97.656250
8575,-97.656250
8576,-97.656250
8577,-97.656250
8578,-101.562500
8579,-101.562500
8580,-101.562500
8581,-101.562500
8582,-105.468750
8583,-105.468750
8584,-105.468750
8585,-105.468750
8586,-109.375000
8587,-109.375000
8588,-109.375000
8589,-109.375000
8590,-109.375000
8591,-113.281250
8592,-113.281250
8593,-113.281250
8594,-113.281250
8595,-117.187500
8596,-117.187500
8597,-117.187500
8598,-117.187500
8599,-117.187500
8600,-121.093750
8601,-121.093750
8602,-121.093750
8603,-121.093750
8604,-121.093750
8605,-125.000000
8606,-125.000000
8607,-125.000000
8608,-128.906250
8609,-128.906250
8610,-128.906250
8611,-128.906250
8612,-128.906250
8613,-132.812500
8614,-132.812500
8615,-132.812500
8616,-132.812500
8617,-132.812500
8618,-132.812500
8619,-136.718750
8620,-136.718750
8621,-136.718750
8622,-136.718750
8623,-136.718750
8624,-136.718750
8625,-140.625000
8626,-140.625000
8627,-140.625000
8628,-140.625000
8629,-140.625000
8630,-140.625000
8631,-144.531250
8632,-144.531250
8633,-144.531250
8634,-144.531250
8635,-144.531250
8636,-148.437500
8637,-148.437500
8638,-148.437500
8639,-148.437500
8640,-148.437500
8641,-148.437500
8642,-148.437500
8643,-152.343750
8644,-152.343750
8645,-152.343750
8646,-152.343750
8647,-152.343750
8648,-152.343750
8649,-156.250000
8650,-156.250000
8651,-156.250000
8652,-156.250000
8653,-156.250000
8654,-156.250000
8655,-160.156250
8656,-160.156250
8657,-160.156250
8658,-160.156250
8659,-160.156250
8660,-160.156250
8661,-160.156250
8662,-160.156250
8663,-160.156250
8664,-164.062500
8665,-164.062500
8666,-164.062500
8667,-164.062500
8668,-164.062500
8669,-164.062500
8670,-164.062500
8671,-164.062500
8672,-167.968750
8673,-167.968750
8674,-167.968750
8675,-167.968750
8676,-167.968750
8677,-167.968750
8678,-167.968750
8679,-167.968750
8680,-167.968750
8681,-171.875000
8682,-171.875000
8683,-171.875000
8684,-171.875000
8685,-171.875000
8686,-171.875000
8687,-171.875000
8688,-171.875000
8689,-171.875000
8690,-171.875000
8691,-175.781250
8692,-171.875000
8693,-175.781250
8694,-175.781250
8695,-171.875000
8696,-175.781250
8697,-175.781250
8698,-175.781250
8699,-175.781250
8700,-175.781250
8701,-175.781250
8702,-175.781250
8703,-175.781250
8704,-175.781250
8705,-175.781250
8706,-175.781250
8707,-175.781250
8708,-175.781250
8709,-175.781250
8710,-179.687500
8711,-179.687500
8712,-179.687500
8713,-179.687500
8714,-179.687500
8715,-179.687500
8716,-179.687500
8717,-179.687500
8718,-179.687500
8719,-179.687500
8720,-179.687500
8721,-179.687500
8722,-179.687500
8723,-179.687500
8724,-179.687500
8725,-179.687500
8726,-179.687500
8727,-179.687500
8728,-179.687500
8729,-179.687500
8730,-179.687500
8731,-179.687500
8732,-179.687500
8733,-179.687500
8734,-179.687500
8735,-179.687500
8736,-179.687500
8737,-179.687500
8738,-179.687500
8739,-179.687500
8740,-179.687500
8741,-179.687500
8742,-179.687500
8743,-179.687500
8744,-179.687500
8745,-179.687500
8746,-179.687500
8747,-179.687500
8748,-179.687500
8749,-179.687500
8750,-179.687500
8751,-179.687500
8752,-179.687500
8753,-179.687500
8754,-179.687500
8755,-179.687500
8756,-179.687500
8757,-175.781250
8758,-175.781250
8759,-175.781250
8760,-175.781250
8761,-175.781250
8762,-175.781250
8763,-175.781250
8764,-175.781250
8765,-175.781250
8766,-175.781250
8767,-175.781250
8768,-175.781250
8769,-175.781250
8770,-175.781250
8771,-175.781250
8772,-171.875000
8773,-175.781250
8774,-171.875000
8775,-171.875000
8776,-171.875000
8777,-171.875000
8778,-171.875000
8779,-171.875000
8780,-171.875000
8781,-171.875000
8782,-171.875000
8783,-171.875000
8784,-167.968750
8785,-167.968750
8786,-167.968750
8787,-167.968750
8788,-167.968750
8789,-167.968750
8790,-167.968750
8791,-167.968750
8792,-167.968750
8793,-164.062500
8794,-164.062500
8795,-164.062500
8796,-164.062500
8797,-164.062500
8798,-164.062500
8799,-164.062500
8800,-164.062500
8801,-160.156250
8802,-160.156250
8803,-160.156250
8804,-160.156250
8805,-160.156250
8806,-160.156250
8807,-160.156250
8808,-160.156250
8809,-160.156250
8810,-160.156250
8811,-156.250000
8812,-156.250000
8813,-156.250000
8814,-156.250000
8815,-156.250000
8816,-156.250000
8817,-152.343750
8818,-152.343750
8819,-152.343750
8820,-152.343750
8821,-152.343750
8822,-152.343750
8823,-152.343750
8824,-148.437500
8825,-148.437500
8826,-148.437500
8827,-148.437500
8828,-148.437500
8829,-148.437500
8830,-144.531250
8831,-144.531250
8832,-144.531250
8833,-144.531250
8834,-140.625000
8835,-140.625000
8836,-140.625000
8837,-140.625000
8838,-140.625000
8839,-136.718750
8840,-140.625000
8841,-136.718750
8842,-136.718750
8843,-136.718750
8844,-136.718750
8845,-136.718750
8846,-136.718750
8847,-132.812500
8848,-132.812500
8849,-132.812500
8850,-132.812500
8851,-128.906250
8852,-128.906250
8853,-128.906250
8854,-128.906250
8855,-128.906250
8856,-128.906250
8857,-125.000000
8858,-125.000000
8859,-125.000000
8860,-121.093750
8861,-121.093750
8862,-121.093750
8863,-121.093750
8864,-121.093750
8865,-121.093750
8866,-117.187500
8867,-117.187500
8868,-117.187500
8869,-117.187500
8870,-113.281250
8871,-113.281250
8872,-113.281250
8873,-113.281250
8874,-113.281250
8875,-109.375000
8876,-109.375000
8877,-109.375000
8878,-109.375000
8879,-105.468750
8880,-105.468750
8881,-105.468750
8882,-105.468750
8883,-101.562500
8884,-101.562500
8885,-101.562500
8886,-101.562500
8887,-97.656250
8888,-97.656250
8889,-97.656250
8890,-97.656250
8891,-97.656250
8892,-93.750000
8893,-93.750000
8894,-93.750000
8895,-93.750000
8896,-93.750000
8897,-89.843750
8898,-89.843750
8899,-89.843750
8900,-85.937500
8901,-85.937500
8902,-85.937500
8903,-85.937500
8904,-82.031250
8905,-82.031250
8906,-82.031250
8907,-78.125000
8908,-78.125000
8909,-78.125000
8910,-78.125000
8911,-78.125000
8912,-74.218750
8913,-74.218750
8914,-74.218750
8915,-74.218750
8916,-70.312500
8917,-70.312500
8918,-70.312500
8919,-70.312500
8920,-66.406250
8921,-66.406250
8922,-66.406250
8923,-66.406250
8924,-62.500000
8925,-62.500000
8926,-62.500000
8927,-58.593750
8928,-58.593750
8929,-58.593750
8930,-58.593750
8931,-58.593750
8932,-54.687500
8933,-54.687500
8934,-54.687500
8935,-50.781250
8936,-50.781250
8937,-50.781250
8938,-50.781250
8939,-46.875000
8940,-46.875000
8941,-46.875000
8942,-46.875000
8943,-42.968750
8944,-42.968750
8945,-42.968750
8946,-42.968750
8947,-39.062500
8948,-39.062500
8949,-39.062500
8950,-35.156250
8951,-35.156250
8952,-35.156250
8953,-35.156250
8954,-31.250000
8955,-31.250000
8956,-31.250000
8957,-31.250000
8958,-27.343750
8959,-27.343750
8960,-27.343750
8961,-27.343750
8962,-23.437500
8963,-23.437500
8964,-23.437500
8965,-19.531250
8966,-19.531250
8967,-19.531250
8968,-19.531250
8969,-19.531250
8970,-15.625000
8971,-15.625000
8972,-15.625000
8973,-11.718750
8974,-11.718750
8975,-11.718750
8976,-11.718750
8977,-7.812500
8978,-7.812500
8979,-7.812500
8980,-7.812500
8981,-7.812500
8982,-3.906250
8983,-3.906250
8984,0.000000
8985,-3.906250
8986,0.000000
8987,0.000000
8988,0.000000
8989,3.906250
8990,3.906250
8991,3.906250
8992,3.906250
8993,7.812500
8994,7.812500
8995,7.812500
8996,7.812500
8997,11.718750
8998,11.718750
8999,11.718750
9000,11.718750
9001,15.625000
9002,15.625000
9003,15.625000
9004,15.625000
9005,15.625000
9006,19.531250
9007,19.531250
9008,19.531250
9009,23.437500
9010,23.437500
9011,23.437500
9012,23.437500
9013,27.343750
9014,27.343750
9015,27.343750
9016,27.343750
9017,27.343750
9018,31.250000
9019,31.250000
9020,31.250000
9021,31.250000
9022,35.156250
9023,35.156250
9024,35.156250
9025,39.062500
9026,39.062500
9027,39.062500
9028,39.062500
9029,39.062500
9030,42.968750
9031,42.968750
9032,42.968750
9033,42.968750
9034,46.875000
9035,46.875000
9036,46.875000
9037,46.875000
9038,46.875000
9039,50.781250
9040,50.781250
9041,50.781250
9042,50.781250
9043,54.687500
9044,54.687500
9045,54.687500
9046,54.687500
9047,54.687500
9048,58.593750
9049,58.593750
9050,58.593750
9051,58.593750
9052,58.593750
9053,62.500000
9054,62.500000
9055,62.500000
9056,62.500000
9057,66.406250
9058,66.406250
9059,66.406250
9060,66.406250
9061,66.406250
9062,70.312500
9063,70.312500
9064,70.312500
9065,70.312500
9066,70.312500
9067,70.312500
9068,74.218750
9069,74.218750
9070,74.218750
9071,74.218750
9072,74.218750
9073,78.125000
9074,78.125000
9075,78.125000
9076,78.125000
9077,78.125000
9078,78.125000
9079,82.031250
9080,82.031250
9081,82.031250
9082,82.031250
9083,82.031250
9084,85.937500
9085,85.937500
9086,85.937500
9087,85.937500
9088,85.937500
9089,85.937500
9090,85.937500
9091,89.843750
9092,89.843750
9093,89.843750
9094,89.843750
9095,89.843750
9096,89.843750
9097,93.750000
9098,93.750000
9099,93.750000
9100,93.750000
9101,93.750000
9102,93.750000
9103,97.656250
9104,97.656250
9105,97.656250
9106,97.656250
9107,97.656250
9108,97.656250
9109,101.562500
9110,101.562500
9111,101.562500
9112,101.562500
9113,101.562500
9114,101.562500
9115,101.562500
9116,101.562500
9117,105.468750
9118,105.468750
9119,105.468750
9120,105.468750
9121,105.468750
9122,105.468750
9123,109.375000
9124,105.468750
9125,109.375000
9126,109.375000
9127,109.375000
9128,109.375000
9129,109.375000
9130,109.375000
9131,109.375000
9132,113.281250
9133,113.281250
9134,113.281250
9135,113.281250
9136,113.281250
9137,113.281250
9138,113.281250
9139,113.281250
9140,113.281250
9141,117.187500
9142,113.281250
9143,117.187500
9144,117.187500
9145,117.187500
9146,117.187500
9147,117.187500
9148,117.187500
9149,117.187500
9150,117.187500
9151,121.093750
9152,121.093750
9153,121.093750
9154,121.093750
9155,121.093750
9156,121.093750
9157,121.093750
9158,121.093750
9159,121.093750
9160,121.093750
9161,121.093750
9162,121.093750
9163,125.000000
9164,125.000000
9165,125.000000
9166,125.000000
9167,125.000000
9168,125.000000
9169,125.000000
9170,125.000000
9171,125.000000
9172,125.000000
9173,128.906250
9174,125.000000
9175,128.906250
9176,128.906250
9177,128.906250
9178,128.906250
9179,128.906250
9180,128.906250
9181,128.906250
9182,128.906250
9183,128.906250
9184,128.906250
9185,128.906250
9186,128.906250
9187,128.906250
9188,128.906250
9189,128.906250
9190,128.906250
9191,128.906250
9192,128.906250
9193,132.812500
9194,132.812500
9195,132.812500
9196,132.812500
9197,132.812500
9198,132.812500
9199,132.812500
9200,132.812500
9201,132.812500
9202,132.812500
9203,132.812500
9204,132.812500
9205,132.812500
9206,132.812500
9207,132.812500
9208,132.812500
9209,132.812500
9210,132.812500
9211,132.812500
9212,132.812500
9213,132.812500
9214,132.812500
9215,132.812500
9216,132.812500
9217,132.812500
9218,132.812500
9219,132.812500
9220,132.812500
9221,132.812500
9222,132.812500
9223,132.812500
9224,132.812500
9225,132.812500
9226,132.812500
9227,132.812500
9228,132.812500
9229,132.812500
9230,132.812500
9231,132.812500
9232,132.812500
9233,132.812500
9234,132.812500
9235,132.812500
9236,132.812500
9237,132.812500
9238,132.812500
9239,132.812500
9240,132.812500
9241,132.812500
9242,132.812500
9243,132.812500
9244,132.812500
9245,132.812500
9246,132.812500
9247,132.812500
9248,132.812500
9249,132.812500
9250,132.812500
9251,132.812500
9252,132.812500
9253,132.812500
9254,132.812500
9255,132.812500
9256,128.906250
9257,128.906250
9258,132.812500
9259,132.812500
9260,128.906250
9261,128.906250
9262,132.812500
9263,132.812500
9264,128.906250
9265,128.906250
9266,128.906250
9267,128.906250
9268,128.906250
9269,128.906250
9270,128.906250
9271,128.906250
9272,128.906250
9273,128.906250
9274,128.906250
9275,128.906250
9276,128.906250
9277,128.906250
9278,128.906250
9279,128.906250
9280,125.000000
9281,125.000000
9282,125.000000
9283,128.906250
9284,125.000000
9285,125.000000
9286,125.000000
9287,125.000000
9288,125.000000
9289,125.000000
9290,125.000000
9291,125.000000
9292,125.000000
9293,125.000000
9294,125.000000
9295,125.000000
9296,121.093750
9297,121.093750
9298,121.093750
9299,121.093750
9300,121.093750
9301,121.093750
9302,121.093750
9303,121.093750
9304,121.093750
9305,121.093750
9306,121.093750
9307,117.187500
9308,117.187500
9309,117.187500
9310,117.187500
9311,117.187500
9312,113.281250
9313,117.187500
9314,117.187500
9315,113.281250
9316,117.187500
9317,117.187500
9318,113.281250
9319,113.281250
9320,113.281250
9321,113.281250
9322,113.281250
9323,113.281250
9324,113.281250
9325,109.375000
9326,109.375000
9327,109.375000
9328,109.375000
9329,109.375000
9330,109.375000
9331,109.375000
9332,109.375000
9333,109.375000
9334,105.468750
9335,105.468750
9336,105.468750
9337,105.468750
9338,105.468750
9339,105.468750
9340,101.562500
9341,101.562500
9342,101.562500
9343,101.562500
9344,101.562500
9345,101.562500
9346,97.656250
9347,101.562500
9348,97.656250
9349,97.656250
9350,97.656250
9351,97.656250
9352,97.656250
9353,97.656250
9354,97.656250
9355,93.750000
9356,93.750000
9357,93.750000
9358,93.750000
9359,89.843750
9360,89.843750
9361,89.843750
9362,89.843750
9363,89.843750
9364,89.843750
9365,85.937500
9366,85.937500
9367,85.937500
9368,85.937500
9369,85.937500
9370,85.937500
9371,85.937500
9372,82.031250
9373,82.031250
9374,82.031250
9375,82.031250
9376,82.031250
9377,82.031250
9378,78.125000
9379,78.125000
9380,78.125000
9381,78.125000
9382,78.125000
9383,78.125000
9384,74.218750
9385,74.218750
9386,74.218750
9387,74.218750
9388,70.312500
9389,70.312500
9390,70.312500
9391,70.312500
9392,66.406250
9393,70.312500
9394,66.406250
9395,66.406250
9396,66.406250
9397,66.406250
9398,62.500000
9399,62.500000
9400,62.500000
9401,62.500000
9402,62.500000
9403,62.500000
9404,58.593750
9405,58.593750
9406,58.593750
9407,58.593750
9408,54.687500
9409,54.687500
9410,54.687500
9411,54.687500
9412,50.781250
9413,50.781250
9414,50.781250
9415,50.781250
9416,50.781250
9417,46.875000
9418,46.875000
9419,46.875000
9420,46.875000
9421,46.875000
9422,42.968750
9423,42.968750
9424,42.968750
9425,42.968750
9426,39.062500
9427,39.062500
9428,39.062500
9429,39.062500
9430,35.156250
9431,35.156250
9432,35.156250
9433,35.156250
9434,35.156250
9435,31.250000
9436,31.250000
9437,31.250000
9438,27.343750
9439,27.343750
9440,27.343750
9441,27.343750
9442,27.343750
9443,23.437500
9444,23.437500
9445,23.437500
9446,23.437500
9447,19.531250
9448,19.531250
9449,19.531250
9450,15.625000
9451,15.625000
9452,15.625000
9453,15.625000
9454,15.625000
9455,15.625000
9456,11.718750
9457,11.718750
9458,11.718750
9459,7.812500
9460,7.812500
9461,7.812500
9462,7.812500
9463,3.906250
9464,3.906250
9465,3.906250
9466,0.000000
9467,0.000000
9468,0.000000
9469,0.000000
9470,0.000000
9471,-3.906250
9472,-3.906250
9473,-3.906250
9474,-7.812500
9475,-7.812500
9476,-7.812500
9477,-7.812500
9478,-7.812500
9479,-11.718750
9480,-11.718750
9481,-11.718750
9482,-15.625000
9483,-15.625000
9484,-15.625000
9485,-19.531250
9486,-19.531250
9487,-19.531250
9488,-19.531250
9489,-23.437500
9490,-23.437500
9491,-23.437500
9492,-23.437500
9493,-23.437500
9494,-27.343750
9495,-27.343750
9496,-31.250000
9497,-27.343750
9498,-31.250000
9499,-31.250000
9500,-31.250000
9501,-35.156250
9502,-35.156250
9503,-35.156250
9504,-39.062500
9505,-39.062500
9506,-39.062500
9507,-39.062500
9508,-42.968750
9509,-42.968750
9510,-42.968750
9511,-46.875000
9512,-46.875000
9513,-46.875000
9514,-46.875000
9515,-50.781250
9516,-50.781250
9517,-50.781250
9518,-50.781250
9519,-54.687500
9520,-54.687500
9521,-54.687500
9522,-54.687500
9523,-58.593750
9524,-58.593750
9525,-58.593750
9526,-58.593750
9527,-62.500000
9528,-62.500000
9529,-62.500000
9530,-62.500000
9531,-66.406250
9532,-66.406250
9533,-66.406250
9534,-66.406250
9535,-70.312500
9536,-70.312500
9537,-70.312500
9538,-74.218750
9539,-70.312500
9540,-74.218750
9541,-74.218750
9542,-74.218750
9543,-74.218750
9544,-78.125000
9545,-78.125000
9546,-78.125000
9547,-82.031250
9548,-82.031250
9549,-82.031250
9550,-82.031250
9551,-85.937500
9552,-85.937500
9553,-85.937500
9554,-85.937500
9555,-89.843750
9556,-89.843750
9557,-89.843750
9558,-89.843750
9559,-89.843750
9560,-93.750000
9561,-93.750000
9562,-97.656250
9563,-97.656250
9564,-97.656250
9565,-97.656250
9566,-97.656250
9567,-97.656250
9568,-101.562500
9569,-101.562500
9570,-101.562500
9571,-101.562500
9572,-105.468750
9573,-105.468750
9574,-105.468750
9575,-105.468750
9576,-109.375000
9577,-109.375000
9578,-109.375000
9579,-109.375000
9580,-109.375000
9581,-113.281250
9582,-113.281250
9583,-113.281250
9584,-113.281250
9585,-113.281250
9586,-117.187500
9587,-117.187500
9588,-117.187500
9589,-117.187500
9590,-121.093750
9591,-121.093750
9592,-125.000000
9593,-121.093750
9594,-125.000000
9595,-125.000000
9596,-125.000000
9597,-125.000000
9598,-125.000000
9599,-128.906250
9600,-128.906250
9601,-128.906250
9602,-128.906250
9603,-128.906250
9604,-132.812500
9605,-132.812500
9606,-132.812500
9607,-132.812500
9608,-132.812500
9609,-136.718750
9610,-136.718750
9611,-136.718750
9612,-136.718750
9613,-136.718750
9614,-136.718750
9615,-140.625000
9616,-140.625000
9617,-140.625000
9618,-140.625000
9619,-144.531250
9620,-144.531250
9621,-144.531250
9622,-144.531250
9623,-144.531250
9624,-144.531250
9625,-148.437500
9626,-148.437500
9627,-148.437500
9628,-148.437500
9629,-148.437500
9630,-148.437500
9631,-148.437500
9632,-152.343750
9633,-152.343750
9634,-152.343750
9635,-152.343750
9636,-156.250000
9637,-152.343750
9638,-156.250000
9639,-152.343750
9640,-156.250000
9641,-156.250000
9642,-156.250000
9643,-156.250000
9644,-156.250000
9645,-160.156250
9646,-160.156250
9647,-160.156250
9648,-160.156250
9649,-156.250000
9650,-160.156250
9651,-160.156250
9652,-164.062500
9653,-164.062500
9654,-164.062500
9655,-164.062500
9656,-164.062500
9657,-164.062500
9658,-164.062500
9659,-164.062500
9660,-167.968750
9661,-164.062500
9662,-167.968750
9663,-167.968750
9664,-167.968750
9665,-167.968750
9666,-167.968750
9667,-167.968750
9668,-167.968750
9669,-167.968750
9670,-171.875000
9671,-167.968750
9672,-171.875000
9673,-171.875000
9674,-171.875000
9675,-171.875000
9676,-171.875000
9677,-171.875000
9678,-171.875000
9679,-171.875000
9680,-171.875000
9681,-171.875000
9682,-175.781250
9683,-175.781250
9684,-175.781250
9685,-175.781250
9686,-175.781250
9687,-175.781250
9688,-175.781250
9689,-175.781250
9690,-175.781250
9691,-175.781250
9692,-175.781250
9693,-175.781250
9694,-175.781250
9695,-175.781250
9696,-175.781250
9697,-175.781250
9698,-175.781250
9699,-175.781250
9700,-175.781250
9701,-179.687500
9702,-179.687500
9703,-179.687500
9704,-179.687500
9705,-179.687500
9706,-179.687500
9707,-179.687500
9708,-179.687500
9709,-179.687500
9710,-179.687500
9711,-179.687500
9712,-179.687500
9713,-179.687500
9714,-179.687500
9715,-179.687500
9716,-179.687500
9717,-179.687500
9718,-179.687500
9719,-179.687500
9720,-179.687500
9721,-179.687500
9722,-179.687500
9723,-179.687500
9724,-179.687500
9725,-179.687500
9726,-179.687500
9727,-179.687500
9728,-179.687500
9729,-179.687500
9730,-179.687500
9731,-179.687500
9732,-179.687500
9733,-179.687500
9734,-179.687500
9735,-179.687500
9736,-179.687500
9737,-179.687500
9738,-179.687500
9739,-179.687500
9740,-179.687500
9741,-179.687500
9742,-179.687500
9743,-179.687500
9744,-179.687500
9745,-179.687500
9746,-179.687500
9747,-175.781250
9748,-175.781250
9749,-175.781250
9750,-175.781250
9751,-175.781250
9752,-175.781250
9753,-175.781250
9754,-175.781250
9755,-175.781250
9756,-175.781250
9757,-175.781250
9758,-175.781250
9759,-175.781250
9760,-175.781250
9761,-171.875000
9762,-175.781250
9763,-171.875000
9764,-171.875000
9765,-171.875000
9766,-175.781250
9767,-171.875000
9768,-171.875000
9769,-171.875000
9770,-171.875000
9771,-171.875000
9772,-171.875000
9773,-171.875000
9774,-171.875000
9775,-167.968750
9776,-167.968750
9777,-167.968750
9778,-167.968750
9779,-167.968750
9780,-167.968750
9781,-167.968750
9782,-167.968750
9783,-167.968750
9784,-167.968750
9785,-164.062500
9786,-164.062500
9787,-164.062500
9788,-164.062500
9789,-164.062500
9790,-164.062500
9791,-164.062500
9792,-164.062500
9793,-160.156250
9794,-160.156250
9795,-160.156250
9796,-160.156250
9797,-160.156250
9798,-160.156250
9799,-160.156250
9800,-156.250000
9801,-156.250000
9802,-156.250000
9803,-156.250000
9804,-156.250000
9805,-156.250000
9806,-156.250000
9807,-152.343750
9808,-152.343750
9809,-152.343750
9810,-152.343750
9811,-152.343750
9812,-152.343750
9813,-148.437500
9814,-148.437500
9815,-148.437500
9816,-148.437500
9817,-148.437500
9818,-148.437500
9819,-144.531250
9820,-144.531250
9821,-144.531250
9822,-144.531250
9823,-144.531250
9824,-144.531250
9825,-144.531250
9826,-140.625000
9827,-140.625000
9828,-140.625000
9829,-136.718750
9830,-136.718750
9831,-136.718750
9832,-136.718750
9833,-136.718750
9834,-136.718750
9835,-136.718750
9836,-132.812500
9837,-132.812500
9838,-132.812500
9839,-132.812500
9840,-132.812500
9841,-128.906250
9842,-128.906250
9843,-128.906250
9844,-128.906250
9845,-128.906250
9846,-128.906250
9847,-125.000000
9848,-125.000000
9849,-125.000000
9850,-125.000000
9851,-121.093750
9852,-121.093750
9853,-121.093750
9854,-121.093750
9855,-117.187500
9856,-117.187500
9857,-117.187500
9858,-117.187500
9859,-117.187500
9860,-117.187500
9861,-113.281250
9862,-113.281250
9863,-113.281250
9864,-113.281250
9865,-109.375000
9866,-109.375000
9867,-109.375000
9868,-109.375000
9869,-105.468750
9870,-105.468750
9871,-105.468750
9872,-105.468750
9873,-101.562500
9874,-101.562500
9875,-101.562500
9876,-101.562500
9877,-97.656250
9878,-97.656250
9879,-97.656250
9880,-97.656250
9881,-97.656250
9882,-93.750000
9883,-93.750000
9884,-93.750000
9885,-93.750000
9886,-93.750000
9887,-89.843750
9888,-89.843750
9889,-89.843750
9890,-85.937500
9891,-85.937500
9892,-85.937500
9893,-85.937500
9894,-82.031250
9895,-82.031250
9896,-82.031250
9897,-82.031250
9898,-78.125000
9899,-78.125000
9900,-78.125000
9901,-74.218750
9902,-74.218750
9903,-74.218750
9904,-74.218750
9905,-74.218750
9906,-74.218750
9907,-70.312500
9908,-70.312500
9909,-66.406250
9910,-66.406250
9911,-66.406250
9912,-66.406250
9913,-62.500000
9914,-66.406250
9915,-62.500000
9916,-62.500000
9917,-62.500000
9918,-58.593750
9919,-58.593750
9920,-58.593750
9921,-58.593750
9922,-54.687500
9923,-54.687500
9924,-54.687500
9925,-50.781250
9926,-50.781250
9927,-50.781250
9928,-50.781250
9929,-46.875000
9930,-46.875000
9931,-46.875000
9932,-46.875000
9933,-42.968750
9934,-42.968750
9935,-42.968750
9936,-42.968750
9937,-39.062500
9938,-39.062500
9939,-39.062500
9940,-35.156250
9941,-35.156250
9942,-35.156250
9943,-35.156250
9944,-31.250000
9945,-31.250000
9946,-31.250000
9947,-31.250000
9948,-27.343750
9949,-27.343750
9950,-27.343750
9951,-23.437500
9952,-23.437500
9953,-23.437500
9954,-23.437500
9955,-23.437500
9956,-19.531250
9957,-19.531250
9958,-19.531250
9959,-15.625000
9960,-15.625000
9961,-15.625000
9962,-15.625000
9963,-11.718750
9964,-11.718750
9965,-11.718750
9966,-11.718750
9967,-7.812500
9968,-7.812500
9969,-7.812500
9970,-7.812500
9971,-3.906250
9972,-3.906250
9973,-3.906250
9974,-3.906250
9975,0.000000
9976,0.000000
9977,0.000000
9978,3.906250
9979,3.906250
9980,3.906250
9981,3.906250
9982,7.812500
9983,7.812500
9984,7.812500
9985,7.812500
9986,11.718750
9987,11.718750
9988,11.718750
9989,11.718750
9990,15.625000
9991,15.625000
9992,15.625000
9993,15.625000
9994,19.531250
9995,19.531250
9996,19.531250
9997,19.531250
9998,19.531250
9999,23.437500
10000,23.437500
