Channel              :,CH1
Frequency            :,1.010kHz
Period               :,0.990ms
PK-PK                :,54.69mV
Probe attenuation    :,1X
Voltage per ADC value:,0.244141mV
Time interval        :,1.00000us

index,CH1_Voltage(mV)
1,-31.250000
2,-31.250000
3,-31.250000
4,-27.343750
5,-27.343750
6,-31.250000
7,-27.343750
8,-27.343750
9,-31.250000
10,-27.343750
11,-27.343750
12,-27.343750
13,-27.343750
14,-27.343750
15,-27.343750
16,-27.343750
17,-27.343750
18,-27.343750
19,-27.343750
20,-27.343750
21,-27.343750
22,-27.343750
23,-27.343750
24,-27.343750
25,-27.343750
26,-27.343750
27,-27.343750
28,-27.343750
29,-27.343750
30,-27.343750
31,-27.343750
32,-23.437500
33,-23.437500
34,-23.437500
35,-23.437500
36,-23.437500
37,-23.437500
38,-23.437500
39,-23.437500
40,-23.437500
41,-23.437500
42,-23.437500
43,-23.437500
44,-23.437500
45,-23.437500
46,-23.437500
47,-23.437500
48,-23.437500
49,-23.437500
50,-23.437500
51,-23.437500
52,-23.437500
53,-23.437500
54,-23.437500
55,-19.531250
56,-19.531250
57,-23.437500
58,-19.531250
59,-19.531250
60,-19.531250
61,-19.531250
62,-19.531250
63,-19.531250
64,-19.531250
65,-19.531250
66,-19.531250
67,-19.531250
68,-19.531250
69,-19.531250
70,-19.531250
71,-19.531250
72,-19.531250
73,-19.531250
74,-19.531250
75,-19.531250
76,-19.531250
77,-19.531250
78,-19.531250
79,-19.531250
80,-15.625000
81,-19.531250
82,-15.625000
83,-19.531250
84,-19.531250
85,-19.531250
86,-15.625000
87,-15.625000
88,-15.625000
89,-15.625000
90,-15.625000
91,-15.625000
92,-15.625000
93,-15.625000
94,-15.625000
95,-15.625000
96,-15.625000
97,-15.625000
98,-15.625000
99,-15.625000
100,-15.625000
101,-15.625000
102,-15.625000
103,-15.625000
104,-11.718750
105,-15.625000
106,-15.625000
107,-15.625000
108,-15.625000
109,-15.625000
110,-11.718750
111,-11.718750
112,-11.718750
113,-11.718750
114,-11.718750
115,-11.718750
116,-11.718750
117,-11.718750
118,-11.718750
119,-11.718750
120,-11.718750
121,-11.718750
122,-11.718750
123,-11.718750
124,-11.718750
125,-11.718750
126,-11.718750
127,-11.718750
128,-11.718750
129,-11.718750
130,-11.718750
131,-7.812500
132,-7.812500
133,-11.718750
134,-7.812500
135,-7.812500
136,-7.812500
137,-11.718750
138,-7.812500
139,-7.812500
140,-7.812500
141,-7.812500
142,-7.812500
143,-7.812500
144,-7.812500
145,-7.812500
146,-7.812500
147,-7.812500
148,-7.812500
149,-7.812500
150,-7.812500
151,-7.812500
152,-7.812500
153,-7.812500
154,-7.812500
155,-7.812500
156,-3.906250
157,-7.812500
158,-7.812500
159,-7.812500
160,-3.906250
161,-3.906250
162,-3.906250
163,-3.906250
164,-3.906250
165,-3.906250
166,-3.906250
167,-3.906250
168,-3.906250
169,-3.906250
170,-3.906250
171,-3.906250
172,-3.906250
173,-3.906250
174,-3.906250
175,-3.906250
176,-3.906250
177,-3.906250
178,-3.906250
179,-3.906250
180,-3.906250
181,-3.906250
182,-3.906250
183,-3.906250
184,0.000000
185,0.000000
186,0.000000
187,0.000000
188,0.000000
189,0.000000
190,0.000000
191,0.000000
192,0.000000
193,0.000000
194,0.000000
195,0.000000
196,0.000000
197,0.000000
198,0.000000
199,0.000000
200,0.000000
201,0.000000
202,0.000000
203,0.000000
204,0.000000
205,0.000000
206,0.000000
207,0.000000
208,0.000000
209,0.000000
210,0.000000
211,0.000000
212,3.906250
213,3.906250
214,3.906250
215,3.906250
216,3.906250
217,3.906250
218,3.906250
219,3.906250
220,3.906250
221,3.906250
222,3.906250
223,3.906250
224,3.906250
225,3.906250
226,3.906250
227,3.906250
228,3.906250
229,3.906250
230,3.906250
231,3.906250
232,3.906250
233,3.906250
234,3.906250
235,3.906250
236,3.906250
237,3.906250
238,3.906250
239,3.906250
240,3.906250
241,3.906250
242,3.906250
243,7.812500
244,3.906250
245,7.812500
246,3.906250
247,3.906250
248,7.812500
249,7.812500
250,7.812500
251,7.812500
252,7.812500
253,7.812500
254,7.812500
255,7.812500
256,7.812500
257,7.812500
258,7.812500
259,7.812500
260,7.812500
261,7.812500
262,7.812500
263,7.812500
264,7.812500
265,7.812500
266,7.812500
267,7.812500
268,7.812500
269,7.812500
270,7.812500
271,7.812500
272,7.812500
273,7.812500
274,7.812500
275,7.812500
276,7.812500
277,7.812500
278,7.812500
279,7.812500
280,7.812500
281,7.812500
282,7.812500
283,7.812500
284,7.812500
285,7.812500
286,7.812500
287,7.812500
288,7.812500
289,7.812500
290,11.718750
291,11.718750
292,11.718750
293,7.812500
294,7.812500
295,7.812500
296,11.718750
297,7.812500
298,11.718750
299,11.718750
300,11.718750
301,11.718750
302,11.718750
303,11.718750
304,11.718750
305,11.718750
306,11.718750
307,11.718750
308,11.718750
309,11.718750
310,11.718750
311,11.718750
312,11.718750
313,11.718750
314,11.718750
315,11.718750
316,11.718750
317,11.718750
318,11.718750
319,11.718750
320,11.718750
321,11.718750
322,11.718750
323,11.718750
324,11.718750
325,11.718750
326,11.718750
327,11.718750
328,11.718750
329,11.718750
330,11.718750
331,11.718750
332,11.718750
333,11.718750
334,11.718750
335,11.718750
336,11.718750
337,11.718750
338,11.718750
339,11.718750
340,11.718750
341,11.718750
342,11.718750
343,11.718750
344,11.718750
345,11.718750
346,11.718750
347,11.718750
348,11.718750
349,11.718750
350,11.718750
351,11.718750
352,11.718750
353,11.718750
354,11.718750
355,11.718750
356,11.718750
357,11.718750
358,11.718750
359,11.718750
360,11.718750
361,11.718750
362,11.718750
363,11.718750
364,11.718750
365,11.718750
366,11.718750
367,11.718750
368,11.718750
369,11.718750
370,11.718750
371,11.718750
372,11.718750
373,11.718750
374,11.718750
375,11.718750
376,11.718750
377,11.718750
378,11.718750
379,11.718750
380,11.718750
381,11.718750
382,11.718750
383,11.718750
384,11.718750
385,11.718750
386,11.718750
387,11.718750
388,11.718750
389,11.718750
390,11.718750
391,11.718750
392,11.718750
393,11.718750
394,11.718750
395,11.718750
396,11.718750
397,11.718750
398,11.718750
399,11.718750
400,11.718750
401,11.718750
402,11.718750
403,11.718750
404,11.718750
405,11.718750
406,11.718750
407,11.718750
408,11.718750
409,11.718750
410,11.718750
411,11.718750
412,11.718750
413,11.718750
414,11.718750
415,11.718750
416,11.718750
417,11.718750
418,11.718750
419,11.718750
420,11.718750
421,11.718750
422,11.718750
423,11.718750
424,11.718750
425,11.718750
426,11.718750
427,11.718750
428,11.718750
429,11.718750
430,11.718750
431,11.718750
432,11.718750
433,11.718750
434,11.718750
435,7.812500
436,11.718750
437,11.718750
438,11.718750
439,11.718750
440,11.718750
441,7.812500
442,11.718750
443,7.812500
444,11.718750
445,7.812500
446,11.718750
447,11.718750
448,11.718750
449,7.812500
450,7.812500
451,7.812500
452,7.812500
453,7.812500
454,7.812500
455,7.812500
456,7.812500
457,7.812500
458,7.812500
459,7.812500
460,7.812500
461,7.812500
462,7.812500
463,7.812500
464,7.812500
465,7.812500
466,7.812500
467,7.812500
468,7.812500
469,7.812500
470,7.812500
471,7.812500
472,7.812500
473,7.812500
474,7.812500
475,7.812500
476,7.812500
477,7.812500
478,7.812500
479,7.812500
480,7.812500
481,7.812500
482,7.812500
483,7.812500
484,7.812500
485,3.906250
486,7.812500
487,7.812500
488,7.812500
489,7.812500
490,7.812500
491,3.906250
492,7.812500
493,3.906250
494,3.906250
495,3.906250
496,3.906250
497,3.906250
498,3.906250
499,3.906250
500,3.906250
501,3.906250
502,3.906250
503,3.906250
504,3.906250
505,3.906250
506,3.906250
507,3.906250
508,3.906250
509,3.906250
510,3.906250
511,3.906250
512,3.906250
513,3.906250
514,3.906250
515,3.906250
516,3.906250
517,3.906250
518,3.906250
519,3.906250
520,3.906250
521,3.906250
522,3.906250
523,3.906250
524,0.000000
525,3.906250
526,0.000000
527,0.000000
528,0.000000
529,0.000000
530,0.000000
531,0.000000
532,0.000000
533,0.000000
534,0.000000
535,0.000000
536,0.000000
537,0.000000
538,0.000000
539,0.000000
540,0.000000
541,0.000000
542,0.000000
543,0.000000
544,0.000000
545,0.000000
546,0.000000
547,0.000000
548,0.000000
549,0.000000
550,0.000000
551,0.000000
552,0.000000
553,0.000000
554,-3.906250
555,-3.906250
556,0.000000
557,0.000000
558,-3.906250
559,-3.906250
560,-3.906250
561,-3.906250
562,-3.906250
563,-3.906250
564,-3.906250
565,-3.906250
566,-3.906250
567,-3.906250
568,-3.906250
569,-3.906250
570,-3.906250
571,-3.906250
572,-3.906250
573,-3.906250
574,-3.906250
575,-3.906250
576,-3.906250
577,-3.906250
578,-3.906250
579,-3.906250
580,-3.906250
581,-3.906250
582,-3.906250
583,-3.906250
584,-7.812500
585,-7.812500
586,-3.906250
587,-7.812500
588,-7.812500
589,-7.812500
590,-7.812500
591,-7.812500
592,-7.812500
593,-7.812500
594,-7.812500
595,-7.812500
596,-7.812500
597,-7.812500
598,-7.812500
599,-7.812500
600,-7.812500
601,-7.812500
602,-7.812500
603,-7.812500
604,-7.812500
605,-7.812500
606,-7.812500
607,-7.812500
608,-7.812500
609,-7.812500
610,-11.718750
611,-7.812500
612,-7.812500
613,-7.812500
614,-11.718750
615,-11.718750
616,-11.718750
617,-11.718750
618,-11.718750
619,-11.718750
620,-7.812500
621,-11.718750
622,-11.718750
623,-11.718750
624,-11.718750
625,-11.718750
626,-11.718750
627,-11.718750
628,-11.718750
629,-11.718750
630,-11.718750
631,-11.718750
632,-11.718750
633,-11.718750
634,-11.718750
635,-15.625000
636,-11.718750
637,-11.718750
638,-11.718750
639,-15.625000
640,-15.625000
641,-15.625000
642,-15.625000
643,-15.625000
644,-15.625000
645,-15.625000
646,-15.625000
647,-15.625000
648,-15.625000
649,-15.625000
650,-15.625000
651,-15.625000
652,-15.625000
653,-15.625000
654,-15.625000
655,-15.625000
656,-15.625000
657,-15.625000
658,-15.625000
659,-19.531250
660,-15.625000
661,-19.531250
662,-15.625000
663,-15.625000
664,-15.625000
665,-19.531250
666,-19.531250
667,-19.531250
668,-19.531250
669,-19.531250
670,-19.531250
671,-19.531250
672,-19.531250
673,-19.531250
674,-19.531250
675,-19.531250
676,-19.531250
677,-19.531250
678,-19.531250
679,-19.531250
680,-19.531250
681,-19.531250
682,-19.531250
683,-19.531250
684,-19.531250
685,-19.531250
686,-19.531250
687,-19.531250
688,-23.437500
689,-23.437500
690,-23.437500
691,-23.437500
692,-23.437500
693,-23.437500
694,-23.437500
695,-23.437500
696,-19.531250
697,-23.437500
698,-23.437500
699,-23.437500
700,-23.437500
701,-23.437500
702,-23.437500
703,-23.437500
704,-23.437500
705,-23.437500
706,-23.437500
707,-23.437500
708,-23.437500
709,-23.437500
710,-23.437500
711,-23.437500
712,-23.437500
713,-23.437500
714,-23.437500
715,-23.437500
716,-23.437500
717,-27.343750
718,-23.437500
719,-27.343750
720,-23.437500
721,-23.437500
722,-27.343750
723,-27.343750
724,-27.343750
725,-27.343750
726,-27.343750
727,-27.343750
728,-27.343750
729,-27.343750
730,-27.343750
731,-27.343750
732,-27.343750
733,-27.343750
734,-27.343750
735,-27.343750
736,-27.343750
737,-27.343750
738,-27.343750
739,-27.343750
740,-27.343750
741,-27.343750
742,-27.343750
743,-27.343750
744,-27.343750
745,-27.343750
746,-27.343750
747,-27.343750
748,-27.343750
749,-27.343750
750,-27.343750
751,-31.250000
752,-31.250000
753,-31.250000
754,-31.250000
755,-31.250000
756,-31.250000
757,-31.250000
758,-31.250000
759,-31.250000
760,-31.250000
761,-31.250000
762,-31.250000
763,-31.250000
764,-31.250000
765,-31.250000
766,-31.250000
767,-31.250000
768,-31.250000
769,-31.250000
770,-31.250000
771,-31.250000
772,-31.250000
773,-31.250000
774,-31.250000
775,-31.250000
776,-31.250000
777,-35.156250
778,-31.250000
779,-31.250000
780,-31.250000
781,-31.250000
782,-31.250000
783,-31.250000
784,-31.250000
785,-35.156250
786,-35.156250
787,-31.250000
788,-31.250000
789,-31.250000
790,-35.156250
791,-35.156250
792,-35.156250
793,-35.156250
794,-35.156250
795,-35.156250
796,-35.156250
797,-35.156250
798,-35.156250
799,-35.156250
800,-35.156250
801,-35.156250
802,-35.156250
803,-35.156250
804,-35.156250
805,-35.156250
806,-35.156250
807,-35.156250
808,-35.156250
809,-35.156250
810,-35.156250
811,-35.156250
812,-35.156250
813,-35.156250
814,-35.156250
815,-35.156250
816,-35.156250
817,-35.156250
818,-35.156250
819,-35.156250
820,-35.156250
821,-35.156250
822,-35.156250
823,-35.156250
824,-35.156250
825,-35.156250
826,-35.156250
827,-35.156250
828,-35.156250
829,-35.156250
830,-35.156250
831,-35.156250
832,-35.156250
833,-35.156250
834,-35.156250
835,-35.156250
836,-35.156250
837,-35.156250
838,-35.156250
839,-35.156250
840,-35.156250
841,-39.062500
842,-35.156250
843,-35.156250
844,-35.156250
845,-35.156250
846,-35.156250
847,-39.062500
848,-35.156250
849,-35.156250
850,-35.156250
851,-35.156250
852,-35.156250
853,-35.156250
854,-35.156250
855,-35.156250
856,-35.156250
857,-35.156250
858,-35.156250
859,-39.062500
860,-35.156250
861,-35.156250
862,-35.156250
863,-35.156250
864,-35.156250
865,-39.062500
866,-35.156250
867,-35.156250
868,-35.156250
869,-35.156250
870,-35.156250
871,-35.156250
872,-39.062500
873,-35.156250
874,-35.156250
875,-35.156250
876,-35.156250
877,-35.156250
878,-35.156250
879,-35.156250
880,-35.156250
881,-35.156250
882,-35.156250
883,-35.156250
884,-35.156250
885,-35.156250
886,-35.156250
887,-35.156250
888,-35.156250
889,-35.156250
890,-35.156250
891,-35.156250
892,-35.156250
893,-35.156250
894,-35.156250
895,-35.156250
896,-35.156250
897,-35.156250
898,-35.156250
899,-35.156250
900,-35.156250
901,-35.156250
902,-35.156250
903,-35.156250
904,-35.156250
905,-35.156250
906,-35.156250
907,-35.156250
908,-35.156250
909,-35.156250
910,-35.156250
911,-35.156250
912,-35.156250
913,-35.156250
914,-35.156250
915,-35.156250
916,-35.156250
917,-35.156250
918,-35.156250
919,-35.156250
920,-35.156250
921,-35.156250
922,-35.156250
923,-35.156250
924,-35.156250
925,-35.156250
926,-35.156250
927,-35.156250
928,-35.156250
929,-35.156250
930,-35.156250
931,-35.156250
932,-35.156250
933,-35.156250
934,-35.156250
935,-35.156250
936,-35.156250
937,-35.156250
938,-35.156250
939,-35.156250
940,-35.156250
941,-35.156250
942,-35.156250
943,-35.156250
944,-35.156250
945,-35.156250
946,-35.156250
947,-35.156250
948,-35.156250
949,-35.156250
950,-31.250000
951,-35.156250
952,-35.156250
953,-35.156250
954,-31.250000
955,-31.250000
956,-31.250000
957,-31.250000
958,-31.250000
959,-31.250000
960,-31.250000
961,-31.250000
962,-31.250000
963,-31.250000
964,-31.250000
965,-31.250000
966,-31.250000
967,-31.250000
968,-31.250000
969,-31.250000
970,-31.250000
971,-31.250000
972,-31.250000
973,-31.250000
974,-31.250000
975,-31.250000
976,-31.250000
977,-31.250000
978,-31.250000
979,-31.250000
980,-31.250000
981,-31.250000
982,-27.343750
983,-31.250000
984,-31.250000
985,-31.250000
986,-27.343750
987,-27.343750
988,-27.343750
989,-31.250000
990,-31.250000
991,-27.343750
992,-27.343750
993,-27.343750
994,-27.343750
995,-27.343750
996,-27.343750
997,-27.343750
998,-27.343750
999,-27.343750
1000,-27.343750
1001,-27.343750
1002,-27.343750
1003,-27.343750
1004,-27.343750
1005,-27.343750
1006,-27.343750
1007,-27.343750
1008,-27.343750
1009,-27.343750
1010,-27.343750
1011,-27.343750
1012,-27.343750
1013,-27.343750
1014,-27.343750
1015,-27.343750
1016,-27.343750
1017,-23.437500
1018,-27.343750
1019,-27.343750
1020,-23.437500
1021,-23.437500
1022,-23.437500
1023,-23.437500
1024,-23.437500
1025,-23.437500
1026,-23.437500
1027,-23.437500
1028,-23.437500
1029,-23.437500
1030,-23.437500
1031,-23.437500
1032,-23.437500
1033,-23.437500
1034,-23.437500
1035,-23.437500
1036,-23.437500
1037,-23.437500
1038,-23.437500
1039,-23.437500
1040,-23.437500
1041,-23.437500
1042,-19.531250
1043,-19.531250
1044,-19.531250
1045,-23.437500
1046,-23.437500
1047,-23.437500
1048,-19.531250
1049,-19.531250
1050,-19.531250
1051,-19.531250
1052,-19.531250
1053,-19.531250
1054,-19.531250
1055,-19.531250
1056,-19.531250
1057,-19.531250
1058,-19.531250
1059,-19.531250
1060,-19.531250
1061,-19.531250
1062,-19.531250
1063,-19.531250
1064,-19.531250
1065,-19.531250
1066,-19.531250
1067,-19.531250
1068,-19.531250
1069,-19.531250
1070,-19.531250
1071,-19.531250
1072,-19.531250
1073,-15.625000
1074,-15.625000
1075,-15.625000
1076,-15.625000
1077,-15.625000
1078,-15.625000
1079,-15.625000
1080,-15.625000
1081,-15.625000
1082,-15.625000
1083,-15.625000
1084,-15.625000
1085,-15.625000
1086,-15.625000
1087,-15.625000
1088,-15.625000
1089,-15.625000
1090,-15.625000
1091,-15.625000
1092,-11.718750
1093,-15.625000
1094,-15.625000
1095,-11.718750
1096,-11.718750
1097,-11.718750
1098,-11.718750
1099,-11.718750
1100,-11.718750
1101,-11.718750
1102,-11.718750
1103,-11.718750
1104,-11.718750
1105,-11.718750
1106,-11.718750
1107,-11.718750
1108,-11.718750
1109,-11.718750
1110,-11.718750
1111,-11.718750
1112,-11.718750
1113,-11.718750
1114,-11.718750
1115,-11.718750
1116,-11.718750
1117,-11.718750
1118,-11.718750
1119,-11.718750
1120,-7.812500
1121,-7.812500
1122,-7.812500
1123,-7.812500
1124,-7.812500
1125,-7.812500
1126,-7.812500
1127,-7.812500
1128,-7.812500
1129,-7.812500
1130,-7.812500
1131,-7.812500
1132,-7.812500
1133,-7.812500
1134,-7.812500
1135,-7.812500
1136,-7.812500
1137,-7.812500
1138,-7.812500
1139,-7.812500
1140,-7.812500
1141,-3.906250
1142,-7.812500
1143,-7.812500
1144,-3.906250
1145,-3.906250
1146,-3.906250
1147,-7.812500
1148,-3.906250
1149,-3.906250
1150,-3.906250
1151,-3.906250
1152,-3.906250
1153,-3.906250
1154,-3.906250
1155,-3.906250
1156,-3.906250
1157,-3.906250
1158,-3.906250
1159,-7.812500
1160,-3.906250
1161,-3.906250
1162,-3.906250
1163,-3.906250
1164,-3.906250
1165,-3.906250
1166,-3.906250
1167,-3.906250
1168,0.000000
1169,0.000000
1170,-3.906250
1171,-3.906250
1172,0.000000
1173,0.000000
1174,0.000000
1175,-3.906250
1176,0.000000
1177,0.000000
1178,0.000000
1179,0.000000
1180,0.000000
1181,0.000000
1182,0.000000
1183,0.000000
1184,0.000000
1185,0.000000
1186,0.000000
1187,0.000000
1188,0.000000
1189,0.000000
1190,0.000000
1191,0.000000
1192,0.000000
1193,0.000000
1194,0.000000
1195,0.000000
1196,0.000000
1197,0.000000
1198,0.000000
1199,0.000000
1200,0.000000
1201,0.000000
1202,3.906250
1203,3.906250
1204,3.906250
1205,0.000000
1206,3.906250
1207,3.906250
1208,3.906250
1209,3.906250
1210,3.906250
1211,3.906250
1212,3.906250
1213,3.906250
1214,3.906250
1215,3.906250
1216,3.906250
1217,3.906250
1218,3.906250
1219,3.906250
1220,3.906250
1221,3.906250
1222,3.906250
1223,3.906250
1224,3.906250
1225,3.906250
1226,7.812500
1227,3.906250
1228,7.812500
1229,3.906250
1230,3.906250
1231,3.906250
1232,3.906250
1233,7.812500
1234,7.812500
1235,7.812500
1236,7.812500
1237,7.812500
1238,7.812500
1239,7.812500
1240,7.812500
1241,7.812500
1242,7.812500
1243,7.812500
1244,7.812500
1245,7.812500
1246,7.812500
1247,7.812500
1248,7.812500
1249,7.812500
1250,7.812500
1251,7.812500
1252,7.812500
1253,7.812500
1254,7.812500
1255,7.812500
1256,7.812500
1257,7.812500
1258,7.812500
1259,7.812500
1260,7.812500
1261,7.812500
1262,7.812500
1263,7.812500
1264,7.812500
1265,7.812500
1266,11.718750
1267,7.812500
1268,7.812500
1269,7.812500
1270,7.812500
1271,7.812500
1272,7.812500
1273,7.812500
1274,7.812500
1275,11.718750
1276,11.718750
1277,11.718750
1278,7.812500
1279,7.812500
1280,11.718750
1281,7.812500
1282,11.718750
1283,11.718750
1284,11.718750
1285,11.718750
1286,11.718750
1287,11.718750
1288,11.718750
1289,7.812500
1290,11.718750
1291,11.718750
1292,11.718750
1293,11.718750
1294,11.718750
1295,11.718750
1296,11.718750
1297,11.718750
1298,11.718750
1299,11.718750
1300,11.718750
1301,11.718750
1302,11.718750
1303,11.718750
1304,11.718750
1305,11.718750
1306,11.718750
1307,11.718750
1308,11.718750
1309,11.718750
1310,11.718750
1311,11.718750
1312,11.718750
1313,11.718750
1314,11.718750
1315,11.718750
1316,11.718750
1317,11.718750
1318,11.718750
1319,11.718750
1320,11.718750
1321,11.718750
1322,11.718750
1323,11.718750
1324,11.718750
1325,11.718750
1326,11.718750
1327,11.718750
1328,11.718750
1329,11.718750
1330,11.718750
1331,11.718750
1332,11.718750
1333,11.718750
1334,11.718750
1335,11.718750
1336,11.718750
1337,11.718750
1338,11.718750
1339,11.718750
1340,11.718750
1341,11.718750
1342,11.718750
1343,11.718750
1344,11.718750
1345,11.718750
1346,11.718750
1347,11.718750
1348,11.718750
1349,11.718750
1350,11.718750
1351,11.718750
1352,11.718750
1353,11.718750
1354,11.718750
1355,11.718750
1356,11.718750
1357,11.718750
1358,11.718750
1359,11.718750
1360,11.718750
1361,11.718750
1362,11.718750
1363,11.718750
1364,11.718750
1365,11.718750
1366,11.718750
1367,11.718750
1368,11.718750
1369,11.718750
1370,11.718750
1371,11.718750
1372,11.718750
1373,11.718750
1374,11.718750
1375,11.718750
1376,11.718750
1377,11.718750
1378,11.718750
1379,11.718750
1380,11.718750
1381,11.718750
1382,11.718750
1383,11.718750
1384,11.718750
1385,11.718750
1386,11.718750
1387,11.718750
1388,11.718750
1389,11.718750
1390,11.718750
1391,11.718750
1392,11.718750
1393,11.718750
1394,11.718750
1395,11.718750
1396,11.718750
1397,11.718750
1398,11.718750
1399,11.718750
1400,11.718750
1401,11.718750
1402,11.718750
1403,11.718750
1404,11.718750
1405,11.718750
1406,11.718750
1407,11.718750
1408,11.718750
1409,11.718750
1410,11.718750
1411,11.718750
1412,11.718750
1413,11.718750
1414,11.718750
1415,11.718750
1416,11.718750
1417,11.718750
1418,11.718750
1419,11.718750
1420,11.718750
1421,11.718750
1422,11.718750
1423,11.718750
1424,11.718750
1425,11.718750
1426,11.718750
1427,11.718750
1428,11.718750
1429,11.718750
1430,7.812500
1431,7.812500
1432,7.812500
1433,7.812500
1434,7.812500
1435,11.718750
1436,11.718750
1437,7.812500
1438,7.812500
1439,7.812500
1440,7.812500
1441,7.812500
1442,7.812500
1443,7.812500
1444,7.812500
1445,7.812500
1446,7.812500
1447,7.812500
1448,7.812500
1449,7.812500
1450,7.812500
1451,7.812500
1452,7.812500
1453,7.812500
1454,7.812500
1455,7.812500
1456,7.812500
1457,7.812500
1458,7.812500
1459,7.812500
1460,7.812500
1461,7.812500
1462,7.812500
1463,11.718750
1464,7.812500
1465,7.812500
1466,7.812500
1467,7.812500
1468,7.812500
1469,7.812500
1470,7.812500
1471,7.812500
1472,7.812500
1473,7.812500
1474,7.812500
1475,7.812500
1476,3.906250
1477,7.812500
1478,3.906250
1479,3.906250
1480,7.812500
1481,7.812500
1482,7.812500
1483,7.812500
1484,3.906250
1485,3.906250
1486,3.906250
1487,3.906250
1488,3.906250
1489,3.906250
1490,3.906250
1491,3.906250
1492,3.906250
1493,3.906250
1494,3.906250
1495,3.906250
1496,3.906250
1497,3.906250
1498,3.906250
1499,3.906250
1500,3.906250
1501,3.906250
1502,3.906250
1503,3.906250
1504,3.906250
1505,3.906250
1506,3.906250
1507,3.906250
1508,3.906250
1509,3.906250
1510,3.906250
1511,3.906250
1512,3.906250
1513,3.906250
1514,3.906250
1515,3.906250
1516,3.906250
1517,0.000000
1518,3.906250
1519,0.000000
1520,0.000000
1521,0.000000
1522,0.000000
1523,0.000000
1524,0.000000
1525,0.000000
1526,0.000000
1527,0.000000
1528,0.000000
1529,0.000000
1530,0.000000
1531,0.000000
1532,0.000000
1533,0.000000
1534,0.000000
1535,0.000000
1536,0.000000
1537,0.000000
1538,0.000000
1539,0.000000
1540,0.000000
1541,0.000000
1542,0.000000
1543,-3.906250
1544,-3.906250
1545,-3.906250
1546,0.000000
1547,0.000000
1548,0.000000
1549,-3.906250
1550,-3.906250
1551,-3.906250
1552,-3.906250
1553,-3.906250
1554,-3.906250
1555,-3.906250
1556,-3.906250
1557,-3.906250
1558,-3.906250
1559,-3.906250
1560,-3.906250
1561,-3.906250
1562,-3.906250
1563,-3.906250
1564,-3.906250
1565,-3.906250
1566,-3.906250
1567,-3.906250
1568,-3.906250
1569,-3.906250
1570,-3.906250
1571,-3.906250
1572,-3.906250
1573,-7.812500
1574,-7.812500
1575,-3.906250
1576,-3.906250
1577,-7.812500
1578,-7.812500
1579,-7.812500
1580,-7.812500
1581,-7.812500
1582,-7.812500
1583,-7.812500
1584,-7.812500
1585,-7.812500
1586,-7.812500
1587,-7.812500
1588,-7.812500
1589,-7.812500
1590,-7.812500
1591,-7.812500
1592,-7.812500
1593,-7.812500
1594,-7.812500
1595,-7.812500
1596,-7.812500
1597,-7.812500
1598,-7.812500
1599,-11.718750
1600,-11.718750
1601,-11.718750
1602,-7.812500
1603,-11.718750
1604,-11.718750
1605,-11.718750
1606,-11.718750
1607,-11.718750
1608,-11.718750
1609,-11.718750
1610,-11.718750
1611,-11.718750
1612,-11.718750
1613,-11.718750
1614,-11.718750
1615,-11.718750
1616,-11.718750
1617,-11.718750
1618,-11.718750
1619,-11.718750
1620,-11.718750
1621,-11.718750
1622,-11.718750
1623,-11.718750
1624,-11.718750
1625,-11.718750
1626,-11.718750
1627,-11.718750
1628,-11.718750
1629,-15.625000
1630,-11.718750
1631,-15.625000
1632,-15.625000
1633,-15.625000
1634,-15.625000
1635,-15.625000
1636,-15.625000
1637,-15.625000
1638,-15.625000
1639,-15.625000
1640,-15.625000
1641,-15.625000
1642,-15.625000
1643,-15.625000
1644,-15.625000
1645,-15.625000
1646,-15.625000
1647,-15.625000
1648,-15.625000
1649,-15.625000
1650,-15.625000
1651,-15.625000
1652,-15.625000
1653,-15.625000
1654,-15.625000
1655,-19.531250
1656,-19.531250
1657,-19.531250
1658,-19.531250
1659,-19.531250
1660,-19.531250
1661,-19.531250
1662,-19.531250
1663,-19.531250
1664,-19.531250
1665,-19.531250
1666,-19.531250
1667,-19.531250
1668,-19.531250
1669,-19.531250
1670,-19.531250
1671,-19.531250
1672,-19.531250
1673,-19.531250
1674,-19.531250
1675,-19.531250
1676,-19.531250
1677,-19.531250
1678,-19.531250
1679,-23.437500
1680,-23.437500
1681,-23.437500
1682,-23.437500
1683,-23.437500
1684,-23.437500
1685,-23.437500
1686,-23.437500
1687,-23.437500
1688,-23.437500
1689,-23.437500
1690,-23.437500
1691,-23.437500
1692,-23.437500
1693,-23.437500
1694,-23.437500
1695,-23.437500
1696,-23.437500
1697,-23.437500
1698,-23.437500
1699,-23.437500
1700,-23.437500
1701,-23.437500
1702,-23.437500
1703,-27.343750
1704,-27.343750
1705,-27.343750
1706,-23.437500
1707,-23.437500
1708,-23.437500
1709,-27.343750
1710,-27.343750
1711,-27.343750
1712,-27.343750
1713,-27.343750
1714,-27.343750
1715,-27.343750
1716,-27.343750
1717,-27.343750
1718,-27.343750
1719,-27.343750
1720,-27.343750
1721,-27.343750
1722,-27.343750
1723,-27.343750
1724,-27.343750
1725,-27.343750
1726,-27.343750
1727,-27.343750
1728,-27.343750
1729,-27.343750
1730,-27.343750
1731,-27.343750
1732,-27.343750
1733,-27.343750
1734,-27.343750
1735,-27.343750
1736,-27.343750
1737,-31.250000
1738,-27.343750
1739,-31.250000
1740,-27.343750
1741,-31.250000
1742,-27.343750
1743,-31.250000
1744,-27.343750
1745,-31.250000
1746,-27.343750
1747,-31.250000
1748,-31.250000
1749,-31.250000
1750,-31.250000
1751,-31.250000
1752,-31.250000
1753,-31.250000
1754,-31.250000
1755,-31.250000
1756,-31.250000
1757,-31.250000
1758,-31.250000
1759,-31.250000
1760,-31.250000
1761,-31.250000
1762,-31.250000
1763,-31.250000
1764,-31.250000
1765,-31.250000
1766,-31.250000
1767,-31.250000
1768,-31.250000
1769,-31.250000
1770,-31.250000
1771,-31.250000
1772,-31.250000
1773,-31.250000
1774,-31.250000
1775,-31.250000
1776,-31.250000
1777,-35.156250
1778,-31.250000
1779,-31.250000
1780,-31.250000
1781,-31.250000
1782,-31.250000
1783,-35.156250
1784,-31.250000
1785,-35.156250
1786,-31.250000
1787,-31.250000
1788,-35.156250
1789,-35.156250
1790,-35.156250
1791,-35.156250
1792,-35.156250
1793,-35.156250
1794,-35.156250
1795,-35.156250
1796,-35.156250
1797,-35.156250
1798,-35.156250
1799,-35.156250
1800,-35.156250
1801,-35.156250
1802,-35.156250
1803,-35.156250
1804,-35.156250
1805,-35.156250
1806,-35.156250
1807,-35.156250
1808,-35.156250
1809,-35.156250
1810,-35.156250
1811,-35.156250
1812,-35.156250
1813,-35.156250
1814,-35.156250
1815,-35.156250
1816,-35.156250
1817,-35.156250
1818,-35.156250
1819,-35.156250
1820,-35.156250
1821,-35.156250
1822,-35.156250
1823,-35.156250
1824,-35.156250
1825,-35.156250
1826,-35.156250
1827,-35.156250
1828,-35.156250
1829,-35.156250
1830,-35.156250
1831,-35.156250
1832,-35.156250
1833,-35.156250
1834,-35.156250
1835,-35.156250
1836,-35.156250
1837,-35.156250
1838,-35.156250
1839,-35.156250
1840,-35.156250
1841,-35.156250
1842,-35.156250
1843,-35.156250
1844,-35.156250
1845,-35.156250
1846,-35.156250
1847,-35.156250
1848,-35.156250
1849,-35.156250
1850,-35.156250
1851,-35.156250
1852,-35.156250
1853,-35.156250
1854,-35.156250
1855,-35.156250
1856,-35.156250
1857,-35.156250
1858,-39.062500
1859,-35.156250
1860,-35.156250
1861,-39.062500
1862,-35.156250
1863,-35.156250
1864,-35.156250
1865,-39.062500
1866,-35.156250
1867,-35.156250
1868,-35.156250
1869,-35.156250
1870,-35.156250
1871,-35.156250
1872,-35.156250
1873,-35.156250
1874,-35.156250
1875,-35.156250
1876,-35.156250
1877,-35.156250
1878,-35.156250
1879,-35.156250
1880,-35.156250
1881,-35.156250
1882,-35.156250
1883,-35.156250
1884,-35.156250
1885,-35.156250
1886,-35.156250
1887,-35.156250
1888,-35.156250
1889,-35.156250
1890,-35.156250
1891,-35.156250
1892,-35.156250
1893,-35.156250
1894,-35.156250
1895,-35.156250
1896,-35.156250
1897,-35.156250
1898,-35.156250
1899,-35.156250
1900,-35.156250
1901,-35.156250
1902,-35.156250
1903,-35.156250
1904,-35.156250
1905,-35.156250
1906,-35.156250
1907,-35.156250
1908,-35.156250
1909,-35.156250
1910,-35.156250
1911,-35.156250
1912,-35.156250
1913,-35.156250
1914,-35.156250
1915,-35.156250
1916,-35.156250
1917,-35.156250
1918,-35.156250
1919,-35.156250
1920,-35.156250
1921,-35.156250
1922,-35.156250
1923,-35.156250
1924,-35.156250
1925,-35.156250
1926,-35.156250
1927,-35.156250
1928,-35.156250
1929,-35.156250
1930,-35.156250
1931,-35.156250
1932,-35.156250
1933,-35.156250
1934,-35.156250
1935,-35.156250
1936,-31.250000
1937,-35.156250
1938,-35.156250
1939,-35.156250
1940,-35.156250
1941,-35.156250
1942,-31.250000
1943,-31.250000
1944,-31.250000
1945,-31.250000
1946,-31.250000
1947,-35.156250
1948,-31.250000
1949,-31.250000
1950,-31.250000
1951,-31.250000
1952,-31.250000
1953,-31.250000
1954,-31.250000
1955,-31.250000
1956,-31.250000
1957,-31.250000
1958,-31.250000
1959,-31.250000
1960,-31.250000
1961,-31.250000
1962,-31.250000
1963,-31.250000
1964,-31.250000
1965,-31.250000
1966,-31.250000
1967,-31.250000
1968,-31.250000
1969,-31.250000
1970,-31.250000
1971,-31.250000
1972,-31.250000
1973,-31.250000
1974,-27.343750
1975,-31.250000
1976,-31.250000
1977,-31.250000
1978,-31.250000
1979,-31.250000
1980,-27.343750
1981,-27.343750
1982,-27.343750
1983,-27.343750
1984,-27.343750
1985,-27.343750
1986,-27.343750
1987,-27.343750
1988,-27.343750
1989,-27.343750
1990,-27.343750
1991,-27.343750
1992,-27.343750
1993,-27.343750
1994,-27.343750
1995,-27.343750
1996,-27.343750
1997,-27.343750
1998,-27.343750
1999,-27.343750
2000,-27.343750
2001,-27.343750
2002,-27.343750
2003,-27.343750
2004,-27.343750
2005,-27.343750
2006,-23.437500
2007,-23.437500
2008,-23.437500
2009,-23.437500
2010,-23.437500
2011,-23.437500
2012,-23.437500
2013,-23.437500
2014,-23.437500
2015,-23.437500
2016,-23.437500
2017,-23.437500
2018,-23.437500
2019,-23.437500
2020,-23.437500
2021,-23.437500
2022,-23.437500
2023,-23.437500
2024,-23.437500
2025,-23.437500
2026,-23.437500
2027,-23.437500
2028,-19.531250
2029,-23.437500
2030,-23.437500
2031,-23.437500
2032,-23.437500
2033,-19.531250
2034,-23.437500
2035,-19.531250
2036,-19.531250
2037,-19.531250
2038,-19.531250
2039,-19.531250
2040,-19.531250
2041,-19.531250
2042,-19.531250
2043,-19.531250
2044,-19.531250
2045,-19.531250
2046,-19.531250
2047,-19.531250
2048,-19.531250
2049,-19.531250
2050,-19.531250
2051,-19.531250
2052,-19.531250
2053,-19.531250
2054,-19.531250
2055,-19.531250
2056,-19.531250
2057,-19.531250
2058,-19.531250
2059,-19.531250
2060,-15.625000
2061,-15.625000
2062,-15.625000
2063,-19.531250
2064,-15.625000
2065,-15.625000
2066,-15.625000
2067,-15.625000
2068,-15.625000
2069,-15.625000
2070,-15.625000
2071,-15.625000
2072,-15.625000
2073,-15.625000
2074,-15.625000
2075,-15.625000
2076,-15.625000
2077,-15.625000
2078,-15.625000
2079,-15.625000
2080,-15.625000
2081,-15.625000
2082,-15.625000
2083,-15.625000
2084,-15.625000
2085,-11.718750
2086,-15.625000
2087,-11.718750
2088,-11.718750
2089,-11.718750
2090,-11.718750
2091,-11.718750
2092,-11.718750
2093,-11.718750
2094,-11.718750
2095,-11.718750
2096,-11.718750
2097,-11.718750
2098,-11.718750
2099,-11.718750
2100,-11.718750
2101,-11.718750
2102,-11.718750
2103,-11.718750
2104,-11.718750
2105,-11.718750
2106,-11.718750
2107,-11.718750
2108,-11.718750
2109,-11.718750
2110,-11.718750
2111,-11.718750
2112,-7.812500
2113,-7.812500
2114,-7.812500
2115,-7.812500
2116,-7.812500
2117,-7.812500
2118,-7.812500
2119,-7.812500
2120,-7.812500
2121,-7.812500
2122,-7.812500
2123,-7.812500
2124,-7.812500
2125,-7.812500
2126,-7.812500
2127,-7.812500
2128,-7.812500
2129,-7.812500
2130,-7.812500
2131,-7.812500
2132,-3.906250
2133,-3.906250
2134,-3.906250
2135,-3.906250
2136,-3.906250
2137,-3.906250
2138,-3.906250
2139,-3.906250
2140,-3.906250
2141,-3.906250
2142,-3.906250
2143,-3.906250
2144,-3.906250
2145,-3.906250
2146,-3.906250
2147,-3.906250
2148,-3.906250
2149,-3.906250
2150,-3.906250
2151,-3.906250
2152,-3.906250
2153,-3.906250
2154,-3.906250
2155,-3.906250
2156,0.000000
2157,0.000000
2158,0.000000
2159,0.000000
2160,-3.906250
2161,-3.906250
2162,0.000000
2163,0.000000
2164,0.000000
2165,0.000000
2166,0.000000
2167,0.000000
2168,0.000000
2169,0.000000
2170,0.000000
2171,0.000000
2172,0.000000
2173,0.000000
2174,0.000000
2175,0.000000
2176,0.000000
2177,0.000000
2178,0.000000
2179,0.000000
2180,0.000000
2181,0.000000
2182,0.000000
2183,0.000000
2184,0.000000
2185,0.000000
2186,0.000000
2187,0.000000
2188,3.906250
2189,0.000000
2190,0.000000
2191,3.906250
2192,3.906250
2193,3.906250
2194,3.906250
2195,3.906250
2196,3.906250
2197,3.906250
2198,3.906250
2199,3.906250
2200,3.906250
2201,3.906250
2202,3.906250
2203,3.906250
2204,3.906250
2205,3.906250
2206,3.906250
2207,3.906250
2208,3.906250
2209,3.906250
2210,3.906250
2211,3.906250
2212,3.906250
2213,3.906250
2214,3.906250
2215,3.906250
2216,3.906250
2217,3.906250
2218,3.906250
2219,3.906250
2220,3.906250
2221,3.906250
2222,3.906250
2223,3.906250
2224,7.812500
2225,3.906250
2226,7.812500
2227,7.812500
2228,7.812500
2229,7.812500
2230,7.812500
2231,7.812500
2232,7.812500
2233,7.812500
2234,7.812500
2235,7.812500
2236,7.812500
2237,7.812500
2238,7.812500
2239,7.812500
2240,7.812500
2241,7.812500
2242,7.812500
2243,7.812500
2244,7.812500
2245,7.812500
2246,7.812500
2247,7.812500
2248,7.812500
2249,7.812500
2250,7.812500
2251,7.812500
2252,7.812500
2253,7.812500
2254,7.812500
2255,7.812500
2256,7.812500
2257,7.812500
2258,7.812500
2259,7.812500
2260,7.812500
2261,7.812500
2262,11.718750
2263,7.812500
2264,7.812500
2265,7.812500
2266,7.812500
2267,7.812500
2268,7.812500
2269,7.812500
2270,11.718750
2271,11.718750
2272,11.718750
2273,11.718750
2274,7.812500
2275,11.718750
2276,11.718750
2277,11.718750
2278,11.718750
2279,11.718750
2280,11.718750
2281,11.718750
2282,11.718750
2283,11.718750
2284,11.718750
2285,11.718750
2286,11.718750
2287,11.718750
2288,11.718750
2289,11.718750
2290,11.718750
2291,11.718750
2292,11.718750
2293,11.718750
2294,11.718750
2295,11.718750
2296,11.718750
2297,11.718750
2298,11.718750
2299,11.718750
2300,11.718750
2301,11.718750
2302,11.718750
2303,11.718750
2304,11.718750
2305,11.718750
2306,11.718750
2307,11.718750
2308,11.718750
2309,11.718750
2310,11.718750
2311,11.718750
2312,11.718750
2313,11.718750
2314,11.718750
2315,11.718750
2316,11.718750
2317,11.718750
2318,11.718750
2319,11.718750
2320,11.718750
2321,11.718750
2322,11.718750
2323,11.718750
2324,11.718750
2325,11.718750
2326,11.718750
2327,11.718750
2328,11.718750
2329,11.718750
2330,11.718750
2331,11.718750
2332,11.718750
2333,11.718750
2334,11.718750
2335,11.718750
2336,11.718750
2337,11.718750
2338,11.718750
2339,11.718750
2340,11.718750
2341,11.718750
2342,11.718750
2343,11.718750
2344,11.718750
2345,11.718750
2346,11.718750
2347,11.718750
2348,11.718750
2349,11.718750
2350,11.718750
2351,11.718750
2352,11.718750
2353,11.718750
2354,11.718750
2355,11.718750
2356,11.718750
2357,11.718750
2358,11.718750
2359,11.718750
2360,11.718750
2361,11.718750
2362,11.718750
2363,11.718750
2364,11.718750
2365,11.718750
2366,11.718750
2367,11.718750
2368,11.718750
2369,11.718750
2370,11.718750
2371,11.718750
2372,11.718750
2373,11.718750
2374,11.718750
2375,11.718750
2376,11.718750
2377,11.718750
2378,11.718750
2379,11.718750
2380,11.718750
2381,11.718750
2382,11.718750
2383,11.718750
2384,11.718750
2385,11.718750
2386,11.718750
2387,11.718750
2388,11.718750
2389,11.718750
2390,11.718750
2391,11.718750
2392,11.718750
2393,11.718750
2394,11.718750
2395,11.718750
2396,11.718750
2397,11.718750
2398,11.718750
2399,11.718750
2400,11.718750
2401,11.718750
2402,11.718750
2403,11.718750
2404,11.718750
2405,11.718750
2406,11.718750
2407,11.718750
2408,11.718750
2409,11.718750
2410,11.718750
2411,11.718750
2412,11.718750
2413,11.718750
2414,11.718750
2415,11.718750
2416,11.718750
2417,11.718750
2418,7.812500
2419,11.718750
2420,11.718750
2421,11.718750
2422,11.718750
2423,11.718750
2424,11.718750
2425,11.718750
2426,11.718750
2427,7.812500
2428,7.812500
2429,7.812500
2430,7.812500
2431,7.812500
2432,7.812500
2433,7.812500
2434,7.812500
2435,7.812500
2436,7.812500
2437,7.812500
2438,7.812500
2439,7.812500
2440,7.812500
2441,7.812500
2442,7.812500
2443,7.812500
2444,7.812500
2445,7.812500
2446,7.812500
2447,7.812500
2448,7.812500
2449,7.812500
2450,7.812500
2451,7.812500
2452,7.812500
2453,7.812500
2454,7.812500
2455,7.812500
2456,7.812500
2457,7.812500
2458,7.812500
2459,7.812500
2460,7.812500
2461,7.812500
2462,7.812500
2463,7.812500
2464,7.812500
2465,7.812500
2466,7.812500
2467,3.906250
2468,7.812500
2469,7.812500
2470,3.906250
2471,3.906250
2472,7.812500
2473,3.906250
2474,3.906250
2475,7.812500
2476,3.906250
2477,3.906250
2478,3.906250
2479,3.906250
2480,3.906250
2481,3.906250
2482,3.906250
2483,3.906250
2484,3.906250
2485,3.906250
2486,3.906250
2487,3.906250
2488,3.906250
2489,3.906250
2490,3.906250
2491,3.906250
2492,3.906250
2493,3.906250
2494,3.906250
2495,3.906250
2496,3.906250
2497,3.906250
2498,3.906250
2499,3.906250
2500,3.906250
2501,3.906250
2502,3.906250
2503,0.000000
2504,3.906250
2505,3.906250
2506,3.906250
2507,3.906250
2508,3.906250
2509,3.906250
2510,3.906250
2511,3.906250
2512,0.000000
2513,0.000000
2514,0.000000
2515,0.000000
2516,0.000000
2517,0.000000
2518,0.000000
2519,0.000000
2520,0.000000
2521,0.000000
2522,0.000000
2523,0.000000
2524,0.000000
2525,0.000000
2526,0.000000
2527,0.000000
2528,0.000000
2529,0.000000
2530,0.000000
2531,0.000000
2532,0.000000
2533,0.000000
2534,0.000000
2535,0.000000
2536,0.000000
2537,-3.906250
2538,0.000000
2539,0.000000
2540,0.000000
2541,0.000000
2542,0.000000
2543,-3.906250
2544,-3.906250
2545,-3.906250
2546,-3.906250
2547,-3.906250
2548,-3.906250
2549,-3.906250
2550,-3.906250
2551,-3.906250
2552,-3.906250
2553,-3.906250
2554,-3.906250
2555,-3.906250
2556,-3.906250
2557,-3.906250
2558,-3.906250
2559,-3.906250
2560,-3.906250
2561,-3.906250
2562,-3.906250
2563,-3.906250
2564,-3.906250
2565,-3.906250
2566,-3.906250
2567,-3.906250
2568,-3.906250
2569,-7.812500
2570,-3.906250
2571,-7.812500
2572,-7.812500
2573,-7.812500
2574,-7.812500
2575,-7.812500
2576,-7.812500
2577,-7.812500
2578,-7.812500
2579,-7.812500
2580,-7.812500
2581,-7.812500
2582,-7.812500
2583,-7.812500
2584,-7.812500
2585,-7.812500
2586,-7.812500
2587,-7.812500
2588,-7.812500
2589,-7.812500
2590,-7.812500
2591,-7.812500
2592,-7.812500
2593,-11.718750
2594,-7.812500
2595,-11.718750
2596,-7.812500
2597,-11.718750
2598,-11.718750
2599,-11.718750
2600,-11.718750
2601,-11.718750
2602,-11.718750
2603,-11.718750
2604,-11.718750
2605,-11.718750
2606,-11.718750
2607,-11.718750
2608,-11.718750
2609,-11.718750
2610,-11.718750
2611,-11.718750
2612,-11.718750
2613,-11.718750
2614,-11.718750
2615,-15.625000
2616,-11.718750
2617,-11.718750
2618,-11.718750
2619,-11.718750
2620,-15.625000
2621,-15.625000
2622,-15.625000
2623,-15.625000
2624,-15.625000
2625,-15.625000
2626,-15.625000
2627,-15.625000
2628,-15.625000
2629,-15.625000
2630,-15.625000
2631,-15.625000
2632,-15.625000
2633,-15.625000
2634,-15.625000
2635,-15.625000
2636,-15.625000
2637,-15.625000
2638,-15.625000
2639,-15.625000
2640,-15.625000
2641,-15.625000
2642,-15.625000
2643,-19.531250
2644,-19.531250
2645,-19.531250
2646,-19.531250
2647,-19.531250
2648,-19.531250
2649,-19.531250
2650,-19.531250
2651,-19.531250
2652,-19.531250
2653,-19.531250
2654,-19.531250
2655,-19.531250
2656,-19.531250
2657,-19.531250
2658,-19.531250
2659,-19.531250
2660,-19.531250
2661,-19.531250
2662,-19.531250
2663,-19.531250
2664,-19.531250
2665,-19.531250
2666,-23.437500
2667,-23.437500
2668,-19.531250
2669,-19.531250
2670,-23.437500
2671,-23.437500
2672,-23.437500
2673,-19.531250
2674,-23.437500
2675,-23.437500
2676,-23.437500
2677,-23.437500
2678,-19.531250
2679,-23.437500
2680,-23.437500
2681,-23.437500
2682,-23.437500
2683,-23.437500
2684,-23.437500
2685,-23.437500
2686,-23.437500
2687,-23.437500
2688,-23.437500
2689,-23.437500
2690,-23.437500
2691,-23.437500
2692,-23.437500
2693,-23.437500
2694,-23.437500
2695,-23.437500
2696,-23.437500
2697,-23.437500
2698,-23.437500
2699,-27.343750
2700,-23.437500
2701,-23.437500
2702,-27.343750
2703,-27.343750
2704,-27.343750
2705,-27.343750
2706,-27.343750
2707,-27.343750
2708,-27.343750
2709,-27.343750
2710,-27.343750
2711,-27.343750
2712,-27.343750
2713,-27.343750
2714,-27.343750
2715,-27.343750
2716,-27.343750
2717,-27.343750
2718,-27.343750
2719,-27.343750
2720,-27.343750
2721,-27.343750
2722,-27.343750
2723,-27.343750
2724,-27.343750
2725,-27.343750
2726,-27.343750
2727,-27.343750
2728,-27.343750
2729,-31.250000
2730,-27.343750
2731,-31.250000
2732,-31.250000
2733,-31.250000
2734,-31.250000
2735,-31.250000
2736,-31.250000
2737,-31.250000
2738,-31.250000
2739,-31.250000
2740,-31.250000
2741,-31.250000
2742,-31.250000
2743,-31.250000
2744,-31.250000
2745,-31.250000
2746,-31.250000
2747,-31.250000
2748,-31.250000
2749,-31.250000
2750,-31.250000
2751,-31.250000
2752,-31.250000
2753,-35.156250
2754,-31.250000
2755,-31.250000
2756,-31.250000
2757,-31.250000
2758,-31.250000
2759,-31.250000
2760,-31.250000
2761,-31.250000
2762,-31.250000
2763,-31.250000
2764,-31.250000
2765,-31.250000
2766,-35.156250
2767,-35.156250
2768,-35.156250
2769,-35.156250
2770,-31.250000
2771,-35.156250
2772,-31.250000
2773,-35.156250
2774,-31.250000
2775,-35.156250
2776,-35.156250
2777,-35.156250
2778,-35.156250
2779,-35.156250
2780,-35.156250
2781,-35.156250
2782,-35.156250
2783,-35.156250
2784,-35.156250
2785,-35.156250
2786,-35.156250
2787,-35.156250
2788,-35.156250
2789,-35.156250
2790,-35.156250
2791,-35.156250
2792,-35.156250
2793,-35.156250
2794,-35.156250
2795,-35.156250
2796,-35.156250
2797,-35.156250
2798,-35.156250
2799,-35.156250
2800,-35.156250
2801,-35.156250
2802,-35.156250
2803,-35.156250
2804,-35.156250
2805,-35.156250
2806,-35.156250
2807,-35.156250
2808,-35.156250
2809,-35.156250
2810,-35.156250
2811,-35.156250
2812,-35.156250
2813,-35.156250
2814,-35.156250
2815,-35.156250
2816,-35.156250
2817,-35.156250
2818,-35.156250
2819,-35.156250
2820,-35.156250
2821,-35.156250
2822,-35.156250
2823,-35.156250
2824,-35.156250
2825,-35.156250
2826,-35.156250
2827,-35.156250
2828,-35.156250
2829,-35.156250
2830,-35.156250
2831,-35.156250
2832,-35.156250
2833,-35.156250
2834,-35.156250
2835,-35.156250
2836,-35.156250
2837,-35.156250
2838,-35.156250
2839,-35.156250
2840,-35.156250
2841,-35.156250
2842,-35.156250
2843,-35.156250
2844,-35.156250
2845,-39.062500
2846,-35.156250
2847,-35.156250
2848,-35.156250
2849,-35.156250
2850,-35.156250
2851,-35.156250
2852,-35.156250
2853,-35.156250
2854,-35.156250
2855,-35.156250
2856,-35.156250
2857,-35.156250
2858,-35.156250
2859,-35.156250
2860,-35.156250
2861,-35.156250
2862,-35.156250
2863,-39.062500
2864,-39.062500
2865,-39.062500
2866,-35.156250
2867,-35.156250
2868,-35.156250
2869,-35.156250
2870,-35.156250
2871,-35.156250
2872,-35.156250
2873,-35.156250
2874,-35.156250
2875,-35.156250
2876,-39.062500
2877,-35.156250
2878,-35.156250
2879,-35.156250
2880,-35.156250
2881,-35.156250
2882,-35.156250
2883,-35.156250
2884,-35.156250
2885,-35.156250
2886,-35.156250
2887,-35.156250
2888,-35.156250
2889,-35.156250
2890,-35.156250
2891,-35.156250
2892,-35.156250
2893,-35.156250
2894,-35.156250
2895,-35.156250
2896,-35.156250
2897,-35.156250
2898,-35.156250
2899,-35.156250
2900,-35.156250
2901,-35.156250
2902,-35.156250
2903,-35.156250
2904,-35.156250
2905,-35.156250
2906,-35.156250
2907,-35.156250
2908,-35.156250
2909,-35.156250
2910,-35.156250
2911,-35.156250
2912,-35.156250
2913,-35.156250
2914,-35.156250
2915,-35.156250
2916,-35.156250
2917,-35.156250
2918,-35.156250
2919,-35.156250
2920,-35.156250
2921,-35.156250
2922,-35.156250
2923,-31.250000
2924,-31.250000
2925,-31.250000
2926,-35.156250
2927,-31.250000
2928,-31.250000
2929,-31.250000
2930,-31.250000
2931,-31.250000
2932,-31.250000
2933,-31.250000
2934,-31.250000
2935,-31.250000
2936,-31.250000
2937,-31.250000
2938,-31.250000
2939,-31.250000
2940,-31.250000
2941,-31.250000
2942,-31.250000
2943,-31.250000
2944,-31.250000
2945,-31.250000
2946,-31.250000
2947,-31.250000
2948,-31.250000
2949,-31.250000
2950,-31.250000
2951,-31.250000
2952,-31.250000
2953,-31.250000
2954,-31.250000
2955,-31.250000
2956,-27.343750
2957,-31.250000
2958,-31.250000
2959,-31.250000
2960,-31.250000
2961,-31.250000
2962,-31.250000
2963,-27.343750
2964,-27.343750
2965,-31.250000
2966,-27.343750
2967,-27.343750
2968,-27.343750
2969,-31.250000
2970,-31.250000
2971,-27.343750
2972,-27.343750
2973,-27.343750
2974,-27.343750
2975,-27.343750
2976,-27.343750
2977,-27.343750
2978,-27.343750
2979,-27.343750
2980,-27.343750
2981,-27.343750
2982,-27.343750
2983,-27.343750
2984,-27.343750
2985,-27.343750
2986,-27.343750
2987,-27.343750
2988,-27.343750
2989,-27.343750
2990,-27.343750
2991,-27.343750
2992,-27.343750
2993,-27.343750
2994,-23.437500
2995,-27.343750
2996,-23.437500
2997,-27.343750
2998,-27.343750
2999,-27.343750
3000,-23.437500
3001,-27.343750
3002,-27.343750
3003,-23.437500
3004,-23.437500
3005,-23.437500
3006,-23.437500
3007,-23.437500
3008,-23.437500
3009,-23.437500
3010,-23.437500
3011,-23.437500
3012,-23.437500
3013,-23.437500
3014,-23.437500
3015,-23.437500
3016,-23.437500
3017,-23.437500
3018,-23.437500
3019,-23.437500
3020,-23.437500
3021,-19.531250
3022,-23.437500
3023,-23.437500
3024,-23.437500
3025,-23.437500
3026,-19.531250
3027,-19.531250
3028,-19.531250
3029,-19.531250
3030,-19.531250
3031,-19.531250
3032,-19.531250
3033,-19.531250
3034,-19.531250
3035,-19.531250
3036,-19.531250
3037,-19.531250
3038,-19.531250
3039,-19.531250
3040,-19.531250
3041,-19.531250
3042,-19.531250
3043,-19.531250
3044,-15.625000
3045,-19.531250
3046,-15.625000
3047,-19.531250
3048,-15.625000
3049,-15.625000
3050,-15.625000
3051,-15.625000
3052,-15.625000
3053,-15.625000
3054,-15.625000
3055,-19.531250
3056,-15.625000
3057,-15.625000
3058,-15.625000
3059,-15.625000
3060,-15.625000
3061,-15.625000
3062,-15.625000
3063,-15.625000
3064,-11.718750
3065,-15.625000
3066,-15.625000
3067,-15.625000
3068,-11.718750
3069,-15.625000
3070,-15.625000
3071,-15.625000
3072,-11.718750
3073,-15.625000
3074,-15.625000
3075,-15.625000
3076,-11.718750
3077,-11.718750
3078,-11.718750
3079,-15.625000
3080,-11.718750
3081,-11.718750
3082,-11.718750
3083,-11.718750
3084,-11.718750
3085,-11.718750
3086,-11.718750
3087,-11.718750
3088,-11.718750
3089,-11.718750
3090,-11.718750
3091,-11.718750
3092,-11.718750
3093,-11.718750
3094,-7.812500
3095,-11.718750
3096,-11.718750
3097,-11.718750
3098,-7.812500
3099,-7.812500
3100,-7.812500
3101,-7.812500
3102,-7.812500
3103,-7.812500
3104,-7.812500
3105,-7.812500
3106,-7.812500
3107,-7.812500
3108,-7.812500
3109,-7.812500
3110,-11.718750
3111,-7.812500
3112,-7.812500
3113,-3.906250
3114,-7.812500
3115,-7.812500
3116,-7.812500
3117,-7.812500
3118,-7.812500
3119,-11.718750
3120,-7.812500
3121,-7.812500
3122,-3.906250
3123,-7.812500
3124,-3.906250
3125,-7.812500
3126,-7.812500
3127,-3.906250
3128,-3.906250
3129,-3.906250
3130,-3.906250
3131,-3.906250
3132,-3.906250
3133,-3.906250
3134,-3.906250
3135,-3.906250
3136,-3.906250
3137,-3.906250
3138,-3.906250
3139,-3.906250
3140,-3.906250
3141,-3.906250
3142,-3.906250
3143,-3.906250
3144,-3.906250
3145,-3.906250
3146,-3.906250
3147,-3.906250
3148,-3.906250
3149,-3.906250
3150,-3.906250
3151,-3.906250
3152,0.000000
3153,-3.906250
3154,0.000000
3155,0.000000
3156,0.000000
3157,0.000000
3158,0.000000
3159,0.000000
3160,0.000000
3161,0.000000
3162,0.000000
3163,0.000000
3164,0.000000
3165,0.000000
3166,0.000000
3167,0.000000
3168,0.000000
3169,0.000000
3170,0.000000
3171,0.000000
3172,0.000000
3173,0.000000
3174,0.000000
3175,3.906250
3176,0.000000
3177,0.000000
3178,0.000000
3179,3.906250
3180,3.906250
3181,3.906250
3182,3.906250
3183,3.906250
3184,3.906250
3185,3.906250
3186,3.906250
3187,3.906250
3188,3.906250
3189,3.906250
3190,3.906250
3191,3.906250
3192,3.906250
3193,3.906250
3194,3.906250
3195,3.906250
3196,3.906250
3197,3.906250
3198,3.906250
3199,3.906250
3200,3.906250
3201,3.906250
3202,3.906250
3203,3.906250
3204,3.906250
3205,3.906250
3206,7.812500
3207,7.812500
3208,3.906250
3209,3.906250
3210,3.906250
3211,7.812500
3212,7.812500
3213,7.812500
3214,7.812500
3215,3.906250
3216,7.812500
3217,7.812500
3218,7.812500
3219,7.812500
3220,7.812500
3221,7.812500
3222,7.812500
3223,3.906250
3224,7.812500
3225,7.812500
3226,7.812500
3227,7.812500
3228,7.812500
3229,7.812500
3230,7.812500
3231,7.812500
3232,7.812500
3233,7.812500
3234,7.812500
3235,7.812500
3236,7.812500
3237,7.812500
3238,7.812500
3239,7.812500
3240,7.812500
3241,7.812500
3242,7.812500
3243,7.812500
3244,7.812500
3245,7.812500
3246,7.812500
3247,7.812500
3248,7.812500
3249,7.812500
3250,7.812500
3251,7.812500
3252,7.812500
3253,7.812500
3254,7.812500
3255,7.812500
3256,7.812500
3257,11.718750
3258,7.812500
3259,7.812500
3260,7.812500
3261,7.812500
3262,11.718750
3263,11.718750
3264,11.718750
3265,11.718750
3266,11.718750
3267,7.812500
3268,11.718750
3269,11.718750
3270,11.718750
3271,11.718750
3272,11.718750
3273,7.812500
3274,11.718750
3275,11.718750
3276,11.718750
3277,7.812500
3278,11.718750
3279,11.718750
3280,11.718750
3281,11.718750
3282,11.718750
3283,11.718750
3284,11.718750
3285,11.718750
3286,11.718750
3287,11.718750
3288,11.718750
3289,11.718750
3290,11.718750
3291,11.718750
3292,11.718750
3293,11.718750
3294,11.718750
3295,11.718750
3296,11.718750
3297,11.718750
3298,11.718750
3299,11.718750
3300,11.718750
3301,11.718750
3302,11.718750
3303,11.718750
3304,11.718750
3305,11.718750
3306,11.718750
3307,11.718750
3308,11.718750
3309,11.718750
3310,11.718750
3311,11.718750
3312,11.718750
3313,11.718750
3314,11.718750
3315,11.718750
3316,11.718750
3317,11.718750
3318,11.718750
3319,11.718750
3320,11.718750
3321,11.718750
3322,11.718750
3323,11.718750
3324,11.718750
3325,11.718750
3326,11.718750
3327,11.718750
3328,11.718750
3329,11.718750
3330,11.718750
3331,11.718750
3332,11.718750
3333,11.718750
3334,11.718750
3335,11.718750
3336,11.718750
3337,11.718750
3338,11.718750
3339,11.718750
3340,11.718750
3341,11.718750
3342,11.718750
3343,11.718750
3344,11.718750
3345,11.718750
3346,15.625000
3347,11.718750
3348,11.718750
3349,11.718750
3350,11.718750
3351,11.718750
3352,11.718750
3353,11.718750
3354,11.718750
3355,11.718750
3356,11.718750
3357,11.718750
3358,11.718750
3359,11.718750
3360,11.718750
3361,11.718750
3362,11.718750
3363,11.718750
3364,11.718750
3365,11.718750
3366,11.718750
3367,11.718750
3368,11.718750
3369,11.718750
3370,11.718750
3371,11.718750
3372,11.718750
3373,11.718750
3374,11.718750
3375,11.718750
3376,11.718750
3377,11.718750
3378,11.718750
3379,11.718750
3380,11.718750
3381,11.718750
3382,11.718750
3383,11.718750
3384,11.718750
3385,11.718750
3386,11.718750
3387,11.718750
3388,11.718750
3389,11.718750
3390,11.718750
3391,11.718750
3392,11.718750
3393,11.718750
3394,11.718750
3395,11.718750
3396,11.718750
3397,11.718750
3398,11.718750
3399,11.718750
3400,11.718750
3401,11.718750
3402,11.718750
3403,11.718750
3404,11.718750
3405,11.718750
3406,11.718750
3407,7.812500
3408,7.812500
3409,7.812500
3410,7.812500
3411,7.812500
3412,7.812500
3413,7.812500
3414,7.812500
3415,7.812500
3416,7.812500
3417,7.812500
3418,7.812500
3419,7.812500
3420,7.812500
3421,7.812500
3422,7.812500
3423,7.812500
3424,7.812500
3425,7.812500
3426,11.718750
3427,7.812500
3428,7.812500
3429,7.812500
3430,7.812500
3431,7.812500
3432,3.906250
3433,7.812500
3434,7.812500
3435,7.812500
3436,7.812500
3437,7.812500
3438,7.812500
3439,7.812500
3440,7.812500
3441,7.812500
3442,7.812500
3443,7.812500
3444,7.812500
3445,7.812500
3446,7.812500
3447,7.812500
3448,7.812500
3449,7.812500
3450,7.812500
3451,7.812500
3452,7.812500
3453,7.812500
3454,7.812500
3455,7.812500
3456,7.812500
3457,7.812500
3458,7.812500
3459,3.906250
3460,7.812500
3461,3.906250
3462,3.906250
3463,3.906250
3464,3.906250
3465,3.906250
3466,3.906250
3467,3.906250
3468,7.812500
3469,3.906250
3470,3.906250
3471,3.906250
3472,3.906250
3473,3.906250
3474,3.906250
3475,3.906250
3476,3.906250
3477,3.906250
3478,3.906250
3479,3.906250
3480,3.906250
3481,3.906250
3482,3.906250
3483,3.906250
3484,3.906250
3485,3.906250
3486,3.906250
3487,3.906250
3488,3.906250
3489,3.906250
3490,3.906250
3491,3.906250
3492,3.906250
3493,3.906250
3494,3.906250
3495,3.906250
3496,3.906250
3497,0.000000
3498,0.000000
3499,0.000000
3500,0.000000
3501,0.000000
3502,0.000000
3503,0.000000
3504,0.000000
3505,0.000000
3506,0.000000
3507,0.000000
3508,0.000000
3509,0.000000
3510,0.000000
3511,0.000000
3512,0.000000
3513,0.000000
3514,0.000000
3515,0.000000
3516,0.000000
3517,0.000000
3518,0.000000
3519,0.000000
3520,0.000000
3521,0.000000
3522,0.000000
3523,-3.906250
3524,0.000000
3525,-3.906250
3526,-3.906250
3527,-3.906250
3528,-3.906250
3529,-3.906250
3530,-3.906250
3531,-3.906250
3532,-3.906250
3533,-3.906250
3534,-3.906250
3535,-3.906250
3536,-3.906250
3537,-3.906250
3538,-3.906250
3539,-3.906250
3540,-3.906250
3541,-3.906250
3542,-3.906250
3543,-3.906250
3544,-3.906250
3545,-3.906250
3546,-3.906250
3547,-3.906250
3548,-3.906250
3549,-3.906250
3550,-3.906250
3551,-3.906250
3552,-3.906250
3553,-3.906250
3554,-3.906250
3555,-7.812500
3556,-7.812500
3557,-3.906250
3558,-7.812500
3559,-7.812500
3560,-7.812500
3561,-7.812500
3562,-7.812500
3563,-7.812500
3564,-7.812500
3565,-7.812500
3566,-7.812500
3567,-7.812500
3568,-7.812500
3569,-7.812500
3570,-7.812500
3571,-7.812500
3572,-7.812500
3573,-7.812500
3574,-7.812500
3575,-7.812500
3576,-7.812500
3577,-7.812500
3578,-7.812500
3579,-7.812500
3580,-7.812500
3581,-7.812500
3582,-7.812500
3583,-7.812500
3584,-11.718750
3585,-11.718750
3586,-11.718750
3587,-7.812500
3588,-11.718750
3589,-11.718750
3590,-11.718750
3591,-11.718750
3592,-11.718750
3593,-11.718750
3594,-11.718750
3595,-11.718750
3596,-11.718750
3597,-11.718750
3598,-11.718750
3599,-11.718750
3600,-11.718750
3601,-11.718750
3602,-11.718750
3603,-11.718750
3604,-11.718750
3605,-11.718750
3606,-11.718750
3607,-11.718750
3608,-11.718750
3609,-11.718750
3610,-11.718750
3611,-15.625000
3612,-15.625000
3613,-15.625000
3614,-15.625000
3615,-15.625000
3616,-15.625000
3617,-15.625000
3618,-15.625000
3619,-15.625000
3620,-15.625000
3621,-15.625000
3622,-15.625000
3623,-15.625000
3624,-15.625000
3625,-15.625000
3626,-15.625000
3627,-15.625000
3628,-15.625000
3629,-15.625000
3630,-15.625000
3631,-15.625000
3632,-19.531250
3633,-19.531250
3634,-15.625000
3635,-19.531250
3636,-19.531250
3637,-19.531250
3638,-19.531250
3639,-19.531250
3640,-19.531250
3641,-19.531250
3642,-19.531250
3643,-19.531250
3644,-19.531250
3645,-19.531250
3646,-19.531250
3647,-19.531250
3648,-19.531250
3649,-19.531250
3650,-19.531250
3651,-19.531250
3652,-19.531250
3653,-19.531250
3654,-19.531250
3655,-19.531250
3656,-19.531250
3657,-23.437500
3658,-19.531250
3659,-23.437500
3660,-19.531250
3661,-23.437500
3662,-19.531250
3663,-19.531250
3664,-19.531250
3665,-23.437500
3666,-23.437500
3667,-23.437500
3668,-23.437500
3669,-23.437500
3670,-23.437500
3671,-23.437500
3672,-23.437500
3673,-23.437500
3674,-23.437500
3675,-23.437500
3676,-23.437500
3677,-23.437500
3678,-23.437500
3679,-23.437500
3680,-23.437500
3681,-23.437500
3682,-23.437500
3683,-23.437500
3684,-23.437500
3685,-23.437500
3686,-23.437500
3687,-23.437500
3688,-23.437500
3689,-27.343750
3690,-23.437500
3691,-27.343750
3692,-27.343750
3693,-27.343750
3694,-27.343750
3695,-27.343750
3696,-27.343750
3697,-27.343750
3698,-27.343750
3699,-27.343750
3700,-27.343750
3701,-27.343750
3702,-27.343750
3703,-27.343750
3704,-27.343750
3705,-27.343750
3706,-27.343750
3707,-27.343750
3708,-27.343750
3709,-27.343750
3710,-27.343750
3711,-27.343750
3712,-27.343750
3713,-27.343750
3714,-27.343750
3715,-27.343750
3716,-27.343750
3717,-27.343750
3718,-27.343750
3719,-27.343750
3720,-27.343750
3721,-27.343750
3722,-31.250000
3723,-31.250000
3724,-31.250000
3725,-31.250000
3726,-31.250000
3727,-31.250000
3728,-31.250000
3729,-27.343750
3730,-31.250000
3731,-31.250000
3732,-31.250000
3733,-31.250000
3734,-31.250000
3735,-31.250000
3736,-31.250000
3737,-31.250000
3738,-31.250000
3739,-31.250000
3740,-31.250000
3741,-31.250000
3742,-31.250000
3743,-31.250000
3744,-31.250000
3745,-31.250000
3746,-31.250000
3747,-31.250000
3748,-31.250000
3749,-31.250000
3750,-31.250000
3751,-31.250000
3752,-31.250000
3753,-31.250000
3754,-31.250000
3755,-31.250000
3756,-31.250000
3757,-31.250000
3758,-31.250000
3759,-35.156250
3760,-35.156250
3761,-35.156250
3762,-35.156250
3763,-31.250000
3764,-35.156250
3765,-35.156250
3766,-35.156250
3767,-31.250000
3768,-35.156250
3769,-35.156250
3770,-35.156250
3771,-35.156250
3772,-35.156250
3773,-35.156250
3774,-35.156250
3775,-35.156250
3776,-35.156250
3777,-35.156250
3778,-35.156250
3779,-35.156250
3780,-35.156250
3781,-35.156250
3782,-35.156250
3783,-35.156250
3784,-35.156250
3785,-35.156250
3786,-35.156250
3787,-35.156250
3788,-35.156250
3789,-35.156250
3790,-35.156250
3791,-35.156250
3792,-35.156250
3793,-35.156250
3794,-35.156250
3795,-35.156250
3796,-35.156250
3797,-35.156250
3798,-35.156250
3799,-35.156250
3800,-35.156250
3801,-35.156250
3802,-35.156250
3803,-35.156250
3804,-35.156250
3805,-35.156250
3806,-35.156250
3807,-35.156250
3808,-35.156250
3809,-35.156250
3810,-35.156250
3811,-35.156250
3812,-35.156250
3813,-35.156250
3814,-39.062500
3815,-35.156250
3816,-35.156250
3817,-35.156250
3818,-35.156250
3819,-35.156250
3820,-35.156250
3821,-35.156250
3822,-35.156250
3823,-35.156250
3824,-35.156250
3825,-35.156250
3826,-35.156250
3827,-35.156250
3828,-35.156250
3829,-35.156250
3830,-35.156250
3831,-35.156250
3832,-35.156250
3833,-35.156250
3834,-35.156250
3835,-39.062500
3836,-35.156250
3837,-35.156250
3838,-39.062500
3839,-39.062500
3840,-35.156250
3841,-35.156250
3842,-35.156250
3843,-35.156250
3844,-35.156250
3845,-35.156250
3846,-35.156250
3847,-35.156250
3848,-35.156250
3849,-35.156250
3850,-35.156250
3851,-35.156250
3852,-39.062500
3853,-35.156250
3854,-35.156250
3855,-35.156250
3856,-35.156250
3857,-35.156250
3858,-35.156250
3859,-35.156250
3860,-35.156250
3861,-35.156250
3862,-35.156250
3863,-35.156250
3864,-35.156250
3865,-35.156250
3866,-35.156250
3867,-35.156250
3868,-35.156250
3869,-35.156250
3870,-35.156250
3871,-39.062500
3872,-35.156250
3873,-35.156250
3874,-35.156250
3875,-35.156250
3876,-35.156250
3877,-35.156250
3878,-35.156250
3879,-35.156250
3880,-35.156250
3881,-35.156250
3882,-35.156250
3883,-35.156250
3884,-35.156250
3885,-35.156250
3886,-35.156250
3887,-35.156250
3888,-35.156250
3889,-35.156250
3890,-35.156250
3891,-35.156250
3892,-35.156250
3893,-35.156250
3894,-35.156250
3895,-35.156250
3896,-35.156250
3897,-35.156250
3898,-35.156250
3899,-35.156250
3900,-35.156250
3901,-35.156250
3902,-35.156250
3903,-35.156250
3904,-35.156250
3905,-35.156250
3906,-35.156250
3907,-35.156250
3908,-35.156250
3909,-35.156250
3910,-35.156250
3911,-35.156250
3912,-35.156250
3913,-35.156250
3914,-35.156250
3915,-35.156250
3916,-35.156250
3917,-35.156250
3918,-35.156250
3919,-35.156250
3920,-35.156250
3921,-35.156250
3922,-35.156250
3923,-31.250000
3924,-31.250000
3925,-31.250000
3926,-31.250000
3927,-31.250000
3928,-31.250000
3929,-35.156250
3930,-31.250000
3931,-31.250000
3932,-31.250000
3933,-35.156250
3934,-31.250000
3935,-31.250000
3936,-31.250000
3937,-31.250000
3938,-31.250000
3939,-31.250000
3940,-31.250000
3941,-31.250000
3942,-31.250000
3943,-31.250000
3944,-31.250000
3945,-31.250000
3946,-31.250000
3947,-31.250000
3948,-31.250000
3949,-31.250000
3950,-31.250000
3951,-31.250000
3952,-31.250000
3953,-31.250000
3954,-31.250000
3955,-31.250000
3956,-31.250000
3957,-31.250000
3958,-31.250000
3959,-27.343750
3960,-27.343750
3961,-27.343750
3962,-27.343750
3963,-27.343750
3964,-27.343750
3965,-27.343750
3966,-27.343750
3967,-27.343750
3968,-27.343750
3969,-27.343750
3970,-27.343750
3971,-27.343750
3972,-27.343750
3973,-27.343750
3974,-27.343750
3975,-27.343750
3976,-27.343750
3977,-27.343750
3978,-27.343750
3979,-27.343750
3980,-27.343750
3981,-27.343750
3982,-27.343750
3983,-27.343750
3984,-27.343750
3985,-27.343750
3986,-23.437500
3987,-23.437500
3988,-27.343750
3989,-27.343750
3990,-23.437500
3991,-23.437500
3992,-23.437500
3993,-23.437500
3994,-23.437500
3995,-23.437500
3996,-23.437500
3997,-23.437500
3998,-23.437500
3999,-23.437500
4000,-23.437500
4001,-23.437500
4002,-23.437500
4003,-23.437500
4004,-23.437500
4005,-23.437500
4006,-23.437500
4007,-23.437500
4008,-23.437500
4009,-23.437500
4010,-23.437500
4011,-23.437500
4012,-23.437500
4013,-23.437500
4014,-19.531250
4015,-23.437500
4016,-19.531250
4017,-23.437500
4018,-19.531250
4019,-19.531250
4020,-19.531250
4021,-19.531250
4022,-19.531250
4023,-19.531250
4024,-19.531250
4025,-19.531250
4026,-19.531250
4027,-19.531250
4028,-19.531250
4029,-19.531250
4030,-19.531250
4031,-19.531250
4032,-19.531250
4033,-19.531250
4034,-19.531250
4035,-19.531250
4036,-19.531250
4037,-19.531250
4038,-19.531250
4039,-19.531250
4040,-19.531250
4041,-19.531250
4042,-15.625000
4043,-15.625000
4044,-15.625000
4045,-15.625000
4046,-15.625000
4047,-15.625000
4048,-15.625000
4049,-15.625000
4050,-15.625000
4051,-15.625000
4052,-15.625000
4053,-15.625000
4054,-15.625000
4055,-15.625000
4056,-15.625000
4057,-15.625000
4058,-15.625000
4059,-15.625000
4060,-15.625000
4061,-15.625000
4062,-15.625000
4063,-15.625000
4064,-15.625000
4065,-15.625000
4066,-15.625000
4067,-15.625000
4068,-11.718750
4069,-11.718750
4070,-11.718750
4071,-11.718750
4072,-11.718750
4073,-11.718750
4074,-11.718750
4075,-11.718750
4076,-11.718750
4077,-11.718750
4078,-11.718750
4079,-11.718750
4080,-11.718750
4081,-11.718750
4082,-11.718750
4083,-11.718750
4084,-11.718750
4085,-11.718750
4086,-7.812500
4087,-7.812500
4088,-7.812500
4089,-7.812500
4090,-7.812500
4091,-11.718750
4092,-7.812500
4093,-11.718750
4094,-7.812500
4095,-7.812500
4096,-7.812500
4097,-7.812500
4098,-7.812500
4099,-7.812500
4100,-7.812500
4101,-7.812500
4102,-7.812500
4103,-7.812500
4104,-7.812500
4105,-7.812500
4106,-7.812500
4107,-7.812500
4108,-3.906250
4109,-7.812500
4110,-7.812500
4111,-3.906250
4112,-3.906250
4113,-3.906250
4114,-3.906250
4115,-3.906250
4116,-3.906250
4117,-3.906250
4118,-3.906250
4119,-3.906250
4120,-3.906250
4121,-3.906250
4122,-3.906250
4123,-3.906250
4124,-3.906250
4125,-3.906250
4126,-3.906250
4127,-3.906250
4128,-3.906250
4129,-3.906250
4130,-3.906250
4131,-3.906250
4132,-3.906250
4133,-3.906250
4134,-3.906250
4135,-3.906250
4136,-3.906250
4137,-3.906250
4138,0.000000
4139,-3.906250
4140,0.000000
4141,0.000000
4142,0.000000
4143,0.000000
4144,0.000000
4145,0.000000
4146,0.000000
4147,0.000000
4148,0.000000
4149,0.000000
4150,0.000000
4151,0.000000
4152,0.000000
4153,0.000000
4154,0.000000
4155,0.000000
4156,0.000000
4157,0.000000
4158,0.000000
4159,0.000000
4160,0.000000
4161,0.000000
4162,0.000000
4163,0.000000
4164,0.000000
4165,0.000000
4166,0.000000
4167,0.000000
4168,3.906250
4169,3.906250
4170,3.906250
4171,3.906250
4172,3.906250
4173,3.906250
4174,0.000000
4175,3.906250
4176,3.906250
4177,3.906250
4178,3.906250
4179,3.906250
4180,3.906250
4181,3.906250
4182,3.906250
4183,3.906250
4184,3.906250
4185,7.812500
4186,3.906250
4187,3.906250
4188,3.906250
4189,3.906250
4190,3.906250
4191,3.906250
4192,3.906250
4193,3.906250
4194,3.906250
4195,3.906250
4196,3.906250
4197,3.906250
4198,7.812500
4199,3.906250
4200,3.906250
4201,3.906250
4202,3.906250
4203,3.906250
4204,7.812500
4205,3.906250
4206,7.812500
4207,7.812500
4208,7.812500
4209,7.812500
4210,7.812500
4211,7.812500
4212,7.812500
4213,7.812500
4214,7.812500
4215,7.812500
4216,7.812500
4217,7.812500
4218,7.812500
4219,7.812500
4220,7.812500
4221,7.812500
4222,7.812500
4223,7.812500
4224,7.812500
4225,7.812500
4226,7.812500
4227,7.812500
4228,7.812500
4229,7.812500
4230,7.812500
4231,7.812500
4232,7.812500
4233,7.812500
4234,7.812500
4235,7.812500
4236,7.812500
4237,7.812500
4238,7.812500
4239,7.812500
4240,7.812500
4241,7.812500
4242,11.718750
4243,7.812500
4244,11.718750
4245,11.718750
4246,11.718750
4247,11.718750
4248,11.718750
4249,7.812500
4250,11.718750
4251,7.812500
4252,7.812500
4253,11.718750
4254,11.718750
4255,11.718750
4256,11.718750
4257,7.812500
4258,11.718750
4259,11.718750
4260,7.812500
4261,7.812500
4262,7.812500
4263,7.812500
4264,11.718750
4265,11.718750
4266,11.718750
4267,11.718750
4268,11.718750
4269,11.718750
4270,11.718750
4271,11.718750
4272,11.718750
4273,11.718750
4274,11.718750
4275,11.718750
4276,11.718750
4277,11.718750
4278,11.718750
4279,11.718750
4280,11.718750
4281,11.718750
4282,11.718750
4283,11.718750
4284,11.718750
4285,11.718750
4286,11.718750
4287,11.718750
4288,11.718750
4289,11.718750
4290,11.718750
4291,11.718750
4292,11.718750
4293,11.718750
4294,11.718750
4295,11.718750
4296,11.718750
4297,11.718750
4298,11.718750
4299,11.718750
4300,11.718750
4301,11.718750
4302,11.718750
4303,11.718750
4304,11.718750
4305,11.718750
4306,11.718750
4307,11.718750
4308,11.718750
4309,11.718750
4310,11.718750
4311,11.718750
4312,11.718750
4313,11.718750
4314,11.718750
4315,11.718750
4316,11.718750
4317,11.718750
4318,11.718750
4319,11.718750
4320,11.718750
4321,11.718750
4322,11.718750
4323,11.718750
4324,11.718750
4325,11.718750
4326,11.718750
4327,11.718750
4328,11.718750
4329,11.718750
4330,11.718750
4331,11.718750
4332,11.718750
4333,11.718750
4334,11.718750
4335,11.718750
4336,11.718750
4337,11.718750
4338,11.718750
4339,11.718750
4340,11.718750
4341,11.718750
4342,11.718750
4343,11.718750
4344,11.718750
4345,11.718750
4346,11.718750
4347,11.718750
4348,11.718750
4349,11.718750
4350,11.718750
4351,11.718750
4352,11.718750
4353,11.718750
4354,11.718750
4355,11.718750
4356,11.718750
4357,11.718750
4358,11.718750
4359,11.718750
4360,11.718750
4361,11.718750
4362,11.718750
4363,11.718750
4364,11.718750
4365,11.718750
4366,11.718750
4367,11.718750
4368,11.718750
4369,11.718750
4370,11.718750
4371,11.718750
4372,11.718750
4373,11.718750
4374,11.718750
4375,11.718750
4376,11.718750
4377,11.718750
4378,11.718750
4379,11.718750
4380,11.718750
4381,11.718750
4382,11.718750
4383,11.718750
4384,11.718750
4385,11.718750
4386,11.718750
4387,11.718750
4388,11.718750
4389,11.718750
4390,11.718750
4391,11.718750
4392,11.718750
4393,11.718750
4394,11.718750
4395,11.718750
4396,11.718750
4397,11.718750
4398,11.718750
4399,11.718750
4400,7.812500
4401,7.812500
4402,7.812500
4403,11.718750
4404,11.718750
4405,7.812500
4406,11.718750
4407,7.812500
4408,7.812500
4409,7.812500
4410,7.812500
4411,7.812500
4412,7.812500
4413,7.812500
4414,7.812500
4415,7.812500
4416,7.812500
4417,7.812500
4418,7.812500
4419,7.812500
4420,7.812500
4421,7.812500
4422,7.812500
4423,7.812500
4424,7.812500
4425,7.812500
4426,7.812500
4427,7.812500
4428,7.812500
4429,7.812500
4430,7.812500
4431,7.812500
4432,7.812500
4433,7.812500
4434,7.812500
4435,7.812500
4436,7.812500
4437,7.812500
4438,7.812500
4439,7.812500
4440,7.812500
4441,7.812500
4442,7.812500
4443,3.906250
4444,7.812500
4445,7.812500
4446,7.812500
4447,7.812500
4448,3.906250
4449,3.906250
4450,7.812500
4451,7.812500
4452,7.812500
4453,3.906250
4454,7.812500
4455,3.906250
4456,3.906250
4457,3.906250
4458,3.906250
4459,3.906250
4460,3.906250
4461,3.906250
4462,3.906250
4463,3.906250
4464,3.906250
4465,3.906250
4466,3.906250
4467,3.906250
4468,3.906250
4469,3.906250
4470,3.906250
4471,3.906250
4472,3.906250
4473,3.906250
4474,3.906250
4475,3.906250
4476,3.906250
4477,3.906250
4478,3.906250
4479,3.906250
4480,3.906250
4481,3.906250
4482,0.000000
4483,0.000000
4484,3.906250
4485,3.906250
4486,3.906250
4487,3.906250
4488,0.000000
4489,0.000000
4490,0.000000
4491,0.000000
4492,0.000000
4493,0.000000
4494,0.000000
4495,0.000000
4496,0.000000
4497,0.000000
4498,0.000000
4499,0.000000
4500,0.000000
4501,0.000000
4502,0.000000
4503,0.000000
4504,0.000000
4505,0.000000
4506,0.000000
4507,0.000000
4508,0.000000
4509,0.000000
4510,0.000000
4511,0.000000
4512,-3.906250
4513,0.000000
4514,0.000000
4515,0.000000
4516,0.000000
4517,-3.906250
4518,-3.906250
4519,-3.906250
4520,-3.906250
4521,-3.906250
4522,-3.906250
4523,-3.906250
4524,-3.906250
4525,-3.906250
4526,-3.906250
4527,-3.906250
4528,-3.906250
4529,-3.906250
4530,-3.906250
4531,-3.906250
4532,-3.906250
4533,-3.906250
4534,-3.906250
4535,-3.906250
4536,-3.906250
4537,-3.906250
4538,-3.906250
4539,-3.906250
4540,-3.906250
4541,-3.906250
4542,-7.812500
4543,-7.812500
4544,-7.812500
4545,-7.812500
4546,-7.812500
4547,-7.812500
4548,-7.812500
4549,-7.812500
4550,-7.812500
4551,-7.812500
4552,-7.812500
4553,-7.812500
4554,-7.812500
4555,-7.812500
4556,-7.812500
4557,-7.812500
4558,-7.812500
4559,-7.812500
4560,-7.812500
4561,-7.812500
4562,-7.812500
4563,-7.812500
4564,-7.812500
4565,-11.718750
4566,-7.812500
4567,-7.812500
4568,-7.812500
4569,-11.718750
4570,-11.718750
4571,-11.718750
4572,-11.718750
4573,-11.718750
4574,-11.718750
4575,-11.718750
4576,-11.718750
4577,-11.718750
4578,-11.718750
4579,-11.718750
4580,-11.718750
4581,-11.718750
4582,-11.718750
4583,-11.718750
4584,-11.718750
4585,-11.718750
4586,-11.718750
4587,-11.718750
4588,-11.718750
4589,-11.718750
4590,-15.625000
4591,-11.718750
4592,-11.718750
4593,-15.625000
4594,-11.718750
4595,-11.718750
4596,-15.625000
4597,-15.625000
4598,-15.625000
4599,-15.625000
4600,-15.625000
4601,-15.625000
4602,-15.625000
4603,-15.625000
4604,-15.625000
4605,-15.625000
4606,-15.625000
4607,-15.625000
4608,-15.625000
4609,-15.625000
4610,-15.625000
4611,-15.625000
4612,-15.625000
4613,-15.625000
4614,-15.625000
4615,-15.625000
4616,-15.625000
4617,-15.625000
4618,-15.625000
4619,-15.625000
4620,-15.625000
4621,-15.625000
4622,-15.625000
4623,-19.531250
4624,-19.531250
4625,-19.531250
4626,-19.531250
4627,-19.531250
4628,-19.531250
4629,-15.625000
4630,-19.531250
4631,-19.531250
4632,-19.531250
4633,-19.531250
4634,-19.531250
4635,-19.531250
4636,-19.531250
4637,-19.531250
4638,-19.531250
4639,-19.531250
4640,-19.531250
4641,-19.531250
4642,-19.531250
4643,-19.531250
4644,-19.531250
4645,-19.531250
4646,-19.531250
4647,-19.531250
4648,-19.531250
4649,-23.437500
4650,-23.437500
4651,-23.437500
4652,-23.437500
4653,-23.437500
4654,-23.437500
4655,-23.437500
4656,-23.437500
4657,-23.437500
4658,-23.437500
4659,-23.437500
4660,-23.437500
4661,-23.437500
4662,-23.437500
4663,-23.437500
4664,-23.437500
4665,-23.437500
4666,-23.437500
4667,-23.437500
4668,-23.437500
4669,-23.437500
4670,-23.437500
4671,-27.343750
4672,-23.437500
4673,-27.343750
4674,-23.437500
4675,-27.343750
4676,-27.343750
4677,-27.343750
4678,-27.343750
4679,-27.343750
4680,-27.343750
4681,-27.343750
4682,-27.343750
4683,-27.343750
4684,-27.343750
4685,-27.343750
4686,-27.343750
4687,-27.343750
4688,-27.343750
4689,-27.343750
4690,-27.343750
4691,-27.343750
4692,-27.343750
4693,-27.343750
4694,-27.343750
4695,-27.343750
4696,-27.343750
4697,-27.343750
4698,-27.343750
4699,-27.343750
4700,-27.343750
4701,-27.343750
4702,-27.343750
4703,-27.343750
4704,-27.343750
4705,-31.250000
4706,-31.250000
4707,-31.250000
4708,-31.250000
4709,-27.343750
4710,-31.250000
4711,-31.250000
4712,-31.250000
4713,-31.250000
4714,-31.250000
4715,-31.250000
4716,-31.250000
4717,-31.250000
4718,-31.250000
4719,-31.250000
4720,-31.250000
4721,-31.250000
4722,-31.250000
4723,-31.250000
4724,-31.250000
4725,-31.250000
4726,-31.250000
4727,-31.250000
4728,-31.250000
4729,-31.250000
4730,-31.250000
4731,-31.250000
4732,-31.250000
4733,-31.250000
4734,-31.250000
4735,-31.250000
4736,-31.250000
4737,-31.250000
4738,-31.250000
4739,-31.250000
4740,-31.250000
4741,-31.250000
4742,-31.250000
4743,-31.250000
4744,-31.250000
4745,-35.156250
4746,-31.250000
4747,-31.250000
4748,-35.156250
4749,-35.156250
4750,-31.250000
4751,-31.250000
4752,-35.156250
4753,-35.156250
4754,-35.156250
4755,-35.156250
4756,-35.156250
4757,-35.156250
4758,-35.156250
4759,-35.156250
4760,-35.156250
4761,-35.156250
4762,-35.156250
4763,-35.156250
4764,-35.156250
4765,-35.156250
4766,-35.156250
4767,-35.156250
4768,-35.156250
4769,-35.156250
4770,-35.156250
4771,-35.156250
4772,-35.156250
4773,-35.156250
4774,-35.156250
4775,-35.156250
4776,-35.156250
4777,-35.156250
4778,-35.156250
4779,-35.156250
4780,-35.156250
4781,-35.156250
4782,-35.156250
4783,-35.156250
4784,-35.156250
4785,-35.156250
4786,-35.156250
4787,-35.156250
4788,-35.156250
4789,-35.156250
4790,-35.156250
4791,-35.156250
4792,-35.156250
4793,-35.156250
4794,-35.156250
4795,-35.156250
4796,-39.062500
4797,-39.062500
4798,-35.156250
4799,-35.156250
4800,-35.156250
4801,-35.156250
4802,-35.156250
4803,-35.156250
4804,-39.062500
4805,-35.156250
4806,-35.156250
4807,-35.156250
4808,-39.062500
4809,-39.062500
4810,-35.156250
4811,-35.156250
4812,-35.156250
4813,-35.156250
4814,-35.156250
4815,-39.062500
4816,-39.062500
4817,-35.156250
4818,-35.156250
4819,-35.156250
4820,-39.062500
4821,-39.062500
4822,-39.062500
4823,-35.156250
4824,-35.156250
4825,-35.156250
4826,-35.156250
4827,-35.156250
4828,-35.156250
4829,-35.156250
4830,-35.156250
4831,-35.156250
4832,-39.062500
4833,-35.156250
4834,-39.062500
4835,-35.156250
4836,-35.156250
4837,-39.062500
4838,-39.062500
4839,-35.156250
4840,-35.156250
4841,-35.156250
4842,-35.156250
4843,-39.062500
4844,-35.156250
4845,-35.156250
4846,-35.156250
4847,-39.062500
4848,-35.156250
4849,-35.156250
4850,-35.156250
4851,-35.156250
4852,-35.156250
4853,-35.156250
4854,-35.156250
4855,-35.156250
4856,-39.062500
4857,-35.156250
4858,-35.156250
4859,-35.156250
4860,-35.156250
4861,-35.156250
4862,-35.156250
4863,-35.156250
4864,-35.156250
4865,-35.156250
4866,-35.156250
4867,-35.156250
4868,-35.156250
4869,-35.156250
4870,-35.156250
4871,-35.156250
4872,-35.156250
4873,-35.156250
4874,-35.156250
4875,-35.156250
4876,-35.156250
4877,-35.156250
4878,-35.156250
4879,-35.156250
4880,-35.156250
4881,-35.156250
4882,-35.156250
4883,-35.156250
4884,-35.156250
4885,-35.156250
4886,-35.156250
4887,-35.156250
4888,-35.156250
4889,-35.156250
4890,-35.156250
4891,-35.156250
4892,-35.156250
4893,-35.156250
4894,-35.156250
4895,-35.156250
4896,-35.156250
4897,-35.156250
4898,-31.250000
4899,-35.156250
4900,-35.156250
4901,-35.156250
4902,-35.156250
4903,-35.156250
4904,-35.156250
4905,-35.156250
4906,-35.156250
4907,-35.156250
4908,-31.250000
4909,-35.156250
4910,-31.250000
4911,-31.250000
4912,-31.250000
4913,-35.156250
4914,-31.250000
4915,-31.250000
4916,-31.250000
4917,-31.250000
4918,-31.250000
4919,-31.250000
4920,-31.250000
4921,-31.250000
4922,-31.250000
4923,-31.250000
4924,-31.250000
4925,-31.250000
4926,-31.250000
4927,-31.250000
4928,-31.250000
4929,-31.250000
4930,-31.250000
4931,-31.250000
4932,-31.250000
4933,-31.250000
4934,-31.250000
4935,-31.250000
4936,-31.250000
4937,-31.250000
4938,-31.250000
4939,-31.250000
4940,-31.250000
4941,-31.250000
4942,-31.250000
4943,-31.250000
4944,-31.250000
4945,-31.250000
4946,-31.250000
4947,-31.250000
4948,-31.250000
4949,-27.343750
4950,-31.250000
4951,-27.343750
4952,-27.343750
4953,-27.343750
4954,-27.343750
4955,-27.343750
4956,-27.343750
4957,-27.343750
4958,-27.343750
4959,-27.343750
4960,-27.343750
4961,-27.343750
4962,-27.343750
4963,-27.343750
4964,-27.343750
4965,-27.343750
4966,-27.343750
4967,-27.343750
4968,-27.343750
4969,-27.343750
4970,-27.343750
4971,-27.343750
4972,-27.343750
4973,-27.343750
4974,-27.343750
4975,-27.343750
4976,-27.343750
4977,-23.437500
4978,-23.437500
4979,-27.343750
4980,-27.343750
4981,-23.437500
4982,-23.437500
4983,-23.437500
4984,-23.437500
4985,-23.437500
4986,-23.437500
4987,-23.437500
4988,-23.437500
4989,-23.437500
4990,-23.437500
4991,-23.437500
4992,-23.437500
4993,-23.437500
4994,-23.437500
4995,-23.437500
4996,-23.437500
4997,-23.437500
4998,-23.437500
4999,-23.437500
5000,-23.437500
5001,-23.437500
5002,-23.437500
5003,-23.437500
5004,-19.531250
5005,-19.531250
5006,-19.531250
5007,-19.531250
5008,-19.531250
5009,-19.531250
5010,-19.531250
5011,-19.531250
5012,-19.531250
5013,-19.531250
5014,-19.531250
5015,-19.531250
5016,-19.531250
5017,-19.531250
5018,-19.531250
5019,-19.531250
5020,-19.531250
5021,-19.531250
5022,-19.531250
5023,-19.531250
5024,-19.531250
5025,-19.531250
5026,-15.625000
5027,-19.531250
5028,-19.531250
5029,-19.531250
5030,-15.625000
5031,-15.625000
5032,-15.625000
5033,-15.625000
5034,-19.531250
5035,-15.625000
5036,-15.625000
5037,-15.625000
5038,-15.625000
5039,-15.625000
5040,-15.625000
5041,-15.625000
5042,-11.718750
5043,-15.625000
5044,-15.625000
5045,-15.625000
5046,-15.625000
5047,-15.625000
5048,-15.625000
5049,-15.625000
5050,-15.625000
5051,-15.625000
5052,-15.625000
5053,-15.625000
5054,-11.718750
5055,-15.625000
5056,-15.625000
5057,-15.625000
5058,-11.718750
5059,-15.625000
5060,-11.718750
5061,-11.718750
5062,-11.718750
5063,-11.718750
5064,-11.718750
5065,-11.718750
5066,-11.718750
5067,-11.718750
5068,-11.718750
5069,-11.718750
5070,-11.718750
5071,-11.718750
5072,-11.718750
5073,-11.718750
5074,-11.718750
5075,-11.718750
5076,-11.718750
5077,-11.718750
5078,-11.718750
5079,-11.718750
5080,-7.812500
5081,-11.718750
5082,-7.812500
5083,-7.812500
5084,-7.812500
5085,-7.812500
5086,-7.812500
5087,-7.812500
5088,-7.812500
5089,-7.812500
5090,-7.812500
5091,-7.812500
5092,-7.812500
5093,-7.812500
5094,-7.812500
5095,-7.812500
5096,-7.812500
5097,-7.812500
5098,-7.812500
5099,-7.812500
5100,-7.812500
5101,-7.812500
5102,-3.906250
5103,-7.812500
5104,-7.812500
5105,-7.812500
5106,-3.906250
5107,-3.906250
5108,-3.906250
5109,-3.906250
5110,-3.906250
5111,-3.906250
5112,-3.906250
5113,-3.906250
5114,-3.906250
5115,-3.906250
5116,-3.906250
5117,-3.906250
5118,-3.906250
5119,-3.906250
5120,-3.906250
5121,-3.906250
5122,-3.906250
5123,-3.906250
5124,-3.906250
5125,-3.906250
5126,0.000000
5127,-3.906250
5128,0.000000
5129,-3.906250
5130,0.000000
5131,0.000000
5132,0.000000
5133,0.000000
5134,0.000000
5135,0.000000
5136,0.000000
5137,0.000000
5138,0.000000
5139,0.000000
5140,0.000000
5141,0.000000
5142,0.000000
5143,0.000000
5144,0.000000
5145,0.000000
5146,0.000000
5147,0.000000
5148,0.000000
5149,0.000000
5150,0.000000
5151,0.000000
5152,3.906250
5153,3.906250
5154,0.000000
5155,0.000000
5156,3.906250
5157,0.000000
5158,0.000000
5159,3.906250
5160,3.906250
5161,3.906250
5162,3.906250
5163,3.906250
5164,3.906250
5165,3.906250
5166,3.906250
5167,3.906250
5168,3.906250
5169,3.906250
5170,3.906250
5171,3.906250
5172,3.906250
5173,3.906250
5174,3.906250
5175,3.906250
5176,3.906250
5177,3.906250
5178,3.906250
5179,3.906250
5180,3.906250
5181,3.906250
5182,3.906250
5183,3.906250
5184,3.906250
5185,3.906250
5186,3.906250
5187,3.906250
5188,3.906250
5189,3.906250
5190,7.812500
5191,3.906250
5192,3.906250
5193,3.906250
5194,7.812500
5195,7.812500
5196,7.812500
5197,7.812500
5198,7.812500
5199,7.812500
5200,7.812500
5201,7.812500
5202,7.812500
5203,3.906250
5204,7.812500
5205,7.812500
5206,7.812500
5207,7.812500
5208,7.812500
5209,7.812500
5210,7.812500
5211,7.812500
5212,7.812500
5213,7.812500
5214,7.812500
5215,7.812500
5216,7.812500
5217,7.812500
5218,7.812500
5219,7.812500
5220,7.812500
5221,7.812500
5222,7.812500
5223,7.812500
5224,7.812500
5225,7.812500
5226,11.718750
5227,7.812500
5228,11.718750
5229,7.812500
5230,7.812500
5231,7.812500
5232,11.718750
5233,7.812500
5234,7.812500
5235,7.812500
5236,7.812500
5237,11.718750
5238,11.718750
5239,7.812500
5240,11.718750
5241,7.812500
5242,11.718750
5243,7.812500
5244,11.718750
5245,11.718750
5246,11.718750
5247,11.718750
5248,11.718750
5249,7.812500
5250,11.718750
5251,11.718750
5252,11.718750
5253,11.718750
5254,11.718750
5255,11.718750
5256,11.718750
5257,11.718750
5258,11.718750
5259,11.718750
5260,11.718750
5261,11.718750
5262,11.718750
5263,11.718750
5264,11.718750
5265,11.718750
5266,11.718750
5267,11.718750
5268,11.718750
5269,11.718750
5270,11.718750
5271,11.718750
5272,11.718750
5273,11.718750
5274,11.718750
5275,11.718750
5276,11.718750
5277,11.718750
5278,11.718750
5279,11.718750
5280,11.718750
5281,11.718750
5282,11.718750
5283,11.718750
5284,11.718750
5285,11.718750
5286,11.718750
5287,11.718750
5288,11.718750
5289,11.718750
5290,11.718750
5291,11.718750
5292,11.718750
5293,11.718750
5294,11.718750
5295,11.718750
5296,11.718750
5297,11.718750
5298,11.718750
5299,11.718750
5300,11.718750
5301,11.718750
5302,11.718750
5303,11.718750
5304,11.718750
5305,11.718750
5306,11.718750
5307,11.718750
5308,11.718750
5309,11.718750
5310,11.718750
5311,11.718750
5312,11.718750
5313,11.718750
5314,11.718750
5315,11.718750
5316,11.718750
5317,11.718750
5318,11.718750
5319,11.718750
5320,11.718750
5321,11.718750
5322,11.718750
5323,11.718750
5324,11.718750
5325,11.718750
5326,11.718750
5327,11.718750
5328,11.718750
5329,11.718750
5330,11.718750
5331,11.718750
5332,11.718750
5333,11.718750
5334,11.718750
5335,11.718750
5336,11.718750
5337,11.718750
5338,11.718750
5339,11.718750
5340,11.718750
5341,11.718750
5342,11.718750
5343,11.718750
5344,11.718750
5345,11.718750
5346,11.718750
5347,11.718750
5348,11.718750
5349,11.718750
5350,11.718750
5351,11.718750
5352,11.718750
5353,11.718750
5354,11.718750
5355,11.718750
5356,11.718750
5357,11.718750
5358,11.718750
5359,11.718750
5360,11.718750
5361,11.718750
5362,11.718750
5363,11.718750
5364,11.718750
5365,11.718750
5366,11.718750
5367,11.718750
5368,11.718750
5369,11.718750
5370,11.718750
5371,11.718750
5372,11.718750
5373,11.718750
5374,11.718750
5375,11.718750
5376,11.718750
5377,7.812500
5378,11.718750
5379,7.812500
5380,11.718750
5381,11.718750
5382,11.718750
5383,11.718750
5384,11.718750
5385,7.812500
5386,11.718750
5387,7.812500
5388,7.812500
5389,11.718750
5390,11.718750
5391,7.812500
5392,11.718750
5393,7.812500
5394,7.812500
5395,7.812500
5396,7.812500
5397,7.812500
5398,7.812500
5399,7.812500
5400,7.812500
5401,7.812500
5402,7.812500
5403,7.812500
5404,7.812500
5405,7.812500
5406,7.812500
5407,7.812500
5408,7.812500
5409,7.812500
5410,7.812500
5411,7.812500
5412,7.812500
5413,7.812500
5414,7.812500
5415,7.812500
5416,7.812500
5417,7.812500
5418,7.812500
5419,7.812500
5420,7.812500
5421,7.812500
5422,7.812500
5423,7.812500
5424,7.812500
5425,7.812500
5426,7.812500
5427,7.812500
5428,7.812500
5429,3.906250
5430,3.906250
5431,3.906250
5432,3.906250
5433,7.812500
5434,7.812500
5435,7.812500
5436,3.906250
5437,3.906250
5438,7.812500
5439,3.906250
5440,3.906250
5441,3.906250
5442,3.906250
5443,3.906250
5444,3.906250
5445,3.906250
5446,3.906250
5447,3.906250
5448,3.906250
5449,3.906250
5450,3.906250
5451,3.906250
5452,3.906250
5453,3.906250
5454,3.906250
5455,3.906250
5456,3.906250
5457,3.906250
5458,3.906250
5459,3.906250
5460,3.906250
5461,3.906250
5462,3.906250
5463,3.906250
5464,3.906250
5465,3.906250
5466,3.906250
5467,0.000000
5468,0.000000
5469,3.906250
5470,3.906250
5471,3.906250
5472,3.906250
5473,3.906250
5474,0.000000
5475,0.000000
5476,0.000000
5477,0.000000
5478,0.000000
5479,0.000000
5480,0.000000
5481,0.000000
5482,0.000000
5483,0.000000
5484,0.000000
5485,0.000000
5486,0.000000
5487,0.000000
5488,0.000000
5489,0.000000
5490,0.000000
5491,0.000000
5492,0.000000
5493,0.000000
5494,0.000000
5495,0.000000
5496,0.000000
5497,0.000000
5498,0.000000
5499,0.000000
5500,-3.906250
5501,-3.906250
5502,-3.906250
5503,-3.906250
5504,0.000000
5505,0.000000
5506,0.000000
5507,-3.906250
5508,-3.906250
5509,-3.906250
5510,-3.906250
5511,-3.906250
5512,-3.906250
5513,-3.906250
5514,-3.906250
5515,-3.906250
5516,-3.906250
5517,-3.906250
5518,-3.906250
5519,-3.906250
5520,-3.906250
5521,-3.906250
5522,-3.906250
5523,-3.906250
5524,-3.906250
5525,-3.906250
5526,-3.906250
5527,-3.906250
5528,-3.906250
5529,-3.906250
5530,-3.906250
5531,-3.906250
5532,-3.906250
5533,-7.812500
5534,-3.906250
5535,-7.812500
5536,-7.812500
5537,-7.812500
5538,-7.812500
5539,-7.812500
5540,-7.812500
5541,-7.812500
5542,-7.812500
5543,-7.812500
5544,-7.812500
5545,-7.812500
5546,-7.812500
5547,-7.812500
5548,-7.812500
5549,-7.812500
5550,-7.812500
5551,-7.812500
5552,-7.812500
5553,-7.812500
5554,-7.812500
5555,-7.812500
5556,-7.812500
5557,-7.812500
5558,-7.812500
5559,-7.812500
5560,-7.812500
5561,-11.718750
5562,-11.718750
5563,-11.718750
5564,-11.718750
5565,-11.718750
5566,-11.718750
5567,-11.718750
5568,-11.718750
5569,-11.718750
5570,-11.718750
5571,-11.718750
5572,-11.718750
5573,-11.718750
5574,-11.718750
5575,-11.718750
5576,-11.718750
5577,-11.718750
5578,-11.718750
5579,-11.718750
5580,-15.625000
5581,-15.625000
5582,-11.718750
5583,-11.718750
5584,-11.718750
5585,-11.718750
5586,-15.625000
5587,-15.625000
5588,-15.625000
5589,-15.625000
5590,-15.625000
5591,-15.625000
5592,-15.625000
5593,-15.625000
5594,-15.625000
5595,-15.625000
5596,-15.625000
5597,-15.625000
5598,-15.625000
5599,-15.625000
5600,-15.625000
5601,-15.625000
5602,-15.625000
5603,-15.625000
5604,-15.625000
5605,-19.531250
5606,-15.625000
5607,-15.625000
5608,-15.625000
5609,-15.625000
5610,-15.625000
5611,-19.531250
5612,-15.625000
5613,-19.531250
5614,-19.531250
5615,-19.531250
5616,-19.531250
5617,-19.531250
5618,-19.531250
5619,-19.531250
5620,-19.531250
5621,-19.531250
5622,-19.531250
5623,-19.531250
5624,-19.531250
5625,-19.531250
5626,-19.531250
5627,-19.531250
5628,-19.531250
5629,-19.531250
5630,-19.531250
5631,-19.531250
5632,-19.531250
5633,-19.531250
5634,-19.531250
5635,-19.531250
5636,-19.531250
5637,-19.531250
5638,-23.437500
5639,-23.437500
5640,-23.437500
5641,-23.437500
5642,-23.437500
5643,-23.437500
5644,-23.437500
5645,-23.437500
5646,-23.437500
5647,-23.437500
5648,-23.437500
5649,-23.437500
5650,-23.437500
5651,-23.437500
5652,-23.437500
5653,-23.437500
5654,-23.437500
5655,-23.437500
5656,-23.437500
5657,-23.437500
5658,-23.437500
5659,-23.437500
5660,-23.437500
5661,-23.437500
5662,-23.437500
5663,-23.437500
5664,-23.437500
5665,-23.437500
5666,-23.437500
5667,-27.343750
5668,-27.343750
5669,-27.343750
5670,-27.343750
5671,-27.343750
5672,-23.437500
5673,-27.343750
5674,-27.343750
5675,-27.343750
5676,-23.437500
5677,-27.343750
5678,-27.343750
5679,-27.343750
5680,-27.343750
5681,-27.343750
5682,-27.343750
5683,-27.343750
5684,-27.343750
5685,-27.343750
5686,-27.343750
5687,-27.343750
5688,-27.343750
5689,-27.343750
5690,-27.343750
5691,-27.343750
5692,-27.343750
5693,-27.343750
5694,-27.343750
5695,-27.343750
5696,-27.343750
5697,-31.250000
5698,-31.250000
5699,-31.250000
5700,-31.250000
5701,-31.250000
5702,-31.250000
5703,-31.250000
5704,-31.250000
5705,-31.250000
5706,-31.250000
5707,-31.250000
5708,-31.250000
5709,-31.250000
5710,-31.250000
5711,-31.250000
5712,-31.250000
5713,-31.250000
5714,-31.250000
5715,-31.250000
5716,-31.250000
5717,-31.250000
5718,-31.250000
5719,-31.250000
5720,-31.250000
5721,-31.250000
5722,-31.250000
5723,-31.250000
5724,-31.250000
5725,-31.250000
5726,-31.250000
5727,-31.250000
5728,-31.250000
5729,-35.156250
5730,-31.250000
5731,-35.156250
5732,-31.250000
5733,-31.250000
5734,-31.250000
5735,-31.250000
5736,-31.250000
5737,-35.156250
5738,-35.156250
5739,-35.156250
5740,-35.156250
5741,-35.156250
5742,-31.250000
5743,-35.156250
5744,-35.156250
5745,-35.156250
5746,-35.156250
5747,-35.156250
5748,-35.156250
5749,-35.156250
5750,-35.156250
5751,-35.156250
5752,-35.156250
5753,-35.156250
5754,-35.156250
5755,-35.156250
5756,-35.156250
5757,-35.156250
5758,-35.156250
5759,-35.156250
5760,-35.156250
5761,-35.156250
5762,-35.156250
5763,-35.156250
5764,-31.250000
5765,-35.156250
5766,-35.156250
5767,-35.156250
5768,-35.156250
5769,-35.156250
5770,-35.156250
5771,-35.156250
5772,-35.156250
5773,-35.156250
5774,-35.156250
5775,-35.156250
5776,-35.156250
5777,-35.156250
5778,-35.156250
5779,-35.156250
5780,-35.156250
5781,-35.156250
5782,-35.156250
5783,-35.156250
5784,-35.156250
5785,-35.156250
5786,-35.156250
5787,-35.156250
5788,-35.156250
5789,-35.156250
5790,-35.156250
5791,-35.156250
5792,-39.062500
5793,-39.062500
5794,-35.156250
5795,-35.156250
5796,-35.156250
5797,-35.156250
5798,-35.156250
5799,-35.156250
5800,-35.156250
5801,-35.156250
5802,-35.156250
5803,-35.156250
5804,-35.156250
5805,-35.156250
5806,-35.156250
5807,-35.156250
5808,-35.156250
5809,-35.156250
5810,-35.156250
5811,-35.156250
5812,-35.156250
5813,-39.062500
5814,-39.062500
5815,-35.156250
5816,-35.156250
5817,-39.062500
5818,-35.156250
5819,-35.156250
5820,-35.156250
5821,-35.156250
5822,-35.156250
5823,-35.156250
5824,-39.062500
5825,-39.062500
5826,-39.062500
5827,-39.062500
5828,-39.062500
5829,-35.156250
5830,-35.156250
5831,-35.156250
5832,-35.156250
5833,-35.156250
5834,-39.062500
5835,-39.062500
5836,-39.062500
5837,-39.062500
5838,-39.062500
5839,-35.156250
5840,-35.156250
5841,-39.062500
5842,-35.156250
5843,-39.062500
5844,-39.062500
5845,-35.156250
5846,-35.156250
5847,-39.062500
5848,-35.156250
5849,-35.156250
5850,-35.156250
5851,-35.156250
5852,-35.156250
5853,-35.156250
5854,-35.156250
5855,-35.156250
5856,-35.156250
5857,-35.156250
5858,-35.156250
5859,-35.156250
5860,-35.156250
5861,-35.156250
5862,-35.156250
5863,-35.156250
5864,-35.156250
5865,-35.156250
5866,-35.156250
5867,-35.156250
5868,-35.156250
5869,-35.156250
5870,-35.156250
5871,-35.156250
5872,-35.156250
5873,-35.156250
5874,-35.156250
5875,-35.156250
5876,-35.156250
5877,-35.156250
5878,-35.156250
5879,-35.156250
5880,-35.156250
5881,-35.156250
5882,-35.156250
5883,-35.156250
5884,-35.156250
5885,-35.156250
5886,-35.156250
5887,-35.156250
5888,-35.156250
5889,-35.156250
5890,-35.156250
5891,-35.156250
5892,-35.156250
5893,-35.156250
5894,-35.156250
5895,-35.156250
5896,-35.156250
5897,-35.156250
5898,-35.156250
5899,-35.156250
5900,-35.156250
5901,-31.250000
5902,-31.250000
5903,-31.250000
5904,-31.250000
5905,-31.250000
5906,-31.250000
5907,-31.250000
5908,-31.250000
5909,-31.250000
5910,-31.250000
5911,-31.250000
5912,-31.250000
5913,-31.250000
5914,-31.250000
5915,-31.250000
5916,-31.250000
5917,-31.250000
5918,-31.250000
5919,-31.250000
5920,-31.250000
5921,-31.250000
5922,-31.250000
5923,-31.250000
5924,-31.250000
5925,-31.250000
5926,-31.250000
5927,-31.250000
5928,-31.250000
5929,-31.250000
5930,-31.250000
5931,-31.250000
5932,-31.250000
5933,-31.250000
5934,-31.250000
5935,-31.250000
5936,-31.250000
5937,-31.250000
5938,-31.250000
5939,-31.250000
5940,-27.343750
5941,-27.343750
5942,-27.343750
5943,-27.343750
5944,-27.343750
5945,-31.250000
5946,-27.343750
5947,-27.343750
5948,-27.343750
5949,-27.343750
5950,-27.343750
5951,-27.343750
5952,-27.343750
5953,-27.343750
5954,-27.343750
5955,-27.343750
5956,-27.343750
5957,-27.343750
5958,-27.343750
5959,-27.343750
5960,-27.343750
5961,-27.343750
5962,-27.343750
5963,-27.343750
5964,-27.343750
5965,-27.343750
5966,-27.343750
5967,-27.343750
5968,-27.343750
5969,-27.343750
5970,-23.437500
5971,-23.437500
5972,-23.437500
5973,-23.437500
5974,-23.437500
5975,-23.437500
5976,-23.437500
5977,-23.437500
5978,-23.437500
5979,-23.437500
5980,-23.437500
5981,-23.437500
5982,-23.437500
5983,-23.437500
5984,-23.437500
5985,-23.437500
5986,-23.437500
5987,-23.437500
5988,-23.437500
5989,-23.437500
5990,-23.437500
5991,-23.437500
5992,-23.437500
5993,-23.437500
5994,-23.437500
5995,-23.437500
5996,-23.437500
5997,-23.437500
5998,-23.437500
5999,-19.531250
6000,-19.531250
6001,-19.531250
6002,-19.531250
6003,-19.531250
6004,-19.531250
6005,-19.531250
6006,-19.531250
6007,-19.531250
6008,-19.531250
6009,-19.531250
6010,-19.531250
6011,-19.531250
6012,-19.531250
6013,-19.531250
6014,-19.531250
6015,-19.531250
6016,-19.531250
6017,-19.531250
6018,-19.531250
6019,-19.531250
6020,-19.531250
6021,-19.531250
6022,-15.625000
6023,-15.625000
6024,-15.625000
6025,-15.625000
6026,-15.625000
6027,-15.625000
6028,-15.625000
6029,-15.625000
6030,-15.625000
6031,-15.625000
6032,-15.625000
6033,-15.625000
6034,-15.625000
6035,-15.625000
6036,-15.625000
6037,-15.625000
6038,-11.718750
6039,-15.625000
6040,-11.718750
6041,-11.718750
6042,-11.718750
6043,-11.718750
6044,-11.718750
6045,-11.718750
6046,-11.718750
6047,-11.718750
6048,-11.718750
6049,-11.718750
6050,-11.718750
6051,-15.625000
6052,-11.718750
6053,-11.718750
6054,-11.718750
6055,-11.718750
6056,-11.718750
6057,-11.718750
6058,-11.718750
6059,-11.718750
6060,-11.718750
6061,-11.718750
6062,-11.718750
6063,-11.718750
6064,-11.718750
6065,-11.718750
6066,-11.718750
6067,-11.718750
6068,-11.718750
6069,-11.718750
6070,-7.812500
6071,-7.812500
6072,-7.812500
6073,-7.812500
6074,-7.812500
6075,-7.812500
6076,-7.812500
6077,-7.812500
6078,-7.812500
6079,-7.812500
6080,-7.812500
6081,-7.812500
6082,-7.812500
6083,-7.812500
6084,-7.812500
6085,-7.812500
6086,-7.812500
6087,-7.812500
6088,-7.812500
6089,-7.812500
6090,-7.812500
6091,-7.812500
6092,-7.812500
6093,-3.906250
6094,-3.906250
6095,-7.812500
6096,-7.812500
6097,-3.906250
6098,-3.906250
6099,-3.906250
6100,-3.906250
6101,-3.906250
6102,-3.906250
6103,-3.906250
6104,-3.906250
6105,-3.906250
6106,-3.906250
6107,-3.906250
6108,-3.906250
6109,-3.906250
6110,-3.906250
6111,-3.906250
6112,-3.906250
6113,-3.906250
6114,-3.906250
6115,-3.906250
6116,-3.906250
6117,-3.906250
6118,0.000000
6119,-3.906250
6120,-3.906250
6121,-3.906250
6122,0.000000
6123,-3.906250
6124,0.000000
6125,0.000000
6126,0.000000
6127,0.000000
6128,0.000000
6129,0.000000
6130,0.000000
6131,0.000000
6132,0.000000
6133,0.000000
6134,0.000000
6135,0.000000
6136,0.000000
6137,0.000000
6138,0.000000
6139,0.000000
6140,0.000000
6141,0.000000
6142,0.000000
6143,0.000000
6144,0.000000
6145,0.000000
6146,0.000000
6147,3.906250
6148,3.906250
6149,3.906250
6150,3.906250
6151,3.906250
6152,0.000000
6153,3.906250
6154,3.906250
6155,3.906250
6156,3.906250
6157,3.906250
6158,3.906250
6159,3.906250
6160,3.906250
6161,3.906250
6162,3.906250
6163,3.906250
6164,3.906250
6165,3.906250
6166,3.906250
6167,3.906250
6168,3.906250
6169,3.906250
6170,3.906250
6171,3.906250
6172,3.906250
6173,3.906250
6174,3.906250
6175,7.812500
6176,3.906250
6177,3.906250
6178,3.906250
6179,7.812500
6180,7.812500
6181,7.812500
6182,7.812500
6183,7.812500
6184,3.906250
6185,7.812500
6186,3.906250
6187,7.812500
6188,7.812500
6189,7.812500
6190,7.812500
6191,7.812500
6192,7.812500
6193,7.812500
6194,7.812500
6195,7.812500
6196,7.812500
6197,7.812500
6198,7.812500
6199,7.812500
6200,7.812500
6201,7.812500
6202,7.812500
6203,7.812500
6204,7.812500
6205,7.812500
6206,7.812500
6207,7.812500
6208,7.812500
6209,7.812500
6210,7.812500
6211,7.812500
6212,7.812500
6213,7.812500
6214,7.812500
6215,7.812500
6216,7.812500
6217,7.812500
6218,7.812500
6219,7.812500
6220,7.812500
6221,7.812500
6222,11.718750
6223,11.718750
6224,11.718750
6225,7.812500
6226,7.812500
6227,7.812500
6228,11.718750
6229,7.812500
6230,11.718750
6231,11.718750
6232,11.718750
6233,7.812500
6234,11.718750
6235,11.718750
6236,11.718750
6237,11.718750
6238,11.718750
6239,11.718750
6240,11.718750
6241,11.718750
6242,11.718750
6243,11.718750
6244,11.718750
6245,11.718750
6246,11.718750
6247,11.718750
6248,11.718750
6249,11.718750
6250,11.718750
6251,11.718750
6252,11.718750
6253,11.718750
6254,11.718750
6255,11.718750
6256,11.718750
6257,11.718750
6258,11.718750
6259,11.718750
6260,11.718750
6261,11.718750
6262,11.718750
6263,11.718750
6264,11.718750
6265,11.718750
6266,11.718750
6267,11.718750
6268,11.718750
6269,11.718750
6270,11.718750
6271,11.718750
6272,11.718750
6273,11.718750
6274,11.718750
6275,11.718750
6276,11.718750
6277,11.718750
6278,11.718750
6279,11.718750
6280,11.718750
6281,11.718750
6282,11.718750
6283,11.718750
6284,11.718750
6285,11.718750
6286,11.718750
6287,11.718750
6288,11.718750
6289,11.718750
6290,11.718750
6291,11.718750
6292,11.718750
6293,11.718750
6294,11.718750
6295,11.718750
6296,11.718750
6297,11.718750
6298,11.718750
6299,11.718750
6300,11.718750
6301,11.718750
6302,11.718750
6303,11.718750
6304,11.718750
6305,11.718750
6306,11.718750
6307,11.718750
6308,11.718750
6309,11.718750
6310,11.718750
6311,11.718750
6312,11.718750
6313,11.718750
6314,11.718750
6315,11.718750
6316,11.718750
6317,11.718750
6318,11.718750
6319,11.718750
6320,11.718750
6321,11.718750
6322,11.718750
6323,11.718750
6324,11.718750
6325,11.718750
6326,11.718750
6327,11.718750
6328,11.718750
6329,11.718750
6330,11.718750
6331,11.718750
6332,11.718750
6333,11.718750
6334,11.718750
6335,11.718750
6336,11.718750
6337,11.718750
6338,11.718750
6339,11.718750
6340,11.718750
6341,11.718750
6342,11.718750
6343,11.718750
6344,11.718750
6345,11.718750
6346,11.718750
6347,11.718750
6348,11.718750
6349,11.718750
6350,11.718750
6351,11.718750
6352,11.718750
6353,11.718750
6354,11.718750
6355,11.718750
6356,11.718750
6357,11.718750
6358,11.718750
6359,11.718750
6360,11.718750
6361,11.718750
6362,11.718750
6363,11.718750
6364,11.718750
6365,11.718750
6366,11.718750
6367,11.718750
6368,11.718750
6369,11.718750
6370,11.718750
6371,7.812500
6372,11.718750
6373,11.718750
6374,11.718750
6375,7.812500
6376,11.718750
6377,7.812500
6378,7.812500
6379,7.812500
6380,11.718750
6381,7.812500
6382,7.812500
6383,7.812500
6384,7.812500
6385,7.812500
6386,7.812500
6387,7.812500
6388,7.812500
6389,7.812500
6390,11.718750
6391,7.812500
6392,7.812500
6393,7.812500
6394,7.812500
6395,7.812500
6396,7.812500
6397,7.812500
6398,7.812500
6399,7.812500
6400,7.812500
6401,7.812500
6402,7.812500
6403,7.812500
6404,7.812500
6405,7.812500
6406,7.812500
6407,7.812500
6408,7.812500
6409,7.812500
6410,7.812500
6411,7.812500
6412,7.812500
6413,7.812500
6414,7.812500
6415,7.812500
6416,7.812500
6417,7.812500
6418,7.812500
6419,7.812500
6420,7.812500
6421,7.812500
6422,7.812500
6423,7.812500
6424,7.812500
6425,7.812500
6426,7.812500
6427,3.906250
6428,7.812500
6429,3.906250
6430,3.906250
6431,3.906250
6432,3.906250
6433,7.812500
6434,7.812500
6435,3.906250
6436,3.906250
6437,3.906250
6438,3.906250
6439,3.906250
6440,3.906250
6441,3.906250
6442,3.906250
6443,3.906250
6444,3.906250
6445,3.906250
6446,3.906250
6447,3.906250
6448,3.906250
6449,3.906250
6450,3.906250
6451,3.906250
6452,3.906250
6453,3.906250
6454,3.906250
6455,3.906250
6456,3.906250
6457,3.906250
6458,3.906250
6459,0.000000
6460,3.906250
6461,3.906250
6462,3.906250
6463,3.906250
6464,3.906250
6465,0.000000
6466,0.000000
6467,0.000000
6468,0.000000
6469,0.000000
6470,0.000000
6471,0.000000
6472,0.000000
6473,0.000000
6474,0.000000
6475,0.000000
6476,0.000000
6477,0.000000
6478,0.000000
6479,0.000000
6480,0.000000
6481,0.000000
6482,0.000000
6483,0.000000
6484,0.000000
6485,0.000000
6486,0.000000
6487,0.000000
6488,0.000000
6489,-3.906250
6490,-3.906250
6491,-3.906250
6492,-3.906250
6493,-3.906250
6494,0.000000
6495,0.000000
6496,-3.906250
6497,-3.906250
6498,-3.906250
6499,-3.906250
6500,-3.906250
6501,-3.906250
6502,-3.906250
6503,-3.906250
6504,-3.906250
6505,-3.906250
6506,-3.906250
6507,-3.906250
6508,-3.906250
6509,-3.906250
6510,-3.906250
6511,0.000000
6512,-3.906250
6513,-3.906250
6514,-3.906250
6515,-3.906250
6516,-3.906250
6517,-7.812500
6518,-3.906250
6519,-7.812500
6520,-3.906250
6521,-7.812500
6522,-3.906250
6523,-7.812500
6524,-3.906250
6525,-3.906250
6526,-3.906250
6527,-7.812500
6528,-7.812500
6529,-7.812500
6530,-7.812500
6531,-7.812500
6532,-7.812500
6533,-7.812500
6534,-7.812500
6535,-7.812500
6536,-7.812500
6537,-7.812500
6538,-7.812500
6539,-7.812500
6540,-7.812500
6541,-7.812500
6542,-7.812500
6543,-7.812500
6544,-7.812500
6545,-7.812500
6546,-7.812500
6547,-7.812500
6548,-7.812500
6549,-11.718750
6550,-11.718750
6551,-11.718750
6552,-7.812500
6553,-11.718750
6554,-11.718750
6555,-11.718750
6556,-11.718750
6557,-11.718750
6558,-11.718750
6559,-11.718750
6560,-11.718750
6561,-11.718750
6562,-11.718750
6563,-11.718750
6564,-11.718750
6565,-11.718750
6566,-11.718750
6567,-11.718750
6568,-11.718750
6569,-11.718750
6570,-11.718750
6571,-11.718750
6572,-11.718750
6573,-15.625000
6574,-11.718750
6575,-11.718750
6576,-11.718750
6577,-11.718750
6578,-15.625000
6579,-15.625000
6580,-15.625000
6581,-15.625000
6582,-15.625000
6583,-15.625000
6584,-15.625000
6585,-15.625000
6586,-15.625000
6587,-15.625000
6588,-15.625000
6589,-15.625000
6590,-15.625000
6591,-15.625000
6592,-15.625000
6593,-15.625000
6594,-15.625000
6595,-15.625000
6596,-15.625000
6597,-15.625000
6598,-15.625000
6599,-19.531250
6600,-19.531250
6601,-19.531250
6602,-19.531250
6603,-19.531250
6604,-19.531250
6605,-19.531250
6606,-19.531250
6607,-19.531250
6608,-19.531250
6609,-19.531250
6610,-19.531250
6611,-19.531250
6612,-19.531250
6613,-19.531250
6614,-19.531250
6615,-19.531250
6616,-19.531250
6617,-19.531250
6618,-15.625000
6619,-19.531250
6620,-19.531250
6621,-19.531250
6622,-19.531250
6623,-23.437500
6624,-19.531250
6625,-23.437500
6626,-19.531250
6627,-23.437500
6628,-23.437500
6629,-23.437500
6630,-23.437500
6631,-23.437500
6632,-23.437500
6633,-23.437500
6634,-23.437500
6635,-23.437500
6636,-23.437500
6637,-23.437500
6638,-23.437500
6639,-23.437500
6640,-23.437500
6641,-23.437500
6642,-23.437500
6643,-23.437500
6644,-23.437500
6645,-23.437500
6646,-23.437500
6647,-23.437500
6648,-23.437500
6649,-23.437500
6650,-27.343750
6651,-27.343750
6652,-27.343750
6653,-23.437500
6654,-23.437500
6655,-27.343750
6656,-27.343750
6657,-27.343750
6658,-27.343750
6659,-27.343750
6660,-27.343750
6661,-27.343750
6662,-27.343750
6663,-27.343750
6664,-27.343750
6665,-27.343750
6666,-27.343750
6667,-27.343750
6668,-27.343750
6669,-27.343750
6670,-27.343750
6671,-27.343750
6672,-27.343750
6673,-27.343750
6674,-27.343750
6675,-27.343750
6676,-27.343750
6677,-27.343750
6678,-27.343750
6679,-27.343750
6680,-27.343750
6681,-27.343750
6682,-27.343750
6683,-27.343750
6684,-27.343750
6685,-27.343750
6686,-27.343750
6687,-31.250000
6688,-31.250000
6689,-27.343750
6690,-31.250000
6691,-27.343750
6692,-31.250000
6693,-31.250000
6694,-31.250000
6695,-31.250000
6696,-31.250000
6697,-31.250000
6698,-31.250000
6699,-31.250000
6700,-31.250000
6701,-31.250000
6702,-31.250000
6703,-31.250000
6704,-31.250000
6705,-31.250000
6706,-31.250000
6707,-31.250000
6708,-31.250000
6709,-31.250000
6710,-31.250000
6711,-31.250000
6712,-31.250000
6713,-31.250000
6714,-31.250000
6715,-31.250000
6716,-31.250000
6717,-31.250000
6718,-31.250000
6719,-31.250000
6720,-31.250000
6721,-31.250000
6722,-31.250000
6723,-35.156250
6724,-35.156250
6725,-35.156250
6726,-35.156250
6727,-35.156250
6728,-35.156250
6729,-35.156250
6730,-31.250000
6731,-35.156250
6732,-31.250000
6733,-35.156250
6734,-35.156250
6735,-35.156250
6736,-35.156250
6737,-35.156250
6738,-35.156250
6739,-35.156250
6740,-35.156250
6741,-35.156250
6742,-35.156250
6743,-35.156250
6744,-35.156250
6745,-35.156250
6746,-35.156250
6747,-35.156250
6748,-35.156250
6749,-35.156250
6750,-35.156250
6751,-35.156250
6752,-35.156250
6753,-35.156250
6754,-35.156250
6755,-35.156250
6756,-35.156250
6757,-35.156250
6758,-35.156250
6759,-35.156250
6760,-35.156250
6761,-35.156250
6762,-35.156250
6763,-35.156250
6764,-35.156250
6765,-35.156250
6766,-35.156250
6767,-35.156250
6768,-35.156250
6769,-35.156250
6770,-35.156250
6771,-35.156250
6772,-35.156250
6773,-35.156250
6774,-35.156250
6775,-35.156250
6776,-35.156250
6777,-35.156250
6778,-35.156250
6779,-35.156250
6780,-35.156250
6781,-35.156250
6782,-35.156250
6783,-35.156250
6784,-35.156250
6785,-35.156250
6786,-35.156250
6787,-35.156250
6788,-35.156250
6789,-35.156250
6790,-35.156250
6791,-35.156250
6792,-35.156250
6793,-35.156250
6794,-35.156250
6795,-35.156250
6796,-35.156250
6797,-35.156250
6798,-35.156250
6799,-35.156250
6800,-35.156250
6801,-39.062500
6802,-35.156250
6803,-35.156250
6804,-35.156250
6805,-39.062500
6806,-35.156250
6807,-35.156250
6808,-35.156250
6809,-35.156250
6810,-35.156250
6811,-39.062500
6812,-35.156250
6813,-35.156250
6814,-35.156250
6815,-35.156250
6816,-35.156250
6817,-35.156250
6818,-35.156250
6819,-35.156250
6820,-35.156250
6821,-35.156250
6822,-35.156250
6823,-35.156250
6824,-35.156250
6825,-35.156250
6826,-35.156250
6827,-35.156250
6828,-35.156250
6829,-35.156250
6830,-35.156250
6831,-35.156250
6832,-35.156250
6833,-35.156250
6834,-35.156250
6835,-35.156250
6836,-35.156250
6837,-35.156250
6838,-35.156250
6839,-35.156250
6840,-35.156250
6841,-35.156250
6842,-35.156250
6843,-35.156250
6844,-35.156250
6845,-35.156250
6846,-35.156250
6847,-35.156250
6848,-35.156250
6849,-35.156250
6850,-35.156250
6851,-35.156250
6852,-35.156250
6853,-35.156250
6854,-35.156250
6855,-35.156250
6856,-35.156250
6857,-35.156250
6858,-35.156250
6859,-35.156250
6860,-35.156250
6861,-35.156250
6862,-35.156250
6863,-35.156250
6864,-35.156250
6865,-35.156250
6866,-35.156250
6867,-35.156250
6868,-35.156250
6869,-35.156250
6870,-35.156250
6871,-35.156250
6872,-35.156250
6873,-35.156250
6874,-35.156250
6875,-35.156250
6876,-35.156250
6877,-35.156250
6878,-35.156250
6879,-35.156250
6880,-35.156250
6881,-35.156250
6882,-35.156250
6883,-35.156250
6884,-35.156250
6885,-35.156250
6886,-35.156250
6887,-35.156250
6888,-31.250000
6889,-31.250000
6890,-35.156250
6891,-31.250000
6892,-31.250000
6893,-35.156250
6894,-35.156250
6895,-35.156250
6896,-35.156250
6897,-35.156250
6898,-31.250000
6899,-31.250000
6900,-31.250000
6901,-31.250000
6902,-31.250000
6903,-31.250000
6904,-31.250000
6905,-31.250000
6906,-31.250000
6907,-31.250000
6908,-31.250000
6909,-31.250000
6910,-31.250000
6911,-31.250000
6912,-31.250000
6913,-31.250000
6914,-31.250000
6915,-31.250000
6916,-31.250000
6917,-31.250000
6918,-31.250000
6919,-31.250000
6920,-31.250000
6921,-31.250000
6922,-31.250000
6923,-31.250000
6924,-27.343750
6925,-31.250000
6926,-31.250000
6927,-31.250000
6928,-27.343750
6929,-27.343750
6930,-27.343750
6931,-27.343750
6932,-27.343750
6933,-27.343750
6934,-27.343750
6935,-27.343750
6936,-27.343750
6937,-27.343750
6938,-27.343750
6939,-27.343750
6940,-27.343750
6941,-27.343750
6942,-27.343750
6943,-27.343750
6944,-27.343750
6945,-27.343750
6946,-27.343750
6947,-27.343750
6948,-27.343750
6949,-27.343750
6950,-27.343750
6951,-27.343750
6952,-27.343750
6953,-23.437500
6954,-27.343750
6955,-27.343750
6956,-27.343750
6957,-27.343750
6958,-27.343750
6959,-27.343750
6960,-23.437500
6961,-23.437500
6962,-23.437500
6963,-23.437500
6964,-23.437500
6965,-23.437500
6966,-23.437500
6967,-23.437500
6968,-23.437500
6969,-23.437500
6970,-23.437500
6971,-23.437500
6972,-23.437500
6973,-23.437500
6974,-23.437500
6975,-23.437500
6976,-23.437500
6977,-23.437500
6978,-23.437500
6979,-23.437500
6980,-23.437500
6981,-23.437500
6982,-23.437500
6983,-23.437500
6984,-19.531250
6985,-23.437500
6986,-19.531250
6987,-23.437500
6988,-19.531250
6989,-23.437500
6990,-23.437500
6991,-19.531250
6992,-19.531250
6993,-19.531250
6994,-19.531250
6995,-19.531250
6996,-19.531250
6997,-19.531250
6998,-19.531250
6999,-19.531250
7000,-19.531250
7001,-19.531250
7002,-19.531250
7003,-19.531250
7004,-19.531250
7005,-19.531250
7006,-19.531250
7007,-19.531250
7008,-19.531250
7009,-19.531250
7010,-19.531250
7011,-19.531250
7012,-15.625000
7013,-15.625000
7014,-15.625000
7015,-19.531250
7016,-15.625000
7017,-15.625000
7018,-15.625000
7019,-15.625000
7020,-15.625000
7021,-15.625000
7022,-15.625000
7023,-15.625000
7024,-15.625000
7025,-15.625000
7026,-15.625000
7027,-15.625000
7028,-15.625000
7029,-15.625000
7030,-15.625000
7031,-15.625000
7032,-15.625000
7033,-15.625000
7034,-15.625000
7035,-15.625000
7036,-15.625000
7037,-11.718750
7038,-11.718750
7039,-11.718750
7040,-11.718750
7041,-11.718750
7042,-11.718750
7043,-11.718750
7044,-11.718750
7045,-11.718750
7046,-11.718750
7047,-11.718750
7048,-11.718750
7049,-11.718750
7050,-11.718750
7051,-11.718750
7052,-11.718750
7053,-11.718750
7054,-11.718750
7055,-11.718750
7056,-7.812500
7057,-11.718750
7058,-7.812500
7059,-11.718750
7060,-7.812500
7061,-7.812500
7062,-7.812500
7063,-7.812500
7064,-7.812500
7065,-7.812500
7066,-7.812500
7067,-7.812500
7068,-7.812500
7069,-7.812500
7070,-7.812500
7071,-7.812500
7072,-7.812500
7073,-7.812500
7074,-7.812500
7075,-7.812500
7076,-7.812500
7077,-7.812500
7078,-7.812500
7079,-7.812500
7080,-7.812500
7081,-7.812500
7082,-3.906250
7083,-7.812500
7084,-3.906250
7085,-7.812500
7086,-3.906250
7087,-3.906250
7088,-3.906250
7089,-3.906250
7090,-3.906250
7091,-3.906250
7092,-3.906250
7093,-3.906250
7094,-3.906250
7095,-3.906250
7096,-3.906250
7097,-3.906250
7098,-3.906250
7099,-3.906250
7100,-3.906250
7101,-3.906250
7102,-3.906250
7103,-3.906250
7104,-3.906250
7105,-3.906250
7106,-3.906250
7107,-3.906250
7108,0.000000
7109,0.000000
7110,0.000000
7111,0.000000
7112,0.000000
7113,0.000000
7114,0.000000
7115,0.000000
7116,0.000000
7117,0.000000
7118,0.000000
7119,0.000000
7120,0.000000
7121,0.000000
7122,0.000000
7123,0.000000
7124,0.000000
7125,0.000000
7126,0.000000
7127,0.000000
7128,0.000000
7129,0.000000
7130,0.000000
7131,0.000000
7132,0.000000
7133,0.000000
7134,0.000000
7135,0.000000
7136,0.000000
7137,0.000000
7138,0.000000
7139,0.000000
7140,3.906250
7141,3.906250
7142,3.906250
7143,0.000000
7144,3.906250
7145,3.906250
7146,3.906250
7147,3.906250
7148,3.906250
7149,3.906250
7150,3.906250
7151,3.906250
7152,3.906250
7153,3.906250
7154,3.906250
7155,3.906250
7156,3.906250
7157,3.906250
7158,3.906250
7159,3.906250
7160,3.906250
7161,3.906250
7162,3.906250
7163,3.906250
7164,3.906250
7165,3.906250
7166,3.906250
7167,3.906250
7168,7.812500
7169,3.906250
7170,3.906250
7171,3.906250
7172,3.906250
7173,7.812500
7174,7.812500
7175,7.812500
7176,7.812500
7177,7.812500
7178,7.812500
7179,7.812500
7180,7.812500
7181,7.812500
7182,7.812500
7183,7.812500
7184,7.812500
7185,7.812500
7186,7.812500
7187,7.812500
7188,7.812500
7189,7.812500
7190,7.812500
7191,7.812500
7192,7.812500
7193,7.812500
7194,7.812500
7195,7.812500
7196,7.812500
7197,7.812500
7198,7.812500
7199,7.812500
7200,7.812500
7201,7.812500
7202,7.812500
7203,7.812500
7204,7.812500
7205,7.812500
7206,7.812500
7207,7.812500
7208,11.718750
7209,11.718750
7210,11.718750
7211,7.812500
7212,11.718750
7213,7.812500
7214,7.812500
7215,11.718750
7216,7.812500
7217,11.718750
7218,11.718750
7219,11.718750
7220,11.718750
7221,11.718750
7222,11.718750
7223,11.718750
7224,11.718750
7225,11.718750
7226,11.718750
7227,7.812500
7228,11.718750
7229,11.718750
7230,11.718750
7231,11.718750
7232,11.718750
7233,11.718750
7234,11.718750
7235,11.718750
7236,11.718750
7237,11.718750
7238,11.718750
7239,11.718750
7240,11.718750
7241,11.718750
7242,11.718750
7243,11.718750
7244,11.718750
7245,11.718750
7246,11.718750
7247,11.718750
7248,11.718750
7249,11.718750
7250,11.718750
7251,11.718750
7252,11.718750
7253,11.718750
7254,11.718750
7255,11.718750
7256,11.718750
7257,11.718750
7258,11.718750
7259,11.718750
7260,11.718750
7261,11.718750
7262,11.718750
7263,11.718750
7264,11.718750
7265,11.718750
7266,11.718750
7267,11.718750
7268,11.718750
7269,11.718750
7270,11.718750
7271,11.718750
7272,11.718750
7273,11.718750
7274,11.718750
7275,11.718750
7276,11.718750
7277,11.718750
7278,11.718750
7279,11.718750
7280,11.718750
7281,11.718750
7282,11.718750
7283,15.625000
7284,11.718750
7285,11.718750
7286,11.718750
7287,11.718750
7288,11.718750
7289,11.718750
7290,11.718750
7291,11.718750
7292,11.718750
7293,11.718750
7294,11.718750
7295,11.718750
7296,11.718750
7297,11.718750
7298,11.718750
7299,11.718750
7300,11.718750
7301,11.718750
7302,11.718750
7303,11.718750
7304,11.718750
7305,11.718750
7306,11.718750
7307,11.718750
7308,11.718750
7309,11.718750
7310,11.718750
7311,11.718750
7312,11.718750
7313,11.718750
7314,11.718750
7315,11.718750
7316,11.718750
7317,11.718750
7318,11.718750
7319,11.718750
7320,11.718750
7321,11.718750
7322,11.718750
7323,11.718750
7324,11.718750
7325,11.718750
7326,11.718750
7327,11.718750
7328,11.718750
7329,11.718750
7330,11.718750
7331,11.718750
7332,11.718750
7333,11.718750
7334,11.718750
7335,11.718750
7336,11.718750
7337,11.718750
7338,11.718750
7339,11.718750
7340,11.718750
7341,11.718750
7342,11.718750
7343,11.718750
7344,11.718750
7345,11.718750
7346,11.718750
7347,11.718750
7348,11.718750
7349,11.718750
7350,11.718750
7351,11.718750
7352,11.718750
7353,11.718750
7354,11.718750
7355,11.718750
7356,11.718750
7357,11.718750
7358,11.718750
7359,11.718750
7360,11.718750
7361,11.718750
7362,11.718750
7363,11.718750
7364,7.812500
7365,7.812500
7366,7.812500
7367,7.812500
7368,7.812500
7369,11.718750
7370,11.718750
7371,7.812500
7372,7.812500
7373,7.812500
7374,7.812500
7375,7.812500
7376,7.812500
7377,7.812500
7378,7.812500
7379,7.812500
7380,7.812500
7381,7.812500
7382,7.812500
7383,7.812500
7384,7.812500
7385,7.812500
7386,7.812500
7387,7.812500
7388,7.812500
7389,7.812500
7390,7.812500
7391,7.812500
7392,7.812500
7393,7.812500
7394,7.812500
7395,7.812500
7396,7.812500
7397,7.812500
7398,7.812500
7399,7.812500
7400,7.812500
7401,7.812500
7402,7.812500
7403,7.812500
7404,7.812500
7405,7.812500
7406,7.812500
7407,3.906250
7408,7.812500
7409,7.812500
7410,3.906250
7411,3.906250
7412,3.906250
7413,7.812500
7414,7.812500
7415,3.906250
7416,3.906250
7417,3.906250
7418,3.906250
7419,3.906250
7420,3.906250
7421,3.906250
7422,3.906250
7423,3.906250
7424,3.906250
7425,3.906250
7426,3.906250
7427,3.906250
7428,3.906250
7429,3.906250
7430,3.906250
7431,3.906250
7432,3.906250
7433,3.906250
7434,3.906250
7435,3.906250
7436,3.906250
7437,3.906250
7438,3.906250
7439,3.906250
7440,3.906250
7441,3.906250
7442,3.906250
7443,3.906250
7444,3.906250
7445,3.906250
7446,3.906250
7447,0.000000
7448,3.906250
7449,0.000000
7450,0.000000
7451,0.000000
7452,3.906250
7453,3.906250
7454,3.906250
7455,0.000000
7456,3.906250
7457,0.000000
7458,0.000000
7459,0.000000
7460,0.000000
7461,0.000000
7462,0.000000
7463,0.000000
7464,0.000000
7465,0.000000
7466,0.000000
7467,0.000000
7468,0.000000
7469,0.000000
7470,0.000000
7471,0.000000
7472,0.000000
7473,0.000000
7474,0.000000
7475,0.000000
7476,0.000000
7477,0.000000
7478,0.000000
7479,0.000000
7480,-3.906250
7481,0.000000
7482,0.000000
7483,0.000000
7484,0.000000
7485,-3.906250
7486,-3.906250
7487,-3.906250
7488,-3.906250
7489,-3.906250
7490,-3.906250
7491,-3.906250
7492,-3.906250
7493,-3.906250
7494,-3.906250
7495,-3.906250
7496,-3.906250
7497,-3.906250
7498,-3.906250
7499,-3.906250
7500,-3.906250
7501,-3.906250
7502,-3.906250
7503,-3.906250
7504,-3.906250
7505,-3.906250
7506,-3.906250
7507,-7.812500
7508,-3.906250
7509,-3.906250
7510,-3.906250
7511,-7.812500
7512,-3.906250
7513,-7.812500
7514,-7.812500
7515,-7.812500
7516,-7.812500
7517,-7.812500
7518,-7.812500
7519,-7.812500
7520,-7.812500
7521,-7.812500
7522,-7.812500
7523,-7.812500
7524,-7.812500
7525,-7.812500
7526,-7.812500
7527,-7.812500
7528,-7.812500
7529,-7.812500
7530,-7.812500
7531,-7.812500
7532,-7.812500
7533,-11.718750
7534,-7.812500
7535,-11.718750
7536,-11.718750
7537,-7.812500
7538,-7.812500
7539,-7.812500
7540,-11.718750
7541,-11.718750
7542,-11.718750
7543,-11.718750
7544,-11.718750
7545,-11.718750
7546,-7.812500
7547,-11.718750
7548,-11.718750
7549,-11.718750
7550,-11.718750
7551,-11.718750
7552,-11.718750
7553,-11.718750
7554,-11.718750
7555,-11.718750
7556,-11.718750
7557,-11.718750
7558,-11.718750
7559,-11.718750
7560,-11.718750
7561,-11.718750
7562,-15.625000
7563,-15.625000
7564,-11.718750
7565,-11.718750
7566,-15.625000
7567,-11.718750
7568,-11.718750
7569,-15.625000
7570,-15.625000
7571,-15.625000
7572,-15.625000
7573,-15.625000
7574,-15.625000
7575,-15.625000
7576,-15.625000
7577,-15.625000
7578,-15.625000
7579,-15.625000
7580,-15.625000
7581,-15.625000
7582,-15.625000
7583,-15.625000
7584,-15.625000
7585,-15.625000
7586,-15.625000
7587,-15.625000
7588,-15.625000
7589,-15.625000
7590,-15.625000
7591,-15.625000
7592,-15.625000
7593,-19.531250
7594,-19.531250
7595,-19.531250
7596,-19.531250
7597,-19.531250
7598,-19.531250
7599,-19.531250
7600,-19.531250
7601,-19.531250
7602,-19.531250
7603,-19.531250
7604,-19.531250
7605,-19.531250
7606,-19.531250
7607,-19.531250
7608,-19.531250
7609,-19.531250
7610,-19.531250
7611,-19.531250
7612,-19.531250
7613,-19.531250
7614,-23.437500
7615,-23.437500
7616,-23.437500
7617,-23.437500
7618,-23.437500
7619,-19.531250
7620,-23.437500
7621,-23.437500
7622,-19.531250
7623,-23.437500
7624,-23.437500
7625,-23.437500
7626,-23.437500
7627,-23.437500
7628,-23.437500
7629,-23.437500
7630,-23.437500
7631,-23.437500
7632,-23.437500
7633,-23.437500
7634,-23.437500
7635,-23.437500
7636,-23.437500
7637,-23.437500
7638,-23.437500
7639,-23.437500
7640,-23.437500
7641,-23.437500
7642,-23.437500
7643,-23.437500
7644,-27.343750
7645,-27.343750
7646,-27.343750
7647,-27.343750
7648,-27.343750
7649,-27.343750
7650,-27.343750
7651,-27.343750
7652,-27.343750
7653,-27.343750
7654,-27.343750
7655,-27.343750
7656,-27.343750
7657,-27.343750
7658,-27.343750
7659,-27.343750
7660,-27.343750
7661,-27.343750
7662,-27.343750
7663,-27.343750
7664,-27.343750
7665,-27.343750
7666,-27.343750
7667,-27.343750
7668,-27.343750
7669,-27.343750
7670,-27.343750
7671,-27.343750
7672,-27.343750
7673,-27.343750
7674,-27.343750
7675,-31.250000
7676,-31.250000
7677,-27.343750
7678,-27.343750
7679,-31.250000
7680,-31.250000
7681,-31.250000
7682,-31.250000
7683,-31.250000
7684,-31.250000
7685,-31.250000
7686,-31.250000
7687,-31.250000
7688,-31.250000
7689,-31.250000
7690,-31.250000
7691,-31.250000
7692,-31.250000
7693,-31.250000
7694,-31.250000
7695,-31.250000
7696,-31.250000
7697,-31.250000
7698,-31.250000
7699,-31.250000
7700,-31.250000
7701,-31.250000
7702,-31.250000
7703,-31.250000
7704,-31.250000
7705,-31.250000
7706,-31.250000
7707,-31.250000
7708,-31.250000
7709,-31.250000
7710,-31.250000
7711,-31.250000
7712,-31.250000
7713,-31.250000
7714,-31.250000
7715,-31.250000
7716,-31.250000
7717,-31.250000
7718,-31.250000
7719,-31.250000
7720,-31.250000
7721,-35.156250
7722,-35.156250
7723,-35.156250
7724,-31.250000
7725,-35.156250
7726,-35.156250
7727,-35.156250
7728,-35.156250
7729,-35.156250
7730,-35.156250
7731,-35.156250
7732,-31.250000
7733,-35.156250
7734,-35.156250
7735,-35.156250
7736,-35.156250
7737,-35.156250
7738,-35.156250
7739,-35.156250
7740,-35.156250
7741,-35.156250
7742,-35.156250
7743,-35.156250
7744,-35.156250
7745,-35.156250
7746,-35.156250
7747,-35.156250
7748,-35.156250
7749,-35.156250
7750,-35.156250
7751,-35.156250
7752,-35.156250
7753,-35.156250
7754,-35.156250
7755,-35.156250
7756,-35.156250
7757,-35.156250
7758,-35.156250
7759,-35.156250
7760,-35.156250
7761,-35.156250
7762,-35.156250
7763,-35.156250
7764,-35.156250
7765,-35.156250
7766,-35.156250
7767,-39.062500
7768,-35.156250
7769,-35.156250
7770,-35.156250
7771,-35.156250
7772,-35.156250
7773,-35.156250
7774,-39.062500
7775,-35.156250
7776,-35.156250
7777,-35.156250
7778,-35.156250
7779,-35.156250
7780,-35.156250
7781,-39.062500
7782,-39.062500
7783,-39.062500
7784,-39.062500
7785,-39.062500
7786,-35.156250
7787,-39.062500
7788,-35.156250
7789,-35.156250
7790,-35.156250
7791,-35.156250
7792,-35.156250
7793,-35.156250
7794,-35.156250
7795,-39.062500
7796,-39.062500
7797,-39.062500
7798,-39.062500
7799,-39.062500
7800,-39.062500
7801,-39.062500
7802,-35.156250
7803,-39.062500
7804,-35.156250
7805,-39.062500
7806,-39.062500
7807,-39.062500
7808,-39.062500
7809,-39.062500
7810,-35.156250
7811,-39.062500
7812,-35.156250
7813,-35.156250
7814,-35.156250
7815,-35.156250
7816,-35.156250
7817,-35.156250
7818,-35.156250
7819,-35.156250
7820,-35.156250
7821,-35.156250
7822,-39.062500
7823,-39.062500
7824,-35.156250
7825,-35.156250
7826,-35.156250
7827,-35.156250
7828,-35.156250
7829,-35.156250
7830,-35.156250
7831,-35.156250
7832,-35.156250
7833,-35.156250
7834,-35.156250
7835,-35.156250
7836,-35.156250
7837,-35.156250
7838,-35.156250
7839,-35.156250
7840,-35.156250
7841,-35.156250
7842,-35.156250
7843,-35.156250
7844,-35.156250
7845,-35.156250
7846,-35.156250
7847,-35.156250
7848,-35.156250
7849,-35.156250
7850,-35.156250
7851,-35.156250
7852,-35.156250
7853,-35.156250
7854,-35.156250
7855,-35.156250
7856,-35.156250
7857,-35.156250
7858,-35.156250
7859,-35.156250
7860,-35.156250
7861,-35.156250
7862,-35.156250
7863,-35.156250
7864,-35.156250
7865,-35.156250
7866,-35.156250
7867,-35.156250
7868,-35.156250
7869,-35.156250
7870,-35.156250
7871,-35.156250
7872,-31.250000
7873,-31.250000
7874,-31.250000
7875,-31.250000
7876,-31.250000
7877,-31.250000
7878,-35.156250
7879,-31.250000
7880,-35.156250
7881,-31.250000
7882,-31.250000
7883,-31.250000
7884,-31.250000
7885,-31.250000
7886,-31.250000
7887,-31.250000
7888,-31.250000
7889,-31.250000
7890,-31.250000
7891,-31.250000
7892,-31.250000
7893,-31.250000
7894,-31.250000
7895,-31.250000
7896,-31.250000
7897,-31.250000
7898,-31.250000
7899,-31.250000
7900,-31.250000
7901,-31.250000
7902,-31.250000
7903,-31.250000
7904,-31.250000
7905,-31.250000
7906,-31.250000
7907,-31.250000
7908,-31.250000
7909,-31.250000
7910,-31.250000
7911,-31.250000
7912,-31.250000
7913,-31.250000
7914,-31.250000
7915,-31.250000
7916,-27.343750
7917,-27.343750
7918,-27.343750
7919,-31.250000
7920,-31.250000
7921,-31.250000
7922,-27.343750
7923,-27.343750
7924,-27.343750
7925,-27.343750
7926,-27.343750
7927,-27.343750
7928,-27.343750
7929,-27.343750
7930,-27.343750
7931,-27.343750
7932,-27.343750
7933,-27.343750
7934,-27.343750
7935,-27.343750
7936,-27.343750
7937,-27.343750
7938,-27.343750
7939,-27.343750
7940,-27.343750
7941,-27.343750
7942,-27.343750
7943,-27.343750
7944,-27.343750
7945,-27.343750
7946,-27.343750
7947,-27.343750
7948,-27.343750
7949,-23.437500
7950,-23.437500
7951,-23.437500
7952,-23.437500
7953,-23.437500
7954,-23.437500
7955,-23.437500
7956,-27.343750
7957,-23.437500
7958,-23.437500
7959,-23.437500
7960,-23.437500
7961,-23.437500
7962,-23.437500
7963,-23.437500
7964,-23.437500
7965,-23.437500
7966,-23.437500
7967,-23.437500
7968,-23.437500
7969,-23.437500
7970,-23.437500
7971,-23.437500
7972,-23.437500
7973,-19.531250
7974,-19.531250
7975,-19.531250
7976,-19.531250
7977,-19.531250
7978,-19.531250
7979,-19.531250
7980,-19.531250
7981,-19.531250
7982,-19.531250
7983,-19.531250
7984,-19.531250
7985,-19.531250
7986,-19.531250
7987,-19.531250
7988,-19.531250
7989,-19.531250
7990,-19.531250
7991,-19.531250
7992,-19.531250
7993,-19.531250
7994,-15.625000
7995,-15.625000
7996,-15.625000
7997,-19.531250
7998,-19.531250
7999,-19.531250
8000,-15.625000
8001,-15.625000
8002,-15.625000
8003,-15.625000
8004,-15.625000
8005,-15.625000
8006,-15.625000
8007,-15.625000
8008,-15.625000
8009,-15.625000
8010,-15.625000
8011,-15.625000
8012,-15.625000
8013,-15.625000
8014,-15.625000
8015,-15.625000
8016,-11.718750
8017,-15.625000
8018,-15.625000
8019,-15.625000
8020,-15.625000
8021,-15.625000
8022,-11.718750
8023,-15.625000
8024,-11.718750
8025,-15.625000
8026,-11.718750
8027,-11.718750
8028,-15.625000
8029,-11.718750
8030,-11.718750
8031,-11.718750
8032,-11.718750
8033,-11.718750
8034,-11.718750
8035,-11.718750
8036,-11.718750
8037,-11.718750
8038,-11.718750
8039,-11.718750
8040,-11.718750
8041,-11.718750
8042,-11.718750
8043,-11.718750
8044,-7.812500
8045,-11.718750
8046,-11.718750
8047,-7.812500
8048,-7.812500
8049,-7.812500
8050,-7.812500
8051,-11.718750
8052,-7.812500
8053,-7.812500
8054,-7.812500
8055,-7.812500
8056,-7.812500
8057,-3.906250
8058,-7.812500
8059,-7.812500
8060,-7.812500
8061,-7.812500
8062,-7.812500
8063,-7.812500
8064,-7.812500
8065,-7.812500
8066,-7.812500
8067,-3.906250
8068,-3.906250
8069,-7.812500
8070,-3.906250
8071,-7.812500
8072,-3.906250
8073,-7.812500
8074,-3.906250
8075,-3.906250
8076,-3.906250
8077,-3.906250
8078,-7.812500
8079,-3.906250
8080,-3.906250
8081,-3.906250
8082,-3.906250
8083,-3.906250
8084,-7.812500
8085,-3.906250
8086,-3.906250
8087,-3.906250
8088,-3.906250
8089,-7.812500
8090,-3.906250
8091,-3.906250
8092,-3.906250
8093,-3.906250
8094,-3.906250
8095,0.000000
8096,-3.906250
8097,-3.906250
8098,0.000000
8099,0.000000
8100,0.000000
8101,0.000000
8102,0.000000
8103,0.000000
8104,0.000000
8105,0.000000
8106,0.000000
8107,0.000000
8108,0.000000
8109,0.000000
8110,0.000000
8111,0.000000
8112,0.000000
8113,0.000000
8114,0.000000
8115,0.000000
8116,0.000000
8117,0.000000
8118,0.000000
8119,0.000000
8120,3.906250
8121,0.000000
8122,0.000000
8123,0.000000
8124,3.906250
8125,3.906250
8126,3.906250
8127,3.906250
8128,3.906250
8129,3.906250
8130,3.906250
8131,3.906250
8132,3.906250
8133,3.906250
8134,3.906250
8135,3.906250
8136,3.906250
8137,3.906250
8138,3.906250
8139,3.906250
8140,3.906250
8141,3.906250
8142,3.906250
8143,3.906250
8144,3.906250
8145,3.906250
8146,3.906250
8147,3.906250
8148,3.906250
8149,3.906250
8150,3.906250
8151,3.906250
8152,3.906250
8153,3.906250
8154,3.906250
8155,3.906250
8156,3.906250
8157,3.906250
8158,3.906250
8159,3.906250
8160,7.812500
8161,7.812500
8162,7.812500
8163,3.906250
8164,7.812500
8165,3.906250
8166,7.812500
8167,7.812500
8168,7.812500
8169,7.812500
8170,7.812500
8171,7.812500
8172,7.812500
8173,7.812500
8174,7.812500
8175,3.906250
8176,7.812500
8177,7.812500
8178,7.812500
8179,7.812500
8180,7.812500
8181,7.812500
8182,7.812500
8183,7.812500
8184,7.812500
8185,7.812500
8186,7.812500
8187,7.812500
8188,7.812500
8189,7.812500
8190,7.812500
8191,7.812500
8192,7.812500
8193,7.812500
8194,7.812500
8195,7.812500
8196,7.812500
8197,7.812500
8198,7.812500
8199,7.812500
8200,7.812500
8201,7.812500
8202,11.718750
8203,7.812500
8204,7.812500
8205,7.812500
8206,11.718750
8207,11.718750
8208,11.718750
8209,11.718750
8210,7.812500
8211,7.812500
8212,11.718750
8213,11.718750
8214,11.718750
8215,11.718750
8216,11.718750
8217,11.718750
8218,11.718750
8219,11.718750
8220,11.718750
8221,11.718750
8222,11.718750
8223,11.718750
8224,11.718750
8225,11.718750
8226,11.718750
8227,11.718750
8228,11.718750
8229,11.718750
8230,11.718750
8231,11.718750
8232,11.718750
8233,11.718750
8234,11.718750
8235,11.718750
8236,11.718750
8237,11.718750
8238,11.718750
8239,11.718750
8240,11.718750
8241,11.718750
8242,11.718750
8243,11.718750
8244,11.718750
8245,11.718750
8246,11.718750
8247,11.718750
8248,11.718750
8249,11.718750
8250,11.718750
8251,11.718750
8252,11.718750
8253,11.718750
8254,11.718750
8255,11.718750
8256,11.718750
8257,11.718750
8258,11.718750
8259,11.718750
8260,11.718750
8261,11.718750
8262,11.718750
8263,11.718750
8264,11.718750
8265,11.718750
8266,11.718750
8267,11.718750
8268,11.718750
8269,11.718750
8270,11.718750
8271,11.718750
8272,11.718750
8273,11.718750
8274,11.718750
8275,11.718750
8276,11.718750
8277,11.718750
8278,11.718750
8279,11.718750
8280,11.718750
8281,11.718750
8282,11.718750
8283,11.718750
8284,11.718750
8285,11.718750
8286,11.718750
8287,11.718750
8288,11.718750
8289,11.718750
8290,11.718750
8291,11.718750
8292,11.718750
8293,11.718750
8294,11.718750
8295,11.718750
8296,11.718750
8297,11.718750
8298,11.718750
8299,11.718750
8300,11.718750
8301,11.718750
8302,11.718750
8303,11.718750
8304,11.718750
8305,11.718750
8306,11.718750
8307,11.718750
8308,11.718750
8309,11.718750
8310,11.718750
8311,11.718750
8312,11.718750
8313,11.718750
8314,11.718750
8315,11.718750
8316,11.718750
8317,11.718750
8318,11.718750
8319,11.718750
8320,11.718750
8321,11.718750
8322,11.718750
8323,11.718750
8324,11.718750
8325,11.718750
8326,11.718750
8327,11.718750
8328,11.718750
8329,11.718750
8330,11.718750
8331,11.718750
8332,11.718750
8333,11.718750
8334,11.718750
8335,11.718750
8336,11.718750
8337,11.718750
8338,11.718750
8339,11.718750
8340,11.718750
8341,11.718750
8342,11.718750
8343,11.718750
8344,11.718750
8345,11.718750
8346,11.718750
8347,11.718750
8348,11.718750
8349,11.718750
8350,11.718750
8351,11.718750
8352,11.718750
8353,11.718750
8354,11.718750
8355,11.718750
8356,11.718750
8357,11.718750
8358,11.718750
8359,11.718750
8360,11.718750
8361,11.718750
8362,11.718750
8363,7.812500
8364,11.718750
8365,7.812500
8366,11.718750
8367,7.812500
8368,11.718750
8369,7.812500
8370,7.812500
8371,7.812500
8372,11.718750
8373,7.812500
8374,7.812500
8375,7.812500
8376,7.812500
8377,7.812500
8378,7.812500
8379,7.812500
8380,7.812500
8381,7.812500
8382,7.812500
8383,7.812500
8384,7.812500
8385,7.812500
8386,7.812500
8387,7.812500
8388,7.812500
8389,7.812500
8390,7.812500
8391,7.812500
8392,7.812500
8393,7.812500
8394,7.812500
8395,7.812500
8396,7.812500
8397,7.812500
8398,7.812500
8399,7.812500
8400,7.812500
8401,7.812500
8402,7.812500
8403,7.812500
8404,7.812500
8405,7.812500
8406,3.906250
8407,3.906250
8408,7.812500
8409,7.812500
8410,3.906250
8411,3.906250
8412,3.906250
8413,3.906250
8414,3.906250
8415,3.906250
8416,3.906250
8417,3.906250
8418,3.906250
8419,3.906250
8420,3.906250
8421,3.906250
8422,3.906250
8423,3.906250
8424,3.906250
8425,3.906250
8426,3.906250
8427,3.906250
8428,3.906250
8429,3.906250
8430,3.906250
8431,3.906250
8432,3.906250
8433,3.906250
8434,3.906250
8435,3.906250
8436,3.906250
8437,0.000000
8438,0.000000
8439,3.906250
8440,3.906250
8441,3.906250
8442,3.906250
8443,3.906250
8444,0.000000
8445,0.000000
8446,0.000000
8447,0.000000
8448,0.000000
8449,0.000000
8450,0.000000
8451,0.000000
8452,0.000000
8453,0.000000
8454,0.000000
8455,0.000000
8456,0.000000
8457,0.000000
8458,0.000000
8459,0.000000
8460,0.000000
8461,0.000000
8462,0.000000
8463,0.000000
8464,0.000000
8465,0.000000
8466,0.000000
8467,0.000000
8468,0.000000
8469,-3.906250
8470,0.000000
8471,-3.906250
8472,0.000000
8473,-3.906250
8474,-3.906250
8475,-3.906250
8476,-3.906250
8477,-3.906250
8478,-3.906250
8479,-3.906250
8480,-3.906250
8481,-3.906250
8482,-3.906250
8483,-3.906250
8484,-3.906250
8485,-3.906250
8486,-3.906250
8487,-3.906250
8488,-3.906250
8489,-3.906250
8490,-3.906250
8491,-3.906250
8492,-3.906250
8493,-3.906250
8494,-3.906250
8495,-3.906250
8496,-3.906250
8497,-3.906250
8498,-3.906250
8499,-3.906250
8500,-3.906250
8501,-7.812500
8502,-3.906250
8503,-3.906250
8504,-7.812500
8505,-3.906250
8506,-3.906250
8507,-7.812500
8508,-7.812500
8509,-7.812500
8510,-7.812500
8511,-7.812500
8512,-7.812500
8513,-7.812500
8514,-7.812500
8515,-7.812500
8516,-7.812500
8517,-7.812500
8518,-7.812500
8519,-7.812500
8520,-7.812500
8521,-7.812500
8522,-7.812500
8523,-7.812500
8524,-7.812500
8525,-7.812500
8526,-7.812500
8527,-7.812500
8528,-7.812500
8529,-11.718750
8530,-7.812500
8531,-11.718750
8532,-11.718750
8533,-11.718750
8534,-11.718750
8535,-11.718750
8536,-11.718750
8537,-11.718750
8538,-11.718750
8539,-11.718750
8540,-11.718750
8541,-11.718750
8542,-11.718750
8543,-11.718750
8544,-11.718750
8545,-11.718750
8546,-11.718750
8547,-11.718750
8548,-11.718750
8549,-11.718750
8550,-11.718750
8551,-11.718750
8552,-11.718750
8553,-15.625000
8554,-11.718750
8555,-11.718750
8556,-15.625000
8557,-15.625000
8558,-15.625000
8559,-15.625000
8560,-15.625000
8561,-15.625000
8562,-15.625000
8563,-15.625000
8564,-15.625000
8565,-15.625000
8566,-15.625000
8567,-15.625000
8568,-15.625000
8569,-15.625000
8570,-15.625000
8571,-15.625000
8572,-15.625000
8573,-15.625000
8574,-15.625000
8575,-15.625000
8576,-15.625000
8577,-15.625000
8578,-15.625000
8579,-19.531250
8580,-19.531250
8581,-19.531250
8582,-19.531250
8583,-19.531250
8584,-19.531250
8585,-19.531250
8586,-19.531250
8587,-19.531250
8588,-19.531250
8589,-19.531250
8590,-19.531250
8591,-19.531250
8592,-19.531250
8593,-19.531250
8594,-19.531250
8595,-19.531250
8596,-19.531250
8597,-19.531250
8598,-19.531250
8599,-19.531250
8600,-19.531250
8601,-19.531250
8602,-19.531250
8603,-23.437500
8604,-23.437500
8605,-23.437500
8606,-23.437500
8607,-23.437500
8608,-23.437500
8609,-23.437500
8610,-23.437500
8611,-23.437500
8612,-19.531250
8613,-23.437500
8614,-23.437500
8615,-23.437500
8616,-23.437500
8617,-23.437500
8618,-23.437500
8619,-23.437500
8620,-23.437500
8621,-23.437500
8622,-23.437500
8623,-23.437500
8624,-23.437500
8625,-23.437500
8626,-23.437500
8627,-23.437500
8628,-23.437500
8629,-23.437500
8630,-27.343750
8631,-23.437500
8632,-23.437500
8633,-23.437500
8634,-23.437500
8635,-27.343750
8636,-27.343750
8637,-23.437500
8638,-23.437500
8639,-23.437500
8640,-27.343750
8641,-27.343750
8642,-27.343750
8643,-27.343750
8644,-27.343750
8645,-27.343750
8646,-27.343750
8647,-27.343750
8648,-27.343750
8649,-27.343750
8650,-27.343750
8651,-27.343750
8652,-27.343750
8653,-27.343750
8654,-27.343750
8655,-27.343750
8656,-27.343750
8657,-27.343750
8658,-27.343750
8659,-27.343750
8660,-27.343750
8661,-27.343750
8662,-27.343750
8663,-27.343750
8664,-27.343750
8665,-27.343750
8666,-27.343750
8667,-27.343750
8668,-27.343750
8669,-31.250000
8670,-31.250000
8671,-31.250000
8672,-31.250000
8673,-31.250000
8674,-31.250000
8675,-31.250000
8676,-31.250000
8677,-31.250000
8678,-31.250000
8679,-31.250000
8680,-31.250000
8681,-31.250000
8682,-31.250000
8683,-31.250000
8684,-31.250000
8685,-31.250000
8686,-31.250000
8687,-31.250000
8688,-31.250000
8689,-31.250000
8690,-31.250000
8691,-31.250000
8692,-31.250000
8693,-35.156250
8694,-31.250000
8695,-31.250000
8696,-31.250000
8697,-31.250000
8698,-31.250000
8699,-35.156250
8700,-31.250000
8701,-31.250000
8702,-31.250000
8703,-31.250000
8704,-31.250000
8705,-35.156250
8706,-35.156250
8707,-31.250000
8708,-35.156250
8709,-35.156250
8710,-35.156250
8711,-35.156250
8712,-35.156250
8713,-35.156250
8714,-35.156250
8715,-35.156250
8716,-35.156250
8717,-35.156250
8718,-35.156250
8719,-35.156250
8720,-35.156250
8721,-35.156250
8722,-35.156250
8723,-35.156250
8724,-35.156250
8725,-35.156250
8726,-35.156250
8727,-35.156250
8728,-35.156250
8729,-35.156250
8730,-35.156250
8731,-35.156250
8732,-35.156250
8733,-35.156250
8734,-35.156250
8735,-35.156250
8736,-35.156250
8737,-35.156250
8738,-35.156250
8739,-35.156250
8740,-35.156250
8741,-35.156250
8742,-35.156250
8743,-35.156250
8744,-35.156250
8745,-35.156250
8746,-35.156250
8747,-35.156250
8748,-35.156250
8749,-35.156250
8750,-35.156250
8751,-35.156250
8752,-35.156250
8753,-35.156250
8754,-35.156250
8755,-35.156250
8756,-35.156250
8757,-35.156250
8758,-35.156250
8759,-35.156250
8760,-35.156250
8761,-35.156250
8762,-35.156250
8763,-35.156250
8764,-35.156250
8765,-35.156250
8766,-35.156250
8767,-35.156250
8768,-35.156250
8769,-35.156250
8770,-35.156250
8771,-35.156250
8772,-35.156250
8773,-35.156250
8774,-35.156250
8775,-35.156250
8776,-35.156250
8777,-35.156250
8778,-35.156250
8779,-35.156250
8780,-35.156250
8781,-35.156250
8782,-35.156250
8783,-35.156250
8784,-35.156250
8785,-35.156250
8786,-35.156250
8787,-39.062500
8788,-39.062500
8789,-35.156250
8790,-39.062500
8791,-39.062500
8792,-35.156250
8793,-35.156250
8794,-35.156250
8795,-35.156250
8796,-35.156250
8797,-35.156250
8798,-35.156250
8799,-35.156250
8800,-35.156250
8801,-39.062500
8802,-39.062500
8803,-35.156250
8804,-35.156250
8805,-35.156250
8806,-35.156250
8807,-35.156250
8808,-35.156250
8809,-35.156250
8810,-35.156250
8811,-35.156250
8812,-35.156250
8813,-35.156250
8814,-35.156250
8815,-35.156250
8816,-35.156250
8817,-35.156250
8818,-35.156250
8819,-35.156250
8820,-35.156250
8821,-35.156250
8822,-35.156250
8823,-35.156250
8824,-35.156250
8825,-35.156250
8826,-35.156250
8827,-35.156250
8828,-35.156250
8829,-35.156250
8830,-35.156250
8831,-35.156250
8832,-35.156250
8833,-35.156250
8834,-35.156250
8835,-35.156250
8836,-35.156250
8837,-35.156250
8838,-35.156250
8839,-35.156250
8840,-35.156250
8841,-35.156250
8842,-35.156250
8843,-35.156250
8844,-35.156250
8845,-35.156250
8846,-35.156250
8847,-35.156250
8848,-35.156250
8849,-35.156250
8850,-35.156250
8851,-35.156250
8852,-35.156250
8853,-35.156250
8854,-35.156250
8855,-35.156250
8856,-35.156250
8857,-35.156250
8858,-35.156250
8859,-35.156250
8860,-35.156250
8861,-35.156250
8862,-35.156250
8863,-35.156250
8864,-35.156250
8865,-35.156250
8866,-35.156250
8867,-35.156250
8868,-31.250000
8869,-31.250000
8870,-31.250000
8871,-31.250000
8872,-31.250000
8873,-31.250000
8874,-31.250000
8875,-31.250000
8876,-35.156250
8877,-31.250000
8878,-31.250000
8879,-31.250000
8880,-31.250000
8881,-31.250000
8882,-31.250000
8883,-31.250000
8884,-31.250000
8885,-31.250000
8886,-31.250000
8887,-31.250000
8888,-31.250000
8889,-31.250000
8890,-31.250000
8891,-31.250000
8892,-31.250000
8893,-31.250000
8894,-31.250000
8895,-31.250000
8896,-31.250000
8897,-31.250000
8898,-31.250000
8899,-31.250000
8900,-31.250000
8901,-31.250000
8902,-27.343750
8903,-31.250000
8904,-27.343750
8905,-31.250000
8906,-31.250000
8907,-27.343750
8908,-27.343750
8909,-27.343750
8910,-27.343750
8911,-27.343750
8912,-31.250000
8913,-31.250000
8914,-27.343750
8915,-27.343750
8916,-27.343750
8917,-27.343750
8918,-27.343750
8919,-27.343750
8920,-27.343750
8921,-27.343750
8922,-27.343750
8923,-27.343750
8924,-27.343750
8925,-27.343750
8926,-27.343750
8927,-27.343750
8928,-27.343750
8929,-27.343750
8930,-27.343750
8931,-27.343750
8932,-27.343750
8933,-27.343750
8934,-27.343750
8935,-27.343750
8936,-27.343750
8937,-27.343750
8938,-27.343750
8939,-27.343750
8940,-23.437500
8941,-23.437500
8942,-23.437500
8943,-23.437500
8944,-23.437500
8945,-23.437500
8946,-23.437500
8947,-23.437500
8948,-23.437500
8949,-23.437500
8950,-23.437500
8951,-23.437500
8952,-23.437500
8953,-23.437500
8954,-23.437500
8955,-23.437500
8956,-23.437500
8957,-23.437500
8958,-23.437500
8959,-23.437500
8960,-23.437500
8961,-23.437500
8962,-23.437500
8963,-23.437500
8964,-19.531250
8965,-19.531250
8966,-23.437500
8967,-19.531250
8968,-19.531250
8969,-23.437500
8970,-19.531250
8971,-19.531250
8972,-19.531250
8973,-19.531250
8974,-19.531250
8975,-19.531250
8976,-19.531250
8977,-19.531250
8978,-19.531250
8979,-19.531250
8980,-19.531250
8981,-19.531250
8982,-19.531250
8983,-19.531250
8984,-19.531250
8985,-19.531250
8986,-19.531250
8987,-15.625000
8988,-15.625000
8989,-19.531250
8990,-15.625000
8991,-19.531250
8992,-15.625000
8993,-15.625000
8994,-15.625000
8995,-15.625000
8996,-15.625000
8997,-15.625000
8998,-15.625000
8999,-15.625000
9000,-15.625000
9001,-15.625000
9002,-15.625000
9003,-15.625000
9004,-15.625000
9005,-15.625000
9006,-15.625000
9007,-15.625000
9008,-15.625000
9009,-15.625000
9010,-11.718750
9011,-15.625000
9012,-11.718750
9013,-15.625000
9014,-11.718750
9015,-11.718750
9016,-15.625000
9017,-11.718750
9018,-11.718750
9019,-11.718750
9020,-11.718750
9021,-11.718750
9022,-11.718750
9023,-11.718750
9024,-11.718750
9025,-11.718750
9026,-11.718750
9027,-11.718750
9028,-11.718750
9029,-11.718750
9030,-11.718750
9031,-11.718750
9032,-7.812500
9033,-11.718750
9034,-11.718750
9035,-11.718750
9036,-11.718750
9037,-7.812500
9038,-7.812500
9039,-7.812500
9040,-7.812500
9041,-7.812500
9042,-7.812500
9043,-7.812500
9044,-7.812500
9045,-7.812500
9046,-7.812500
9047,-7.812500
9048,-7.812500
9049,-7.812500
9050,-7.812500
9051,-7.812500
9052,-7.812500
9053,-7.812500
9054,-7.812500
9055,-7.812500
9056,-7.812500
9057,-7.812500
9058,-7.812500
9059,-7.812500
9060,-7.812500
9061,-7.812500
9062,-3.906250
9063,-3.906250
9064,-3.906250
9065,-3.906250
9066,-3.906250
9067,-7.812500
9068,-7.812500
9069,-7.812500
9070,-3.906250
9071,-3.906250
9072,-3.906250
9073,-3.906250
9074,-3.906250
9075,-3.906250
9076,-3.906250
9077,-3.906250
9078,-3.906250
9079,-3.906250
9080,-3.906250
9081,-3.906250
9082,-3.906250
9083,-3.906250
9084,-3.906250
9085,-3.906250
9086,-3.906250
9087,-3.906250
9088,-3.906250
9089,-3.906250
9090,0.000000
9091,0.000000
9092,0.000000
9093,0.000000
9094,0.000000
9095,0.000000
9096,0.000000
9097,0.000000
9098,0.000000
9099,0.000000
9100,0.000000
9101,0.000000
9102,0.000000
9103,0.000000
9104,0.000000
9105,0.000000
9106,0.000000
9107,0.000000
9108,0.000000
9109,0.000000
9110,0.000000
9111,0.000000
9112,0.000000
9113,0.000000
9114,0.000000
9115,0.000000
9116,0.000000
9117,0.000000
9118,0.000000
9119,3.906250
9120,3.906250
9121,3.906250
9122,3.906250
9123,3.906250
9124,3.906250
9125,3.906250
9126,3.906250
9127,3.906250
9128,3.906250
9129,3.906250
9130,3.906250
9131,3.906250
9132,3.906250
9133,3.906250
9134,3.906250
9135,3.906250
9136,3.906250
9137,3.906250
9138,3.906250
9139,3.906250
9140,3.906250
9141,3.906250
9142,3.906250
9143,7.812500
9144,3.906250
9145,3.906250
9146,3.906250
9147,3.906250
9148,7.812500
9149,7.812500
9150,7.812500
9151,7.812500
9152,7.812500
9153,7.812500
9154,7.812500
9155,7.812500
9156,7.812500
9157,3.906250
9158,7.812500
9159,7.812500
9160,7.812500
9161,7.812500
9162,7.812500
9163,7.812500
9164,7.812500
9165,7.812500
9166,7.812500
9167,7.812500
9168,7.812500
9169,7.812500
9170,7.812500
9171,7.812500
9172,7.812500
9173,7.812500
9174,7.812500
9175,7.812500
9176,7.812500
9177,7.812500
9178,7.812500
9179,7.812500
9180,7.812500
9181,7.812500
9182,7.812500
9183,7.812500
9184,7.812500
9185,7.812500
9186,7.812500
9187,7.812500
9188,7.812500
9189,7.812500
9190,7.812500
9191,11.718750
9192,11.718750
9193,7.812500
9194,7.812500
9195,7.812500
9196,7.812500
9197,11.718750
9198,11.718750
9199,11.718750
9200,11.718750
9201,11.718750
9202,11.718750
9203,11.718750
9204,11.718750
9205,7.812500
9206,11.718750
9207,11.718750
9208,11.718750
9209,11.718750
9210,11.718750
9211,11.718750
9212,11.718750
9213,11.718750
9214,11.718750
9215,11.718750
9216,11.718750
9217,11.718750
9218,11.718750
9219,11.718750
9220,11.718750
9221,11.718750
9222,11.718750
9223,11.718750
9224,11.718750
9225,11.718750
9226,11.718750
9227,11.718750
9228,11.718750
9229,11.718750
9230,11.718750
9231,11.718750
9232,11.718750
9233,11.718750
9234,11.718750
9235,11.718750
9236,11.718750
9237,11.718750
9238,11.718750
9239,11.718750
9240,11.718750
9241,11.718750
9242,11.718750
9243,11.718750
9244,11.718750
9245,11.718750
9246,11.718750
9247,11.718750
9248,11.718750
9249,11.718750
9250,11.718750
9251,11.718750
9252,11.718750
9253,11.718750
9254,11.718750
9255,11.718750
9256,11.718750
9257,11.718750
9258,11.718750
9259,11.718750
9260,11.718750
9261,11.718750
9262,11.718750
9263,11.718750
9264,11.718750
9265,11.718750
9266,11.718750
9267,11.718750
9268,11.718750
9269,11.718750
9270,11.718750
9271,11.718750
9272,15.625000
9273,11.718750
9274,11.718750
9275,11.718750
9276,11.718750
9277,11.718750
9278,11.718750
9279,11.718750
9280,11.718750
9281,11.718750
9282,11.718750
9283,11.718750
9284,11.718750
9285,11.718750
9286,11.718750
9287,11.718750
9288,11.718750
9289,11.718750
9290,11.718750
9291,11.718750
9292,11.718750
9293,11.718750
9294,11.718750
9295,11.718750
9296,11.718750
9297,11.718750
9298,11.718750
9299,11.718750
9300,11.718750
9301,11.718750
9302,11.718750
9303,11.718750
9304,11.718750
9305,11.718750
9306,11.718750
9307,11.718750
9308,11.718750
9309,11.718750
9310,11.718750
9311,11.718750
9312,11.718750
9313,11.718750
9314,11.718750
9315,11.718750
9316,11.718750
9317,11.718750
9318,11.718750
9319,11.718750
9320,11.718750
9321,11.718750
9322,11.718750
9323,11.718750
9324,11.718750
9325,11.718750
9326,11.718750
9327,11.718750
9328,11.718750
9329,11.718750
9330,11.718750
9331,11.718750
9332,11.718750
9333,11.718750
9334,11.718750
9335,11.718750
9336,11.718750
9337,11.718750
9338,11.718750
9339,11.718750
9340,11.718750
9341,11.718750
9342,7.812500
9343,7.812500
9344,7.812500
9345,7.812500
9346,11.718750
9347,11.718750
9348,7.812500
9349,7.812500
9350,7.812500
9351,7.812500
9352,7.812500
9353,7.812500
9354,7.812500
9355,11.718750
9356,7.812500
9357,7.812500
9358,7.812500
9359,7.812500
9360,7.812500
9361,7.812500
9362,7.812500
9363,7.812500
9364,7.812500
9365,7.812500
9366,7.812500
9367,7.812500
9368,7.812500
9369,7.812500
9370,7.812500
9371,7.812500
9372,7.812500
9373,7.812500
9374,7.812500
9375,7.812500
9376,7.812500
9377,7.812500
9378,7.812500
9379,7.812500
9380,7.812500
9381,7.812500
9382,7.812500
9383,7.812500
9384,7.812500
9385,7.812500
9386,3.906250
9387,7.812500
9388,7.812500
9389,7.812500
9390,7.812500
9391,7.812500
9392,7.812500
9393,3.906250
9394,7.812500
9395,7.812500
9396,7.812500
9397,7.812500
9398,7.812500
9399,3.906250
9400,3.906250
9401,7.812500
9402,3.906250
9403,3.906250
9404,7.812500
9405,3.906250
9406,3.906250
9407,3.906250
9408,3.906250
9409,3.906250
9410,3.906250
9411,3.906250
9412,3.906250
9413,3.906250
9414,3.906250
9415,3.906250
9416,3.906250
9417,3.906250
9418,3.906250
9419,3.906250
9420,3.906250
9421,3.906250
9422,3.906250
9423,3.906250
9424,3.906250
9425,3.906250
9426,3.906250
9427,3.906250
9428,3.906250
9429,3.906250
9430,3.906250
9431,3.906250
9432,3.906250
9433,3.906250
9434,0.000000
9435,0.000000
9436,0.000000
9437,0.000000
9438,0.000000
9439,0.000000
9440,0.000000
9441,0.000000
9442,0.000000
9443,0.000000
9444,0.000000
9445,0.000000
9446,0.000000
9447,0.000000
9448,0.000000
9449,0.000000
9450,0.000000
9451,0.000000
9452,0.000000
9453,0.000000
9454,0.000000
9455,0.000000
9456,0.000000
9457,0.000000
9458,0.000000
9459,0.000000
9460,0.000000
9461,0.000000
9462,-3.906250
9463,-3.906250
9464,-3.906250
9465,-3.906250
9466,-3.906250
9467,-3.906250
9468,-3.906250
9469,-3.906250
9470,-3.906250
9471,-3.906250
9472,-3.906250
9473,-3.906250
9474,-3.906250
9475,-3.906250
9476,-3.906250
9477,-3.906250
9478,-3.906250
9479,-3.906250
9480,-3.906250
9481,-3.906250
9482,-3.906250
9483,-3.906250
9484,-3.906250
9485,-3.906250
9486,-3.906250
9487,-3.906250
9488,-7.812500
9489,-7.812500
9490,-7.812500
9491,-7.812500
9492,-7.812500
9493,-7.812500
9494,-7.812500
9495,-7.812500
9496,-7.812500
9497,-7.812500
9498,-7.812500
9499,-7.812500
9500,-7.812500
9501,-7.812500
9502,-7.812500
9503,-7.812500
9504,-7.812500
9505,-7.812500
9506,-7.812500
9507,-7.812500
9508,-7.812500
9509,-7.812500
9510,-7.812500
9511,-7.812500
9512,-7.812500
9513,-7.812500
9514,-7.812500
9515,-11.718750
9516,-7.812500
9517,-7.812500
9518,-7.812500
9519,-11.718750
9520,-11.718750
9521,-11.718750
9522,-11.718750
9523,-11.718750
9524,-11.718750
9525,-11.718750
9526,-11.718750
9527,-11.718750
9528,-11.718750
9529,-11.718750
9530,-11.718750
9531,-11.718750
9532,-11.718750
9533,-11.718750
9534,-11.718750
9535,-11.718750
9536,-11.718750
9537,-11.718750
9538,-11.718750
9539,-11.718750
9540,-11.718750
9541,-11.718750
9542,-11.718750
9543,-15.625000
9544,-15.625000
9545,-11.718750
9546,-15.625000
9547,-11.718750
9548,-15.625000
9549,-15.625000
9550,-15.625000
9551,-15.625000
9552,-15.625000
9553,-15.625000
9554,-15.625000
9555,-15.625000
9556,-15.625000
9557,-15.625000
9558,-15.625000
9559,-15.625000
9560,-15.625000
9561,-15.625000
9562,-15.625000
9563,-15.625000
9564,-15.625000
9565,-15.625000
9566,-15.625000
9567,-15.625000
9568,-15.625000
9569,-19.531250
9570,-15.625000
9571,-15.625000
9572,-19.531250
9573,-19.531250
9574,-19.531250
9575,-19.531250
9576,-19.531250
9577,-19.531250
9578,-19.531250
9579,-19.531250
9580,-19.531250
9581,-19.531250
9582,-19.531250
9583,-19.531250
9584,-19.531250
9585,-19.531250
9586,-19.531250
9587,-19.531250
9588,-19.531250
9589,-19.531250
9590,-19.531250
9591,-19.531250
9592,-19.531250
9593,-23.437500
9594,-23.437500
9595,-19.531250
9596,-23.437500
9597,-23.437500
9598,-23.437500
9599,-23.437500
9600,-23.437500
9601,-23.437500
9602,-23.437500
9603,-23.437500
9604,-23.437500
9605,-23.437500
9606,-23.437500
9607,-23.437500
9608,-23.437500
9609,-23.437500
9610,-23.437500
9611,-23.437500
9612,-19.531250
9613,-23.437500
9614,-23.437500
9615,-23.437500
9616,-23.437500
9617,-23.437500
9618,-23.437500
9619,-23.437500
9620,-23.437500
9621,-23.437500
9622,-23.437500
9623,-27.343750
9624,-23.437500
9625,-27.343750
9626,-23.437500
9627,-23.437500
9628,-27.343750
9629,-27.343750
9630,-27.343750
9631,-27.343750
9632,-27.343750
9633,-27.343750
9634,-27.343750
9635,-27.343750
9636,-27.343750
9637,-27.343750
9638,-27.343750
9639,-27.343750
9640,-27.343750
9641,-27.343750
9642,-27.343750
9643,-27.343750
9644,-27.343750
9645,-27.343750
9646,-27.343750
9647,-27.343750
9648,-27.343750
9649,-27.343750
9650,-27.343750
9651,-27.343750
9652,-27.343750
9653,-27.343750
9654,-27.343750
9655,-27.343750
9656,-27.343750
9657,-31.250000
9658,-27.343750
9659,-31.250000
9660,-31.250000
9661,-27.343750
9662,-27.343750
9663,-31.250000
9664,-31.250000
9665,-31.250000
9666,-31.250000
9667,-31.250000
9668,-31.250000
9669,-31.250000
9670,-31.250000
9671,-31.250000
9672,-31.250000
9673,-31.250000
9674,-31.250000
9675,-31.250000
9676,-31.250000
9677,-31.250000
9678,-31.250000
9679,-31.250000
9680,-31.250000
9681,-31.250000
9682,-31.250000
9683,-31.250000
9684,-31.250000
9685,-31.250000
9686,-31.250000
9687,-31.250000
9688,-31.250000
9689,-31.250000
9690,-31.250000
9691,-31.250000
9692,-31.250000
9693,-31.250000
9694,-31.250000
9695,-31.250000
9696,-31.250000
9697,-31.250000
9698,-31.250000
9699,-35.156250
9700,-35.156250
9701,-35.156250
9702,-31.250000
9703,-31.250000
9704,-31.250000
9705,-35.156250
9706,-35.156250
9707,-35.156250
9708,-35.156250
9709,-35.156250
9710,-35.156250
9711,-35.156250
9712,-35.156250
9713,-35.156250
9714,-35.156250
9715,-35.156250
9716,-35.156250
9717,-35.156250
9718,-35.156250
9719,-35.156250
9720,-35.156250
9721,-35.156250
9722,-35.156250
9723,-35.156250
9724,-35.156250
9725,-35.156250
9726,-35.156250
9727,-35.156250
9728,-35.156250
9729,-35.156250
9730,-35.156250
9731,-35.156250
9732,-35.156250
9733,-35.156250
9734,-35.156250
9735,-35.156250
9736,-35.156250
9737,-35.156250
9738,-35.156250
9739,-35.156250
9740,-35.156250
9741,-35.156250
9742,-35.156250
9743,-35.156250
9744,-35.156250
9745,-39.062500
9746,-35.156250
9747,-35.156250
9748,-35.156250
9749,-35.156250
9750,-35.156250
9751,-35.156250
9752,-35.156250
9753,-35.156250
9754,-35.156250
9755,-35.156250
9756,-35.156250
9757,-35.156250
9758,-35.156250
9759,-35.156250
9760,-35.156250
9761,-35.156250
9762,-35.156250
9763,-35.156250
9764,-35.156250
9765,-35.156250
9766,-35.156250
9767,-35.156250
9768,-35.156250
9769,-35.156250
9770,-35.156250
9771,-35.156250
9772,-35.156250
9773,-35.156250
9774,-35.156250
9775,-35.156250
9776,-35.156250
9777,-39.062500
9778,-39.062500
9779,-35.156250
9780,-35.156250
9781,-35.156250
9782,-35.156250
9783,-35.156250
9784,-35.156250
9785,-35.156250
9786,-35.156250
9787,-35.156250
9788,-35.156250
9789,-35.156250
9790,-35.156250
9791,-35.156250
9792,-35.156250
9793,-35.156250
9794,-35.156250
9795,-35.156250
9796,-35.156250
9797,-35.156250
9798,-35.156250
9799,-35.156250
9800,-35.156250
9801,-35.156250
9802,-35.156250
9803,-35.156250
9804,-35.156250
9805,-35.156250
9806,-35.156250
9807,-35.156250
9808,-35.156250
9809,-35.156250
9810,-35.156250
9811,-35.156250
9812,-35.156250
9813,-35.156250
9814,-35.156250
9815,-35.156250
9816,-35.156250
9817,-35.156250
9818,-35.156250
9819,-35.156250
9820,-35.156250
9821,-35.156250
9822,-35.156250
9823,-35.156250
9824,-35.156250
9825,-35.156250
9826,-35.156250
9827,-35.156250
9828,-35.156250
9829,-35.156250
9830,-35.156250
9831,-35.156250
9832,-35.156250
9833,-35.156250
9834,-35.156250
9835,-35.156250
9836,-35.156250
9837,-35.156250
9838,-35.156250
9839,-35.156250
9840,-35.156250
9841,-35.156250
9842,-35.156250
9843,-35.156250
9844,-35.156250
9845,-35.156250
9846,-35.156250
9847,-35.156250
9848,-35.156250
9849,-35.156250
9850,-35.156250
9851,-35.156250
9852,-35.156250
9853,-35.156250
9854,-31.250000
9855,-35.156250
9856,-35.156250
9857,-31.250000
9858,-31.250000
9859,-31.250000
9860,-31.250000
9861,-35.156250
9862,-31.250000
9863,-35.156250
9864,-35.156250
9865,-31.250000
9866,-31.250000
9867,-31.250000
9868,-31.250000
9869,-31.250000
9870,-31.250000
9871,-31.250000
9872,-31.250000
9873,-31.250000
9874,-31.250000
9875,-31.250000
9876,-31.250000
9877,-31.250000
9878,-31.250000
9879,-31.250000
9880,-31.250000
9881,-31.250000
9882,-31.250000
9883,-31.250000
9884,-31.250000
9885,-31.250000
9886,-31.250000
9887,-31.250000
9888,-31.250000
9889,-31.250000
9890,-31.250000
9891,-27.343750
9892,-27.343750
9893,-27.343750
9894,-27.343750
9895,-31.250000
9896,-27.343750
9897,-31.250000
9898,-27.343750
9899,-27.343750
9900,-27.343750
9901,-27.343750
9902,-27.343750
9903,-27.343750
9904,-27.343750
9905,-27.343750
9906,-27.343750
9907,-27.343750
9908,-27.343750
9909,-27.343750
9910,-27.343750
9911,-27.343750
9912,-27.343750
9913,-27.343750
9914,-27.343750
9915,-27.343750
9916,-27.343750
9917,-27.343750
9918,-27.343750
9919,-27.343750
9920,-27.343750
9921,-27.343750
9922,-27.343750
9923,-27.343750
9924,-23.437500
9925,-23.437500
9926,-23.437500
9927,-23.437500
9928,-23.437500
9929,-23.437500
9930,-23.437500
9931,-23.437500
9932,-23.437500
9933,-23.437500
9934,-23.437500
9935,-23.437500
9936,-23.437500
9937,-23.437500
9938,-23.437500
9939,-23.437500
9940,-23.437500
9941,-23.437500
9942,-23.437500
9943,-23.437500
9944,-23.437500
9945,-23.437500
9946,-23.437500
9947,-23.437500
9948,-23.437500
9949,-23.437500
9950,-23.437500
9951,-23.437500
9952,-19.531250
9953,-23.437500
9954,-19.531250
9955,-23.437500
9956,-19.531250
9957,-19.531250
9958,-19.531250
9959,-19.531250
9960,-19.531250
9961,-19.531250
9962,-19.531250
9963,-19.531250
9964,-19.531250
9965,-19.531250
9966,-19.531250
9967,-19.531250
9968,-19.531250
9969,-19.531250
9970,-19.531250
9971,-19.531250
9972,-19.531250
9973,-19.531250
9974,-19.531250
9975,-19.531250
9976,-19.531250
9977,-19.531250
9978,-19.531250
9979,-19.531250
9980,-19.531250
9981,-15.625000
9982,-19.531250
9983,-15.625000
9984,-15.625000
9985,-19.531250
9986,-15.625000
9987,-15.625000
9988,-15.625000
9989,-15.625000
9990,-15.625000
9991,-15.625000
9992,-15.625000
9993,-15.625000
9994,-15.625000
9995,-15.625000
9996,-15.625000
9997,-15.625000
9998,-15.625000
9999,-15.625000
10000,-15.625000
