Channel              :,CH1
Frequency            :,1.010kHz
Period               :,0.990ms
PK-PK                :,304.7mV
Probe attenuation    :,1X
Voltage per ADC value:,0.244141mV
Time interval        :,1.00000us

index,CH1_Voltage(mV)
1,-74.218750
2,-74.218750
3,-74.218750
4,-70.312500
5,-70.312500
6,-70.312500
7,-66.406250
8,-66.406250
9,-66.406250
10,-66.406250
11,-66.406250
12,-62.500000
13,-62.500000
14,-62.500000
15,-58.593750
16,-58.593750
17,-58.593750
18,-58.593750
19,-54.687500
20,-54.687500
21,-54.687500
22,-54.687500
23,-54.687500
24,-50.781250
25,-50.781250
26,-50.781250
27,-46.875000
28,-46.875000
29,-46.875000
30,-46.875000
31,-46.875000
32,-42.968750
33,-42.968750
34,-42.968750
35,-39.062500
36,-39.062500
37,-39.062500
38,-39.062500
39,-39.062500
40,-35.156250
41,-35.156250
42,-35.156250
43,-35.156250
44,-31.250000
45,-31.250000
46,-31.250000
47,-27.343750
48,-27.343750
49,-27.343750
50,-27.343750
51,-27.343750
52,-23.437500
53,-23.437500
54,-23.437500
55,-19.531250
56,-19.531250
57,-19.531250
58,-19.531250
59,-15.625000
60,-15.625000
61,-15.625000
62,-15.625000
63,-15.625000
64,-11.718750
65,-11.718750
66,-11.718750
67,-11.718750
68,-7.812500
69,-7.812500
70,-7.812500
71,-3.906250
72,-3.906250
73,-3.906250
74,-3.906250
75,0.000000
76,0.000000
77,0.000000
78,0.000000
79,0.000000
80,3.906250
81,3.906250
82,3.906250
83,3.906250
84,7.812500
85,7.812500
86,7.812500
87,7.812500
88,11.718750
89,11.718750
90,11.718750
91,11.718750
92,11.718750
93,15.625000
94,15.625000
95,15.625000
96,19.531250
97,19.531250
98,19.531250
99,19.531250
100,23.437500
101,23.437500
102,23.437500
103,23.437500
104,23.437500
105,27.343750
106,27.343750
107,27.343750
108,27.343750
109,31.250000
110,31.250000
111,31.250000
112,31.250000
113,35.156250
114,35.156250
115,35.156250
116,35.156250
117,35.156250
118,39.062500
119,39.062500
120,39.062500
121,39.062500
122,42.968750
123,42.968750
124,42.968750
125,42.968750
126,42.968750
127,46.875000
128,46.875000
129,46.875000
130,46.875000
131,46.875000
132,50.781250
133,50.781250
134,50.781250
135,50.781250
136,54.687500
137,54.687500
138,54.687500
139,54.687500
140,58.593750
141,58.593750
142,58.593750
143,58.593750
144,58.593750
145,58.593750
146,62.500000
147,62.500000
148,62.500000
149,62.500000
150,62.500000
151,66.406250
152,66.406250
153,66.406250
154,66.406250
155,70.312500
156,70.312500
157,70.312500
158,70.312500
159,70.312500
160,70.312500
161,74.218750
162,74.218750
163,74.218750
164,74.218750
165,74.218750
166,78.125000
167,78.125000
168,78.125000
169,78.125000
170,78.125000
171,82.031250
172,82.031250
173,82.031250
174,82.031250
175,82.031250
176,82.031250
177,82.031250
178,85.937500
179,85.937500
180,85.937500
181,85.937500
182,85.937500
183,85.937500
184,89.843750
185,89.843750
186,89.843750
187,89.843750
188,89.843750
189,93.750000
190,93.750000
191,93.750000
192,93.750000
193,93.750000
194,93.750000
195,93.750000
196,93.750000
197,97.656250
198,97.656250
199,97.656250
200,97.656250
201,97.656250
202,97.656250
203,101.562500
204,101.562500
205,101.562500
206,101.562500
207,101.562500
208,101.562500
209,101.562500
210,101.562500
211,105.468750
212,105.468750
213,105.468750
214,105.468750
215,105.468750
216,105.468750
217,105.468750
218,105.468750
219,109.375000
220,109.375000
221,109.375000
222,109.375000
223,109.375000
224,109.375000
225,109.375000
226,109.375000
227,109.375000
228,113.281250
229,113.281250
230,113.281250
231,113.281250
232,113.281250
233,113.281250
234,113.281250
235,113.281250
236,113.281250
237,117.187500
238,117.187500
239,117.187500
240,117.187500
241,117.187500
242,117.187500
243,117.187500
244,117.187500
245,117.187500
246,117.187500
247,117.187500
248,121.093750
249,121.093750
250,121.093750
251,121.093750
252,121.093750
253,121.093750
254,121.093750
255,121.093750
256,121.093750
257,121.093750
258,125.000000
259,125.000000
260,125.000000
261,125.000000
262,125.000000
263,125.000000
264,125.000000
265,125.000000
266,125.000000
267,125.000000
268,125.000000
269,125.000000
270,125.000000
271,125.000000
272,125.000000
273,125.000000
274,128.906250
275,128.906250
276,128.906250
277,128.906250
278,128.906250
279,128.906250
280,128.906250
281,128.906250
282,128.906250
283,128.906250
284,128.906250
285,128.906250
286,128.906250
287,128.906250
288,128.906250
289,128.906250
290,128.906250
291,128.906250
292,132.812500
293,132.812500
294,132.812500
295,128.906250
296,132.812500
297,128.906250
298,132.812500
299,132.812500
300,132.812500
301,132.812500
302,132.812500
303,132.812500
304,132.812500
305,132.812500
306,132.812500
307,132.812500
308,132.812500
309,132.812500
310,132.812500
311,132.812500
312,132.812500
313,132.812500
314,128.906250
315,132.812500
316,132.812500
317,132.812500
318,132.812500
319,132.812500
320,132.812500
321,132.812500
322,132.812500
323,132.812500
324,132.812500
325,132.812500
326,132.812500
327,132.812500
328,132.812500
329,132.812500
330,132.812500
331,132.812500
332,132.812500
333,132.812500
334,132.812500
335,132.812500
336,132.812500
337,132.812500
338,132.812500
339,132.812500
340,132.812500
341,132.812500
342,132.812500
343,132.812500
344,132.812500
345,132.812500
346,132.812500
347,128.906250
348,128.906250
349,128.906250
350,128.906250
351,128.906250
352,128.906250
353,128.906250
354,128.906250
355,128.906250
356,128.906250
357,128.906250
358,128.906250
359,128.906250
360,128.906250
361,128.906250
362,128.906250
363,128.906250
364,128.906250
365,128.906250
366,128.906250
367,125.000000
368,128.906250
369,125.000000
370,128.906250
371,125.000000
372,125.000000
373,125.000000
374,125.000000
375,125.000000
376,125.000000
377,125.000000
378,125.000000
379,125.000000
380,125.000000
381,125.000000
382,125.000000
383,121.093750
384,121.093750
385,121.093750
386,121.093750
387,121.093750
388,121.093750
389,121.093750
390,121.093750
391,121.093750
392,121.093750
393,121.093750
394,121.093750
395,121.093750
396,121.093750
397,121.093750
398,117.187500
399,117.187500
400,117.187500
401,117.187500
402,117.187500
403,117.187500
404,117.187500
405,117.187500
406,117.187500
407,117.187500
408,113.281250
409,113.281250
410,113.281250
411,113.281250
412,113.281250
413,113.281250
414,113.281250
415,113.281250
416,113.281250
417,109.375000
418,109.375000
419,109.375000
420,109.375000
421,109.375000
422,109.375000
423,109.375000
424,109.375000
425,109.375000
426,105.468750
427,105.468750
428,105.468750
429,105.468750
430,105.468750
431,105.468750
432,101.562500
433,101.562500
434,101.562500
435,101.562500
436,101.562500
437,101.562500
438,101.562500
439,101.562500
440,97.656250
441,97.656250
442,97.656250
443,97.656250
444,97.656250
445,97.656250
446,93.750000
447,93.750000
448,93.750000
449,93.750000
450,93.750000
451,93.750000
452,93.750000
453,93.750000
454,93.750000
455,89.843750
456,89.843750
457,89.843750
458,89.843750
459,89.843750
460,85.937500
461,85.937500
462,85.937500
463,85.937500
464,85.937500
465,85.937500
466,85.937500
467,82.031250
468,82.031250
469,82.031250
470,82.031250
471,78.125000
472,78.125000
473,78.125000
474,78.125000
475,78.125000
476,78.125000
477,74.218750
478,74.218750
479,74.218750
480,74.218750
481,74.218750
482,70.312500
483,70.312500
484,70.312500
485,70.312500
486,70.312500
487,66.406250
488,66.406250
489,66.406250
490,66.406250
491,66.406250
492,66.406250
493,62.500000
494,62.500000
495,62.500000
496,62.500000
497,58.593750
498,58.593750
499,58.593750
500,58.593750
501,58.593750
502,58.593750
503,54.687500
504,54.687500
505,54.687500
506,50.781250
507,50.781250
508,50.781250
509,50.781250
510,50.781250
511,50.781250
512,50.781250
513,46.875000
514,46.875000
515,46.875000
516,42.968750
517,42.968750
518,42.968750
519,42.968750
520,42.968750
521,42.968750
522,39.062500
523,39.062500
524,39.062500
525,39.062500
526,35.156250
527,35.156250
528,35.156250
529,31.250000
530,31.250000
531,31.250000
532,31.250000
533,31.250000
534,27.343750
535,27.343750
536,27.343750
537,27.343750
538,27.343750
539,23.437500
540,23.437500
541,23.437500
542,23.437500
543,19.531250
544,19.531250
545,19.531250
546,19.531250
547,15.625000
548,15.625000
549,15.625000
550,15.625000
551,11.718750
552,11.718750
553,11.718750
554,11.718750
555,7.812500
556,7.812500
557,7.812500
558,7.812500
559,3.906250
560,3.906250
561,3.906250
562,3.906250
563,0.000000
564,0.000000
565,0.000000
566,0.000000
567,0.000000
568,-3.906250
569,-3.906250
570,-3.906250
571,-7.812500
572,-7.812500
573,-7.812500
574,-7.812500
575,-11.718750
576,-11.718750
577,-11.718750
578,-11.718750
579,-15.625000
580,-15.625000
581,-15.625000
582,-15.625000
583,-19.531250
584,-19.531250
585,-19.531250
586,-19.531250
587,-23.437500
588,-23.437500
589,-23.437500
590,-23.437500
591,-27.343750
592,-27.343750
593,-27.343750
594,-27.343750
595,-31.250000
596,-31.250000
597,-31.250000
598,-31.250000
599,-35.156250
600,-35.156250
601,-35.156250
602,-39.062500
603,-39.062500
604,-39.062500
605,-39.062500
606,-39.062500
607,-42.968750
608,-42.968750
609,-42.968750
610,-42.968750
611,-46.875000
612,-46.875000
613,-46.875000
614,-50.781250
615,-50.781250
616,-50.781250
617,-50.781250
618,-50.781250
619,-54.687500
620,-54.687500
621,-54.687500
622,-54.687500
623,-58.593750
624,-58.593750
625,-58.593750
626,-58.593750
627,-62.500000
628,-62.500000
629,-62.500000
630,-62.500000
631,-66.406250
632,-66.406250
633,-66.406250
634,-66.406250
635,-66.406250
636,-70.312500
637,-70.312500
638,-70.312500
639,-74.218750
640,-74.218750
641,-74.218750
642,-74.218750
643,-78.125000
644,-78.125000
645,-78.125000
646,-78.125000
647,-78.125000
648,-82.031250
649,-82.031250
650,-82.031250
651,-82.031250
652,-85.937500
653,-85.937500
654,-85.937500
655,-85.937500
656,-89.843750
657,-89.843750
658,-89.843750
659,-89.843750
660,-89.843750
661,-93.750000
662,-93.750000
663,-93.750000
664,-93.750000
665,-97.656250
666,-97.656250
667,-97.656250
668,-97.656250
669,-97.656250
670,-101.562500
671,-101.562500
672,-101.562500
673,-101.562500
674,-101.562500
675,-105.468750
676,-105.468750
677,-105.468750
678,-105.468750
679,-109.375000
680,-109.375000
681,-109.375000
682,-109.375000
683,-109.375000
684,-113.281250
685,-113.281250
686,-113.281250
687,-113.281250
688,-117.187500
689,-117.187500
690,-117.187500
691,-117.187500
692,-117.187500
693,-117.187500
694,-117.187500
695,-121.093750
696,-121.093750
697,-121.093750
698,-121.093750
699,-121.093750
700,-125.000000
701,-125.000000
702,-125.000000
703,-125.000000
704,-128.906250
705,-128.906250
706,-128.906250
707,-128.906250
708,-128.906250
709,-128.906250
710,-128.906250
711,-132.812500
712,-132.812500
713,-132.812500
714,-132.812500
715,-132.812500
716,-136.718750
717,-136.718750
718,-136.718750
719,-136.718750
720,-136.718750
721,-140.625000
722,-140.625000
723,-140.625000
724,-140.625000
725,-140.625000
726,-140.625000
727,-140.625000
728,-140.625000
729,-144.531250
730,-144.531250
731,-144.531250
732,-144.531250
733,-144.531250
734,-144.531250
735,-144.531250
736,-148.437500
737,-148.437500
738,-148.437500
739,-148.437500
740,-148.437500
741,-148.437500
742,-148.437500
743,-152.343750
744,-152.343750
745,-152.343750
746,-152.343750
747,-152.343750
748,-152.343750
749,-152.343750
750,-152.343750
751,-156.250000
752,-152.343750
753,-156.250000
754,-156.250000
755,-156.250000
756,-156.250000
757,-156.250000
758,-156.250000
759,-156.250000
760,-160.156250
761,-160.156250
762,-160.156250
763,-160.156250
764,-160.156250
765,-160.156250
766,-160.156250
767,-160.156250
768,-160.156250
769,-160.156250
770,-164.062500
771,-164.062500
772,-160.156250
773,-160.156250
774,-164.062500
775,-164.062500
776,-164.062500
777,-164.062500
778,-164.062500
779,-164.062500
780,-164.062500
781,-164.062500
782,-164.062500
783,-164.062500
784,-164.062500
785,-164.062500
786,-164.062500
787,-164.062500
788,-164.062500
789,-164.062500
790,-167.968750
791,-167.968750
792,-167.968750
793,-167.968750
794,-167.968750
795,-167.968750
796,-167.968750
797,-167.968750
798,-167.968750
799,-167.968750
800,-167.968750
801,-167.968750
802,-167.968750
803,-167.968750
804,-167.968750
805,-167.968750
806,-167.968750
807,-167.968750
808,-167.968750
809,-167.968750
810,-167.968750
811,-167.968750
812,-167.968750
813,-167.968750
814,-167.968750
815,-167.968750
816,-167.968750
817,-167.968750
818,-167.968750
819,-167.968750
820,-167.968750
821,-167.968750
822,-167.968750
823,-167.968750
824,-167.968750
825,-167.968750
826,-167.968750
827,-167.968750
828,-167.968750
829,-167.968750
830,-167.968750
831,-167.968750
832,-167.968750
833,-167.968750
834,-167.968750
835,-167.968750
836,-167.968750
837,-167.968750
838,-167.968750
839,-167.968750
840,-167.968750
841,-167.968750
842,-164.062500
843,-164.062500
844,-167.968750
845,-164.062500
846,-164.062500
847,-167.968750
848,-164.062500
849,-164.062500
850,-164.062500
851,-164.062500
852,-164.062500
853,-164.062500
854,-164.062500
855,-164.062500
856,-164.062500
857,-164.062500
858,-164.062500
859,-164.062500
860,-164.062500
861,-160.156250
862,-160.156250
863,-160.156250
864,-160.156250
865,-160.156250
866,-160.156250
867,-160.156250
868,-160.156250
869,-160.156250
870,-160.156250
871,-160.156250
872,-160.156250
873,-156.250000
874,-156.250000
875,-156.250000
876,-156.250000
877,-156.250000
878,-156.250000
879,-156.250000
880,-156.250000
881,-152.343750
882,-152.343750
883,-152.343750
884,-152.343750
885,-152.343750
886,-152.343750
887,-152.343750
888,-148.437500
889,-148.437500
890,-148.437500
891,-148.437500
892,-148.437500
893,-148.437500
894,-148.437500
895,-148.437500
896,-148.437500
897,-144.531250
898,-144.531250
899,-144.531250
900,-144.531250
901,-144.531250
902,-144.531250
903,-144.531250
904,-144.531250
905,-140.625000
906,-140.625000
907,-140.625000
908,-140.625000
909,-140.625000
910,-136.718750
911,-136.718750
912,-136.718750
913,-136.718750
914,-136.718750
915,-136.718750
916,-136.718750
917,-136.718750
918,-132.812500
919,-132.812500
920,-132.812500
921,-132.812500
922,-132.812500
923,-128.906250
924,-128.906250
925,-128.906250
926,-128.906250
927,-128.906250
928,-125.000000
929,-125.000000
930,-125.000000
931,-125.000000
932,-125.000000
933,-121.093750
934,-121.093750
935,-121.093750
936,-121.093750
937,-121.093750
938,-117.187500
939,-121.093750
940,-117.187500
941,-117.187500
942,-117.187500
943,-117.187500
944,-113.281250
945,-113.281250
946,-113.281250
947,-113.281250
948,-113.281250
949,-109.375000
950,-109.375000
951,-109.375000
952,-109.375000
953,-109.375000
954,-105.468750
955,-105.468750
956,-105.468750
957,-105.468750
958,-101.562500
959,-101.562500
960,-101.562500
961,-101.562500
962,-101.562500
963,-97.656250
964,-97.656250
965,-97.656250
966,-97.656250
967,-97.656250
968,-93.750000
969,-93.750000
970,-93.750000
971,-93.750000
972,-89.843750
973,-89.843750
974,-89.843750
975,-89.843750
976,-85.937500
977,-85.937500
978,-85.937500
979,-85.937500
980,-85.937500
981,-82.031250
982,-82.031250
983,-82.031250
984,-78.125000
985,-78.125000
986,-78.125000
987,-78.125000
988,-78.125000
989,-74.218750
990,-74.218750
991,-74.218750
992,-74.218750
993,-74.218750
994,-70.312500
995,-70.312500
996,-70.312500
997,-70.312500
998,-66.406250
999,-66.406250
1000,-66.406250
1001,-62.500000
1002,-62.500000
1003,-62.500000
1004,-62.500000
1005,-62.500000
1006,-58.593750
1007,-58.593750
1008,-58.593750
1009,-58.593750
1010,-54.687500
1011,-54.687500
1012,-54.687500
1013,-54.687500
1014,-50.781250
1015,-50.781250
1016,-50.781250
1017,-50.781250
1018,-46.875000
1019,-46.875000
1020,-46.875000
1021,-42.968750
1022,-42.968750
1023,-42.968750
1024,-42.968750
1025,-42.968750
1026,-39.062500
1027,-39.062500
1028,-39.062500
1029,-39.062500
1030,-35.156250
1031,-35.156250
1032,-35.156250
1033,-35.156250
1034,-31.250000
1035,-31.250000
1036,-31.250000
1037,-27.343750
1038,-27.343750
1039,-27.343750
1040,-27.343750
1041,-27.343750
1042,-23.437500
1043,-23.437500
1044,-23.437500
1045,-19.531250
1046,-19.531250
1047,-19.531250
1048,-19.531250
1049,-15.625000
1050,-15.625000
1051,-15.625000
1052,-15.625000
1053,-11.718750
1054,-11.718750
1055,-11.718750
1056,-11.718750
1057,-7.812500
1058,-7.812500
1059,-7.812500
1060,-7.812500
1061,-3.906250
1062,-3.906250
1063,-3.906250
1064,-3.906250
1065,0.000000
1066,0.000000
1067,0.000000
1068,0.000000
1069,3.906250
1070,3.906250
1071,3.906250
1072,7.812500
1073,7.812500
1074,7.812500
1075,7.812500
1076,7.812500
1077,7.812500
1078,11.718750
1079,11.718750
1080,11.718750
1081,15.625000
1082,15.625000
1083,15.625000
1084,15.625000
1085,19.531250
1086,19.531250
1087,19.531250
1088,19.531250
1089,23.437500
1090,23.437500
1091,23.437500
1092,23.437500
1093,23.437500
1094,27.343750
1095,27.343750
1096,27.343750
1097,27.343750
1098,31.250000
1099,31.250000
1100,31.250000
1101,31.250000
1102,31.250000
1103,35.156250
1104,35.156250
1105,35.156250
1106,39.062500
1107,39.062500
1108,39.062500
1109,39.062500
1110,39.062500
1111,39.062500
1112,42.968750
1113,42.968750
1114,42.968750
1115,42.968750
1116,46.875000
1117,46.875000
1118,46.875000
1119,46.875000
1120,46.875000
1121,50.781250
1122,50.781250
1123,50.781250
1124,50.781250
1125,50.781250
1126,54.687500
1127,54.687500
1128,54.687500
1129,54.687500
1130,58.593750
1131,58.593750
1132,58.593750
1133,58.593750
1134,58.593750
1135,62.500000
1136,62.500000
1137,62.500000
1138,62.500000
1139,62.500000
1140,62.500000
1141,66.406250
1142,66.406250
1143,66.406250
1144,70.312500
1145,70.312500
1146,70.312500
1147,70.312500
1148,70.312500
1149,70.312500
1150,74.218750
1151,74.218750
1152,74.218750
1153,74.218750
1154,74.218750
1155,74.218750
1156,78.125000
1157,78.125000
1158,78.125000
1159,78.125000
1160,78.125000
1161,78.125000
1162,82.031250
1163,82.031250
1164,82.031250
1165,82.031250
1166,85.937500
1167,82.031250
1168,85.937500
1169,85.937500
1170,85.937500
1171,85.937500
1172,85.937500
1173,85.937500
1174,89.843750
1175,89.843750
1176,89.843750
1177,89.843750
1178,89.843750
1179,89.843750
1180,93.750000
1181,93.750000
1182,93.750000
1183,93.750000
1184,93.750000
1185,93.750000
1186,97.656250
1187,97.656250
1188,97.656250
1189,97.656250
1190,97.656250
1191,97.656250
1192,97.656250
1193,101.562500
1194,101.562500
1195,101.562500
1196,101.562500
1197,101.562500
1198,101.562500
1199,105.468750
1200,105.468750
1201,105.468750
1202,105.468750
1203,105.468750
1204,105.468750
1205,105.468750
1206,105.468750
1207,105.468750
1208,109.375000
1209,109.375000
1210,109.375000
1211,109.375000
1212,109.375000
1213,109.375000
1214,109.375000
1215,109.375000
1216,109.375000
1217,113.281250
1218,113.281250
1219,113.281250
1220,113.281250
1221,113.281250
1222,113.281250
1223,113.281250
1224,113.281250
1225,113.281250
1226,117.187500
1227,117.187500
1228,117.187500
1229,117.187500
1230,117.187500
1231,117.187500
1232,117.187500
1233,117.187500
1234,117.187500
1235,117.187500
1236,121.093750
1237,117.187500
1238,121.093750
1239,121.093750
1240,121.093750
1241,121.093750
1242,121.093750
1243,121.093750
1244,121.093750
1245,121.093750
1246,121.093750
1247,121.093750
1248,125.000000
1249,121.093750
1250,121.093750
1251,121.093750
1252,125.000000
1253,125.000000
1254,125.000000
1255,125.000000
1256,125.000000
1257,125.000000
1258,125.000000
1259,125.000000
1260,125.000000
1261,125.000000
1262,128.906250
1263,125.000000
1264,125.000000
1265,125.000000
1266,128.906250
1267,128.906250
1268,128.906250
1269,128.906250
1270,128.906250
1271,128.906250
1272,128.906250
1273,128.906250
1274,128.906250
1275,128.906250
1276,128.906250
1277,128.906250
1278,128.906250
1279,128.906250
1280,128.906250
1281,128.906250
1282,128.906250
1283,128.906250
1284,128.906250
1285,128.906250
1286,128.906250
1287,128.906250
1288,132.812500
1289,132.812500
1290,132.812500
1291,128.906250
1292,132.812500
1293,132.812500
1294,132.812500
1295,132.812500
1296,132.812500
1297,132.812500
1298,132.812500
1299,132.812500
1300,132.812500
1301,132.812500
1302,132.812500
1303,132.812500
1304,132.812500
1305,132.812500
1306,132.812500
1307,132.812500
1308,132.812500
1309,132.812500
1310,132.812500
1311,132.812500
1312,132.812500
1313,132.812500
1314,132.812500
1315,132.812500
1316,132.812500
1317,132.812500
1318,132.812500
1319,132.812500
1320,132.812500
1321,132.812500
1322,132.812500
1323,132.812500
1324,132.812500
1325,132.812500
1326,132.812500
1327,128.906250
1328,132.812500
1329,128.906250
1330,132.812500
1331,132.812500
1332,132.812500
1333,128.906250
1334,132.812500
1335,132.812500
1336,132.812500
1337,128.906250
1338,128.906250
1339,128.906250
1340,128.906250
1341,128.906250
1342,128.906250
1343,128.906250
1344,128.906250
1345,128.906250
1346,128.906250
1347,128.906250
1348,128.906250
1349,128.906250
1350,128.906250
1351,128.906250
1352,128.906250
1353,128.906250
1354,128.906250
1355,128.906250
1356,128.906250
1357,125.000000
1358,125.000000
1359,125.000000
1360,128.906250
1361,125.000000
1362,125.000000
1363,125.000000
1364,125.000000
1365,125.000000
1366,125.000000
1367,125.000000
1368,125.000000
1369,125.000000
1370,125.000000
1371,125.000000
1372,125.000000
1373,121.093750
1374,125.000000
1375,121.093750
1376,125.000000
1377,121.093750
1378,121.093750
1379,121.093750
1380,121.093750
1381,121.093750
1382,121.093750
1383,121.093750
1384,121.093750
1385,121.093750
1386,117.187500
1387,117.187500
1388,117.187500
1389,117.187500
1390,117.187500
1391,117.187500
1392,117.187500
1393,117.187500
1394,117.187500
1395,117.187500
1396,113.281250
1397,113.281250
1398,113.281250
1399,113.281250
1400,113.281250
1401,113.281250
1402,113.281250
1403,113.281250
1404,113.281250
1405,109.375000
1406,109.375000
1407,109.375000
1408,109.375000
1409,109.375000
1410,109.375000
1411,109.375000
1412,109.375000
1413,105.468750
1414,105.468750
1415,105.468750
1416,105.468750
1417,105.468750
1418,105.468750
1419,105.468750
1420,105.468750
1421,105.468750
1422,101.562500
1423,101.562500
1424,101.562500
1425,101.562500
1426,101.562500
1427,101.562500
1428,101.562500
1429,101.562500
1430,101.562500
1431,97.656250
1432,97.656250
1433,97.656250
1434,97.656250
1435,97.656250
1436,97.656250
1437,93.750000
1438,93.750000
1439,93.750000
1440,93.750000
1441,93.750000
1442,93.750000
1443,93.750000
1444,89.843750
1445,89.843750
1446,89.843750
1447,89.843750
1448,89.843750
1449,85.937500
1450,85.937500
1451,85.937500
1452,85.937500
1453,85.937500
1454,85.937500
1455,82.031250
1456,82.031250
1457,82.031250
1458,82.031250
1459,82.031250
1460,78.125000
1461,78.125000
1462,78.125000
1463,78.125000
1464,78.125000
1465,78.125000
1466,78.125000
1467,74.218750
1468,74.218750
1469,74.218750
1470,74.218750
1471,74.218750
1472,70.312500
1473,70.312500
1474,70.312500
1475,70.312500
1476,70.312500
1477,66.406250
1478,66.406250
1479,66.406250
1480,66.406250
1481,66.406250
1482,66.406250
1483,62.500000
1484,62.500000
1485,62.500000
1486,62.500000
1487,62.500000
1488,58.593750
1489,58.593750
1490,58.593750
1491,58.593750
1492,54.687500
1493,54.687500
1494,54.687500
1495,54.687500
1496,54.687500
1497,50.781250
1498,50.781250
1499,50.781250
1500,50.781250
1501,50.781250
1502,50.781250
1503,46.875000
1504,46.875000
1505,46.875000
1506,42.968750
1507,42.968750
1508,42.968750
1509,42.968750
1510,39.062500
1511,39.062500
1512,39.062500
1513,39.062500
1514,39.062500
1515,39.062500
1516,35.156250
1517,35.156250
1518,35.156250
1519,31.250000
1520,31.250000
1521,31.250000
1522,31.250000
1523,27.343750
1524,27.343750
1525,27.343750
1526,27.343750
1527,27.343750
1528,23.437500
1529,23.437500
1530,23.437500
1531,23.437500
1532,19.531250
1533,19.531250
1534,19.531250
1535,19.531250
1536,15.625000
1537,15.625000
1538,15.625000
1539,15.625000
1540,11.718750
1541,11.718750
1542,11.718750
1543,11.718750
1544,11.718750
1545,7.812500
1546,7.812500
1547,7.812500
1548,3.906250
1549,3.906250
1550,3.906250
1551,3.906250
1552,3.906250
1553,0.000000
1554,0.000000
1555,0.000000
1556,-3.906250
1557,-3.906250
1558,-3.906250
1559,-3.906250
1560,-3.906250
1561,-7.812500
1562,-7.812500
1563,-7.812500
1564,-11.718750
1565,-11.718750
1566,-11.718750
1567,-11.718750
1568,-11.718750
1569,-15.625000
1570,-15.625000
1571,-15.625000
1572,-15.625000
1573,-19.531250
1574,-19.531250
1575,-19.531250
1576,-19.531250
1577,-23.437500
1578,-23.437500
1579,-23.437500
1580,-23.437500
1581,-27.343750
1582,-27.343750
1583,-27.343750
1584,-27.343750
1585,-31.250000
1586,-31.250000
1587,-31.250000
1588,-31.250000
1589,-35.156250
1590,-35.156250
1591,-35.156250
1592,-35.156250
1593,-39.062500
1594,-39.062500
1595,-39.062500
1596,-42.968750
1597,-39.062500
1598,-42.968750
1599,-42.968750
1600,-46.875000
1601,-46.875000
1602,-46.875000
1603,-46.875000
1604,-50.781250
1605,-50.781250
1606,-50.781250
1607,-50.781250
1608,-50.781250
1609,-54.687500
1610,-54.687500
1611,-54.687500
1612,-58.593750
1613,-58.593750
1614,-58.593750
1615,-58.593750
1616,-58.593750
1617,-62.500000
1618,-62.500000
1619,-62.500000
1620,-62.500000
1621,-66.406250
1622,-66.406250
1623,-66.406250
1624,-66.406250
1625,-70.312500
1626,-70.312500
1627,-70.312500
1628,-70.312500
1629,-74.218750
1630,-74.218750
1631,-74.218750
1632,-74.218750
1633,-78.125000
1634,-78.125000
1635,-78.125000
1636,-78.125000
1637,-78.125000
1638,-82.031250
1639,-82.031250
1640,-82.031250
1641,-85.937500
1642,-85.937500
1643,-85.937500
1644,-85.937500
1645,-85.937500
1646,-89.843750
1647,-89.843750
1648,-89.843750
1649,-89.843750
1650,-93.750000
1651,-93.750000
1652,-93.750000
1653,-93.750000
1654,-97.656250
1655,-97.656250
1656,-97.656250
1657,-97.656250
1658,-97.656250
1659,-101.562500
1660,-101.562500
1661,-101.562500
1662,-101.562500
1663,-105.468750
1664,-105.468750
1665,-105.468750
1666,-105.468750
1667,-105.468750
1668,-109.375000
1669,-109.375000
1670,-109.375000
1671,-109.375000
1672,-109.375000
1673,-113.281250
1674,-113.281250
1675,-113.281250
1676,-113.281250
1677,-117.187500
1678,-117.187500
1679,-117.187500
1680,-117.187500
1681,-117.187500
1682,-117.187500
1683,-121.093750
1684,-121.093750
1685,-121.093750
1686,-121.093750
1687,-121.093750
1688,-125.000000
1689,-125.000000
1690,-125.000000
1691,-125.000000
1692,-125.000000
1693,-125.000000
1694,-128.906250
1695,-128.906250
1696,-128.906250
1697,-128.906250
1698,-128.906250
1699,-128.906250
1700,-132.812500
1701,-132.812500
1702,-132.812500
1703,-132.812500
1704,-132.812500
1705,-136.718750
1706,-136.718750
1707,-136.718750
1708,-136.718750
1709,-136.718750
1710,-136.718750
1711,-136.718750
1712,-140.625000
1713,-140.625000
1714,-140.625000
1715,-140.625000
1716,-140.625000
1717,-140.625000
1718,-144.531250
1719,-144.531250
1720,-144.531250
1721,-144.531250
1722,-144.531250
1723,-144.531250
1724,-144.531250
1725,-144.531250
1726,-148.437500
1727,-148.437500
1728,-148.437500
1729,-148.437500
1730,-148.437500
1731,-148.437500
1732,-148.437500
1733,-148.437500
1734,-148.437500
1735,-152.343750
1736,-152.343750
1737,-152.343750
1738,-152.343750
1739,-152.343750
1740,-152.343750
1741,-152.343750
1742,-156.250000
1743,-156.250000
1744,-156.250000
1745,-156.250000
1746,-156.250000
1747,-156.250000
1748,-156.250000
1749,-156.250000
1750,-156.250000
1751,-156.250000
1752,-160.156250
1753,-160.156250
1754,-160.156250
1755,-160.156250
1756,-160.156250
1757,-160.156250
1758,-160.156250
1759,-160.156250
1760,-160.156250
1761,-164.062500
1762,-160.156250
1763,-164.062500
1764,-164.062500
1765,-164.062500
1766,-164.062500
1767,-164.062500
1768,-164.062500
1769,-164.062500
1770,-164.062500
1771,-164.062500
1772,-164.062500
1773,-164.062500
1774,-164.062500
1775,-164.062500
1776,-164.062500
1777,-164.062500
1778,-164.062500
1779,-167.968750
1780,-167.968750
1781,-167.968750
1782,-167.968750
1783,-167.968750
1784,-167.968750
1785,-167.968750
1786,-167.968750
1787,-167.968750
1788,-167.968750
1789,-167.968750
1790,-167.968750
1791,-167.968750
1792,-167.968750
1793,-167.968750
1794,-167.968750
1795,-167.968750
1796,-167.968750
1797,-167.968750
1798,-167.968750
1799,-167.968750
1800,-167.968750
1801,-167.968750
1802,-167.968750
1803,-167.968750
1804,-167.968750
1805,-167.968750
1806,-167.968750
1807,-167.968750
1808,-167.968750
1809,-167.968750
1810,-167.968750
1811,-167.968750
1812,-167.968750
1813,-167.968750
1814,-167.968750
1815,-167.968750
1816,-167.968750
1817,-167.968750
1818,-167.968750
1819,-167.968750
1820,-167.968750
1821,-167.968750
1822,-167.968750
1823,-167.968750
1824,-167.968750
1825,-167.968750
1826,-167.968750
1827,-167.968750
1828,-167.968750
1829,-167.968750
1830,-164.062500
1831,-167.968750
1832,-167.968750
1833,-164.062500
1834,-164.062500
1835,-164.062500
1836,-164.062500
1837,-164.062500
1838,-164.062500
1839,-164.062500
1840,-164.062500
1841,-164.062500
1842,-164.062500
1843,-164.062500
1844,-164.062500
1845,-164.062500
1846,-164.062500
1847,-164.062500
1848,-160.156250
1849,-160.156250
1850,-160.156250
1851,-160.156250
1852,-160.156250
1853,-160.156250
1854,-160.156250
1855,-160.156250
1856,-160.156250
1857,-160.156250
1858,-160.156250
1859,-160.156250
1860,-160.156250
1861,-156.250000
1862,-156.250000
1863,-156.250000
1864,-156.250000
1865,-156.250000
1866,-156.250000
1867,-156.250000
1868,-156.250000
1869,-156.250000
1870,-156.250000
1871,-152.343750
1872,-152.343750
1873,-152.343750
1874,-152.343750
1875,-152.343750
1876,-152.343750
1877,-152.343750
1878,-152.343750
1879,-148.437500
1880,-148.437500
1881,-148.437500
1882,-148.437500
1883,-148.437500
1884,-148.437500
1885,-148.437500
1886,-148.437500
1887,-144.531250
1888,-144.531250
1889,-144.531250
1890,-144.531250
1891,-144.531250
1892,-144.531250
1893,-140.625000
1894,-140.625000
1895,-140.625000
1896,-140.625000
1897,-140.625000
1898,-140.625000
1899,-136.718750
1900,-136.718750
1901,-136.718750
1902,-136.718750
1903,-136.718750
1904,-136.718750
1905,-136.718750
1906,-132.812500
1907,-132.812500
1908,-132.812500
1909,-132.812500
1910,-132.812500
1911,-132.812500
1912,-132.812500
1913,-128.906250
1914,-128.906250
1915,-128.906250
1916,-128.906250
1917,-128.906250
1918,-125.000000
1919,-125.000000
1920,-125.000000
1921,-125.000000
1922,-125.000000
1923,-125.000000
1924,-121.093750
1925,-121.093750
1926,-121.093750
1927,-121.093750
1928,-117.187500
1929,-117.187500
1930,-117.187500
1931,-117.187500
1932,-117.187500
1933,-113.281250
1934,-113.281250
1935,-113.281250
1936,-113.281250
1937,-113.281250
1938,-113.281250
1939,-109.375000
1940,-109.375000
1941,-109.375000
1942,-109.375000
1943,-109.375000
1944,-105.468750
1945,-105.468750
1946,-105.468750
1947,-105.468750
1948,-101.562500
1949,-101.562500
1950,-101.562500
1951,-101.562500
1952,-97.656250
1953,-97.656250
1954,-97.656250
1955,-97.656250
1956,-97.656250
1957,-93.750000
1958,-93.750000
1959,-89.843750
1960,-93.750000
1961,-89.843750
1962,-89.843750
1963,-89.843750
1964,-89.843750
1965,-89.843750
1966,-85.937500
1967,-85.937500
1968,-85.937500
1969,-85.937500
1970,-82.031250
1971,-82.031250
1972,-82.031250
1973,-82.031250
1974,-78.125000
1975,-78.125000
1976,-78.125000
1977,-78.125000
1978,-74.218750
1979,-74.218750
1980,-74.218750
1981,-74.218750
1982,-74.218750
1983,-70.312500
1984,-70.312500
1985,-70.312500
1986,-70.312500
1987,-66.406250
1988,-66.406250
1989,-66.406250
1990,-66.406250
1991,-62.500000
1992,-62.500000
1993,-62.500000
1994,-62.500000
1995,-62.500000
1996,-58.593750
1997,-58.593750
1998,-58.593750
1999,-54.687500
2000,-54.687500
2001,-54.687500
2002,-54.687500
2003,-54.687500
2004,-50.781250
2005,-50.781250
2006,-50.781250
2007,-46.875000
2008,-46.875000
2009,-46.875000
2010,-46.875000
2011,-42.968750
2012,-42.968750
2013,-42.968750
2014,-42.968750
2015,-39.062500
2016,-39.062500
2017,-39.062500
2018,-39.062500
2019,-35.156250
2020,-35.156250
2021,-35.156250
2022,-35.156250
2023,-31.250000
2024,-31.250000
2025,-31.250000
2026,-31.250000
2027,-27.343750
2028,-27.343750
2029,-27.343750
2030,-27.343750
2031,-27.343750
2032,-23.437500
2033,-23.437500
2034,-19.531250
2035,-19.531250
2036,-19.531250
2037,-19.531250
2038,-19.531250
2039,-15.625000
2040,-15.625000
2041,-15.625000
2042,-15.625000
2043,-15.625000
2044,-11.718750
2045,-11.718750
2046,-11.718750
2047,-7.812500
2048,-7.812500
2049,-7.812500
2050,-7.812500
2051,-3.906250
2052,-3.906250
2053,-3.906250
2054,-3.906250
2055,-3.906250
2056,0.000000
2057,0.000000
2058,3.906250
2059,3.906250
2060,3.906250
2061,3.906250
2062,3.906250
2063,7.812500
2064,7.812500
2065,7.812500
2066,7.812500
2067,7.812500
2068,11.718750
2069,11.718750
2070,11.718750
2071,11.718750
2072,15.625000
2073,15.625000
2074,15.625000
2075,15.625000
2076,19.531250
2077,19.531250
2078,19.531250
2079,19.531250
2080,23.437500
2081,23.437500
2082,23.437500
2083,23.437500
2084,27.343750
2085,27.343750
2086,27.343750
2087,27.343750
2088,31.250000
2089,31.250000
2090,31.250000
2091,31.250000
2092,35.156250
2093,35.156250
2094,35.156250
2095,35.156250
2096,39.062500
2097,39.062500
2098,39.062500
2099,39.062500
2100,39.062500
2101,39.062500
2102,42.968750
2103,42.968750
2104,42.968750
2105,46.875000
2106,46.875000
2107,46.875000
2108,46.875000
2109,46.875000
2110,50.781250
2111,46.875000
2112,50.781250
2113,50.781250
2114,54.687500
2115,54.687500
2116,54.687500
2117,54.687500
2118,54.687500
2119,54.687500
2120,58.593750
2121,58.593750
2122,58.593750
2123,58.593750
2124,58.593750
2125,62.500000
2126,62.500000
2127,62.500000
2128,62.500000
2129,62.500000
2130,66.406250
2131,66.406250
2132,66.406250
2133,66.406250
2134,66.406250
2135,66.406250
2136,70.312500
2137,70.312500
2138,70.312500
2139,70.312500
2140,70.312500
2141,70.312500
2142,74.218750
2143,74.218750
2144,74.218750
2145,78.125000
2146,78.125000
2147,78.125000
2148,78.125000
2149,78.125000
2150,82.031250
2151,82.031250
2152,82.031250
2153,82.031250
2154,82.031250
2155,82.031250
2156,82.031250
2157,82.031250
2158,82.031250
2159,85.937500
2160,85.937500
2161,85.937500
2162,85.937500
2163,89.843750
2164,89.843750
2165,89.843750
2166,89.843750
2167,89.843750
2168,89.843750
2169,89.843750
2170,93.750000
2171,93.750000
2172,93.750000
2173,93.750000
2174,93.750000
2175,93.750000
2176,97.656250
2177,97.656250
2178,97.656250
2179,97.656250
2180,97.656250
2181,97.656250
2182,97.656250
2183,97.656250
2184,101.562500
2185,101.562500
2186,101.562500
2187,101.562500
2188,101.562500
2189,101.562500
2190,105.468750
2191,105.468750
2192,105.468750
2193,105.468750
2194,105.468750
2195,105.468750
2196,105.468750
2197,105.468750
2198,105.468750
2199,109.375000
2200,109.375000
2201,109.375000
2202,109.375000
2203,109.375000
2204,109.375000
2205,109.375000
2206,113.281250
2207,113.281250
2208,113.281250
2209,113.281250
2210,113.281250
2211,113.281250
2212,113.281250
2213,113.281250
2214,113.281250
2215,117.187500
2216,117.187500
2217,117.187500
2218,117.187500
2219,117.187500
2220,117.187500
2221,117.187500
2222,117.187500
2223,117.187500
2224,117.187500
2225,117.187500
2226,121.093750
2227,121.093750
2228,121.093750
2229,121.093750
2230,121.093750
2231,121.093750
2232,121.093750
2233,121.093750
2234,121.093750
2235,121.093750
2236,121.093750
2237,125.000000
2238,125.000000
2239,125.000000
2240,125.000000
2241,125.000000
2242,125.000000
2243,125.000000
2244,125.000000
2245,125.000000
2246,125.000000
2247,125.000000
2248,125.000000
2249,125.000000
2250,128.906250
2251,128.906250
2252,128.906250
2253,128.906250
2254,128.906250
2255,128.906250
2256,128.906250
2257,128.906250
2258,128.906250
2259,128.906250
2260,128.906250
2261,128.906250
2262,128.906250
2263,128.906250
2264,128.906250
2265,128.906250
2266,128.906250
2267,128.906250
2268,128.906250
2269,128.906250
2270,128.906250
2271,128.906250
2272,128.906250
2273,132.812500
2274,132.812500
2275,128.906250
2276,132.812500
2277,128.906250
2278,132.812500
2279,128.906250
2280,132.812500
2281,132.812500
2282,132.812500
2283,132.812500
2284,132.812500
2285,132.812500
2286,132.812500
2287,132.812500
2288,132.812500
2289,132.812500
2290,132.812500
2291,132.812500
2292,132.812500
2293,132.812500
2294,132.812500
2295,132.812500
2296,132.812500
2297,132.812500
2298,132.812500
2299,132.812500
2300,132.812500
2301,132.812500
2302,132.812500
2303,132.812500
2304,132.812500
2305,132.812500
2306,132.812500
2307,132.812500
2308,132.812500
2309,132.812500
2310,132.812500
2311,132.812500
2312,132.812500
2313,132.812500
2314,132.812500
2315,132.812500
2316,132.812500
2317,128.906250
2318,128.906250
2319,132.812500
2320,132.812500
2321,132.812500
2322,132.812500
2323,128.906250
2324,132.812500
2325,128.906250
2326,128.906250
2327,128.906250
2328,128.906250
2329,128.906250
2330,132.812500
2331,128.906250
2332,128.906250
2333,128.906250
2334,128.906250
2335,128.906250
2336,128.906250
2337,128.906250
2338,128.906250
2339,128.906250
2340,128.906250
2341,128.906250
2342,128.906250
2343,128.906250
2344,128.906250
2345,128.906250
2346,128.906250
2347,128.906250
2348,128.906250
2349,128.906250
2350,125.000000
2351,125.000000
2352,128.906250
2353,125.000000
2354,125.000000
2355,125.000000
2356,125.000000
2357,125.000000
2358,125.000000
2359,125.000000
2360,125.000000
2361,121.093750
2362,121.093750
2363,121.093750
2364,125.000000
2365,121.093750
2366,121.093750
2367,121.093750
2368,121.093750
2369,121.093750
2370,121.093750
2371,121.093750
2372,121.093750
2373,121.093750
2374,121.093750
2375,121.093750
2376,121.093750
2377,117.187500
2378,117.187500
2379,117.187500
2380,117.187500
2381,117.187500
2382,117.187500
2383,117.187500
2384,117.187500
2385,117.187500
2386,117.187500
2387,113.281250
2388,113.281250
2389,113.281250
2390,113.281250
2391,113.281250
2392,113.281250
2393,113.281250
2394,113.281250
2395,109.375000
2396,109.375000
2397,109.375000
2398,109.375000
2399,109.375000
2400,109.375000
2401,109.375000
2402,109.375000
2403,109.375000
2404,105.468750
2405,105.468750
2406,105.468750
2407,105.468750
2408,105.468750
2409,105.468750
2410,105.468750
2411,101.562500
2412,105.468750
2413,105.468750
2414,101.562500
2415,101.562500
2416,101.562500
2417,97.656250
2418,101.562500
2419,101.562500
2420,97.656250
2421,97.656250
2422,97.656250
2423,97.656250
2424,97.656250
2425,97.656250
2426,93.750000
2427,93.750000
2428,93.750000
2429,93.750000
2430,93.750000
2431,93.750000
2432,93.750000
2433,89.843750
2434,89.843750
2435,89.843750
2436,89.843750
2437,89.843750
2438,89.843750
2439,85.937500
2440,85.937500
2441,85.937500
2442,85.937500
2443,85.937500
2444,85.937500
2445,82.031250
2446,82.031250
2447,82.031250
2448,82.031250
2449,82.031250
2450,82.031250
2451,78.125000
2452,78.125000
2453,78.125000
2454,78.125000
2455,78.125000
2456,78.125000
2457,74.218750
2458,74.218750
2459,74.218750
2460,74.218750
2461,74.218750
2462,70.312500
2463,70.312500
2464,70.312500
2465,70.312500
2466,66.406250
2467,66.406250
2468,66.406250
2469,66.406250
2470,66.406250
2471,66.406250
2472,62.500000
2473,62.500000
2474,62.500000
2475,62.500000
2476,62.500000
2477,62.500000
2478,58.593750
2479,58.593750
2480,58.593750
2481,58.593750
2482,54.687500
2483,54.687500
2484,54.687500
2485,54.687500
2486,54.687500
2487,50.781250
2488,50.781250
2489,50.781250
2490,50.781250
2491,46.875000
2492,46.875000
2493,46.875000
2494,46.875000
2495,42.968750
2496,42.968750
2497,42.968750
2498,42.968750
2499,42.968750
2500,42.968750
2501,39.062500
2502,39.062500
2503,39.062500
2504,39.062500
2505,35.156250
2506,35.156250
2507,35.156250
2508,35.156250
2509,31.250000
2510,31.250000
2511,31.250000
2512,31.250000
2513,31.250000
2514,27.343750
2515,27.343750
2516,27.343750
2517,27.343750
2518,27.343750
2519,23.437500
2520,23.437500
2521,23.437500
2522,19.531250
2523,19.531250
2524,19.531250
2525,19.531250
2526,15.625000
2527,15.625000
2528,15.625000
2529,15.625000
2530,11.718750
2531,11.718750
2532,11.718750
2533,11.718750
2534,11.718750
2535,7.812500
2536,7.812500
2537,7.812500
2538,3.906250
2539,3.906250
2540,3.906250
2541,3.906250
2542,0.000000
2543,0.000000
2544,0.000000
2545,0.000000
2546,0.000000
2547,-3.906250
2548,-3.906250
2549,-3.906250
2550,-7.812500
2551,-7.812500
2552,-7.812500
2553,-7.812500
2554,-7.812500
2555,-11.718750
2556,-11.718750
2557,-11.718750
2558,-11.718750
2559,-15.625000
2560,-15.625000
2561,-15.625000
2562,-19.531250
2563,-19.531250
2564,-19.531250
2565,-19.531250
2566,-19.531250
2567,-23.437500
2568,-23.437500
2569,-23.437500
2570,-23.437500
2571,-27.343750
2572,-27.343750
2573,-27.343750
2574,-31.250000
2575,-31.250000
2576,-31.250000
2577,-31.250000
2578,-35.156250
2579,-35.156250
2580,-35.156250
2581,-35.156250
2582,-35.156250
2583,-39.062500
2584,-39.062500
2585,-39.062500
2586,-39.062500
2587,-42.968750
2588,-42.968750
2589,-46.875000
2590,-46.875000
2591,-46.875000
2592,-46.875000
2593,-46.875000
2594,-50.781250
2595,-50.781250
2596,-50.781250
2597,-50.781250
2598,-50.781250
2599,-54.687500
2600,-54.687500
2601,-54.687500
2602,-58.593750
2603,-58.593750
2604,-58.593750
2605,-58.593750
2606,-58.593750
2607,-62.500000
2608,-62.500000
2609,-62.500000
2610,-62.500000
2611,-66.406250
2612,-66.406250
2613,-66.406250
2614,-66.406250
2615,-70.312500
2616,-70.312500
2617,-70.312500
2618,-70.312500
2619,-74.218750
2620,-74.218750
2621,-74.218750
2622,-74.218750
2623,-78.125000
2624,-78.125000
2625,-78.125000
2626,-78.125000
2627,-82.031250
2628,-82.031250
2629,-82.031250
2630,-82.031250
2631,-82.031250
2632,-85.937500
2633,-85.937500
2634,-85.937500
2635,-85.937500
2636,-89.843750
2637,-89.843750
2638,-89.843750
2639,-89.843750
2640,-89.843750
2641,-93.750000
2642,-93.750000
2643,-93.750000
2644,-93.750000
2645,-97.656250
2646,-97.656250
2647,-97.656250
2648,-97.656250
2649,-101.562500
2650,-101.562500
2651,-101.562500
2652,-101.562500
2653,-105.468750
2654,-105.468750
2655,-105.468750
2656,-105.468750
2657,-105.468750
2658,-109.375000
2659,-109.375000
2660,-109.375000
2661,-109.375000
2662,-109.375000
2663,-113.281250
2664,-113.281250
2665,-113.281250
2666,-113.281250
2667,-117.187500
2668,-117.187500
2669,-117.187500
2670,-117.187500
2671,-117.187500
2672,-117.187500
2673,-117.187500
2674,-121.093750
2675,-121.093750
2676,-121.093750
2677,-121.093750
2678,-121.093750
2679,-125.000000
2680,-125.000000
2681,-125.000000
2682,-125.000000
2683,-125.000000
2684,-128.906250
2685,-128.906250
2686,-128.906250
2687,-128.906250
2688,-128.906250
2689,-132.812500
2690,-132.812500
2691,-132.812500
2692,-132.812500
2693,-132.812500
2694,-132.812500
2695,-132.812500
2696,-132.812500
2697,-136.718750
2698,-136.718750
2699,-136.718750
2700,-136.718750
2701,-136.718750
2702,-140.625000
2703,-140.625000
2704,-140.625000
2705,-140.625000
2706,-140.625000
2707,-140.625000
2708,-140.625000
2709,-144.531250
2710,-144.531250
2711,-144.531250
2712,-144.531250
2713,-144.531250
2714,-144.531250
2715,-148.437500
2716,-148.437500
2717,-148.437500
2718,-148.437500
2719,-148.437500
2720,-148.437500
2721,-148.437500
2722,-148.437500
2723,-152.343750
2724,-152.343750
2725,-152.343750
2726,-152.343750
2727,-152.343750
2728,-152.343750
2729,-152.343750
2730,-152.343750
2731,-152.343750
2732,-156.250000
2733,-156.250000
2734,-156.250000
2735,-156.250000
2736,-156.250000
2737,-156.250000
2738,-156.250000
2739,-156.250000
2740,-156.250000
2741,-156.250000
2742,-156.250000
2743,-156.250000
2744,-160.156250
2745,-160.156250
2746,-160.156250
2747,-160.156250
2748,-160.156250
2749,-160.156250
2750,-160.156250
2751,-160.156250
2752,-160.156250
2753,-164.062500
2754,-164.062500
2755,-164.062500
2756,-164.062500
2757,-164.062500
2758,-164.062500
2759,-164.062500
2760,-164.062500
2761,-164.062500
2762,-164.062500
2763,-164.062500
2764,-164.062500
2765,-164.062500
2766,-167.968750
2767,-164.062500
2768,-164.062500
2769,-167.968750
2770,-167.968750
2771,-167.968750
2772,-167.968750
2773,-167.968750
2774,-167.968750
2775,-167.968750
2776,-167.968750
2777,-167.968750
2778,-167.968750
2779,-167.968750
2780,-167.968750
2781,-167.968750
2782,-167.968750
2783,-167.968750
2784,-167.968750
2785,-167.968750
2786,-167.968750
2787,-167.968750
2788,-167.968750
2789,-167.968750
2790,-167.968750
2791,-167.968750
2792,-167.968750
2793,-167.968750
2794,-167.968750
2795,-167.968750
2796,-167.968750
2797,-164.062500
2798,-167.968750
2799,-167.968750
2800,-167.968750
2801,-167.968750
2802,-167.968750
2803,-167.968750
2804,-167.968750
2805,-167.968750
2806,-167.968750
2807,-167.968750
2808,-167.968750
2809,-167.968750
2810,-167.968750
2811,-167.968750
2812,-167.968750
2813,-167.968750
2814,-167.968750
2815,-167.968750
2816,-167.968750
2817,-167.968750
2818,-167.968750
2819,-167.968750
2820,-167.968750
2821,-167.968750
2822,-167.968750
2823,-164.062500
2824,-164.062500
2825,-164.062500
2826,-167.968750
2827,-164.062500
2828,-164.062500
2829,-164.062500
2830,-164.062500
2831,-164.062500
2832,-164.062500
2833,-164.062500
2834,-164.062500
2835,-164.062500
2836,-164.062500
2837,-164.062500
2838,-164.062500
2839,-164.062500
2840,-160.156250
2841,-164.062500
2842,-164.062500
2843,-160.156250
2844,-160.156250
2845,-160.156250
2846,-160.156250
2847,-160.156250
2848,-160.156250
2849,-160.156250
2850,-160.156250
2851,-160.156250
2852,-156.250000
2853,-156.250000
2854,-156.250000
2855,-156.250000
2856,-156.250000
2857,-156.250000
2858,-156.250000
2859,-156.250000
2860,-152.343750
2861,-152.343750
2862,-152.343750
2863,-152.343750
2864,-152.343750
2865,-152.343750
2866,-152.343750
2867,-152.343750
2868,-148.437500
2869,-148.437500
2870,-148.437500
2871,-148.437500
2872,-148.437500
2873,-148.437500
2874,-148.437500
2875,-148.437500
2876,-144.531250
2877,-144.531250
2878,-144.531250
2879,-144.531250
2880,-144.531250
2881,-144.531250
2882,-144.531250
2883,-140.625000
2884,-140.625000
2885,-140.625000
2886,-140.625000
2887,-140.625000
2888,-140.625000
2889,-140.625000
2890,-136.718750
2891,-136.718750
2892,-136.718750
2893,-136.718750
2894,-136.718750
2895,-136.718750
2896,-136.718750
2897,-132.812500
2898,-132.812500
2899,-132.812500
2900,-132.812500
2901,-132.812500
2902,-128.906250
2903,-128.906250
2904,-128.906250
2905,-128.906250
2906,-128.906250
2907,-128.906250
2908,-125.000000
2909,-125.000000
2910,-125.000000
2911,-125.000000
2912,-125.000000
2913,-121.093750
2914,-121.093750
2915,-121.093750
2916,-121.093750
2917,-121.093750
2918,-117.187500
2919,-117.187500
2920,-117.187500
2921,-117.187500
2922,-117.187500
2923,-117.187500
2924,-113.281250
2925,-113.281250
2926,-113.281250
2927,-113.281250
2928,-109.375000
2929,-109.375000
2930,-109.375000
2931,-109.375000
2932,-109.375000
2933,-105.468750
2934,-105.468750
2935,-105.468750
2936,-105.468750
2937,-101.562500
2938,-101.562500
2939,-101.562500
2940,-101.562500
2941,-101.562500
2942,-97.656250
2943,-97.656250
2944,-97.656250
2945,-97.656250
2946,-97.656250
2947,-93.750000
2948,-93.750000
2949,-93.750000
2950,-93.750000
2951,-89.843750
2952,-89.843750
2953,-89.843750
2954,-89.843750
2955,-85.937500
2956,-85.937500
2957,-85.937500
2958,-85.937500
2959,-85.937500
2960,-82.031250
2961,-82.031250
2962,-82.031250
2963,-82.031250
2964,-82.031250
2965,-78.125000
2966,-78.125000
2967,-78.125000
2968,-78.125000
2969,-74.218750
2970,-74.218750
2971,-74.218750
2972,-74.218750
2973,-70.312500
2974,-70.312500
2975,-70.312500
2976,-70.312500
2977,-66.406250
2978,-66.406250
2979,-66.406250
2980,-62.500000
2981,-62.500000
2982,-62.500000
2983,-62.500000
2984,-62.500000
2985,-58.593750
2986,-58.593750
2987,-58.593750
2988,-58.593750
2989,-54.687500
2990,-54.687500
2991,-54.687500
2992,-54.687500
2993,-54.687500
2994,-50.781250
2995,-50.781250
2996,-46.875000
2997,-46.875000
2998,-46.875000
2999,-46.875000
3000,-42.968750
3001,-42.968750
3002,-42.968750
3003,-42.968750
3004,-42.968750
3005,-39.062500
3006,-39.062500
3007,-39.062500
3008,-35.156250
3009,-35.156250
3010,-35.156250
3011,-35.156250
3012,-35.156250
3013,-31.250000
3014,-31.250000
3015,-31.250000
3016,-31.250000
3017,-27.343750
3018,-27.343750
3019,-27.343750
3020,-23.437500
3021,-23.437500
3022,-23.437500
3023,-23.437500
3024,-23.437500
3025,-19.531250
3026,-19.531250
3027,-19.531250
3028,-15.625000
3029,-15.625000
3030,-15.625000
3031,-15.625000
3032,-15.625000
3033,-11.718750
3034,-11.718750
3035,-11.718750
3036,-7.812500
3037,-7.812500
3038,-7.812500
3039,-7.812500
3040,-3.906250
3041,-3.906250
3042,-3.906250
3043,-3.906250
3044,0.000000
3045,0.000000
3046,0.000000
3047,0.000000
3048,3.906250
3049,3.906250
3050,3.906250
3051,3.906250
3052,3.906250
3053,7.812500
3054,7.812500
3055,7.812500
3056,7.812500
3057,11.718750
3058,11.718750
3059,11.718750
3060,15.625000
3061,15.625000
3062,15.625000
3063,15.625000
3064,15.625000
3065,19.531250
3066,19.531250
3067,19.531250
3068,19.531250
3069,19.531250
3070,23.437500
3071,23.437500
3072,23.437500
3073,27.343750
3074,27.343750
3075,27.343750
3076,27.343750
3077,27.343750
3078,31.250000
3079,31.250000
3080,31.250000
3081,31.250000
3082,35.156250
3083,35.156250
3084,35.156250
3085,35.156250
3086,35.156250
3087,39.062500
3088,39.062500
3089,39.062500
3090,39.062500
3091,42.968750
3092,42.968750
3093,42.968750
3094,42.968750
3095,42.968750
3096,46.875000
3097,46.875000
3098,46.875000
3099,46.875000
3100,50.781250
3101,50.781250
3102,50.781250
3103,50.781250
3104,54.687500
3105,54.687500
3106,54.687500
3107,54.687500
3108,54.687500
3109,54.687500
3110,58.593750
3111,58.593750
3112,58.593750
3113,58.593750
3114,58.593750
3115,62.500000
3116,62.500000
3117,62.500000
3118,62.500000
3119,62.500000
3120,66.406250
3121,66.406250
3122,66.406250
3123,66.406250
3124,66.406250
3125,70.312500
3126,70.312500
3127,70.312500
3128,70.312500
3129,70.312500
3130,74.218750
3131,74.218750
3132,74.218750
3133,74.218750
3134,70.312500
3135,78.125000
3136,78.125000
3137,78.125000
3138,78.125000
3139,78.125000
3140,78.125000
3141,82.031250
3142,82.031250
3143,82.031250
3144,82.031250
3145,82.031250
3146,85.937500
3147,85.937500
3148,85.937500
3149,85.937500
3150,85.937500
3151,85.937500
3152,89.843750
3153,89.843750
3154,89.843750
3155,89.843750
3156,89.843750
3157,89.843750
3158,89.843750
3159,93.750000
3160,93.750000
3161,93.750000
3162,93.750000
3163,93.750000
3164,93.750000
3165,97.656250
3166,97.656250
3167,97.656250
3168,97.656250
3169,97.656250
3170,97.656250
3171,97.656250
3172,97.656250
3173,101.562500
3174,101.562500
3175,101.562500
3176,101.562500
3177,101.562500
3178,101.562500
3179,101.562500
3180,105.468750
3181,105.468750
3182,105.468750
3183,105.468750
3184,105.468750
3185,105.468750
3186,105.468750
3187,109.375000
3188,109.375000
3189,109.375000
3190,109.375000
3191,109.375000
3192,109.375000
3193,109.375000
3194,109.375000
3195,109.375000
3196,109.375000
3197,113.281250
3198,113.281250
3199,113.281250
3200,113.281250
3201,113.281250
3202,113.281250
3203,113.281250
3204,113.281250
3205,113.281250
3206,117.187500
3207,117.187500
3208,117.187500
3209,117.187500
3210,117.187500
3211,117.187500
3212,117.187500
3213,117.187500
3214,117.187500
3215,117.187500
3216,117.187500
3217,121.093750
3218,121.093750
3219,121.093750
3220,121.093750
3221,121.093750
3222,121.093750
3223,121.093750
3224,121.093750
3225,121.093750
3226,121.093750
3227,121.093750
3228,121.093750
3229,125.000000
3230,125.000000
3231,125.000000
3232,125.000000
3233,125.000000
3234,125.000000
3235,125.000000
3236,125.000000
3237,125.000000
3238,125.000000
3239,125.000000
3240,125.000000
3241,125.000000
3242,128.906250
3243,125.000000
3244,128.906250
3245,128.906250
3246,128.906250
3247,128.906250
3248,128.906250
3249,128.906250
3250,128.906250
3251,128.906250
3252,128.906250
3253,128.906250
3254,128.906250
3255,128.906250
3256,128.906250
3257,128.906250
3258,128.906250
3259,128.906250
3260,128.906250
3261,128.906250
3262,128.906250
3263,132.812500
3264,132.812500
3265,128.906250
3266,128.906250
3267,128.906250
3268,132.812500
3269,132.812500
3270,132.812500
3271,132.812500
3272,132.812500
3273,128.906250
3274,132.812500
3275,132.812500
3276,132.812500
3277,132.812500
3278,132.812500
3279,132.812500
3280,132.812500
3281,132.812500
3282,132.812500
3283,132.812500
3284,132.812500
3285,132.812500
3286,132.812500
3287,132.812500
3288,132.812500
3289,132.812500
3290,132.812500
3291,132.812500
3292,132.812500
3293,132.812500
3294,132.812500
3295,132.812500
3296,132.812500
3297,132.812500
3298,132.812500
3299,132.812500
3300,132.812500
3301,132.812500
3302,132.812500
3303,132.812500
3304,132.812500
3305,132.812500
3306,132.812500
3307,132.812500
3308,132.812500
3309,132.812500
3310,132.812500
3311,128.906250
3312,132.812500
3313,132.812500
3314,132.812500
3315,132.812500
3316,132.812500
3317,128.906250
3318,128.906250
3319,128.906250
3320,128.906250
3321,128.906250
3322,128.906250
3323,128.906250
3324,128.906250
3325,128.906250
3326,128.906250
3327,128.906250
3328,128.906250
3329,128.906250
3330,128.906250
3331,128.906250
3332,128.906250
3333,128.906250
3334,128.906250
3335,128.906250
3336,128.906250
3337,125.000000
3338,128.906250
3339,125.000000
3340,125.000000
3341,125.000000
3342,125.000000
3343,125.000000
3344,125.000000
3345,125.000000
3346,125.000000
3347,125.000000
3348,125.000000
3349,125.000000
3350,125.000000
3351,125.000000
3352,121.093750
3353,121.093750
3354,121.093750
3355,121.093750
3356,121.093750
3357,121.093750
3358,121.093750
3359,121.093750
3360,121.093750
3361,121.093750
3362,121.093750
3363,121.093750
3364,117.187500
3365,117.187500
3366,117.187500
3367,117.187500
3368,117.187500
3369,117.187500
3370,117.187500
3371,117.187500
3372,117.187500
3373,117.187500
3374,117.187500
3375,113.281250
3376,117.187500
3377,113.281250
3378,113.281250
3379,113.281250
3380,113.281250
3381,113.281250
3382,113.281250
3383,113.281250
3384,113.281250
3385,113.281250
3386,109.375000
3387,109.375000
3388,109.375000
3389,109.375000
3390,109.375000
3391,109.375000
3392,109.375000
3393,109.375000
3394,105.468750
3395,105.468750
3396,105.468750
3397,105.468750
3398,105.468750
3399,105.468750
3400,105.468750
3401,105.468750
3402,105.468750
3403,101.562500
3404,101.562500
3405,101.562500
3406,101.562500
3407,101.562500
3408,101.562500
3409,97.656250
3410,97.656250
3411,97.656250
3412,97.656250
3413,97.656250
3414,97.656250
3415,97.656250
3416,93.750000
3417,93.750000
3418,93.750000
3419,93.750000
3420,93.750000
3421,93.750000
3422,93.750000
3423,89.843750
3424,89.843750
3425,89.843750
3426,89.843750
3427,89.843750
3428,89.843750
3429,85.937500
3430,85.937500
3431,85.937500
3432,85.937500
3433,85.937500
3434,85.937500
3435,85.937500
3436,82.031250
3437,82.031250
3438,82.031250
3439,82.031250
3440,82.031250
3441,78.125000
3442,78.125000
3443,78.125000
3444,78.125000
3445,78.125000
3446,78.125000
3447,74.218750
3448,74.218750
3449,74.218750
3450,74.218750
3451,74.218750
3452,70.312500
3453,70.312500
3454,70.312500
3455,70.312500
3456,70.312500
3457,66.406250
3458,66.406250
3459,66.406250
3460,66.406250
3461,66.406250
3462,66.406250
3463,62.500000
3464,62.500000
3465,62.500000
3466,62.500000
3467,58.593750
3468,58.593750
3469,58.593750
3470,58.593750
3471,58.593750
3472,58.593750
3473,54.687500
3474,54.687500
3475,54.687500
3476,50.781250
3477,50.781250
3478,50.781250
3479,50.781250
3480,50.781250
3481,50.781250
3482,46.875000
3483,46.875000
3484,46.875000
3485,46.875000
3486,42.968750
3487,42.968750
3488,42.968750
3489,42.968750
3490,39.062500
3491,39.062500
3492,39.062500
3493,39.062500
3494,39.062500
3495,35.156250
3496,35.156250
3497,35.156250
3498,35.156250
3499,31.250000
3500,31.250000
3501,31.250000
3502,31.250000
3503,31.250000
3504,27.343750
3505,27.343750
3506,27.343750
3507,23.437500
3508,23.437500
3509,23.437500
3510,23.437500
3511,23.437500
3512,23.437500
3513,19.531250
3514,19.531250
3515,19.531250
3516,15.625000
3517,15.625000
3518,11.718750
3519,11.718750
3520,15.625000
3521,11.718750
3522,11.718750
3523,11.718750
3524,11.718750
3525,7.812500
3526,7.812500
3527,7.812500
3528,7.812500
3529,3.906250
3530,3.906250
3531,3.906250
3532,3.906250
3533,0.000000
3534,0.000000
3535,0.000000
3536,0.000000
3537,-3.906250
3538,-3.906250
3539,-3.906250
3540,-3.906250
3541,-7.812500
3542,-7.812500
3543,-7.812500
3544,-7.812500
3545,-11.718750
3546,-11.718750
3547,-11.718750
3548,-15.625000
3549,-15.625000
3550,-15.625000
3551,-15.625000
3552,-15.625000
3553,-19.531250
3554,-19.531250
3555,-19.531250
3556,-19.531250
3557,-23.437500
3558,-23.437500
3559,-23.437500
3560,-23.437500
3561,-27.343750
3562,-27.343750
3563,-27.343750
3564,-31.250000
3565,-31.250000
3566,-31.250000
3567,-31.250000
3568,-31.250000
3569,-35.156250
3570,-35.156250
3571,-35.156250
3572,-35.156250
3573,-35.156250
3574,-39.062500
3575,-39.062500
3576,-42.968750
3577,-42.968750
3578,-42.968750
3579,-42.968750
3580,-46.875000
3581,-46.875000
3582,-46.875000
3583,-46.875000
3584,-46.875000
3585,-50.781250
3586,-50.781250
3587,-50.781250
3588,-54.687500
3589,-54.687500
3590,-54.687500
3591,-54.687500
3592,-58.593750
3593,-58.593750
3594,-58.593750
3595,-62.500000
3596,-62.500000
3597,-62.500000
3598,-62.500000
3599,-62.500000
3600,-66.406250
3601,-66.406250
3602,-66.406250
3603,-66.406250
3604,-66.406250
3605,-70.312500
3606,-70.312500
3607,-70.312500
3608,-74.218750
3609,-74.218750
3610,-74.218750
3611,-74.218750
3612,-78.125000
3613,-78.125000
3614,-78.125000
3615,-78.125000
3616,-78.125000
3617,-78.125000
3618,-82.031250
3619,-82.031250
3620,-85.937500
3621,-85.937500
3622,-85.937500
3623,-85.937500
3624,-85.937500
3625,-89.843750
3626,-89.843750
3627,-89.843750
3628,-89.843750
3629,-93.750000
3630,-93.750000
3631,-93.750000
3632,-93.750000
3633,-93.750000
3634,-93.750000
3635,-97.656250
3636,-97.656250
3637,-97.656250
3638,-97.656250
3639,-101.562500
3640,-101.562500
3641,-101.562500
3642,-101.562500
3643,-105.468750
3644,-105.468750
3645,-105.468750
3646,-105.468750
3647,-105.468750
3648,-105.468750
3649,-109.375000
3650,-109.375000
3651,-109.375000
3652,-109.375000
3653,-109.375000
3654,-113.281250
3655,-113.281250
3656,-113.281250
3657,-113.281250
3658,-113.281250
3659,-117.187500
3660,-117.187500
3661,-117.187500
3662,-117.187500
3663,-117.187500
3664,-121.093750
3665,-117.187500
3666,-121.093750
3667,-121.093750
3668,-121.093750
3669,-125.000000
3670,-125.000000
3671,-125.000000
3672,-125.000000
3673,-125.000000
3674,-128.906250
3675,-128.906250
3676,-128.906250
3677,-128.906250
3678,-128.906250
3679,-128.906250
3680,-132.812500
3681,-132.812500
3682,-132.812500
3683,-132.812500
3684,-132.812500
3685,-132.812500
3686,-136.718750
3687,-136.718750
3688,-136.718750
3689,-136.718750
3690,-136.718750
3691,-136.718750
3692,-140.625000
3693,-140.625000
3694,-140.625000
3695,-140.625000
3696,-140.625000
3697,-140.625000
3698,-140.625000
3699,-144.531250
3700,-144.531250
3701,-144.531250
3702,-144.531250
3703,-144.531250
3704,-144.531250
3705,-148.437500
3706,-148.437500
3707,-148.437500
3708,-148.437500
3709,-148.437500
3710,-148.437500
3711,-148.437500
3712,-148.437500
3713,-152.343750
3714,-152.343750
3715,-152.343750
3716,-152.343750
3717,-152.343750
3718,-152.343750
3719,-152.343750
3720,-156.250000
3721,-156.250000
3722,-156.250000
3723,-156.250000
3724,-156.250000
3725,-156.250000
3726,-156.250000
3727,-156.250000
3728,-156.250000
3729,-156.250000
3730,-156.250000
3731,-156.250000
3732,-160.156250
3733,-160.156250
3734,-160.156250
3735,-160.156250
3736,-160.156250
3737,-160.156250
3738,-160.156250
3739,-160.156250
3740,-160.156250
3741,-160.156250
3742,-164.062500
3743,-164.062500
3744,-164.062500
3745,-164.062500
3746,-164.062500
3747,-164.062500
3748,-164.062500
3749,-164.062500
3750,-164.062500
3751,-164.062500
3752,-164.062500
3753,-164.062500
3754,-164.062500
3755,-164.062500
3756,-164.062500
3757,-164.062500
3758,-167.968750
3759,-167.968750
3760,-167.968750
3761,-167.968750
3762,-167.968750
3763,-167.968750
3764,-167.968750
3765,-167.968750
3766,-167.968750
3767,-167.968750
3768,-167.968750
3769,-167.968750
3770,-167.968750
3771,-167.968750
3772,-167.968750
3773,-167.968750
3774,-167.968750
3775,-167.968750
3776,-167.968750
3777,-167.968750
3778,-167.968750
3779,-167.968750
3780,-167.968750
3781,-167.968750
3782,-167.968750
3783,-167.968750
3784,-167.968750
3785,-167.968750
3786,-167.968750
3787,-167.968750
3788,-167.968750
3789,-167.968750
3790,-167.968750
3791,-167.968750
3792,-167.968750
3793,-167.968750
3794,-167.968750
3795,-167.968750
3796,-167.968750
3797,-167.968750
3798,-167.968750
3799,-167.968750
3800,-167.968750
3801,-167.968750
3802,-167.968750
3803,-167.968750
3804,-167.968750
3805,-167.968750
3806,-167.968750
3807,-164.062500
3808,-167.968750
3809,-167.968750
3810,-167.968750
3811,-167.968750
3812,-164.062500
3813,-164.062500
3814,-164.062500
3815,-164.062500
3816,-164.062500
3817,-164.062500
3818,-164.062500
3819,-164.062500
3820,-164.062500
3821,-164.062500
3822,-164.062500
3823,-164.062500
3824,-160.156250
3825,-164.062500
3826,-164.062500
3827,-164.062500
3828,-164.062500
3829,-160.156250
3830,-160.156250
3831,-160.156250
3832,-160.156250
3833,-160.156250
3834,-160.156250
3835,-160.156250
3836,-160.156250
3837,-160.156250
3838,-160.156250
3839,-156.250000
3840,-160.156250
3841,-160.156250
3842,-156.250000
3843,-156.250000
3844,-156.250000
3845,-156.250000
3846,-156.250000
3847,-156.250000
3848,-152.343750
3849,-152.343750
3850,-152.343750
3851,-152.343750
3852,-152.343750
3853,-152.343750
3854,-152.343750
3855,-152.343750
3856,-152.343750
3857,-152.343750
3858,-152.343750
3859,-152.343750
3860,-148.437500
3861,-148.437500
3862,-148.437500
3863,-148.437500
3864,-148.437500
3865,-148.437500
3866,-144.531250
3867,-144.531250
3868,-144.531250
3869,-144.531250
3870,-144.531250
3871,-144.531250
3872,-144.531250
3873,-140.625000
3874,-140.625000
3875,-140.625000
3876,-140.625000
3877,-140.625000
3878,-140.625000
3879,-140.625000
3880,-136.718750
3881,-136.718750
3882,-136.718750
3883,-136.718750
3884,-136.718750
3885,-136.718750
3886,-132.812500
3887,-132.812500
3888,-132.812500
3889,-132.812500
3890,-132.812500
3891,-132.812500
3892,-128.906250
3893,-128.906250
3894,-128.906250
3895,-128.906250
3896,-128.906250
3897,-128.906250
3898,-125.000000
3899,-121.093750
3900,-125.000000
3901,-125.000000
3902,-125.000000
3903,-121.093750
3904,-121.093750
3905,-121.093750
3906,-121.093750
3907,-121.093750
3908,-117.187500
3909,-117.187500
3910,-117.187500
3911,-117.187500
3912,-117.187500
3913,-113.281250
3914,-113.281250
3915,-113.281250
3916,-113.281250
3917,-109.375000
3918,-109.375000
3919,-109.375000
3920,-109.375000
3921,-109.375000
3922,-109.375000
3923,-105.468750
3924,-105.468750
3925,-105.468750
3926,-105.468750
3927,-101.562500
3928,-101.562500
3929,-101.562500
3930,-101.562500
3931,-101.562500
3932,-97.656250
3933,-97.656250
3934,-97.656250
3935,-97.656250
3936,-93.750000
3937,-93.750000
3938,-93.750000
3939,-93.750000
3940,-89.843750
3941,-93.750000
3942,-89.843750
3943,-89.843750
3944,-89.843750
3945,-85.937500
3946,-85.937500
3947,-85.937500
3948,-85.937500
3949,-85.937500
3950,-82.031250
3951,-82.031250
3952,-82.031250
3953,-78.125000
3954,-78.125000
3955,-78.125000
3956,-78.125000
3957,-78.125000
3958,-74.218750
3959,-74.218750
3960,-74.218750
3961,-74.218750
3962,-70.312500
3963,-70.312500
3964,-70.312500
3965,-70.312500
3966,-70.312500
3967,-66.406250
3968,-66.406250
3969,-62.500000
3970,-66.406250
3971,-62.500000
3972,-62.500000
3973,-58.593750
3974,-62.500000
3975,-58.593750
3976,-58.593750
3977,-58.593750
3978,-54.687500
3979,-54.687500
3980,-54.687500
3981,-54.687500
3982,-54.687500
3983,-50.781250
3984,-50.781250
3985,-50.781250
3986,-50.781250
3987,-50.781250
3988,-46.875000
3989,-46.875000
3990,-42.968750
3991,-42.968750
3992,-42.968750
3993,-42.968750
3994,-42.968750
3995,-39.062500
3996,-39.062500
3997,-39.062500
3998,-39.062500
3999,-35.156250
4000,-35.156250
4001,-35.156250
4002,-31.250000
4003,-31.250000
4004,-31.250000
4005,-31.250000
4006,-31.250000
4007,-27.343750
4008,-27.343750
4009,-27.343750
4010,-27.343750
4011,-23.437500
4012,-23.437500
4013,-23.437500
4014,-23.437500
4015,-19.531250
4016,-19.531250
4017,-19.531250
4018,-19.531250
4019,-15.625000
4020,-15.625000
4021,-15.625000
4022,-15.625000
4023,-11.718750
4024,-11.718750
4025,-11.718750
4026,-7.812500
4027,-7.812500
4028,-7.812500
4029,-7.812500
4030,-7.812500
4031,-3.906250
4032,-3.906250
4033,-3.906250
4034,-3.906250
4035,0.000000
4036,0.000000
4037,0.000000
4038,3.906250
4039,3.906250
4040,3.906250
4041,3.906250
4042,3.906250
4043,7.812500
4044,7.812500
4045,7.812500
4046,11.718750
4047,11.718750
4048,11.718750
4049,11.718750
4050,11.718750
4051,15.625000
4052,15.625000
4053,15.625000
4054,15.625000
4055,19.531250
4056,19.531250
4057,19.531250
4058,19.531250
4059,23.437500
4060,23.437500
4061,23.437500
4062,23.437500
4063,23.437500
4064,27.343750
4065,27.343750
4066,27.343750
4067,31.250000
4068,31.250000
4069,31.250000
4070,31.250000
4071,35.156250
4072,35.156250
4073,35.156250
4074,35.156250
4075,35.156250
4076,35.156250
4077,39.062500
4078,39.062500
4079,39.062500
4080,39.062500
4081,42.968750
4082,42.968750
4083,42.968750
4084,42.968750
4085,42.968750
4086,46.875000
4087,46.875000
4088,46.875000
4089,46.875000
4090,46.875000
4091,50.781250
4092,50.781250
4093,50.781250
4094,54.687500
4095,54.687500
4096,54.687500
4097,54.687500
4098,54.687500
4099,54.687500
4100,58.593750
4101,58.593750
4102,58.593750
4103,58.593750
4104,58.593750
4105,62.500000
4106,62.500000
4107,62.500000
4108,62.500000
4109,66.406250
4110,66.406250
4111,66.406250
4112,66.406250
4113,66.406250
4114,66.406250
4115,70.312500
4116,70.312500
4117,70.312500
4118,70.312500
4119,74.218750
4120,74.218750
4121,74.218750
4122,74.218750
4123,74.218750
4124,74.218750
4125,74.218750
4126,78.125000
4127,78.125000
4128,78.125000
4129,78.125000
4130,78.125000
4131,82.031250
4132,82.031250
4133,82.031250
4134,82.031250
4135,82.031250
4136,85.937500
4137,85.937500
4138,85.937500
4139,85.937500
4140,85.937500
4141,85.937500
4142,89.843750
4143,89.843750
4144,89.843750
4145,89.843750
4146,89.843750
4147,89.843750
4148,89.843750
4149,93.750000
4150,93.750000
4151,93.750000
4152,93.750000
4153,93.750000
4154,97.656250
4155,97.656250
4156,97.656250
4157,97.656250
4158,97.656250
4159,97.656250
4160,97.656250
4161,97.656250
4162,97.656250
4163,101.562500
4164,101.562500
4165,101.562500
4166,101.562500
4167,101.562500
4168,105.468750
4169,105.468750
4170,105.468750
4171,105.468750
4172,105.468750
4173,105.468750
4174,105.468750
4175,105.468750
4176,105.468750
4177,109.375000
4178,109.375000
4179,109.375000
4180,109.375000
4181,109.375000
4182,109.375000
4183,109.375000
4184,109.375000
4185,109.375000
4186,113.281250
4187,113.281250
4188,113.281250
4189,113.281250
4190,113.281250
4191,113.281250
4192,113.281250
4193,113.281250
4194,117.187500
4195,117.187500
4196,117.187500
4197,117.187500
4198,117.187500
4199,117.187500
4200,117.187500
4201,117.187500
4202,117.187500
4203,117.187500
4204,117.187500
4205,121.093750
4206,121.093750
4207,121.093750
4208,121.093750
4209,121.093750
4210,121.093750
4211,121.093750
4212,121.093750
4213,125.000000
4214,125.000000
4215,121.093750
4216,121.093750
4217,121.093750
4218,125.000000
4219,125.000000
4220,121.093750
4221,125.000000
4222,125.000000
4223,125.000000
4224,125.000000
4225,125.000000
4226,125.000000
4227,125.000000
4228,125.000000
4229,128.906250
4230,125.000000
4231,125.000000
4232,128.906250
4233,125.000000
4234,125.000000
4235,128.906250
4236,128.906250
4237,128.906250
4238,128.906250
4239,128.906250
4240,128.906250
4241,128.906250
4242,128.906250
4243,128.906250
4244,128.906250
4245,128.906250
4246,128.906250
4247,128.906250
4248,128.906250
4249,128.906250
4250,128.906250
4251,128.906250
4252,132.812500
4253,128.906250
4254,132.812500
4255,128.906250
4256,132.812500
4257,132.812500
4258,132.812500
4259,128.906250
4260,132.812500
4261,132.812500
4262,132.812500
4263,132.812500
4264,132.812500
4265,132.812500
4266,132.812500
4267,132.812500
4268,132.812500
4269,132.812500
4270,132.812500
4271,132.812500
4272,132.812500
4273,132.812500
4274,132.812500
4275,132.812500
4276,132.812500
4277,132.812500
4278,136.718750
4279,132.812500
4280,132.812500
4281,132.812500
4282,132.812500
4283,132.812500
4284,132.812500
4285,132.812500
4286,132.812500
4287,132.812500
4288,132.812500
4289,132.812500
4290,132.812500
4291,132.812500
4292,132.812500
4293,132.812500
4294,132.812500
4295,132.812500
4296,132.812500
4297,132.812500
4298,132.812500
4299,132.812500
4300,132.812500
4301,132.812500
4302,132.812500
4303,132.812500
4304,132.812500
4305,132.812500
4306,132.812500
4307,128.906250
4308,132.812500
4309,128.906250
4310,128.906250
4311,132.812500
4312,128.906250
4313,128.906250
4314,128.906250
4315,128.906250
4316,128.906250
4317,128.906250
4318,128.906250
4319,128.906250
4320,128.906250
4321,128.906250
4322,128.906250
4323,128.906250
4324,128.906250
4325,128.906250
4326,128.906250
4327,128.906250
4328,128.906250
4329,128.906250
4330,128.906250
4331,125.000000
4332,125.000000
4333,125.000000
4334,125.000000
4335,125.000000
4336,125.000000
4337,125.000000
4338,125.000000
4339,125.000000
4340,125.000000
4341,125.000000
4342,125.000000
4343,121.093750
4344,121.093750
4345,121.093750
4346,121.093750
4347,121.093750
4348,121.093750
4349,121.093750
4350,121.093750
4351,121.093750
4352,121.093750
4353,121.093750
4354,121.093750
4355,121.093750
4356,117.187500
4357,117.187500
4358,117.187500
4359,117.187500
4360,117.187500
4361,117.187500
4362,117.187500
4363,113.281250
4364,117.187500
4365,117.187500
4366,113.281250
4367,113.281250
4368,113.281250
4369,113.281250
4370,113.281250
4371,113.281250
4372,109.375000
4373,113.281250
4374,113.281250
4375,113.281250
4376,109.375000
4377,109.375000
4378,109.375000
4379,109.375000
4380,109.375000
4381,109.375000
4382,109.375000
4383,109.375000
4384,105.468750
4385,105.468750
4386,105.468750
4387,105.468750
4388,105.468750
4389,105.468750
4390,105.468750
4391,105.468750
4392,101.562500
4393,101.562500
4394,101.562500
4395,101.562500
4396,101.562500
4397,101.562500
4398,97.656250
4399,97.656250
4400,97.656250
4401,97.656250
4402,97.656250
4403,97.656250
4404,97.656250
4405,97.656250
4406,97.656250
4407,93.750000
4408,93.750000
4409,93.750000
4410,93.750000
4411,93.750000
4412,89.843750
4413,89.843750
4414,89.843750
4415,89.843750
4416,89.843750
4417,89.843750
4418,89.843750
4419,85.937500
4420,85.937500
4421,85.937500
4422,85.937500
4423,85.937500
4424,85.937500
4425,85.937500
4426,82.031250
4427,82.031250
4428,82.031250
4429,82.031250
4430,82.031250
4431,78.125000
4432,78.125000
4433,78.125000
4434,78.125000
4435,78.125000
4436,78.125000
4437,74.218750
4438,74.218750
4439,74.218750
4440,74.218750
4441,74.218750
4442,70.312500
4443,70.312500
4444,70.312500
4445,70.312500
4446,70.312500
4447,70.312500
4448,66.406250
4449,66.406250
4450,66.406250
4451,66.406250
4452,62.500000
4453,62.500000
4454,62.500000
4455,62.500000
4456,62.500000
4457,58.593750
4458,58.593750
4459,58.593750
4460,58.593750
4461,58.593750
4462,54.687500
4463,54.687500
4464,54.687500
4465,54.687500
4466,54.687500
4467,50.781250
4468,50.781250
4469,50.781250
4470,50.781250
4471,50.781250
4472,46.875000
4473,46.875000
4474,46.875000
4475,46.875000
4476,42.968750
4477,42.968750
4478,42.968750
4479,42.968750
4480,42.968750
4481,39.062500
4482,39.062500
4483,39.062500
4484,39.062500
4485,35.156250
4486,35.156250
4487,35.156250
4488,35.156250
4489,31.250000
4490,31.250000
4491,31.250000
4492,31.250000
4493,31.250000
4494,27.343750
4495,27.343750
4496,27.343750
4497,23.437500
4498,23.437500
4499,23.437500
4500,23.437500
4501,23.437500
4502,19.531250
4503,19.531250
4504,19.531250
4505,19.531250
4506,15.625000
4507,15.625000
4508,15.625000
4509,11.718750
4510,11.718750
4511,11.718750
4512,11.718750
4513,11.718750
4514,7.812500
4515,7.812500
4516,7.812500
4517,7.812500
4518,7.812500
4519,3.906250
4520,3.906250
4521,3.906250
4522,0.000000
4523,0.000000
4524,0.000000
4525,0.000000
4526,0.000000
4527,-3.906250
4528,-3.906250
4529,-3.906250
4530,-7.812500
4531,-7.812500
4532,-7.812500
4533,-7.812500
4534,-11.718750
4535,-11.718750
4536,-11.718750
4537,-11.718750
4538,-11.718750
4539,-15.625000
4540,-15.625000
4541,-15.625000
4542,-19.531250
4543,-19.531250
4544,-19.531250
4545,-19.531250
4546,-19.531250
4547,-23.437500
4548,-23.437500
4549,-23.437500
4550,-27.343750
4551,-27.343750
4552,-27.343750
4553,-27.343750
4554,-27.343750
4555,-31.250000
4556,-31.250000
4557,-31.250000
4558,-35.156250
4559,-35.156250
4560,-35.156250
4561,-35.156250
4562,-35.156250
4563,-39.062500
4564,-39.062500
4565,-39.062500
4566,-39.062500
4567,-42.968750
4568,-42.968750
4569,-42.968750
4570,-46.875000
4571,-46.875000
4572,-46.875000
4573,-46.875000
4574,-50.781250
4575,-50.781250
4576,-50.781250
4577,-50.781250
4578,-54.687500
4579,-54.687500
4580,-54.687500
4581,-54.687500
4582,-58.593750
4583,-58.593750
4584,-58.593750
4585,-58.593750
4586,-58.593750
4587,-62.500000
4588,-62.500000
4589,-62.500000
4590,-66.406250
4591,-66.406250
4592,-66.406250
4593,-66.406250
4594,-66.406250
4595,-70.312500
4596,-70.312500
4597,-70.312500
4598,-70.312500
4599,-74.218750
4600,-74.218750
4601,-74.218750
4602,-74.218750
4603,-78.125000
4604,-78.125000
4605,-78.125000
4606,-78.125000
4607,-82.031250
4608,-82.031250
4609,-82.031250
4610,-82.031250
4611,-85.937500
4612,-85.937500
4613,-85.937500
4614,-85.937500
4615,-85.937500
4616,-89.843750
4617,-89.843750
4618,-89.843750
4619,-93.750000
4620,-93.750000
4621,-93.750000
4622,-93.750000
4623,-93.750000
4624,-93.750000
4625,-97.656250
4626,-97.656250
4627,-97.656250
4628,-97.656250
4629,-101.562500
4630,-101.562500
4631,-101.562500
4632,-105.468750
4633,-105.468750
4634,-105.468750
4635,-105.468750
4636,-105.468750
4637,-105.468750
4638,-109.375000
4639,-109.375000
4640,-109.375000
4641,-109.375000
4642,-109.375000
4643,-113.281250
4644,-113.281250
4645,-113.281250
4646,-113.281250
4647,-117.187500
4648,-117.187500
4649,-117.187500
4650,-117.187500
4651,-117.187500
4652,-117.187500
4653,-121.093750
4654,-121.093750
4655,-121.093750
4656,-121.093750
4657,-121.093750
4658,-125.000000
4659,-125.000000
4660,-125.000000
4661,-125.000000
4662,-125.000000
4663,-128.906250
4664,-128.906250
4665,-128.906250
4666,-128.906250
4667,-128.906250
4668,-128.906250
4669,-132.812500
4670,-132.812500
4671,-132.812500
4672,-132.812500
4673,-132.812500
4674,-132.812500
4675,-136.718750
4676,-136.718750
4677,-136.718750
4678,-136.718750
4679,-136.718750
4680,-140.625000
4681,-140.625000
4682,-140.625000
4683,-140.625000
4684,-140.625000
4685,-140.625000
4686,-140.625000
4687,-144.531250
4688,-140.625000
4689,-144.531250
4690,-144.531250
4691,-144.531250
4692,-144.531250
4693,-144.531250
4694,-144.531250
4695,-144.531250
4696,-148.437500
4697,-148.437500
4698,-148.437500
4699,-148.437500
4700,-148.437500
4701,-152.343750
4702,-152.343750
4703,-152.343750
4704,-152.343750
4705,-152.343750
4706,-152.343750
4707,-152.343750
4708,-152.343750
4709,-152.343750
4710,-152.343750
4711,-156.250000
4712,-156.250000
4713,-156.250000
4714,-156.250000
4715,-156.250000
4716,-156.250000
4717,-156.250000
4718,-156.250000
4719,-156.250000
4720,-160.156250
4721,-160.156250
4722,-160.156250
4723,-160.156250
4724,-160.156250
4725,-160.156250
4726,-160.156250
4727,-160.156250
4728,-160.156250
4729,-160.156250
4730,-160.156250
4731,-160.156250
4732,-164.062500
4733,-164.062500
4734,-164.062500
4735,-164.062500
4736,-164.062500
4737,-164.062500
4738,-164.062500
4739,-164.062500
4740,-164.062500
4741,-164.062500
4742,-164.062500
4743,-164.062500
4744,-164.062500
4745,-164.062500
4746,-164.062500
4747,-164.062500
4748,-167.968750
4749,-167.968750
4750,-167.968750
4751,-167.968750
4752,-167.968750
4753,-167.968750
4754,-167.968750
4755,-167.968750
4756,-167.968750
4757,-167.968750
4758,-167.968750
4759,-167.968750
4760,-167.968750
4761,-167.968750
4762,-167.968750
4763,-167.968750
4764,-167.968750
4765,-167.968750
4766,-167.968750
4767,-167.968750
4768,-167.968750
4769,-167.968750
4770,-167.968750
4771,-167.968750
4772,-167.968750
4773,-167.968750
4774,-167.968750
4775,-167.968750
4776,-167.968750
4777,-167.968750
4778,-167.968750
4779,-167.968750
4780,-167.968750
4781,-167.968750
4782,-167.968750
4783,-167.968750
4784,-167.968750
4785,-167.968750
4786,-167.968750
4787,-167.968750
4788,-167.968750
4789,-167.968750
4790,-167.968750
4791,-167.968750
4792,-167.968750
4793,-167.968750
4794,-167.968750
4795,-167.968750
4796,-167.968750
4797,-167.968750
4798,-167.968750
4799,-167.968750
4800,-164.062500
4801,-167.968750
4802,-164.062500
4803,-164.062500
4804,-167.968750
4805,-164.062500
4806,-164.062500
4807,-164.062500
4808,-164.062500
4809,-164.062500
4810,-164.062500
4811,-164.062500
4812,-164.062500
4813,-164.062500
4814,-160.156250
4815,-164.062500
4816,-164.062500
4817,-164.062500
4818,-164.062500
4819,-164.062500
4820,-160.156250
4821,-160.156250
4822,-160.156250
4823,-160.156250
4824,-160.156250
4825,-160.156250
4826,-160.156250
4827,-160.156250
4828,-160.156250
4829,-160.156250
4830,-156.250000
4831,-156.250000
4832,-156.250000
4833,-156.250000
4834,-156.250000
4835,-156.250000
4836,-156.250000
4837,-156.250000
4838,-156.250000
4839,-156.250000
4840,-156.250000
4841,-152.343750
4842,-152.343750
4843,-152.343750
4844,-152.343750
4845,-152.343750
4846,-152.343750
4847,-152.343750
4848,-148.437500
4849,-148.437500
4850,-148.437500
4851,-148.437500
4852,-148.437500
4853,-148.437500
4854,-148.437500
4855,-148.437500
4856,-144.531250
4857,-144.531250
4858,-144.531250
4859,-144.531250
4860,-144.531250
4861,-144.531250
4862,-140.625000
4863,-140.625000
4864,-140.625000
4865,-140.625000
4866,-140.625000
4867,-140.625000
4868,-140.625000
4869,-136.718750
4870,-136.718750
4871,-136.718750
4872,-136.718750
4873,-136.718750
4874,-136.718750
4875,-132.812500
4876,-132.812500
4877,-132.812500
4878,-132.812500
4879,-132.812500
4880,-132.812500
4881,-132.812500
4882,-128.906250
4883,-128.906250
4884,-128.906250
4885,-128.906250
4886,-125.000000
4887,-125.000000
4888,-125.000000
4889,-125.000000
4890,-125.000000
4891,-125.000000
4892,-125.000000
4893,-121.093750
4894,-121.093750
4895,-121.093750
4896,-121.093750
4897,-121.093750
4898,-117.187500
4899,-117.187500
4900,-117.187500
4901,-117.187500
4902,-117.187500
4903,-113.281250
4904,-113.281250
4905,-113.281250
4906,-113.281250
4907,-113.281250
4908,-109.375000
4909,-109.375000
4910,-109.375000
4911,-109.375000
4912,-105.468750
4913,-105.468750
4914,-105.468750
4915,-105.468750
4916,-105.468750
4917,-101.562500
4918,-101.562500
4919,-101.562500
4920,-101.562500
4921,-101.562500
4922,-97.656250
4923,-97.656250
4924,-97.656250
4925,-97.656250
4926,-93.750000
4927,-93.750000
4928,-93.750000
4929,-93.750000
4930,-93.750000
4931,-89.843750
4932,-89.843750
4933,-89.843750
4934,-89.843750
4935,-85.937500
4936,-85.937500
4937,-85.937500
4938,-85.937500
4939,-85.937500
4940,-82.031250
4941,-82.031250
4942,-82.031250
4943,-82.031250
4944,-78.125000
4945,-78.125000
4946,-78.125000
4947,-78.125000
4948,-74.218750
4949,-74.218750
4950,-74.218750
4951,-74.218750
4952,-70.312500
4953,-70.312500
4954,-70.312500
4955,-70.312500
4956,-66.406250
4957,-66.406250
4958,-66.406250
4959,-66.406250
4960,-62.500000
4961,-62.500000
4962,-62.500000
4963,-62.500000
4964,-58.593750
4965,-58.593750
4966,-58.593750
4967,-58.593750
4968,-54.687500
4969,-54.687500
4970,-54.687500
4971,-54.687500
4972,-50.781250
4973,-50.781250
4974,-50.781250
4975,-50.781250
4976,-50.781250
4977,-46.875000
4978,-46.875000
4979,-46.875000
4980,-42.968750
4981,-42.968750
4982,-42.968750
4983,-42.968750
4984,-39.062500
4985,-39.062500
4986,-39.062500
4987,-39.062500
4988,-35.156250
4989,-35.156250
4990,-35.156250
4991,-35.156250
4992,-31.250000
4993,-31.250000
4994,-31.250000
4995,-31.250000
4996,-27.343750
4997,-27.343750
4998,-27.343750
4999,-27.343750
5000,-27.343750
5001,-23.437500
5002,-23.437500
5003,-23.437500
5004,-19.531250
5005,-19.531250
5006,-19.531250
5007,-19.531250
5008,-15.625000
5009,-15.625000
5010,-15.625000
5011,-15.625000
5012,-11.718750
5013,-11.718750
5014,-11.718750
5015,-11.718750
5016,-7.812500
5017,-7.812500
5018,-7.812500
5019,-7.812500
5020,-3.906250
5021,-3.906250
5022,-3.906250
5023,-3.906250
5024,0.000000
5025,0.000000
5026,0.000000
5027,0.000000
5028,0.000000
5029,3.906250
5030,3.906250
5031,3.906250
5032,3.906250
5033,7.812500
5034,7.812500
5035,7.812500
5036,11.718750
5037,11.718750
5038,11.718750
5039,11.718750
5040,11.718750
5041,15.625000
5042,15.625000
5043,15.625000
5044,15.625000
5045,19.531250
5046,19.531250
5047,19.531250
5048,23.437500
5049,23.437500
5050,23.437500
5051,23.437500
5052,23.437500
5053,27.343750
5054,27.343750
5055,27.343750
5056,27.343750
5057,31.250000
5058,31.250000
5059,31.250000
5060,31.250000
5061,31.250000
5062,35.156250
5063,35.156250
5064,35.156250
5065,39.062500
5066,39.062500
5067,39.062500
5068,39.062500
5069,39.062500
5070,42.968750
5071,42.968750
5072,42.968750
5073,42.968750
5074,42.968750
5075,46.875000
5076,46.875000
5077,46.875000
5078,46.875000
5079,50.781250
5080,50.781250
5081,50.781250
5082,50.781250
5083,54.687500
5084,54.687500
5085,54.687500
5086,54.687500
5087,54.687500
5088,58.593750
5089,58.593750
5090,58.593750
5091,58.593750
5092,58.593750
5093,58.593750
5094,62.500000
5095,62.500000
5096,62.500000
5097,62.500000
5098,62.500000
5099,66.406250
5100,66.406250
5101,66.406250
5102,66.406250
5103,66.406250
5104,66.406250
5105,70.312500
5106,70.312500
5107,70.312500
5108,70.312500
5109,74.218750
5110,74.218750
5111,74.218750
5112,74.218750
5113,74.218750
5114,74.218750
5115,78.125000
5116,78.125000
5117,78.125000
5118,78.125000
5119,78.125000
5120,82.031250
5121,82.031250
5122,82.031250
5123,82.031250
5124,82.031250
5125,85.937500
5126,85.937500
5127,85.937500
5128,85.937500
5129,85.937500
5130,85.937500
5131,85.937500
5132,89.843750
5133,89.843750
5134,89.843750
5135,89.843750
5136,89.843750
5137,89.843750
5138,93.750000
5139,93.750000
5140,93.750000
5141,93.750000
5142,93.750000
5143,93.750000
5144,93.750000
5145,97.656250
5146,97.656250
5147,97.656250
5148,97.656250
5149,97.656250
5150,97.656250
5151,101.562500
5152,101.562500
5153,97.656250
5154,101.562500
5155,101.562500
5156,101.562500
5157,101.562500
5158,101.562500
5159,105.468750
5160,105.468750
5161,105.468750
5162,105.468750
5163,105.468750
5164,105.468750
5165,105.468750
5166,105.468750
5167,105.468750
5168,109.375000
5169,109.375000
5170,109.375000
5171,109.375000
5172,109.375000
5173,109.375000
5174,113.281250
5175,113.281250
5176,113.281250
5177,113.281250
5178,113.281250
5179,113.281250
5180,113.281250
5181,113.281250
5182,113.281250
5183,113.281250
5184,113.281250
5185,117.187500
5186,117.187500
5187,117.187500
5188,117.187500
5189,117.187500
5190,117.187500
5191,117.187500
5192,117.187500
5193,117.187500
5194,117.187500
5195,121.093750
5196,121.093750
5197,121.093750
5198,121.093750
5199,121.093750
5200,121.093750
5201,121.093750
5202,121.093750
5203,121.093750
5204,121.093750
5205,121.093750
5206,125.000000
5207,125.000000
5208,125.000000
5209,125.000000
5210,125.000000
5211,125.000000
5212,125.000000
5213,125.000000
5214,125.000000
5215,125.000000
5216,125.000000
5217,125.000000
5218,128.906250
5219,125.000000
5220,125.000000
5221,125.000000
5222,128.906250
5223,128.906250
5224,128.906250
5225,128.906250
5226,128.906250
5227,128.906250
5228,128.906250
5229,128.906250
5230,128.906250
5231,128.906250
5232,128.906250
5233,128.906250
5234,128.906250
5235,128.906250
5236,128.906250
5237,128.906250
5238,132.812500
5239,128.906250
5240,128.906250
5241,128.906250
5242,132.812500
5243,132.812500
5244,132.812500
5245,128.906250
5246,132.812500
5247,128.906250
5248,132.812500
5249,132.812500
5250,132.812500
5251,128.906250
5252,132.812500
5253,132.812500
5254,132.812500
5255,132.812500
5256,132.812500
5257,132.812500
5258,132.812500
5259,132.812500
5260,132.812500
5261,132.812500
5262,132.812500
5263,132.812500
5264,132.812500
5265,132.812500
5266,132.812500
5267,132.812500
5268,132.812500
5269,132.812500
5270,132.812500
5271,132.812500
5272,132.812500
5273,132.812500
5274,132.812500
5275,132.812500
5276,132.812500
5277,132.812500
5278,132.812500
5279,132.812500
5280,132.812500
5281,132.812500
5282,132.812500
5283,132.812500
5284,132.812500
5285,132.812500
5286,132.812500
5287,132.812500
5288,132.812500
5289,132.812500
5290,132.812500
5291,132.812500
5292,132.812500
5293,132.812500
5294,132.812500
5295,128.906250
5296,128.906250
5297,128.906250
5298,128.906250
5299,128.906250
5300,128.906250
5301,128.906250
5302,128.906250
5303,128.906250
5304,128.906250
5305,128.906250
5306,128.906250
5307,128.906250
5308,128.906250
5309,128.906250
5310,128.906250
5311,128.906250
5312,128.906250
5313,128.906250
5314,128.906250
5315,128.906250
5316,128.906250
5317,128.906250
5318,128.906250
5319,125.000000
5320,128.906250
5321,128.906250
5322,128.906250
5323,125.000000
5324,125.000000
5325,125.000000
5326,125.000000
5327,125.000000
5328,125.000000
5329,125.000000
5330,125.000000
5331,125.000000
5332,125.000000
5333,121.093750
5334,125.000000
5335,125.000000
5336,125.000000
5337,121.093750
5338,121.093750
5339,121.093750
5340,121.093750
5341,121.093750
5342,121.093750
5343,121.093750
5344,121.093750
5345,121.093750
5346,121.093750
5347,121.093750
5348,117.187500
5349,117.187500
5350,117.187500
5351,117.187500
5352,117.187500
5353,117.187500
5354,117.187500
5355,117.187500
5356,117.187500
5357,113.281250
5358,113.281250
5359,113.281250
5360,113.281250
5361,113.281250
5362,113.281250
5363,113.281250
5364,113.281250
5365,109.375000
5366,109.375000
5367,109.375000
5368,109.375000
5369,109.375000
5370,109.375000
5371,109.375000
5372,109.375000
5373,109.375000
5374,109.375000
5375,105.468750
5376,105.468750
5377,105.468750
5378,105.468750
5379,105.468750
5380,105.468750
5381,101.562500
5382,101.562500
5383,101.562500
5384,101.562500
5385,101.562500
5386,101.562500
5387,101.562500
5388,101.562500
5389,101.562500
5390,97.656250
5391,97.656250
5392,97.656250
5393,97.656250
5394,97.656250
5395,93.750000
5396,93.750000
5397,93.750000
5398,93.750000
5399,93.750000
5400,93.750000
5401,93.750000
5402,93.750000
5403,89.843750
5404,89.843750
5405,89.843750
5406,89.843750
5407,89.843750
5408,85.937500
5409,85.937500
5410,85.937500
5411,85.937500
5412,85.937500
5413,85.937500
5414,82.031250
5415,82.031250
5416,82.031250
5417,82.031250
5418,82.031250
5419,82.031250
5420,82.031250
5421,78.125000
5422,78.125000
5423,78.125000
5424,78.125000
5425,74.218750
5426,74.218750
5427,74.218750
5428,74.218750
5429,74.218750
5430,74.218750
5431,74.218750
5432,70.312500
5433,70.312500
5434,70.312500
5435,70.312500
5436,66.406250
5437,66.406250
5438,66.406250
5439,66.406250
5440,66.406250
5441,62.500000
5442,62.500000
5443,62.500000
5444,62.500000
5445,62.500000
5446,58.593750
5447,58.593750
5448,58.593750
5449,58.593750
5450,58.593750
5451,58.593750
5452,54.687500
5453,54.687500
5454,54.687500
5455,54.687500
5456,50.781250
5457,50.781250
5458,50.781250
5459,50.781250
5460,50.781250
5461,46.875000
5462,46.875000
5463,46.875000
5464,46.875000
5465,46.875000
5466,42.968750
5467,42.968750
5468,42.968750
5469,39.062500
5470,39.062500
5471,39.062500
5472,39.062500
5473,39.062500
5474,39.062500
5475,35.156250
5476,35.156250
5477,35.156250
5478,35.156250
5479,31.250000
5480,31.250000
5481,31.250000
5482,31.250000
5483,27.343750
5484,27.343750
5485,27.343750
5486,27.343750
5487,23.437500
5488,23.437500
5489,23.437500
5490,23.437500
5491,23.437500
5492,19.531250
5493,19.531250
5494,19.531250
5495,19.531250
5496,19.531250
5497,15.625000
5498,15.625000
5499,15.625000
5500,11.718750
5501,11.718750
5502,11.718750
5503,11.718750
5504,7.812500
5505,7.812500
5506,7.812500
5507,7.812500
5508,7.812500
5509,3.906250
5510,3.906250
5511,3.906250
5512,0.000000
5513,0.000000
5514,0.000000
5515,0.000000
5516,-3.906250
5517,-3.906250
5518,-3.906250
5519,-3.906250
5520,-7.812500
5521,-7.812500
5522,-7.812500
5523,-7.812500
5524,-11.718750
5525,-11.718750
5526,-11.718750
5527,-15.625000
5528,-15.625000
5529,-15.625000
5530,-15.625000
5531,-15.625000
5532,-19.531250
5533,-19.531250
5534,-19.531250
5535,-23.437500
5536,-19.531250
5537,-23.437500
5538,-23.437500
5539,-23.437500
5540,-27.343750
5541,-27.343750
5542,-27.343750
5543,-27.343750
5544,-31.250000
5545,-31.250000
5546,-31.250000
5547,-35.156250
5548,-35.156250
5549,-35.156250
5550,-35.156250
5551,-39.062500
5552,-39.062500
5553,-39.062500
5554,-39.062500
5555,-42.968750
5556,-42.968750
5557,-42.968750
5558,-42.968750
5559,-42.968750
5560,-46.875000
5561,-46.875000
5562,-46.875000
5563,-50.781250
5564,-50.781250
5565,-50.781250
5566,-50.781250
5567,-54.687500
5568,-54.687500
5569,-54.687500
5570,-54.687500
5571,-54.687500
5572,-58.593750
5573,-58.593750
5574,-58.593750
5575,-58.593750
5576,-62.500000
5577,-62.500000
5578,-62.500000
5579,-62.500000
5580,-66.406250
5581,-66.406250
5582,-66.406250
5583,-66.406250
5584,-70.312500
5585,-70.312500
5586,-70.312500
5587,-74.218750
5588,-74.218750
5589,-74.218750
5590,-74.218750
5591,-74.218750
5592,-74.218750
5593,-78.125000
5594,-78.125000
5595,-78.125000
5596,-82.031250
5597,-82.031250
5598,-82.031250
5599,-82.031250
5600,-82.031250
5601,-85.937500
5602,-85.937500
5603,-85.937500
5604,-85.937500
5605,-89.843750
5606,-89.843750
5607,-89.843750
5608,-89.843750
5609,-93.750000
5610,-93.750000
5611,-93.750000
5612,-93.750000
5613,-93.750000
5614,-97.656250
5615,-97.656250
5616,-97.656250
5617,-97.656250
5618,-101.562500
5619,-101.562500
5620,-101.562500
5621,-101.562500
5622,-101.562500
5623,-105.468750
5624,-105.468750
5625,-105.468750
5626,-105.468750
5627,-105.468750
5628,-109.375000
5629,-109.375000
5630,-109.375000
5631,-109.375000
5632,-109.375000
5633,-113.281250
5634,-113.281250
5635,-113.281250
5636,-113.281250
5637,-117.187500
5638,-117.187500
5639,-117.187500
5640,-117.187500
5641,-117.187500
5642,-117.187500
5643,-121.093750
5644,-121.093750
5645,-121.093750
5646,-121.093750
5647,-125.000000
5648,-125.000000
5649,-125.000000
5650,-125.000000
5651,-125.000000
5652,-125.000000
5653,-128.906250
5654,-128.906250
5655,-128.906250
5656,-128.906250
5657,-128.906250
5658,-128.906250
5659,-132.812500
5660,-132.812500
5661,-132.812500
5662,-132.812500
5663,-132.812500
5664,-136.718750
5665,-136.718750
5666,-136.718750
5667,-136.718750
5668,-136.718750
5669,-136.718750
5670,-136.718750
5671,-140.625000
5672,-140.625000
5673,-140.625000
5674,-140.625000
5675,-144.531250
5676,-140.625000
5677,-144.531250
5678,-144.531250
5679,-144.531250
5680,-144.531250
5681,-148.437500
5682,-144.531250
5683,-144.531250
5684,-148.437500
5685,-148.437500
5686,-148.437500
5687,-148.437500
5688,-148.437500
5689,-148.437500
5690,-148.437500
5691,-148.437500
5692,-148.437500
5693,-152.343750
5694,-152.343750
5695,-152.343750
5696,-152.343750
5697,-152.343750
5698,-152.343750
5699,-156.250000
5700,-152.343750
5701,-156.250000
5702,-156.250000
5703,-156.250000
5704,-156.250000
5705,-156.250000
5706,-156.250000
5707,-156.250000
5708,-156.250000
5709,-160.156250
5710,-156.250000
5711,-160.156250
5712,-160.156250
5713,-156.250000
5714,-160.156250
5715,-160.156250
5716,-160.156250
5717,-160.156250
5718,-160.156250
5719,-160.156250
5720,-160.156250
5721,-164.062500
5722,-164.062500
5723,-164.062500
5724,-164.062500
5725,-164.062500
5726,-164.062500
5727,-164.062500
5728,-164.062500
5729,-164.062500
5730,-164.062500
5731,-164.062500
5732,-164.062500
5733,-164.062500
5734,-164.062500
5735,-164.062500
5736,-164.062500
5737,-167.968750
5738,-164.062500
5739,-164.062500
5740,-167.968750
5741,-167.968750
5742,-167.968750
5743,-167.968750
5744,-167.968750
5745,-167.968750
5746,-167.968750
5747,-167.968750
5748,-164.062500
5749,-167.968750
5750,-167.968750
5751,-167.968750
5752,-167.968750
5753,-167.968750
5754,-167.968750
5755,-167.968750
5756,-167.968750
5757,-167.968750
5758,-167.968750
5759,-167.968750
5760,-167.968750
5761,-167.968750
5762,-167.968750
5763,-167.968750
5764,-167.968750
5765,-167.968750
5766,-167.968750
5767,-167.968750
5768,-167.968750
5769,-167.968750
5770,-167.968750
5771,-167.968750
5772,-167.968750
5773,-167.968750
5774,-167.968750
5775,-167.968750
5776,-167.968750
5777,-167.968750
5778,-167.968750
5779,-167.968750
5780,-167.968750
5781,-167.968750
5782,-167.968750
5783,-167.968750
5784,-167.968750
5785,-167.968750
5786,-167.968750
5787,-167.968750
5788,-167.968750
5789,-167.968750
5790,-167.968750
5791,-164.062500
5792,-164.062500
5793,-167.968750
5794,-164.062500
5795,-164.062500
5796,-164.062500
5797,-164.062500
5798,-164.062500
5799,-164.062500
5800,-164.062500
5801,-164.062500
5802,-164.062500
5803,-164.062500
5804,-164.062500
5805,-164.062500
5806,-164.062500
5807,-164.062500
5808,-160.156250
5809,-164.062500
5810,-164.062500
5811,-160.156250
5812,-160.156250
5813,-160.156250
5814,-160.156250
5815,-160.156250
5816,-160.156250
5817,-160.156250
5818,-160.156250
5819,-160.156250
5820,-156.250000
5821,-156.250000
5822,-156.250000
5823,-160.156250
5824,-156.250000
5825,-156.250000
5826,-156.250000
5827,-156.250000
5828,-156.250000
5829,-152.343750
5830,-152.343750
5831,-152.343750
5832,-152.343750
5833,-152.343750
5834,-152.343750
5835,-152.343750
5836,-152.343750
5837,-148.437500
5838,-148.437500
5839,-148.437500
5840,-148.437500
5841,-148.437500
5842,-148.437500
5843,-148.437500
5844,-148.437500
5845,-144.531250
5846,-140.625000
5847,-144.531250
5848,-144.531250
5849,-144.531250
5850,-144.531250
5851,-144.531250
5852,-140.625000
5853,-140.625000
5854,-140.625000
5855,-140.625000
5856,-140.625000
5857,-140.625000
5858,-140.625000
5859,-136.718750
5860,-136.718750
5861,-136.718750
5862,-136.718750
5863,-136.718750
5864,-132.812500
5865,-132.812500
5866,-132.812500
5867,-132.812500
5868,-132.812500
5869,-132.812500
5870,-132.812500
5871,-128.906250
5872,-128.906250
5873,-128.906250
5874,-128.906250
5875,-128.906250
5876,-125.000000
5877,-125.000000
5878,-125.000000
5879,-125.000000
5880,-125.000000
5881,-125.000000
5882,-121.093750
5883,-121.093750
5884,-117.187500
5885,-121.093750
5886,-121.093750
5887,-117.187500
5888,-117.187500
5889,-117.187500
5890,-117.187500
5891,-117.187500
5892,-113.281250
5893,-113.281250
5894,-113.281250
5895,-113.281250
5896,-113.281250
5897,-113.281250
5898,-109.375000
5899,-109.375000
5900,-109.375000
5901,-105.468750
5902,-105.468750
5903,-105.468750
5904,-105.468750
5905,-105.468750
5906,-105.468750
5907,-101.562500
5908,-101.562500
5909,-101.562500
5910,-101.562500
5911,-101.562500
5912,-97.656250
5913,-97.656250
5914,-97.656250
5915,-97.656250
5916,-93.750000
5917,-93.750000
5918,-93.750000
5919,-93.750000
5920,-93.750000
5921,-89.843750
5922,-89.843750
5923,-89.843750
5924,-89.843750
5925,-89.843750
5926,-85.937500
5927,-85.937500
5928,-85.937500
5929,-82.031250
5930,-82.031250
5931,-82.031250
5932,-82.031250
5933,-78.125000
5934,-78.125000
5935,-78.125000
5936,-78.125000
5937,-74.218750
5938,-74.218750
5939,-74.218750
5940,-74.218750
5941,-74.218750
5942,-70.312500
5943,-70.312500
5944,-70.312500
5945,-66.406250
5946,-66.406250
5947,-66.406250
5948,-66.406250
5949,-62.500000
5950,-62.500000
5951,-62.500000
5952,-62.500000
5953,-62.500000
5954,-58.593750
5955,-58.593750
5956,-58.593750
5957,-58.593750
5958,-54.687500
5959,-54.687500
5960,-54.687500
5961,-54.687500
5962,-50.781250
5963,-50.781250
5964,-50.781250
5965,-50.781250
5966,-50.781250
5967,-46.875000
5968,-46.875000
5969,-46.875000
5970,-42.968750
5971,-42.968750
5972,-42.968750
5973,-42.968750
5974,-39.062500
5975,-39.062500
5976,-39.062500
5977,-39.062500
5978,-35.156250
5979,-35.156250
5980,-35.156250
5981,-31.250000
5982,-31.250000
5983,-31.250000
5984,-31.250000
5985,-27.343750
5986,-27.343750
5987,-27.343750
5988,-27.343750
5989,-23.437500
5990,-23.437500
5991,-23.437500
5992,-23.437500
5993,-23.437500
5994,-19.531250
5995,-19.531250
5996,-19.531250
5997,-15.625000
5998,-15.625000
5999,-15.625000
6000,-15.625000
6001,-11.718750
6002,-11.718750
6003,-11.718750
6004,-11.718750
6005,-11.718750
6006,-7.812500
6007,-7.812500
6008,-7.812500
6009,-3.906250
6010,-3.906250
6011,-3.906250
6012,-3.906250
6013,0.000000
6014,0.000000
6015,0.000000
6016,0.000000
6017,0.000000
6018,3.906250
6019,3.906250
6020,7.812500
6021,7.812500
6022,7.812500
6023,7.812500
6024,7.812500
6025,7.812500
6026,11.718750
6027,11.718750
6028,11.718750
6029,11.718750
6030,15.625000
6031,15.625000
6032,15.625000
6033,15.625000
6034,19.531250
6035,19.531250
6036,19.531250
6037,19.531250
6038,23.437500
6039,23.437500
6040,23.437500
6041,23.437500
6042,27.343750
6043,27.343750
6044,27.343750
6045,27.343750
6046,27.343750
6047,31.250000
6048,31.250000
6049,31.250000
6050,31.250000
6051,35.156250
6052,35.156250
6053,35.156250
6054,35.156250
6055,39.062500
6056,39.062500
6057,39.062500
6058,39.062500
6059,39.062500
6060,42.968750
6061,42.968750
6062,42.968750
6063,42.968750
6064,46.875000
6065,46.875000
6066,46.875000
6067,46.875000
6068,46.875000
6069,46.875000
6070,50.781250
6071,50.781250
6072,50.781250
6073,54.687500
6074,54.687500
6075,54.687500
6076,54.687500
6077,54.687500
6078,54.687500
6079,58.593750
6080,58.593750
6081,58.593750
6082,58.593750
6083,62.500000
6084,62.500000
6085,62.500000
6086,62.500000
6087,62.500000
6088,62.500000
6089,66.406250
6090,66.406250
6091,66.406250
6092,66.406250
6093,66.406250
6094,66.406250
6095,70.312500
6096,70.312500
6097,70.312500
6098,74.218750
6099,70.312500
6100,74.218750
6101,74.218750
6102,74.218750
6103,74.218750
6104,74.218750
6105,78.125000
6106,78.125000
6107,78.125000
6108,78.125000
6109,82.031250
6110,82.031250
6111,82.031250
6112,82.031250
6113,82.031250
6114,85.937500
6115,85.937500
6116,85.937500
6117,85.937500
6118,85.937500
6119,85.937500
6120,89.843750
6121,89.843750
6122,89.843750
6123,89.843750
6124,89.843750
6125,89.843750
6126,89.843750
6127,93.750000
6128,93.750000
6129,93.750000
6130,93.750000
6131,93.750000
6132,93.750000
6133,93.750000
6134,97.656250
6135,97.656250
6136,97.656250
6137,97.656250
6138,97.656250
6139,97.656250
6140,101.562500
6141,101.562500
6142,101.562500
6143,101.562500
6144,101.562500
6145,101.562500
6146,101.562500
6147,105.468750
6148,101.562500
6149,105.468750
6150,105.468750
6151,105.468750
6152,105.468750
6153,105.468750
6154,105.468750
6155,109.375000
6156,109.375000
6157,109.375000
6158,109.375000
6159,109.375000
6160,109.375000
6161,109.375000
6162,109.375000
6163,113.281250
6164,113.281250
6165,113.281250
6166,113.281250
6167,113.281250
6168,113.281250
6169,113.281250
6170,113.281250
6171,113.281250
6172,113.281250
6173,117.187500
6174,117.187500
6175,113.281250
6176,117.187500
6177,117.187500
6178,117.187500
6179,117.187500
6180,117.187500
6181,117.187500
6182,117.187500
6183,117.187500
6184,117.187500
6185,121.093750
6186,121.093750
6187,121.093750
6188,121.093750
6189,121.093750
6190,121.093750
6191,121.093750
6192,121.093750
6193,121.093750
6194,121.093750
6195,121.093750
6196,125.000000
6197,125.000000
6198,125.000000
6199,125.000000
6200,125.000000
6201,125.000000
6202,125.000000
6203,125.000000
6204,125.000000
6205,125.000000
6206,125.000000
6207,125.000000
6208,128.906250
6209,125.000000
6210,125.000000
6211,125.000000
6212,125.000000
6213,125.000000
6214,128.906250
6215,128.906250
6216,128.906250
6217,128.906250
6218,128.906250
6219,128.906250
6220,128.906250
6221,128.906250
6222,128.906250
6223,128.906250
6224,128.906250
6225,128.906250
6226,128.906250
6227,128.906250
6228,132.812500
6229,128.906250
6230,132.812500
6231,128.906250
6232,128.906250
6233,128.906250
6234,132.812500
6235,128.906250
6236,132.812500
6237,132.812500
6238,132.812500
6239,132.812500
6240,132.812500
6241,132.812500
6242,132.812500
6243,132.812500
6244,132.812500
6245,132.812500
6246,132.812500
6247,132.812500
6248,132.812500
6249,132.812500
6250,132.812500
6251,132.812500
6252,132.812500
6253,132.812500
6254,132.812500
6255,132.812500
6256,132.812500
6257,132.812500
6258,132.812500
6259,132.812500
6260,132.812500
6261,132.812500
6262,132.812500
6263,132.812500
6264,132.812500
6265,132.812500
6266,132.812500
6267,132.812500
6268,132.812500
6269,132.812500
6270,132.812500
6271,132.812500
6272,132.812500
6273,132.812500
6274,132.812500
6275,132.812500
6276,132.812500
6277,132.812500
6278,132.812500
6279,132.812500
6280,132.812500
6281,128.906250
6282,132.812500
6283,128.906250
6284,128.906250
6285,128.906250
6286,128.906250
6287,128.906250
6288,132.812500
6289,128.906250
6290,128.906250
6291,128.906250
6292,128.906250
6293,128.906250
6294,128.906250
6295,128.906250
6296,128.906250
6297,128.906250
6298,128.906250
6299,128.906250
6300,128.906250
6301,128.906250
6302,128.906250
6303,128.906250
6304,128.906250
6305,128.906250
6306,128.906250
6307,125.000000
6308,125.000000
6309,125.000000
6310,128.906250
6311,125.000000
6312,125.000000
6313,125.000000
6314,125.000000
6315,125.000000
6316,125.000000
6317,125.000000
6318,125.000000
6319,125.000000
6320,125.000000
6321,125.000000
6322,125.000000
6323,125.000000
6324,121.093750
6325,121.093750
6326,121.093750
6327,121.093750
6328,121.093750
6329,121.093750
6330,121.093750
6331,121.093750
6332,121.093750
6333,117.187500
6334,121.093750
6335,121.093750
6336,121.093750
6337,117.187500
6338,117.187500
6339,117.187500
6340,117.187500
6341,117.187500
6342,117.187500
6343,117.187500
6344,117.187500
6345,113.281250
6346,113.281250
6347,113.281250
6348,113.281250
6349,113.281250
6350,113.281250
6351,113.281250
6352,113.281250
6353,113.281250
6354,113.281250
6355,109.375000
6356,109.375000
6357,109.375000
6358,109.375000
6359,109.375000
6360,109.375000
6361,109.375000
6362,109.375000
6363,109.375000
6364,105.468750
6365,105.468750
6366,105.468750
6367,105.468750
6368,105.468750
6369,105.468750
6370,105.468750
6371,101.562500
6372,105.468750
6373,101.562500
6374,101.562500
6375,101.562500
6376,101.562500
6377,101.562500
6378,101.562500
6379,101.562500
6380,97.656250
6381,97.656250
6382,97.656250
6383,97.656250
6384,97.656250
6385,97.656250
6386,97.656250
6387,93.750000
6388,93.750000
6389,93.750000
6390,93.750000
6391,93.750000
6392,93.750000
6393,89.843750
6394,89.843750
6395,89.843750
6396,89.843750
6397,89.843750
6398,85.937500
6399,85.937500
6400,85.937500
6401,85.937500
6402,85.937500
6403,85.937500
6404,85.937500
6405,82.031250
6406,82.031250
6407,82.031250
6408,82.031250
6409,82.031250
6410,78.125000
6411,78.125000
6412,78.125000
6413,78.125000
6414,78.125000
6415,78.125000
6416,74.218750
6417,74.218750
6418,74.218750
6419,74.218750
6420,74.218750
6421,70.312500
6422,70.312500
6423,70.312500
6424,70.312500
6425,70.312500
6426,66.406250
6427,66.406250
6428,66.406250
6429,66.406250
6430,66.406250
6431,66.406250
6432,62.500000
6433,62.500000
6434,62.500000
6435,62.500000
6436,58.593750
6437,58.593750
6438,58.593750
6439,58.593750
6440,58.593750
6441,54.687500
6442,54.687500
6443,54.687500
6444,54.687500
6445,50.781250
6446,50.781250
6447,50.781250
6448,50.781250
6449,50.781250
6450,50.781250
6451,46.875000
6452,46.875000
6453,46.875000
6454,46.875000
6455,42.968750
6456,42.968750
6457,42.968750
6458,42.968750
6459,39.062500
6460,39.062500
6461,39.062500
6462,39.062500
6463,39.062500
6464,35.156250
6465,35.156250
6466,35.156250
6467,35.156250
6468,31.250000
6469,31.250000
6470,31.250000
6471,31.250000
6472,31.250000
6473,27.343750
6474,27.343750
6475,27.343750
6476,27.343750
6477,23.437500
6478,23.437500
6479,23.437500
6480,23.437500
6481,19.531250
6482,19.531250
6483,19.531250
6484,19.531250
6485,19.531250
6486,15.625000
6487,15.625000
6488,15.625000
6489,15.625000
6490,11.718750
6491,11.718750
6492,11.718750
6493,11.718750
6494,7.812500
6495,7.812500
6496,7.812500
6497,3.906250
6498,3.906250
6499,3.906250
6500,3.906250
6501,3.906250
6502,0.000000
6503,0.000000
6504,0.000000
6505,0.000000
6506,-3.906250
6507,-3.906250
6508,-3.906250
6509,-7.812500
6510,-7.812500
6511,-7.812500
6512,-7.812500
6513,-7.812500
6514,-11.718750
6515,-11.718750
6516,-11.718750
6517,-11.718750
6518,-15.625000
6519,-15.625000
6520,-15.625000
6521,-15.625000
6522,-19.531250
6523,-19.531250
6524,-19.531250
6525,-19.531250
6526,-23.437500
6527,-23.437500
6528,-23.437500
6529,-23.437500
6530,-27.343750
6531,-27.343750
6532,-27.343750
6533,-27.343750
6534,-31.250000
6535,-31.250000
6536,-31.250000
6537,-35.156250
6538,-35.156250
6539,-35.156250
6540,-35.156250
6541,-35.156250
6542,-39.062500
6543,-39.062500
6544,-39.062500
6545,-39.062500
6546,-42.968750
6547,-42.968750
6548,-42.968750
6549,-42.968750
6550,-46.875000
6551,-46.875000
6552,-46.875000
6553,-50.781250
6554,-50.781250
6555,-50.781250
6556,-50.781250
6557,-50.781250
6558,-54.687500
6559,-54.687500
6560,-54.687500
6561,-54.687500
6562,-58.593750
6563,-58.593750
6564,-58.593750
6565,-62.500000
6566,-62.500000
6567,-62.500000
6568,-62.500000
6569,-66.406250
6570,-66.406250
6571,-66.406250
6572,-66.406250
6573,-70.312500
6574,-70.312500
6575,-70.312500
6576,-70.312500
6577,-74.218750
6578,-74.218750
6579,-74.218750
6580,-74.218750
6581,-74.218750
6582,-74.218750
6583,-78.125000
6584,-78.125000
6585,-82.031250
6586,-82.031250
6587,-82.031250
6588,-82.031250
6589,-82.031250
6590,-82.031250
6591,-85.937500
6592,-85.937500
6593,-85.937500
6594,-89.843750
6595,-89.843750
6596,-89.843750
6597,-89.843750
6598,-89.843750
6599,-89.843750
6600,-93.750000
6601,-93.750000
6602,-93.750000
6603,-97.656250
6604,-97.656250
6605,-97.656250
6606,-97.656250
6607,-97.656250
6608,-101.562500
6609,-101.562500
6610,-101.562500
6611,-101.562500
6612,-101.562500
6613,-105.468750
6614,-105.468750
6615,-105.468750
6616,-105.468750
6617,-105.468750
6618,-109.375000
6619,-109.375000
6620,-109.375000
6621,-109.375000
6622,-109.375000
6623,-113.281250
6624,-113.281250
6625,-113.281250
6626,-113.281250
6627,-113.281250
6628,-117.187500
6629,-117.187500
6630,-117.187500
6631,-117.187500
6632,-121.093750
6633,-121.093750
6634,-121.093750
6635,-117.187500
6636,-121.093750
6637,-121.093750
6638,-125.000000
6639,-125.000000
6640,-125.000000
6641,-125.000000
6642,-125.000000
6643,-128.906250
6644,-128.906250
6645,-128.906250
6646,-128.906250
6647,-128.906250
6648,-128.906250
6649,-132.812500
6650,-132.812500
6651,-132.812500
6652,-132.812500
6653,-132.812500
6654,-132.812500
6655,-136.718750
6656,-136.718750
6657,-136.718750
6658,-136.718750
6659,-136.718750
6660,-136.718750
6661,-136.718750
6662,-140.625000
6663,-140.625000
6664,-140.625000
6665,-140.625000
6666,-140.625000
6667,-140.625000
6668,-140.625000
6669,-144.531250
6670,-144.531250
6671,-144.531250
6672,-144.531250
6673,-144.531250
6674,-144.531250
6675,-148.437500
6676,-148.437500
6677,-148.437500
6678,-148.437500
6679,-148.437500
6680,-148.437500
6681,-148.437500
6682,-152.343750
6683,-152.343750
6684,-152.343750
6685,-152.343750
6686,-152.343750
6687,-152.343750
6688,-152.343750
6689,-152.343750
6690,-152.343750
6691,-156.250000
6692,-156.250000
6693,-156.250000
6694,-156.250000
6695,-156.250000
6696,-156.250000
6697,-156.250000
6698,-156.250000
6699,-160.156250
6700,-160.156250
6701,-160.156250
6702,-160.156250
6703,-160.156250
6704,-160.156250
6705,-160.156250
6706,-160.156250
6707,-160.156250
6708,-160.156250
6709,-160.156250
6710,-160.156250
6711,-164.062500
6712,-164.062500
6713,-164.062500
6714,-164.062500
6715,-164.062500
6716,-164.062500
6717,-164.062500
6718,-164.062500
6719,-164.062500
6720,-164.062500
6721,-164.062500
6722,-164.062500
6723,-164.062500
6724,-164.062500
6725,-164.062500
6726,-167.968750
6727,-164.062500
6728,-167.968750
6729,-167.968750
6730,-167.968750
6731,-167.968750
6732,-167.968750
6733,-167.968750
6734,-167.968750
6735,-167.968750
6736,-167.968750
6737,-167.968750
6738,-167.968750
6739,-167.968750
6740,-167.968750
6741,-167.968750
6742,-167.968750
6743,-167.968750
6744,-167.968750
6745,-167.968750
6746,-167.968750
6747,-167.968750
6748,-167.968750
6749,-167.968750
6750,-167.968750
6751,-167.968750
6752,-167.968750
6753,-167.968750
6754,-167.968750
6755,-167.968750
6756,-167.968750
6757,-167.968750
6758,-167.968750
6759,-167.968750
6760,-167.968750
6761,-167.968750
6762,-167.968750
6763,-167.968750
6764,-167.968750
6765,-167.968750
6766,-167.968750
6767,-167.968750
6768,-167.968750
6769,-167.968750
6770,-167.968750
6771,-167.968750
6772,-167.968750
6773,-167.968750
6774,-167.968750
6775,-167.968750
6776,-167.968750
6777,-167.968750
6778,-167.968750
6779,-167.968750
6780,-167.968750
6781,-167.968750
6782,-164.062500
6783,-164.062500
6784,-164.062500
6785,-164.062500
6786,-164.062500
6787,-164.062500
6788,-164.062500
6789,-164.062500
6790,-164.062500
6791,-164.062500
6792,-164.062500
6793,-164.062500
6794,-164.062500
6795,-164.062500
6796,-164.062500
6797,-160.156250
6798,-160.156250
6799,-160.156250
6800,-160.156250
6801,-160.156250
6802,-160.156250
6803,-160.156250
6804,-160.156250
6805,-160.156250
6806,-160.156250
6807,-160.156250
6808,-160.156250
6809,-160.156250
6810,-156.250000
6811,-156.250000
6812,-156.250000
6813,-156.250000
6814,-156.250000
6815,-156.250000
6816,-156.250000
6817,-156.250000
6818,-152.343750
6819,-152.343750
6820,-152.343750
6821,-152.343750
6822,-152.343750
6823,-152.343750
6824,-152.343750
6825,-152.343750
6826,-152.343750
6827,-152.343750
6828,-148.437500
6829,-148.437500
6830,-148.437500
6831,-148.437500
6832,-148.437500
6833,-148.437500
6834,-148.437500
6835,-144.531250
6836,-144.531250
6837,-144.531250
6838,-144.531250
6839,-144.531250
6840,-144.531250
6841,-144.531250
6842,-140.625000
6843,-140.625000
6844,-140.625000
6845,-140.625000
6846,-140.625000
6847,-140.625000
6848,-136.718750
6849,-136.718750
6850,-136.718750
6851,-136.718750
6852,-136.718750
6853,-136.718750
6854,-132.812500
6855,-132.812500
6856,-132.812500
6857,-132.812500
6858,-132.812500
6859,-132.812500
6860,-132.812500
6861,-128.906250
6862,-128.906250
6863,-128.906250
6864,-128.906250
6865,-128.906250
6866,-125.000000
6867,-125.000000
6868,-125.000000
6869,-125.000000
6870,-125.000000
6871,-121.093750
6872,-121.093750
6873,-121.093750
6874,-121.093750
6875,-121.093750
6876,-117.187500
6877,-121.093750
6878,-117.187500
6879,-117.187500
6880,-117.187500
6881,-113.281250
6882,-113.281250
6883,-113.281250
6884,-113.281250
6885,-113.281250
6886,-109.375000
6887,-109.375000
6888,-109.375000
6889,-109.375000
6890,-109.375000
6891,-105.468750
6892,-105.468750
6893,-105.468750
6894,-105.468750
6895,-101.562500
6896,-101.562500
6897,-101.562500
6898,-101.562500
6899,-101.562500
6900,-97.656250
6901,-97.656250
6902,-97.656250
6903,-97.656250
6904,-97.656250
6905,-93.750000
6906,-93.750000
6907,-93.750000
6908,-93.750000
6909,-89.843750
6910,-89.843750
6911,-89.843750
6912,-89.843750
6913,-85.937500
6914,-85.937500
6915,-85.937500
6916,-85.937500
6917,-85.937500
6918,-82.031250
6919,-82.031250
6920,-82.031250
6921,-82.031250
6922,-78.125000
6923,-78.125000
6924,-78.125000
6925,-78.125000
6926,-74.218750
6927,-74.218750
6928,-74.218750
6929,-74.218750
6930,-74.218750
6931,-70.312500
6932,-70.312500
6933,-70.312500
6934,-70.312500
6935,-70.312500
6936,-66.406250
6937,-66.406250
6938,-66.406250
6939,-62.500000
6940,-62.500000
6941,-62.500000
6942,-62.500000
6943,-58.593750
6944,-58.593750
6945,-58.593750
6946,-58.593750
6947,-54.687500
6948,-54.687500
6949,-54.687500
6950,-54.687500
6951,-54.687500
6952,-50.781250
6953,-50.781250
6954,-50.781250
6955,-46.875000
6956,-46.875000
6957,-46.875000
6958,-46.875000
6959,-46.875000
6960,-42.968750
6961,-42.968750
6962,-42.968750
6963,-39.062500
6964,-39.062500
6965,-39.062500
6966,-39.062500
6967,-39.062500
6968,-35.156250
6969,-35.156250
6970,-31.250000
6971,-31.250000
6972,-31.250000
6973,-31.250000
6974,-31.250000
6975,-27.343750
6976,-27.343750
6977,-27.343750
6978,-27.343750
6979,-27.343750
6980,-23.437500
6981,-23.437500
6982,-23.437500
6983,-19.531250
6984,-19.531250
6985,-19.531250
6986,-19.531250
6987,-15.625000
6988,-15.625000
6989,-15.625000
6990,-11.718750
6991,-11.718750
6992,-11.718750
6993,-11.718750
6994,-11.718750
6995,-7.812500
6996,-7.812500
6997,-7.812500
6998,-3.906250
6999,-3.906250
7000,-3.906250
7001,-3.906250
7002,-3.906250
7003,0.000000
7004,0.000000
7005,0.000000
7006,0.000000
7007,3.906250
7008,3.906250
7009,3.906250
7010,7.812500
7011,7.812500
7012,7.812500
7013,7.812500
7014,7.812500
7015,11.718750
7016,11.718750
7017,11.718750
7018,15.625000
7019,15.625000
7020,15.625000
7021,15.625000
7022,15.625000
7023,15.625000
7024,19.531250
7025,19.531250
7026,19.531250
7027,23.437500
7028,23.437500
7029,23.437500
7030,23.437500
7031,23.437500
7032,27.343750
7033,27.343750
7034,27.343750
7035,31.250000
7036,31.250000
7037,31.250000
7038,31.250000
7039,31.250000
7040,35.156250
7041,35.156250
7042,35.156250
7043,35.156250
7044,35.156250
7045,39.062500
7046,39.062500
7047,39.062500
7048,39.062500
7049,39.062500
7050,42.968750
7051,42.968750
7052,42.968750
7053,42.968750
7054,46.875000
7055,46.875000
7056,46.875000
7057,46.875000
7058,50.781250
7059,50.781250
7060,50.781250
7061,50.781250
7062,50.781250
7063,54.687500
7064,54.687500
7065,54.687500
7066,54.687500
7067,54.687500
7068,58.593750
7069,58.593750
7070,58.593750
7071,58.593750
7072,62.500000
7073,62.500000
7074,62.500000
7075,62.500000
7076,62.500000
7077,62.500000
7078,66.406250
7079,66.406250
7080,66.406250
7081,66.406250
7082,66.406250
7083,70.312500
7084,70.312500
7085,70.312500
7086,70.312500
7087,70.312500
7088,74.218750
7089,74.218750
7090,74.218750
7091,74.218750
7092,74.218750
7093,74.218750
7094,78.125000
7095,78.125000
7096,78.125000
7097,78.125000
7098,78.125000
7099,82.031250
7100,82.031250
7101,82.031250
7102,82.031250
7103,82.031250
7104,82.031250
7105,85.937500
7106,85.937500
7107,85.937500
7108,85.937500
7109,85.937500
7110,85.937500
7111,89.843750
7112,89.843750
7113,89.843750
7114,89.843750
7115,89.843750
7116,89.843750
7117,89.843750
7118,93.750000
7119,93.750000
7120,93.750000
7121,93.750000
7122,93.750000
7123,97.656250
7124,97.656250
7125,97.656250
7126,97.656250
7127,97.656250
7128,97.656250
7129,97.656250
7130,101.562500
7131,101.562500
7132,101.562500
7133,101.562500
7134,101.562500
7135,101.562500
7136,101.562500
7137,101.562500
7138,105.468750
7139,105.468750
7140,105.468750
7141,105.468750
7142,105.468750
7143,105.468750
7144,105.468750
7145,109.375000
7146,109.375000
7147,109.375000
7148,109.375000
7149,109.375000
7150,109.375000
7151,109.375000
7152,109.375000
7153,109.375000
7154,113.281250
7155,113.281250
7156,113.281250
7157,113.281250
7158,113.281250
7159,113.281250
7160,113.281250
7161,113.281250
7162,113.281250
7163,117.187500
7164,117.187500
7165,117.187500
7166,117.187500
7167,117.187500
7168,117.187500
7169,117.187500
7170,117.187500
7171,117.187500
7172,121.093750
7173,117.187500
7174,121.093750
7175,121.093750
7176,121.093750
7177,121.093750
7178,121.093750
7179,121.093750
7180,121.093750
7181,121.093750
7182,121.093750
7183,121.093750
7184,121.093750
7185,121.093750
7186,125.000000
7187,125.000000
7188,125.000000
7189,125.000000
7190,125.000000
7191,125.000000
7192,125.000000
7193,125.000000
7194,125.000000
7195,125.000000
7196,125.000000
7197,125.000000
7198,125.000000
7199,128.906250
7200,128.906250
7201,128.906250
7202,128.906250
7203,128.906250
7204,128.906250
7205,128.906250
7206,128.906250
7207,128.906250
7208,128.906250
7209,128.906250
7210,128.906250
7211,128.906250
7212,128.906250
7213,128.906250
7214,128.906250
7215,128.906250
7216,128.906250
7217,128.906250
7218,128.906250
7219,128.906250
7220,128.906250
7221,128.906250
7222,132.812500
7223,132.812500
7224,132.812500
7225,128.906250
7226,132.812500
7227,132.812500
7228,132.812500
7229,132.812500
7230,132.812500
7231,132.812500
7232,132.812500
7233,132.812500
7234,132.812500
7235,132.812500
7236,132.812500
7237,132.812500
7238,132.812500
7239,132.812500
7240,132.812500
7241,132.812500
7242,132.812500
7243,132.812500
7244,132.812500
7245,132.812500
7246,132.812500
7247,132.812500
7248,132.812500
7249,132.812500
7250,132.812500
7251,132.812500
7252,132.812500
7253,132.812500
7254,132.812500
7255,132.812500
7256,132.812500
7257,132.812500
7258,132.812500
7259,132.812500
7260,132.812500
7261,132.812500
7262,132.812500
7263,132.812500
7264,132.812500
7265,132.812500
7266,132.812500
7267,132.812500
7268,132.812500
7269,132.812500
7270,132.812500
7271,132.812500
7272,132.812500
7273,132.812500
7274,132.812500
7275,132.812500
7276,132.812500
7277,132.812500
7278,132.812500
7279,128.906250
7280,128.906250
7281,128.906250
7282,128.906250
7283,132.812500
7284,128.906250
7285,128.906250
7286,128.906250
7287,128.906250
7288,128.906250
7289,128.906250
7290,128.906250
7291,128.906250
7292,128.906250
7293,128.906250
7294,128.906250
7295,128.906250
7296,128.906250
7297,128.906250
7298,128.906250
7299,125.000000
7300,128.906250
7301,125.000000
7302,125.000000
7303,125.000000
7304,125.000000
7305,125.000000
7306,125.000000
7307,125.000000
7308,125.000000
7309,125.000000
7310,125.000000
7311,125.000000
7312,125.000000
7313,125.000000
7314,121.093750
7315,121.093750
7316,121.093750
7317,121.093750
7318,121.093750
7319,121.093750
7320,121.093750
7321,121.093750
7322,121.093750
7323,121.093750
7324,117.187500
7325,117.187500
7326,121.093750
7327,117.187500
7328,117.187500
7329,121.093750
7330,117.187500
7331,117.187500
7332,117.187500
7333,117.187500
7334,117.187500
7335,113.281250
7336,117.187500
7337,113.281250
7338,113.281250
7339,113.281250
7340,113.281250
7341,113.281250
7342,113.281250
7343,113.281250
7344,113.281250
7345,109.375000
7346,109.375000
7347,109.375000
7348,109.375000
7349,109.375000
7350,109.375000
7351,109.375000
7352,109.375000
7353,105.468750
7354,105.468750
7355,105.468750
7356,105.468750
7357,105.468750
7358,105.468750
7359,105.468750
7360,101.562500
7361,101.562500
7362,101.562500
7363,101.562500
7364,101.562500
7365,101.562500
7366,101.562500
7367,101.562500
7368,97.656250
7369,97.656250
7370,97.656250
7371,97.656250
7372,97.656250
7373,97.656250
7374,97.656250
7375,97.656250
7376,93.750000
7377,93.750000
7378,93.750000
7379,93.750000
7380,93.750000
7381,89.843750
7382,89.843750
7383,89.843750
7384,89.843750
7385,89.843750
7386,89.843750
7387,89.843750
7388,85.937500
7389,89.843750
7390,85.937500
7391,85.937500
7392,85.937500
7393,85.937500
7394,82.031250
7395,82.031250
7396,82.031250
7397,82.031250
7398,85.937500
7399,82.031250
7400,82.031250
7401,78.125000
7402,78.125000
7403,74.218750
7404,78.125000
7405,78.125000
7406,74.218750
7407,74.218750
7408,74.218750
7409,74.218750
7410,74.218750
7411,74.218750
7412,70.312500
7413,70.312500
7414,70.312500
7415,66.406250
7416,66.406250
7417,66.406250
7418,66.406250
7419,66.406250
7420,66.406250
7421,62.500000
7422,62.500000
7423,62.500000
7424,62.500000
7425,62.500000
7426,62.500000
7427,62.500000
7428,58.593750
7429,58.593750
7430,58.593750
7431,54.687500
7432,54.687500
7433,54.687500
7434,54.687500
7435,54.687500
7436,50.781250
7437,50.781250
7438,50.781250
7439,50.781250
7440,46.875000
7441,46.875000
7442,46.875000
7443,46.875000
7444,46.875000
7445,42.968750
7446,42.968750
7447,42.968750
7448,42.968750
7449,39.062500
7450,39.062500
7451,39.062500
7452,39.062500
7453,35.156250
7454,35.156250
7455,35.156250
7456,35.156250
7457,31.250000
7458,31.250000
7459,31.250000
7460,31.250000
7461,31.250000
7462,31.250000
7463,27.343750
7464,27.343750
7465,27.343750
7466,23.437500
7467,23.437500
7468,23.437500
7469,19.531250
7470,23.437500
7471,19.531250
7472,19.531250
7473,19.531250
7474,15.625000
7475,15.625000
7476,15.625000
7477,15.625000
7478,15.625000
7479,15.625000
7480,11.718750
7481,11.718750
7482,11.718750
7483,7.812500
7484,7.812500
7485,7.812500
7486,7.812500
7487,3.906250
7488,3.906250
7489,3.906250
7490,3.906250
7491,0.000000
7492,0.000000
7493,0.000000
7494,-3.906250
7495,-3.906250
7496,-3.906250
7497,-3.906250
7498,-3.906250
7499,-7.812500
7500,-7.812500
7501,-7.812500
7502,-7.812500
7503,-7.812500
7504,-11.718750
7505,-11.718750
7506,-15.625000
7507,-15.625000
7508,-15.625000
7509,-15.625000
7510,-15.625000
7511,-19.531250
7512,-19.531250
7513,-19.531250
7514,-19.531250
7515,-23.437500
7516,-23.437500
7517,-23.437500
7518,-23.437500
7519,-27.343750
7520,-27.343750
7521,-27.343750
7522,-27.343750
7523,-31.250000
7524,-31.250000
7525,-31.250000
7526,-31.250000
7527,-35.156250
7528,-35.156250
7529,-35.156250
7530,-35.156250
7531,-39.062500
7532,-39.062500
7533,-39.062500
7534,-39.062500
7535,-42.968750
7536,-42.968750
7537,-42.968750
7538,-42.968750
7539,-46.875000
7540,-46.875000
7541,-46.875000
7542,-46.875000
7543,-50.781250
7544,-50.781250
7545,-50.781250
7546,-50.781250
7547,-54.687500
7548,-54.687500
7549,-54.687500
7550,-54.687500
7551,-58.593750
7552,-58.593750
7553,-58.593750
7554,-58.593750
7555,-62.500000
7556,-62.500000
7557,-62.500000
7558,-62.500000
7559,-66.406250
7560,-62.500000
7561,-66.406250
7562,-66.406250
7563,-70.312500
7564,-70.312500
7565,-70.312500
7566,-70.312500
7567,-74.218750
7568,-74.218750
7569,-74.218750
7570,-74.218750
7571,-74.218750
7572,-78.125000
7573,-78.125000
7574,-78.125000
7575,-78.125000
7576,-82.031250
7577,-82.031250
7578,-82.031250
7579,-82.031250
7580,-85.937500
7581,-85.937500
7582,-85.937500
7583,-85.937500
7584,-89.843750
7585,-89.843750
7586,-89.843750
7587,-89.843750
7588,-89.843750
7589,-93.750000
7590,-93.750000
7591,-93.750000
7592,-93.750000
7593,-97.656250
7594,-97.656250
7595,-97.656250
7596,-97.656250
7597,-101.562500
7598,-101.562500
7599,-101.562500
7600,-101.562500
7601,-101.562500
7602,-105.468750
7603,-105.468750
7604,-105.468750
7605,-105.468750
7606,-105.468750
7607,-109.375000
7608,-109.375000
7609,-109.375000
7610,-109.375000
7611,-113.281250
7612,-113.281250
7613,-113.281250
7614,-113.281250
7615,-113.281250
7616,-113.281250
7617,-117.187500
7618,-117.187500
7619,-117.187500
7620,-117.187500
7621,-117.187500
7622,-121.093750
7623,-121.093750
7624,-121.093750
7625,-121.093750
7626,-125.000000
7627,-125.000000
7628,-125.000000
7629,-125.000000
7630,-125.000000
7631,-125.000000
7632,-125.000000
7633,-128.906250
7634,-128.906250
7635,-128.906250
7636,-128.906250
7637,-128.906250
7638,-132.812500
7639,-132.812500
7640,-132.812500
7641,-132.812500
7642,-132.812500
7643,-132.812500
7644,-132.812500
7645,-136.718750
7646,-136.718750
7647,-136.718750
7648,-136.718750
7649,-136.718750
7650,-136.718750
7651,-140.625000
7652,-140.625000
7653,-140.625000
7654,-140.625000
7655,-140.625000
7656,-140.625000
7657,-144.531250
7658,-144.531250
7659,-144.531250
7660,-144.531250
7661,-144.531250
7662,-144.531250
7663,-144.531250
7664,-144.531250
7665,-148.437500
7666,-148.437500
7667,-148.437500
7668,-148.437500
7669,-148.437500
7670,-148.437500
7671,-148.437500
7672,-152.343750
7673,-152.343750
7674,-152.343750
7675,-152.343750
7676,-152.343750
7677,-152.343750
7678,-152.343750
7679,-152.343750
7680,-152.343750
7681,-156.250000
7682,-156.250000
7683,-156.250000
7684,-156.250000
7685,-156.250000
7686,-156.250000
7687,-156.250000
7688,-156.250000
7689,-156.250000
7690,-160.156250
7691,-160.156250
7692,-160.156250
7693,-160.156250
7694,-160.156250
7695,-160.156250
7696,-160.156250
7697,-160.156250
7698,-160.156250
7699,-160.156250
7700,-160.156250
7701,-160.156250
7702,-164.062500
7703,-164.062500
7704,-164.062500
7705,-164.062500
7706,-164.062500
7707,-164.062500
7708,-164.062500
7709,-164.062500
7710,-164.062500
7711,-164.062500
7712,-164.062500
7713,-164.062500
7714,-164.062500
7715,-164.062500
7716,-164.062500
7717,-164.062500
7718,-167.968750
7719,-164.062500
7720,-167.968750
7721,-167.968750
7722,-167.968750
7723,-167.968750
7724,-167.968750
7725,-164.062500
7726,-167.968750
7727,-167.968750
7728,-167.968750
7729,-167.968750
7730,-167.968750
7731,-167.968750
7732,-167.968750
7733,-167.968750
7734,-167.968750
7735,-167.968750
7736,-167.968750
7737,-167.968750
7738,-167.968750
7739,-167.968750
7740,-167.968750
7741,-167.968750
7742,-167.968750
7743,-167.968750
7744,-167.968750
7745,-167.968750
7746,-167.968750
7747,-167.968750
7748,-167.968750
7749,-167.968750
7750,-167.968750
7751,-167.968750
7752,-167.968750
7753,-167.968750
7754,-167.968750
7755,-167.968750
7756,-167.968750
7757,-167.968750
7758,-167.968750
7759,-167.968750
7760,-167.968750
7761,-167.968750
7762,-167.968750
7763,-167.968750
7764,-167.968750
7765,-167.968750
7766,-167.968750
7767,-167.968750
7768,-167.968750
7769,-167.968750
7770,-167.968750
7771,-164.062500
7772,-164.062500
7773,-164.062500
7774,-164.062500
7775,-164.062500
7776,-164.062500
7777,-164.062500
7778,-164.062500
7779,-164.062500
7780,-164.062500
7781,-164.062500
7782,-164.062500
7783,-160.156250
7784,-164.062500
7785,-164.062500
7786,-160.156250
7787,-160.156250
7788,-160.156250
7789,-164.062500
7790,-160.156250
7791,-160.156250
7792,-160.156250
7793,-160.156250
7794,-160.156250
7795,-160.156250
7796,-160.156250
7797,-156.250000
7798,-156.250000
7799,-160.156250
7800,-156.250000
7801,-156.250000
7802,-156.250000
7803,-156.250000
7804,-156.250000
7805,-156.250000
7806,-156.250000
7807,-152.343750
7808,-152.343750
7809,-152.343750
7810,-152.343750
7811,-152.343750
7812,-152.343750
7813,-152.343750
7814,-152.343750
7815,-148.437500
7816,-148.437500
7817,-148.437500
7818,-148.437500
7819,-148.437500
7820,-148.437500
7821,-148.437500
7822,-148.437500
7823,-148.437500
7824,-144.531250
7825,-144.531250
7826,-144.531250
7827,-144.531250
7828,-144.531250
7829,-144.531250
7830,-140.625000
7831,-140.625000
7832,-140.625000
7833,-140.625000
7834,-140.625000
7835,-140.625000
7836,-140.625000
7837,-140.625000
7838,-136.718750
7839,-136.718750
7840,-136.718750
7841,-136.718750
7842,-136.718750
7843,-132.812500
7844,-132.812500
7845,-132.812500
7846,-132.812500
7847,-132.812500
7848,-132.812500
7849,-132.812500
7850,-128.906250
7851,-128.906250
7852,-128.906250
7853,-128.906250
7854,-125.000000
7855,-128.906250
7856,-125.000000
7857,-125.000000
7858,-125.000000
7859,-125.000000
7860,-125.000000
7861,-121.093750
7862,-121.093750
7863,-121.093750
7864,-121.093750
7865,-121.093750
7866,-117.187500
7867,-117.187500
7868,-117.187500
7869,-117.187500
7870,-117.187500
7871,-117.187500
7872,-113.281250
7873,-113.281250
7874,-113.281250
7875,-109.375000
7876,-113.281250
7877,-109.375000
7878,-109.375000
7879,-109.375000
7880,-109.375000
7881,-105.468750
7882,-105.468750
7883,-105.468750
7884,-105.468750
7885,-101.562500
7886,-101.562500
7887,-101.562500
7888,-101.562500
7889,-101.562500
7890,-101.562500
7891,-97.656250
7892,-97.656250
7893,-97.656250
7894,-93.750000
7895,-93.750000
7896,-93.750000
7897,-93.750000
7898,-89.843750
7899,-89.843750
7900,-89.843750
7901,-89.843750
7902,-89.843750
7903,-89.843750
7904,-85.937500
7905,-85.937500
7906,-85.937500
7907,-85.937500
7908,-82.031250
7909,-82.031250
7910,-82.031250
7911,-82.031250
7912,-78.125000
7913,-78.125000
7914,-78.125000
7915,-78.125000
7916,-74.218750
7917,-74.218750
7918,-74.218750
7919,-74.218750
7920,-74.218750
7921,-70.312500
7922,-70.312500
7923,-70.312500
7924,-66.406250
7925,-66.406250
7926,-66.406250
7927,-66.406250
7928,-62.500000
7929,-62.500000
7930,-62.500000
7931,-62.500000
7932,-62.500000
7933,-58.593750
7934,-58.593750
7935,-58.593750
7936,-54.687500
7937,-54.687500
7938,-54.687500
7939,-54.687500
7940,-54.687500
7941,-50.781250
7942,-50.781250
7943,-50.781250
7944,-50.781250
7945,-46.875000
7946,-46.875000
7947,-46.875000
7948,-46.875000
7949,-42.968750
7950,-42.968750
7951,-42.968750
7952,-39.062500
7953,-39.062500
7954,-39.062500
7955,-39.062500
7956,-39.062500
7957,-35.156250
7958,-35.156250
7959,-35.156250
7960,-35.156250
7961,-31.250000
7962,-31.250000
7963,-31.250000
7964,-27.343750
7965,-27.343750
7966,-27.343750
7967,-27.343750
7968,-27.343750
7969,-23.437500
7970,-23.437500
7971,-23.437500
7972,-23.437500
7973,-19.531250
7974,-19.531250
7975,-19.531250
7976,-15.625000
7977,-15.625000
7978,-15.625000
7979,-15.625000
7980,-15.625000
7981,-11.718750
7982,-11.718750
7983,-11.718750
7984,-11.718750
7985,-7.812500
7986,-7.812500
7987,-7.812500
7988,-7.812500
7989,-3.906250
7990,-3.906250
7991,-3.906250
7992,0.000000
7993,0.000000
7994,0.000000
7995,0.000000
7996,3.906250
7997,3.906250
7998,3.906250
7999,3.906250
8000,3.906250
8001,7.812500
8002,7.812500
8003,7.812500
8004,11.718750
8005,11.718750
8006,11.718750
8007,11.718750
8008,11.718750
8009,15.625000
8010,15.625000
8011,15.625000
8012,15.625000
8013,15.625000
8014,19.531250
8015,19.531250
8016,23.437500
8017,23.437500
8018,23.437500
8019,23.437500
8020,23.437500
8021,27.343750
8022,27.343750
8023,27.343750
8024,27.343750
8025,27.343750
8026,31.250000
8027,31.250000
8028,31.250000
8029,31.250000
8030,35.156250
8031,35.156250
8032,35.156250
8033,35.156250
8034,39.062500
8035,39.062500
8036,39.062500
8037,39.062500
8038,39.062500
8039,42.968750
8040,42.968750
8041,42.968750
8042,42.968750
8043,42.968750
8044,46.875000
8045,46.875000
8046,46.875000
8047,46.875000
8048,50.781250
8049,50.781250
8050,50.781250
8051,50.781250
8052,54.687500
8053,54.687500
8054,54.687500
8055,54.687500
8056,54.687500
8057,54.687500
8058,58.593750
8059,58.593750
8060,58.593750
8061,58.593750
8062,62.500000
8063,62.500000
8064,62.500000
8065,62.500000
8066,62.500000
8067,66.406250
8068,66.406250
8069,66.406250
8070,66.406250
8071,66.406250
8072,66.406250
8073,70.312500
8074,70.312500
8075,70.312500
8076,70.312500
8077,74.218750
8078,74.218750
8079,74.218750
8080,74.218750
8081,74.218750
8082,74.218750
8083,78.125000
8084,78.125000
8085,78.125000
8086,78.125000
8087,78.125000
8088,78.125000
8089,82.031250
8090,82.031250
8091,82.031250
8092,82.031250
8093,82.031250
8094,85.937500
8095,85.937500
8096,85.937500
8097,85.937500
8098,85.937500
8099,85.937500
8100,89.843750
8101,89.843750
8102,89.843750
8103,89.843750
8104,89.843750
8105,89.843750
8106,89.843750
8107,93.750000
8108,93.750000
8109,93.750000
8110,93.750000
8111,93.750000
8112,93.750000
8113,97.656250
8114,97.656250
8115,97.656250
8116,97.656250
8117,97.656250
8118,97.656250
8119,97.656250
8120,101.562500
8121,101.562500
8122,101.562500
8123,101.562500
8124,101.562500
8125,101.562500
8126,105.468750
8127,105.468750
8128,105.468750
8129,105.468750
8130,105.468750
8131,105.468750
8132,105.468750
8133,105.468750
8134,105.468750
8135,109.375000
8136,109.375000
8137,109.375000
8138,109.375000
8139,109.375000
8140,109.375000
8141,109.375000
8142,109.375000
8143,113.281250
8144,113.281250
8145,113.281250
8146,113.281250
8147,113.281250
8148,117.187500
8149,113.281250
8150,113.281250
8151,113.281250
8152,113.281250
8153,113.281250
8154,117.187500
8155,117.187500
8156,117.187500
8157,117.187500
8158,117.187500
8159,117.187500
8160,117.187500
8161,117.187500
8162,117.187500
8163,117.187500
8164,121.093750
8165,121.093750
8166,121.093750
8167,121.093750
8168,121.093750
8169,121.093750
8170,121.093750
8171,121.093750
8172,121.093750
8173,121.093750
8174,121.093750
8175,125.000000
8176,125.000000
8177,125.000000
8178,125.000000
8179,125.000000
8180,125.000000
8181,125.000000
8182,125.000000
8183,125.000000
8184,125.000000
8185,125.000000
8186,125.000000
8187,125.000000
8188,128.906250
8189,128.906250
8190,128.906250
8191,128.906250
8192,128.906250
8193,128.906250
8194,128.906250
8195,128.906250
8196,128.906250
8197,128.906250
8198,128.906250
8199,128.906250
8200,128.906250
8201,128.906250
8202,128.906250
8203,128.906250
8204,128.906250
8205,128.906250
8206,128.906250
8207,128.906250
8208,128.906250
8209,128.906250
8210,132.812500
8211,132.812500
8212,132.812500
8213,128.906250
8214,132.812500
8215,128.906250
8216,132.812500
8217,128.906250
8218,132.812500
8219,132.812500
8220,132.812500
8221,132.812500
8222,132.812500
8223,132.812500
8224,132.812500
8225,132.812500
8226,132.812500
8227,132.812500
8228,132.812500
8229,132.812500
8230,132.812500
8231,132.812500
8232,132.812500
8233,132.812500
8234,132.812500
8235,132.812500
8236,132.812500
8237,132.812500
8238,132.812500
8239,132.812500
8240,132.812500
8241,132.812500
8242,132.812500
8243,132.812500
8244,132.812500
8245,132.812500
8246,132.812500
8247,132.812500
8248,132.812500
8249,132.812500
8250,132.812500
8251,132.812500
8252,132.812500
8253,132.812500
8254,132.812500
8255,132.812500
8256,132.812500
8257,132.812500
8258,132.812500
8259,128.906250
8260,132.812500
8261,128.906250
8262,132.812500
8263,132.812500
8264,132.812500
8265,128.906250
8266,128.906250
8267,128.906250
8268,128.906250
8269,128.906250
8270,128.906250
8271,128.906250
8272,128.906250
8273,128.906250
8274,128.906250
8275,128.906250
8276,128.906250
8277,128.906250
8278,128.906250
8279,128.906250
8280,128.906250
8281,128.906250
8282,128.906250
8283,128.906250
8284,128.906250
8285,128.906250
8286,128.906250
8287,128.906250
8288,128.906250
8289,125.000000
8290,125.000000
8291,125.000000
8292,125.000000
8293,125.000000
8294,125.000000
8295,125.000000
8296,125.000000
8297,125.000000
8298,125.000000
8299,125.000000
8300,125.000000
8301,125.000000
8302,121.093750
8303,125.000000
8304,125.000000
8305,121.093750
8306,121.093750
8307,121.093750
8308,121.093750
8309,121.093750
8310,121.093750
8311,121.093750
8312,121.093750
8313,121.093750
8314,121.093750
8315,121.093750
8316,121.093750
8317,117.187500
8318,117.187500
8319,117.187500
8320,117.187500
8321,117.187500
8322,117.187500
8323,117.187500
8324,117.187500
8325,117.187500
8326,113.281250
8327,113.281250
8328,113.281250
8329,113.281250
8330,113.281250
8331,113.281250
8332,113.281250
8333,113.281250
8334,109.375000
8335,109.375000
8336,109.375000
8337,109.375000
8338,109.375000
8339,109.375000
8340,109.375000
8341,109.375000
8342,109.375000
8343,105.468750
8344,105.468750
8345,105.468750
8346,105.468750
8347,105.468750
8348,105.468750
8349,105.468750
8350,105.468750
8351,101.562500
8352,101.562500
8353,101.562500
8354,101.562500
8355,101.562500
8356,101.562500
8357,101.562500
8358,97.656250
8359,97.656250
8360,97.656250
8361,97.656250
8362,97.656250
8363,97.656250
8364,97.656250
8365,93.750000
8366,93.750000
8367,93.750000
8368,93.750000
8369,93.750000
8370,93.750000
8371,89.843750
8372,93.750000
8373,89.843750
8374,89.843750
8375,89.843750
8376,89.843750
8377,85.937500
8378,85.937500
8379,85.937500
8380,85.937500
8381,85.937500
8382,85.937500
8383,85.937500
8384,82.031250
8385,82.031250
8386,82.031250
8387,82.031250
8388,78.125000
8389,78.125000
8390,78.125000
8391,78.125000
8392,78.125000
8393,78.125000
8394,78.125000
8395,78.125000
8396,74.218750
8397,74.218750
8398,74.218750
8399,70.312500
8400,70.312500
8401,70.312500
8402,70.312500
8403,70.312500
8404,66.406250
8405,66.406250
8406,66.406250
8407,66.406250
8408,66.406250
8409,66.406250
8410,62.500000
8411,62.500000
8412,62.500000
8413,62.500000
8414,62.500000
8415,58.593750
8416,58.593750
8417,58.593750
8418,58.593750
8419,58.593750
8420,58.593750
8421,54.687500
8422,54.687500
8423,54.687500
8424,54.687500
8425,50.781250
8426,50.781250
8427,50.781250
8428,50.781250
8429,50.781250
8430,46.875000
8431,46.875000
8432,46.875000
8433,46.875000
8434,46.875000
8435,42.968750
8436,42.968750
8437,42.968750
8438,39.062500
8439,39.062500
8440,39.062500
8441,39.062500
8442,39.062500
8443,35.156250
8444,35.156250
8445,35.156250
8446,35.156250
8447,35.156250
8448,31.250000
8449,31.250000
8450,31.250000
8451,31.250000
8452,27.343750
8453,27.343750
8454,27.343750
8455,27.343750
8456,23.437500
8457,23.437500
8458,23.437500
8459,23.437500
8460,23.437500
8461,19.531250
8462,19.531250
8463,19.531250
8464,19.531250
8465,15.625000
8466,15.625000
8467,15.625000
8468,15.625000
8469,11.718750
8470,11.718750
8471,11.718750
8472,11.718750
8473,7.812500
8474,7.812500
8475,7.812500
8476,3.906250
8477,3.906250
8478,3.906250
8479,3.906250
8480,3.906250
8481,0.000000
8482,0.000000
8483,0.000000
8484,0.000000
8485,0.000000
8486,-3.906250
8487,-3.906250
8488,-3.906250
8489,-3.906250
8490,-7.812500
8491,-7.812500
8492,-7.812500
8493,-11.718750
8494,-11.718750
8495,-11.718750
8496,-11.718750
8497,-11.718750
8498,-15.625000
8499,-15.625000
8500,-15.625000
8501,-19.531250
8502,-19.531250
8503,-19.531250
8504,-19.531250
8505,-23.437500
8506,-23.437500
8507,-23.437500
8508,-23.437500
8509,-27.343750
8510,-27.343750
8511,-27.343750
8512,-27.343750
8513,-31.250000
8514,-31.250000
8515,-31.250000
8516,-35.156250
8517,-35.156250
8518,-35.156250
8519,-35.156250
8520,-35.156250
8521,-39.062500
8522,-39.062500
8523,-39.062500
8524,-39.062500
8525,-42.968750
8526,-42.968750
8527,-42.968750
8528,-42.968750
8529,-46.875000
8530,-46.875000
8531,-50.781250
8532,-50.781250
8533,-50.781250
8534,-50.781250
8535,-50.781250
8536,-50.781250
8537,-54.687500
8538,-54.687500
8539,-54.687500
8540,-54.687500
8541,-58.593750
8542,-58.593750
8543,-58.593750
8544,-62.500000
8545,-62.500000
8546,-62.500000
8547,-62.500000
8548,-62.500000
8549,-66.406250
8550,-66.406250
8551,-66.406250
8552,-66.406250
8553,-70.312500
8554,-70.312500
8555,-70.312500
8556,-70.312500
8557,-74.218750
8558,-74.218750
8559,-74.218750
8560,-74.218750
8561,-74.218750
8562,-78.125000
8563,-78.125000
8564,-78.125000
8565,-78.125000
8566,-82.031250
8567,-82.031250
8568,-82.031250
8569,-82.031250
8570,-82.031250
8571,-85.937500
8572,-85.937500
8573,-85.937500
8574,-89.843750
8575,-89.843750
8576,-89.843750
8577,-89.843750
8578,-89.843750
8579,-93.750000
8580,-93.750000
8581,-93.750000
8582,-93.750000
8583,-97.656250
8584,-97.656250
8585,-97.656250
8586,-97.656250
8587,-101.562500
8588,-101.562500
8589,-101.562500
8590,-101.562500
8591,-101.562500
8592,-101.562500
8593,-105.468750
8594,-105.468750
8595,-105.468750
8596,-105.468750
8597,-109.375000
8598,-109.375000
8599,-109.375000
8600,-109.375000
8601,-113.281250
8602,-113.281250
8603,-113.281250
8604,-113.281250
8605,-113.281250
8606,-113.281250
8607,-117.187500
8608,-117.187500
8609,-117.187500
8610,-117.187500
8611,-117.187500
8612,-121.093750
8613,-121.093750
8614,-121.093750
8615,-121.093750
8616,-121.093750
8617,-125.000000
8618,-125.000000
8619,-125.000000
8620,-125.000000
8621,-125.000000
8622,-128.906250
8623,-128.906250
8624,-128.906250
8625,-128.906250
8626,-128.906250
8627,-132.812500
8628,-132.812500
8629,-132.812500
8630,-132.812500
8631,-132.812500
8632,-132.812500
8633,-136.718750
8634,-132.812500
8635,-136.718750
8636,-136.718750
8637,-136.718750
8638,-136.718750
8639,-140.625000
8640,-140.625000
8641,-140.625000
8642,-140.625000
8643,-140.625000
8644,-140.625000
8645,-140.625000
8646,-140.625000
8647,-144.531250
8648,-144.531250
8649,-144.531250
8650,-144.531250
8651,-144.531250
8652,-144.531250
8653,-148.437500
8654,-148.437500
8655,-148.437500
8656,-148.437500
8657,-148.437500
8658,-148.437500
8659,-148.437500
8660,-148.437500
8661,-152.343750
8662,-152.343750
8663,-152.343750
8664,-152.343750
8665,-152.343750
8666,-152.343750
8667,-152.343750
8668,-152.343750
8669,-152.343750
8670,-156.250000
8671,-156.250000
8672,-156.250000
8673,-156.250000
8674,-156.250000
8675,-156.250000
8676,-156.250000
8677,-156.250000
8678,-160.156250
8679,-160.156250
8680,-160.156250
8681,-160.156250
8682,-160.156250
8683,-160.156250
8684,-160.156250
8685,-160.156250
8686,-160.156250
8687,-160.156250
8688,-160.156250
8689,-160.156250
8690,-160.156250
8691,-164.062500
8692,-164.062500
8693,-164.062500
8694,-164.062500
8695,-164.062500
8696,-164.062500
8697,-164.062500
8698,-164.062500
8699,-164.062500
8700,-164.062500
8701,-164.062500
8702,-164.062500
8703,-164.062500
8704,-164.062500
8705,-164.062500
8706,-164.062500
8707,-164.062500
8708,-164.062500
8709,-167.968750
8710,-167.968750
8711,-167.968750
8712,-167.968750
8713,-167.968750
8714,-167.968750
8715,-167.968750
8716,-167.968750
8717,-167.968750
8718,-167.968750
8719,-167.968750
8720,-167.968750
8721,-167.968750
8722,-167.968750
8723,-167.968750
8724,-167.968750
8725,-167.968750
8726,-167.968750
8727,-167.968750
8728,-167.968750
8729,-167.968750
8730,-167.968750
8731,-167.968750
8732,-167.968750
8733,-167.968750
8734,-167.968750
8735,-167.968750
8736,-167.968750
8737,-167.968750
8738,-167.968750
8739,-167.968750
8740,-167.968750
8741,-167.968750
8742,-167.968750
8743,-167.968750
8744,-167.968750
8745,-167.968750
8746,-167.968750
8747,-167.968750
8748,-167.968750
8749,-167.968750
8750,-167.968750
8751,-167.968750
8752,-167.968750
8753,-167.968750
8754,-167.968750
8755,-167.968750
8756,-167.968750
8757,-167.968750
8758,-167.968750
8759,-167.968750
8760,-167.968750
8761,-167.968750
8762,-164.062500
8763,-164.062500
8764,-164.062500
8765,-164.062500
8766,-164.062500
8767,-164.062500
8768,-164.062500
8769,-164.062500
8770,-164.062500
8771,-164.062500
8772,-164.062500
8773,-164.062500
8774,-164.062500
8775,-164.062500
8776,-164.062500
8777,-164.062500
8778,-164.062500
8779,-160.156250
8780,-160.156250
8781,-160.156250
8782,-160.156250
8783,-160.156250
8784,-160.156250
8785,-160.156250
8786,-160.156250
8787,-160.156250
8788,-156.250000
8789,-160.156250
8790,-156.250000
8791,-156.250000
8792,-156.250000
8793,-156.250000
8794,-156.250000
8795,-156.250000
8796,-156.250000
8797,-156.250000
8798,-152.343750
8799,-152.343750
8800,-152.343750
8801,-152.343750
8802,-152.343750
8803,-152.343750
8804,-152.343750
8805,-152.343750
8806,-152.343750
8807,-148.437500
8808,-148.437500
8809,-148.437500
8810,-148.437500
8811,-148.437500
8812,-148.437500
8813,-148.437500
8814,-144.531250
8815,-144.531250
8816,-144.531250
8817,-144.531250
8818,-144.531250
8819,-144.531250
8820,-144.531250
8821,-144.531250
8822,-140.625000
8823,-140.625000
8824,-140.625000
8825,-140.625000
8826,-140.625000
8827,-140.625000
8828,-136.718750
8829,-136.718750
8830,-136.718750
8831,-136.718750
8832,-136.718750
8833,-136.718750
8834,-132.812500
8835,-132.812500
8836,-132.812500
8837,-132.812500
8838,-132.812500
8839,-132.812500
8840,-128.906250
8841,-128.906250
8842,-128.906250
8843,-128.906250
8844,-128.906250
8845,-125.000000
8846,-125.000000
8847,-125.000000
8848,-125.000000
8849,-125.000000
8850,-125.000000
8851,-125.000000
8852,-121.093750
8853,-121.093750
8854,-121.093750
8855,-121.093750
8856,-117.187500
8857,-117.187500
8858,-117.187500
8859,-117.187500
8860,-113.281250
8861,-113.281250
8862,-113.281250
8863,-113.281250
8864,-113.281250
8865,-109.375000
8866,-109.375000
8867,-109.375000
8868,-109.375000
8869,-109.375000
8870,-109.375000
8871,-105.468750
8872,-105.468750
8873,-105.468750
8874,-105.468750
8875,-105.468750
8876,-101.562500
8877,-101.562500
8878,-97.656250
8879,-101.562500
8880,-97.656250
8881,-97.656250
8882,-97.656250
8883,-97.656250
8884,-97.656250
8885,-93.750000
8886,-93.750000
8887,-93.750000
8888,-93.750000
8889,-89.843750
8890,-89.843750
8891,-89.843750
8892,-89.843750
8893,-89.843750
8894,-85.937500
8895,-85.937500
8896,-85.937500
8897,-82.031250
8898,-82.031250
8899,-82.031250
8900,-82.031250
8901,-82.031250
8902,-82.031250
8903,-78.125000
8904,-78.125000
8905,-78.125000
8906,-78.125000
8907,-74.218750
8908,-74.218750
8909,-74.218750
8910,-70.312500
8911,-70.312500
8912,-70.312500
8913,-70.312500
8914,-70.312500
8915,-66.406250
8916,-66.406250
8917,-66.406250
8918,-62.500000
8919,-62.500000
8920,-62.500000
8921,-62.500000
8922,-62.500000
8923,-58.593750
8924,-58.593750
8925,-58.593750
8926,-58.593750
8927,-54.687500
8928,-54.687500
8929,-54.687500
8930,-50.781250
8931,-50.781250
8932,-50.781250
8933,-50.781250
8934,-50.781250
8935,-50.781250
8936,-46.875000
8937,-46.875000
8938,-42.968750
8939,-42.968750
8940,-42.968750
8941,-42.968750
8942,-39.062500
8943,-39.062500
8944,-39.062500
8945,-39.062500
8946,-39.062500
8947,-35.156250
8948,-35.156250
8949,-35.156250
8950,-31.250000
8951,-31.250000
8952,-31.250000
8953,-31.250000
8954,-27.343750
8955,-31.250000
8956,-27.343750
8957,-27.343750
8958,-27.343750
8959,-23.437500
8960,-23.437500
8961,-23.437500
8962,-19.531250
8963,-19.531250
8964,-19.531250
8965,-15.625000
8966,-15.625000
8967,-15.625000
8968,-15.625000
8969,-15.625000
8970,-11.718750
8971,-11.718750
8972,-11.718750
8973,-11.718750
8974,-11.718750
8975,-7.812500
8976,-7.812500
8977,-7.812500
8978,-3.906250
8979,-3.906250
8980,-3.906250
8981,-3.906250
8982,0.000000
8983,0.000000
8984,0.000000
8985,0.000000
8986,0.000000
8987,3.906250
8988,3.906250
8989,3.906250
8990,3.906250
8991,7.812500
8992,7.812500
8993,7.812500
8994,11.718750
8995,11.718750
8996,11.718750
8997,11.718750
8998,11.718750
8999,15.625000
9000,15.625000
9001,15.625000
9002,19.531250
9003,19.531250
9004,19.531250
9005,19.531250
9006,19.531250
9007,23.437500
9008,23.437500
9009,23.437500
9010,23.437500
9011,27.343750
9012,27.343750
9013,27.343750
9014,27.343750
9015,27.343750
9016,31.250000
9017,31.250000
9018,31.250000
9019,31.250000
9020,35.156250
9021,35.156250
9022,35.156250
9023,35.156250
9024,39.062500
9025,39.062500
9026,39.062500
9027,39.062500
9028,42.968750
9029,39.062500
9030,42.968750
9031,42.968750
9032,42.968750
9033,42.968750
9034,46.875000
9035,46.875000
9036,46.875000
9037,46.875000
9038,46.875000
9039,50.781250
9040,50.781250
9041,50.781250
9042,54.687500
9043,54.687500
9044,54.687500
9045,54.687500
9046,54.687500
9047,54.687500
9048,58.593750
9049,58.593750
9050,58.593750
9051,58.593750
9052,58.593750
9053,62.500000
9054,62.500000
9055,62.500000
9056,62.500000
9057,62.500000
9058,62.500000
9059,66.406250
9060,66.406250
9061,66.406250
9062,70.312500
9063,70.312500
9064,70.312500
9065,70.312500
9066,70.312500
9067,70.312500
9068,74.218750
9069,74.218750
9070,74.218750
9071,74.218750
9072,74.218750
9073,74.218750
9074,78.125000
9075,78.125000
9076,78.125000
9077,78.125000
9078,78.125000
9079,82.031250
9080,82.031250
9081,82.031250
9082,82.031250
9083,82.031250
9084,82.031250
9085,85.937500
9086,85.937500
9087,85.937500
9088,85.937500
9089,85.937500
9090,89.843750
9091,89.843750
9092,89.843750
9093,89.843750
9094,89.843750
9095,89.843750
9096,89.843750
9097,93.750000
9098,93.750000
9099,93.750000
9100,93.750000
9101,93.750000
9102,93.750000
9103,97.656250
9104,97.656250
9105,97.656250
9106,97.656250
9107,97.656250
9108,97.656250
9109,101.562500
9110,101.562500
9111,101.562500
9112,101.562500
9113,101.562500
9114,101.562500
9115,101.562500
9116,101.562500
9117,101.562500
9118,105.468750
9119,105.468750
9120,105.468750
9121,105.468750
9122,105.468750
9123,105.468750
9124,105.468750
9125,109.375000
9126,109.375000
9127,109.375000
9128,109.375000
9129,109.375000
9130,109.375000
9131,109.375000
9132,109.375000
9133,109.375000
9134,113.281250
9135,113.281250
9136,113.281250
9137,113.281250
9138,113.281250
9139,113.281250
9140,113.281250
9141,113.281250
9142,113.281250
9143,117.187500
9144,117.187500
9145,117.187500
9146,117.187500
9147,117.187500
9148,117.187500
9149,117.187500
9150,117.187500
9151,117.187500
9152,117.187500
9153,117.187500
9154,121.093750
9155,121.093750
9156,121.093750
9157,121.093750
9158,121.093750
9159,121.093750
9160,121.093750
9161,121.093750
9162,121.093750
9163,121.093750
9164,125.000000
9165,121.093750
9166,125.000000
9167,125.000000
9168,125.000000
9169,125.000000
9170,125.000000
9171,125.000000
9172,125.000000
9173,125.000000
9174,125.000000
9175,125.000000
9176,125.000000
9177,125.000000
9178,125.000000
9179,125.000000
9180,128.906250
9181,125.000000
9182,128.906250
9183,128.906250
9184,128.906250
9185,128.906250
9186,128.906250
9187,128.906250
9188,128.906250
9189,128.906250
9190,128.906250
9191,128.906250
9192,128.906250
9193,128.906250
9194,128.906250
9195,128.906250
9196,132.812500
9197,128.906250
9198,128.906250
9199,128.906250
9200,132.812500
9201,128.906250
9202,132.812500
9203,132.812500
9204,132.812500
9205,128.906250
9206,132.812500
9207,132.812500
9208,132.812500
9209,128.906250
9210,132.812500
9211,128.906250
9212,132.812500
9213,132.812500
9214,132.812500
9215,132.812500
9216,132.812500
9217,132.812500
9218,132.812500
9219,132.812500
9220,132.812500
9221,132.812500
9222,132.812500
9223,132.812500
9224,132.812500
9225,132.812500
9226,132.812500
9227,132.812500
9228,132.812500
9229,132.812500
9230,132.812500
9231,132.812500
9232,132.812500
9233,132.812500
9234,132.812500
9235,132.812500
9236,132.812500
9237,132.812500
9238,132.812500
9239,132.812500
9240,132.812500
9241,132.812500
9242,132.812500
9243,132.812500
9244,132.812500
9245,132.812500
9246,132.812500
9247,132.812500
9248,132.812500
9249,132.812500
9250,132.812500
9251,132.812500
9252,132.812500
9253,128.906250
9254,132.812500
9255,128.906250
9256,132.812500
9257,128.906250
9258,132.812500
9259,132.812500
9260,132.812500
9261,128.906250
9262,128.906250
9263,128.906250
9264,128.906250
9265,128.906250
9266,128.906250
9267,128.906250
9268,128.906250
9269,128.906250
9270,128.906250
9271,128.906250
9272,128.906250
9273,128.906250
9274,128.906250
9275,128.906250
9276,128.906250
9277,128.906250
9278,128.906250
9279,125.000000
9280,125.000000
9281,125.000000
9282,125.000000
9283,125.000000
9284,125.000000
9285,125.000000
9286,125.000000
9287,125.000000
9288,125.000000
9289,125.000000
9290,125.000000
9291,125.000000
9292,121.093750
9293,121.093750
9294,121.093750
9295,121.093750
9296,121.093750
9297,121.093750
9298,121.093750
9299,121.093750
9300,121.093750
9301,121.093750
9302,121.093750
9303,117.187500
9304,121.093750
9305,117.187500
9306,117.187500
9307,117.187500
9308,117.187500
9309,117.187500
9310,117.187500
9311,117.187500
9312,117.187500
9313,117.187500
9314,117.187500
9315,113.281250
9316,113.281250
9317,113.281250
9318,113.281250
9319,113.281250
9320,113.281250
9321,113.281250
9322,113.281250
9323,113.281250
9324,113.281250
9325,109.375000
9326,109.375000
9327,109.375000
9328,109.375000
9329,109.375000
9330,109.375000
9331,109.375000
9332,109.375000
9333,105.468750
9334,105.468750
9335,105.468750
9336,105.468750
9337,105.468750
9338,105.468750
9339,105.468750
9340,105.468750
9341,101.562500
9342,101.562500
9343,101.562500
9344,101.562500
9345,101.562500
9346,101.562500
9347,101.562500
9348,101.562500
9349,97.656250
9350,97.656250
9351,97.656250
9352,97.656250
9353,97.656250
9354,97.656250
9355,93.750000
9356,93.750000
9357,93.750000
9358,93.750000
9359,93.750000
9360,93.750000
9361,89.843750
9362,89.843750
9363,89.843750
9364,89.843750
9365,89.843750
9366,89.843750
9367,85.937500
9368,85.937500
9369,85.937500
9370,85.937500
9371,85.937500
9372,85.937500
9373,85.937500
9374,82.031250
9375,82.031250
9376,82.031250
9377,82.031250
9378,82.031250
9379,78.125000
9380,78.125000
9381,78.125000
9382,78.125000
9383,78.125000
9384,78.125000
9385,74.218750
9386,74.218750
9387,74.218750
9388,74.218750
9389,74.218750
9390,70.312500
9391,70.312500
9392,70.312500
9393,70.312500
9394,70.312500
9395,66.406250
9396,66.406250
9397,66.406250
9398,66.406250
9399,66.406250
9400,62.500000
9401,62.500000
9402,62.500000
9403,62.500000
9404,62.500000
9405,62.500000
9406,58.593750
9407,58.593750
9408,58.593750
9409,58.593750
9410,54.687500
9411,54.687500
9412,54.687500
9413,54.687500
9414,54.687500
9415,50.781250
9416,50.781250
9417,50.781250
9418,50.781250
9419,46.875000
9420,46.875000
9421,46.875000
9422,46.875000
9423,46.875000
9424,42.968750
9425,42.968750
9426,42.968750
9427,42.968750
9428,39.062500
9429,39.062500
9430,39.062500
9431,39.062500
9432,39.062500
9433,35.156250
9434,35.156250
9435,35.156250
9436,35.156250
9437,31.250000
9438,31.250000
9439,31.250000
9440,31.250000
9441,27.343750
9442,27.343750
9443,27.343750
9444,27.343750
9445,27.343750
9446,23.437500
9447,23.437500
9448,23.437500
9449,23.437500
9450,19.531250
9451,19.531250
9452,19.531250
9453,19.531250
9454,15.625000
9455,15.625000
9456,15.625000
9457,15.625000
9458,11.718750
9459,11.718750
9460,11.718750
9461,11.718750
9462,11.718750
9463,7.812500
9464,7.812500
9465,7.812500
9466,7.812500
9467,3.906250
9468,3.906250
9469,3.906250
9470,0.000000
9471,0.000000
9472,0.000000
9473,0.000000
9474,0.000000
9475,-3.906250
9476,-3.906250
9477,-3.906250
9478,-3.906250
9479,-7.812500
9480,-7.812500
9481,-7.812500
9482,-7.812500
9483,-11.718750
9484,-11.718750
9485,-11.718750
9486,-11.718750
9487,-15.625000
9488,-15.625000
9489,-15.625000
9490,-15.625000
9491,-19.531250
9492,-19.531250
9493,-19.531250
9494,-19.531250
9495,-23.437500
9496,-23.437500
9497,-23.437500
9498,-23.437500
9499,-27.343750
9500,-27.343750
9501,-27.343750
9502,-27.343750
9503,-31.250000
9504,-31.250000
9505,-31.250000
9506,-35.156250
9507,-35.156250
9508,-35.156250
9509,-35.156250
9510,-39.062500
9511,-39.062500
9512,-39.062500
9513,-39.062500
9514,-39.062500
9515,-42.968750
9516,-42.968750
9517,-42.968750
9518,-42.968750
9519,-46.875000
9520,-46.875000
9521,-46.875000
9522,-50.781250
9523,-50.781250
9524,-50.781250
9525,-50.781250
9526,-54.687500
9527,-54.687500
9528,-54.687500
9529,-54.687500
9530,-58.593750
9531,-58.593750
9532,-58.593750
9533,-58.593750
9534,-62.500000
9535,-62.500000
9536,-62.500000
9537,-62.500000
9538,-66.406250
9539,-66.406250
9540,-66.406250
9541,-66.406250
9542,-70.312500
9543,-70.312500
9544,-70.312500
9545,-70.312500
9546,-74.218750
9547,-74.218750
9548,-74.218750
9549,-74.218750
9550,-78.125000
9551,-78.125000
9552,-78.125000
9553,-78.125000
9554,-82.031250
9555,-82.031250
9556,-82.031250
9557,-82.031250
9558,-82.031250
9559,-85.937500
9560,-85.937500
9561,-85.937500
9562,-89.843750
9563,-89.843750
9564,-89.843750
9565,-89.843750
9566,-89.843750
9567,-89.843750
9568,-93.750000
9569,-93.750000
9570,-93.750000
9571,-97.656250
9572,-97.656250
9573,-97.656250
9574,-97.656250
9575,-97.656250
9576,-97.656250
9577,-101.562500
9578,-101.562500
9579,-101.562500
9580,-101.562500
9581,-105.468750
9582,-105.468750
9583,-105.468750
9584,-105.468750
9585,-109.375000
9586,-109.375000
9587,-109.375000
9588,-109.375000
9589,-109.375000
9590,-109.375000
9591,-109.375000
9592,-113.281250
9593,-113.281250
9594,-113.281250
9595,-113.281250
9596,-113.281250
9597,-117.187500
9598,-117.187500
9599,-117.187500
9600,-117.187500
9601,-121.093750
9602,-121.093750
9603,-121.093750
9604,-121.093750
9605,-121.093750
9606,-125.000000
9607,-125.000000
9608,-125.000000
9609,-125.000000
9610,-125.000000
9611,-125.000000
9612,-128.906250
9613,-128.906250
9614,-128.906250
9615,-128.906250
9616,-128.906250
9617,-128.906250
9618,-132.812500
9619,-132.812500
9620,-132.812500
9621,-132.812500
9622,-132.812500
9623,-136.718750
9624,-136.718750
9625,-136.718750
9626,-136.718750
9627,-136.718750
9628,-136.718750
9629,-136.718750
9630,-140.625000
9631,-140.625000
9632,-140.625000
9633,-140.625000
9634,-140.625000
9635,-140.625000
9636,-140.625000
9637,-144.531250
9638,-144.531250
9639,-144.531250
9640,-144.531250
9641,-144.531250
9642,-144.531250
9643,-144.531250
9644,-148.437500
9645,-148.437500
9646,-148.437500
9647,-148.437500
9648,-148.437500
9649,-148.437500
9650,-148.437500
9651,-152.343750
9652,-152.343750
9653,-152.343750
9654,-152.343750
9655,-152.343750
9656,-152.343750
9657,-152.343750
9658,-152.343750
9659,-156.250000
9660,-156.250000
9661,-156.250000
9662,-156.250000
9663,-156.250000
9664,-156.250000
9665,-156.250000
9666,-156.250000
9667,-156.250000
9668,-156.250000
9669,-156.250000
9670,-156.250000
9671,-160.156250
9672,-160.156250
9673,-160.156250
9674,-160.156250
9675,-160.156250
9676,-160.156250
9677,-160.156250
9678,-160.156250
9679,-160.156250
9680,-164.062500
9681,-164.062500
9682,-164.062500
9683,-164.062500
9684,-164.062500
9685,-164.062500
9686,-164.062500
9687,-164.062500
9688,-164.062500
9689,-164.062500
9690,-164.062500
9691,-164.062500
9692,-164.062500
9693,-167.968750
9694,-164.062500
9695,-167.968750
9696,-164.062500
9697,-167.968750
9698,-167.968750
9699,-167.968750
9700,-167.968750
9701,-167.968750
9702,-167.968750
9703,-167.968750
9704,-167.968750
9705,-167.968750
9706,-167.968750
9707,-167.968750
9708,-167.968750
9709,-167.968750
9710,-167.968750
9711,-167.968750
9712,-167.968750
9713,-167.968750
9714,-167.968750
9715,-167.968750
9716,-167.968750
9717,-167.968750
9718,-167.968750
9719,-167.968750
9720,-167.968750
9721,-167.968750
9722,-167.968750
9723,-167.968750
9724,-167.968750
9725,-167.968750
9726,-167.968750
9727,-167.968750
9728,-167.968750
9729,-167.968750
9730,-167.968750
9731,-167.968750
9732,-167.968750
9733,-167.968750
9734,-167.968750
9735,-167.968750
9736,-167.968750
9737,-167.968750
9738,-167.968750
9739,-167.968750
9740,-167.968750
9741,-167.968750
9742,-167.968750
9743,-167.968750
9744,-167.968750
9745,-167.968750
9746,-167.968750
9747,-167.968750
9748,-167.968750
9749,-164.062500
9750,-167.968750
9751,-164.062500
9752,-164.062500
9753,-164.062500
9754,-164.062500
9755,-164.062500
9756,-164.062500
9757,-164.062500
9758,-164.062500
9759,-164.062500
9760,-164.062500
9761,-164.062500
9762,-164.062500
9763,-164.062500
9764,-164.062500
9765,-160.156250
9766,-164.062500
9767,-164.062500
9768,-160.156250
9769,-160.156250
9770,-160.156250
9771,-160.156250
9772,-160.156250
9773,-160.156250
9774,-160.156250
9775,-160.156250
9776,-160.156250
9777,-160.156250
9778,-160.156250
9779,-156.250000
9780,-156.250000
9781,-156.250000
9782,-156.250000
9783,-156.250000
9784,-156.250000
9785,-156.250000
9786,-152.343750
9787,-156.250000
9788,-152.343750
9789,-152.343750
9790,-152.343750
9791,-152.343750
9792,-152.343750
9793,-152.343750
9794,-152.343750
9795,-152.343750
9796,-148.437500
9797,-148.437500
9798,-148.437500
9799,-148.437500
9800,-148.437500
9801,-148.437500
9802,-148.437500
9803,-148.437500
9804,-144.531250
9805,-144.531250
9806,-144.531250
9807,-144.531250
9808,-144.531250
9809,-144.531250
9810,-140.625000
9811,-144.531250
9812,-140.625000
9813,-140.625000
9814,-140.625000
9815,-140.625000
9816,-140.625000
9817,-140.625000
9818,-136.718750
9819,-136.718750
9820,-136.718750
9821,-136.718750
9822,-136.718750
9823,-136.718750
9824,-132.812500
9825,-132.812500
9826,-132.812500
9827,-132.812500
9828,-132.812500
9829,-128.906250
9830,-128.906250
9831,-128.906250
9832,-128.906250
9833,-128.906250
9834,-125.000000
9835,-125.000000
9836,-125.000000
9837,-125.000000
9838,-125.000000
9839,-125.000000
9840,-125.000000
9841,-121.093750
9842,-121.093750
9843,-121.093750
9844,-117.187500
9845,-121.093750
9846,-117.187500
9847,-117.187500
9848,-117.187500
9849,-117.187500
9850,-117.187500
9851,-113.281250
9852,-113.281250
9853,-113.281250
9854,-113.281250
9855,-109.375000
9856,-109.375000
9857,-109.375000
9858,-109.375000
9859,-109.375000
9860,-109.375000
9861,-105.468750
9862,-105.468750
9863,-105.468750
9864,-105.468750
9865,-105.468750
9866,-101.562500
9867,-101.562500
9868,-101.562500
9869,-97.656250
9870,-97.656250
9871,-97.656250
9872,-97.656250
9873,-97.656250
9874,-93.750000
9875,-93.750000
9876,-93.750000
9877,-93.750000
9878,-89.843750
9879,-89.843750
9880,-89.843750
9881,-89.843750
9882,-89.843750
9883,-85.937500
9884,-85.937500
9885,-85.937500
9886,-82.031250
9887,-82.031250
9888,-82.031250
9889,-82.031250
9890,-82.031250
9891,-82.031250
9892,-78.125000
9893,-78.125000
9894,-78.125000
9895,-74.218750
9896,-74.218750
9897,-74.218750
9898,-74.218750
9899,-74.218750
9900,-70.312500
9901,-70.312500
9902,-70.312500
9903,-70.312500
9904,-66.406250
9905,-66.406250
9906,-66.406250
9907,-66.406250
9908,-62.500000
9909,-62.500000
9910,-62.500000
9911,-62.500000
9912,-58.593750
9913,-58.593750
9914,-58.593750
9915,-58.593750
9916,-54.687500
9917,-54.687500
9918,-54.687500
9919,-54.687500
9920,-50.781250
9921,-50.781250
9922,-50.781250
9923,-50.781250
9924,-46.875000
9925,-46.875000
9926,-46.875000
9927,-46.875000
9928,-42.968750
9929,-42.968750
9930,-42.968750
9931,-42.968750
9932,-39.062500
9933,-39.062500
9934,-39.062500
9935,-39.062500
9936,-39.062500
9937,-35.156250
9938,-35.156250
9939,-35.156250
9940,-31.250000
9941,-31.250000
9942,-31.250000
9943,-31.250000
9944,-27.343750
9945,-27.343750
9946,-27.343750
9947,-27.343750
9948,-23.437500
9949,-23.437500
9950,-23.437500
9951,-23.437500
9952,-23.437500
9953,-19.531250
9954,-19.531250
9955,-19.531250
9956,-15.625000
9957,-15.625000
9958,-15.625000
9959,-15.625000
9960,-15.625000
9961,-11.718750
9962,-11.718750
9963,-11.718750
9964,-7.812500
9965,-7.812500
9966,-7.812500
9967,-7.812500
9968,-3.906250
9969,-3.906250
9970,-3.906250
9971,-3.906250
9972,0.000000
9973,0.000000
9974,0.000000
9975,0.000000
9976,3.906250
9977,3.906250
9978,3.906250
9979,7.812500
9980,7.812500
9981,7.812500
9982,7.812500
9983,7.812500
9984,11.718750
9985,11.718750
9986,11.718750
9987,11.718750
9988,15.625000
9989,15.625000
9990,15.625000
9991,15.625000
9992,19.531250
9993,19.531250
9994,19.531250
9995,23.437500
9996,23.437500
9997,23.437500
9998,23.437500
9999,23.437500
10000,27.343750
