Channel              :,CH1
Frequency            :,1.010kHz
Period               :,0.990ms
PK-PK                :,121.1mV
Probe attenuation    :,1X
Voltage per ADC value:,0.244141mV
Time interval        :,1.00000us

index,CH1_Voltage(mV)
1,-39.062500
2,-39.062500
3,-39.062500
4,-39.062500
5,-39.062500
6,-39.062500
7,-39.062500
8,-35.156250
9,-35.156250
10,-35.156250
11,-35.156250
12,-35.156250
13,-35.156250
14,-35.156250
15,-35.156250
16,-35.156250
17,-35.156250
18,-31.250000
19,-31.250000
20,-31.250000
21,-31.250000
22,-31.250000
23,-31.250000
24,-31.250000
25,-31.250000
26,-31.250000
27,-31.250000
28,-31.250000
29,-31.250000
30,-27.343750
31,-27.343750
32,-27.343750
33,-27.343750
34,-27.343750
35,-27.343750
36,-27.343750
37,-27.343750
38,-23.437500
39,-27.343750
40,-27.343750
41,-23.437500
42,-23.437500
43,-23.437500
44,-23.437500
45,-23.437500
46,-23.437500
47,-23.437500
48,-23.437500
49,-23.437500
50,-19.531250
51,-23.437500
52,-19.531250
53,-19.531250
54,-19.531250
55,-19.531250
56,-19.531250
57,-19.531250
58,-19.531250
59,-19.531250
60,-19.531250
61,-19.531250
62,-19.531250
63,-15.625000
64,-15.625000
65,-15.625000
66,-15.625000
67,-15.625000
68,-15.625000
69,-15.625000
70,-15.625000
71,-15.625000
72,-11.718750
73,-11.718750
74,-11.718750
75,-11.718750
76,-11.718750
77,-11.718750
78,-11.718750
79,-11.718750
80,-11.718750
81,-11.718750
82,-11.718750
83,-11.718750
84,-11.718750
85,-7.812500
86,-7.812500
87,-7.812500
88,-7.812500
89,-7.812500
90,-7.812500
91,-7.812500
92,-7.812500
93,-7.812500
94,-3.906250
95,-3.906250
96,-3.906250
97,-3.906250
98,-3.906250
99,-3.906250
100,-3.906250
101,-3.906250
102,-3.906250
103,0.000000
104,-3.906250
105,0.000000
106,0.000000
107,0.000000
108,0.000000
109,0.000000
110,0.000000
111,0.000000
112,0.000000
113,0.000000
114,3.906250
115,0.000000
116,0.000000
117,3.906250
118,3.906250
119,3.906250
120,3.906250
121,3.906250
122,3.906250
123,3.906250
124,3.906250
125,3.906250
126,7.812500
127,7.812500
128,7.812500
129,7.812500
130,7.812500
131,7.812500
132,7.812500
133,7.812500
134,7.812500
135,7.812500
136,7.812500
137,11.718750
138,11.718750
139,11.718750
140,11.718750
141,11.718750
142,11.718750
143,11.718750
144,11.718750
145,11.718750
146,11.718750
147,11.718750
148,11.718750
149,11.718750
150,15.625000
151,15.625000
152,15.625000
153,15.625000
154,15.625000
155,15.625000
156,15.625000
157,15.625000
158,15.625000
159,15.625000
160,15.625000
161,15.625000
162,15.625000
163,19.531250
164,19.531250
165,19.531250
166,19.531250
167,19.531250
168,19.531250
169,19.531250
170,19.531250
171,19.531250
172,19.531250
173,19.531250
174,23.437500
175,23.437500
176,23.437500
177,23.437500
178,23.437500
179,23.437500
180,19.531250
181,23.437500
182,23.437500
183,23.437500
184,23.437500
185,23.437500
186,23.437500
187,23.437500
188,23.437500
189,23.437500
190,23.437500
191,23.437500
192,27.343750
193,27.343750
194,27.343750
195,27.343750
196,27.343750
197,27.343750
198,27.343750
199,27.343750
200,27.343750
201,27.343750
202,27.343750
203,27.343750
204,27.343750
205,27.343750
206,31.250000
207,31.250000
208,31.250000
209,31.250000
210,31.250000
211,31.250000
212,31.250000
213,31.250000
214,31.250000
215,31.250000
216,31.250000
217,31.250000
218,31.250000
219,31.250000
220,31.250000
221,31.250000
222,31.250000
223,31.250000
224,31.250000
225,31.250000
226,35.156250
227,35.156250
228,35.156250
229,35.156250
230,35.156250
231,35.156250
232,35.156250
233,35.156250
234,35.156250
235,35.156250
236,35.156250
237,35.156250
238,35.156250
239,35.156250
240,35.156250
241,35.156250
242,35.156250
243,35.156250
244,35.156250
245,39.062500
246,39.062500
247,39.062500
248,39.062500
249,39.062500
250,39.062500
251,39.062500
252,39.062500
253,39.062500
254,39.062500
255,39.062500
256,39.062500
257,39.062500
258,39.062500
259,39.062500
260,39.062500
261,39.062500
262,39.062500
263,39.062500
264,39.062500
265,39.062500
266,39.062500
267,39.062500
268,39.062500
269,39.062500
270,42.968750
271,42.968750
272,42.968750
273,42.968750
274,42.968750
275,42.968750
276,42.968750
277,42.968750
278,42.968750
279,42.968750
280,42.968750
281,42.968750
282,42.968750
283,42.968750
284,42.968750
285,42.968750
286,42.968750
287,42.968750
288,42.968750
289,42.968750
290,42.968750
291,42.968750
292,42.968750
293,42.968750
294,42.968750
295,42.968750
296,42.968750
297,42.968750
298,42.968750
299,42.968750
300,42.968750
301,42.968750
302,42.968750
303,42.968750
304,42.968750
305,42.968750
306,42.968750
307,42.968750
308,42.968750
309,42.968750
310,42.968750
311,42.968750
312,42.968750
313,42.968750
314,42.968750
315,42.968750
316,42.968750
317,42.968750
318,42.968750
319,42.968750
320,42.968750
321,42.968750
322,42.968750
323,42.968750
324,46.875000
325,42.968750
326,42.968750
327,42.968750
328,42.968750
329,42.968750
330,42.968750
331,42.968750
332,46.875000
333,42.968750
334,46.875000
335,42.968750
336,42.968750
337,42.968750
338,42.968750
339,42.968750
340,42.968750
341,42.968750
342,42.968750
343,42.968750
344,42.968750
345,42.968750
346,42.968750
347,42.968750
348,42.968750
349,42.968750
350,42.968750
351,42.968750
352,42.968750
353,42.968750
354,42.968750
355,42.968750
356,42.968750
357,42.968750
358,42.968750
359,42.968750
360,42.968750
361,42.968750
362,42.968750
363,42.968750
364,42.968750
365,42.968750
366,42.968750
367,42.968750
368,42.968750
369,42.968750
370,42.968750
371,42.968750
372,42.968750
373,42.968750
374,42.968750
375,42.968750
376,42.968750
377,42.968750
378,42.968750
379,42.968750
380,42.968750
381,42.968750
382,42.968750
383,42.968750
384,42.968750
385,39.062500
386,39.062500
387,39.062500
388,39.062500
389,39.062500
390,39.062500
391,39.062500
392,39.062500
393,39.062500
394,39.062500
395,39.062500
396,39.062500
397,39.062500
398,39.062500
399,39.062500
400,39.062500
401,39.062500
402,39.062500
403,39.062500
404,39.062500
405,39.062500
406,39.062500
407,39.062500
408,39.062500
409,35.156250
410,39.062500
411,35.156250
412,39.062500
413,39.062500
414,39.062500
415,39.062500
416,39.062500
417,35.156250
418,35.156250
419,35.156250
420,35.156250
421,35.156250
422,35.156250
423,35.156250
424,35.156250
425,35.156250
426,35.156250
427,35.156250
428,35.156250
429,35.156250
430,35.156250
431,35.156250
432,31.250000
433,31.250000
434,31.250000
435,31.250000
436,31.250000
437,31.250000
438,31.250000
439,31.250000
440,31.250000
441,31.250000
442,31.250000
443,31.250000
444,31.250000
445,31.250000
446,31.250000
447,31.250000
448,31.250000
449,31.250000
450,27.343750
451,27.343750
452,27.343750
453,27.343750
454,27.343750
455,27.343750
456,27.343750
457,27.343750
458,27.343750
459,27.343750
460,27.343750
461,27.343750
462,27.343750
463,27.343750
464,27.343750
465,23.437500
466,23.437500
467,23.437500
468,27.343750
469,23.437500
470,23.437500
471,23.437500
472,23.437500
473,23.437500
474,23.437500
475,23.437500
476,23.437500
477,23.437500
478,19.531250
479,19.531250
480,23.437500
481,19.531250
482,19.531250
483,19.531250
484,19.531250
485,19.531250
486,19.531250
487,19.531250
488,19.531250
489,19.531250
490,19.531250
491,19.531250
492,19.531250
493,19.531250
494,19.531250
495,15.625000
496,15.625000
497,15.625000
498,15.625000
499,15.625000
500,15.625000
501,15.625000
502,15.625000
503,15.625000
504,15.625000
505,15.625000
506,15.625000
507,11.718750
508,11.718750
509,11.718750
510,11.718750
511,11.718750
512,11.718750
513,11.718750
514,11.718750
515,11.718750
516,11.718750
517,11.718750
518,7.812500
519,7.812500
520,7.812500
521,7.812500
522,7.812500
523,7.812500
524,7.812500
525,7.812500
526,7.812500
527,7.812500
528,7.812500
529,7.812500
530,7.812500
531,7.812500
532,3.906250
533,3.906250
534,3.906250
535,3.906250
536,3.906250
537,3.906250
538,3.906250
539,3.906250
540,3.906250
541,3.906250
542,0.000000
543,0.000000
544,3.906250
545,0.000000
546,0.000000
547,0.000000
548,0.000000
549,0.000000
550,0.000000
551,0.000000
552,0.000000
553,0.000000
554,-3.906250
555,-3.906250
556,-3.906250
557,-3.906250
558,-3.906250
559,-3.906250
560,-3.906250
561,-7.812500
562,-3.906250
563,-7.812500
564,-3.906250
565,-7.812500
566,-7.812500
567,-7.812500
568,-7.812500
569,-7.812500
570,-7.812500
571,-7.812500
572,-7.812500
573,-11.718750
574,-7.812500
575,-11.718750
576,-11.718750
577,-11.718750
578,-11.718750
579,-11.718750
580,-11.718750
581,-11.718750
582,-11.718750
583,-11.718750
584,-11.718750
585,-15.625000
586,-15.625000
587,-15.625000
588,-15.625000
589,-15.625000
590,-15.625000
591,-15.625000
592,-15.625000
593,-15.625000
594,-15.625000
595,-19.531250
596,-19.531250
597,-19.531250
598,-19.531250
599,-19.531250
600,-19.531250
601,-19.531250
602,-19.531250
603,-19.531250
604,-23.437500
605,-23.437500
606,-23.437500
607,-23.437500
608,-23.437500
609,-23.437500
610,-23.437500
611,-23.437500
612,-23.437500
613,-23.437500
614,-23.437500
615,-27.343750
616,-27.343750
617,-27.343750
618,-27.343750
619,-27.343750
620,-27.343750
621,-27.343750
622,-27.343750
623,-27.343750
624,-27.343750
625,-31.250000
626,-27.343750
627,-31.250000
628,-27.343750
629,-31.250000
630,-27.343750
631,-31.250000
632,-31.250000
633,-31.250000
634,-31.250000
635,-31.250000
636,-31.250000
637,-31.250000
638,-31.250000
639,-35.156250
640,-35.156250
641,-35.156250
642,-35.156250
643,-35.156250
644,-35.156250
645,-35.156250
646,-35.156250
647,-35.156250
648,-35.156250
649,-35.156250
650,-39.062500
651,-35.156250
652,-39.062500
653,-39.062500
654,-39.062500
655,-39.062500
656,-39.062500
657,-39.062500
658,-39.062500
659,-39.062500
660,-39.062500
661,-39.062500
662,-39.062500
663,-42.968750
664,-42.968750
665,-42.968750
666,-42.968750
667,-42.968750
668,-42.968750
669,-42.968750
670,-42.968750
671,-42.968750
672,-42.968750
673,-42.968750
674,-42.968750
675,-46.875000
676,-46.875000
677,-46.875000
678,-46.875000
679,-46.875000
680,-46.875000
681,-46.875000
682,-46.875000
683,-46.875000
684,-46.875000
685,-46.875000
686,-50.781250
687,-50.781250
688,-50.781250
689,-50.781250
690,-50.781250
691,-50.781250
692,-50.781250
693,-50.781250
694,-50.781250
695,-50.781250
696,-50.781250
697,-50.781250
698,-50.781250
699,-54.687500
700,-54.687500
701,-54.687500
702,-54.687500
703,-54.687500
704,-54.687500
705,-54.687500
706,-54.687500
707,-54.687500
708,-54.687500
709,-54.687500
710,-54.687500
711,-54.687500
712,-58.593750
713,-58.593750
714,-58.593750
715,-58.593750
716,-58.593750
717,-58.593750
718,-58.593750
719,-58.593750
720,-58.593750
721,-58.593750
722,-58.593750
723,-58.593750
724,-58.593750
725,-58.593750
726,-58.593750
727,-62.500000
728,-58.593750
729,-58.593750
730,-62.500000
731,-62.500000
732,-62.500000
733,-62.500000
734,-62.500000
735,-62.500000
736,-62.500000
737,-62.500000
738,-62.500000
739,-62.500000
740,-62.500000
741,-62.500000
742,-62.500000
743,-62.500000
744,-62.500000
745,-62.500000
746,-62.500000
747,-62.500000
748,-62.500000
749,-62.500000
750,-66.406250
751,-62.500000
752,-62.500000
753,-66.406250
754,-66.406250
755,-66.406250
756,-66.406250
757,-66.406250
758,-66.406250
759,-66.406250
760,-66.406250
761,-66.406250
762,-66.406250
763,-66.406250
764,-66.406250
765,-66.406250
766,-66.406250
767,-66.406250
768,-66.406250
769,-66.406250
770,-66.406250
771,-66.406250
772,-66.406250
773,-66.406250
774,-66.406250
775,-66.406250
776,-66.406250
777,-70.312500
778,-70.312500
779,-70.312500
780,-70.312500
781,-70.312500
782,-70.312500
783,-70.312500
784,-70.312500
785,-70.312500
786,-70.312500
787,-70.312500
788,-70.312500
789,-70.312500
790,-70.312500
791,-70.312500
792,-70.312500
793,-70.312500
794,-70.312500
795,-70.312500
796,-70.312500
797,-70.312500
798,-70.312500
799,-70.312500
800,-70.312500
801,-70.312500
802,-70.312500
803,-70.312500
804,-70.312500
805,-70.312500
806,-70.312500
807,-70.312500
808,-70.312500
809,-70.312500
810,-70.312500
811,-70.312500
812,-70.312500
813,-70.312500
814,-70.312500
815,-70.312500
816,-70.312500
817,-70.312500
818,-70.312500
819,-70.312500
820,-70.312500
821,-70.312500
822,-70.312500
823,-70.312500
824,-70.312500
825,-70.312500
826,-70.312500
827,-70.312500
828,-70.312500
829,-70.312500
830,-70.312500
831,-70.312500
832,-70.312500
833,-74.218750
834,-70.312500
835,-70.312500
836,-70.312500
837,-70.312500
838,-70.312500
839,-70.312500
840,-70.312500
841,-70.312500
842,-70.312500
843,-70.312500
844,-70.312500
845,-70.312500
846,-70.312500
847,-70.312500
848,-70.312500
849,-70.312500
850,-70.312500
851,-70.312500
852,-70.312500
853,-70.312500
854,-70.312500
855,-70.312500
856,-70.312500
857,-70.312500
858,-70.312500
859,-70.312500
860,-70.312500
861,-70.312500
862,-70.312500
863,-70.312500
864,-70.312500
865,-70.312500
866,-70.312500
867,-70.312500
868,-70.312500
869,-70.312500
870,-70.312500
871,-70.312500
872,-66.406250
873,-66.406250
874,-66.406250
875,-66.406250
876,-66.406250
877,-66.406250
878,-66.406250
879,-66.406250
880,-66.406250
881,-66.406250
882,-66.406250
883,-66.406250
884,-66.406250
885,-66.406250
886,-66.406250
887,-66.406250
888,-66.406250
889,-66.406250
890,-66.406250
891,-66.406250
892,-66.406250
893,-66.406250
894,-66.406250
895,-66.406250
896,-66.406250
897,-66.406250
898,-66.406250
899,-66.406250
900,-62.500000
901,-62.500000
902,-62.500000
903,-62.500000
904,-62.500000
905,-62.500000
906,-62.500000
907,-62.500000
908,-62.500000
909,-62.500000
910,-62.500000
911,-62.500000
912,-62.500000
913,-62.500000
914,-62.500000
915,-62.500000
916,-62.500000
917,-62.500000
918,-58.593750
919,-58.593750
920,-58.593750
921,-58.593750
922,-58.593750
923,-58.593750
924,-58.593750
925,-58.593750
926,-58.593750
927,-58.593750
928,-58.593750
929,-58.593750
930,-58.593750
931,-58.593750
932,-54.687500
933,-54.687500
934,-54.687500
935,-54.687500
936,-54.687500
937,-58.593750
938,-54.687500
939,-54.687500
940,-54.687500
941,-54.687500
942,-54.687500
943,-54.687500
944,-54.687500
945,-54.687500
946,-54.687500
947,-54.687500
948,-54.687500
949,-54.687500
950,-50.781250
951,-50.781250
952,-50.781250
953,-50.781250
954,-50.781250
955,-50.781250
956,-50.781250
957,-50.781250
958,-50.781250
959,-50.781250
960,-50.781250
961,-50.781250
962,-46.875000
963,-46.875000
964,-46.875000
965,-46.875000
966,-46.875000
967,-46.875000
968,-46.875000
969,-46.875000
970,-46.875000
971,-46.875000
972,-46.875000
973,-46.875000
974,-42.968750
975,-42.968750
976,-42.968750
977,-42.968750
978,-42.968750
979,-42.968750
980,-42.968750
981,-42.968750
982,-42.968750
983,-42.968750
984,-42.968750
985,-42.968750
986,-39.062500
987,-39.062500
988,-39.062500
989,-39.062500
990,-39.062500
991,-39.062500
992,-39.062500
993,-39.062500
994,-39.062500
995,-39.062500
996,-39.062500
997,-35.156250
998,-35.156250
999,-35.156250
1000,-35.156250
1001,-35.156250
1002,-35.156250
1003,-35.156250
1004,-35.156250
1005,-35.156250
1006,-35.156250
1007,-35.156250
1008,-35.156250
1009,-35.156250
1010,-31.250000
1011,-31.250000
1012,-31.250000
1013,-31.250000
1014,-31.250000
1015,-31.250000
1016,-31.250000
1017,-31.250000
1018,-27.343750
1019,-27.343750
1020,-27.343750
1021,-27.343750
1022,-27.343750
1023,-27.343750
1024,-27.343750
1025,-27.343750
1026,-27.343750
1027,-27.343750
1028,-27.343750
1029,-23.437500
1030,-27.343750
1031,-23.437500
1032,-23.437500
1033,-23.437500
1034,-23.437500
1035,-23.437500
1036,-23.437500
1037,-23.437500
1038,-23.437500
1039,-19.531250
1040,-19.531250
1041,-19.531250
1042,-19.531250
1043,-19.531250
1044,-19.531250
1045,-19.531250
1046,-19.531250
1047,-19.531250
1048,-19.531250
1049,-19.531250
1050,-15.625000
1051,-15.625000
1052,-15.625000
1053,-15.625000
1054,-15.625000
1055,-15.625000
1056,-15.625000
1057,-15.625000
1058,-15.625000
1059,-15.625000
1060,-11.718750
1061,-11.718750
1062,-11.718750
1063,-11.718750
1064,-11.718750
1065,-11.718750
1066,-11.718750
1067,-11.718750
1068,-11.718750
1069,-11.718750
1070,-11.718750
1071,-11.718750
1072,-7.812500
1073,-7.812500
1074,-7.812500
1075,-7.812500
1076,-7.812500
1077,-7.812500
1078,-7.812500
1079,-7.812500
1080,-7.812500
1081,-7.812500
1082,-7.812500
1083,-3.906250
1084,-3.906250
1085,-3.906250
1086,-3.906250
1087,-3.906250
1088,-3.906250
1089,-3.906250
1090,-3.906250
1091,-3.906250
1092,-3.906250
1093,-3.906250
1094,0.000000
1095,0.000000
1096,0.000000
1097,0.000000
1098,0.000000
1099,0.000000
1100,0.000000
1101,0.000000
1102,0.000000
1103,0.000000
1104,0.000000
1105,3.906250
1106,3.906250
1107,3.906250
1108,3.906250
1109,3.906250
1110,3.906250
1111,3.906250
1112,3.906250
1113,3.906250
1114,3.906250
1115,3.906250
1116,7.812500
1117,7.812500
1118,7.812500
1119,7.812500
1120,7.812500
1121,7.812500
1122,7.812500
1123,7.812500
1124,7.812500
1125,7.812500
1126,7.812500
1127,7.812500
1128,11.718750
1129,11.718750
1130,11.718750
1131,11.718750
1132,11.718750
1133,11.718750
1134,11.718750
1135,11.718750
1136,11.718750
1137,11.718750
1138,15.625000
1139,11.718750
1140,15.625000
1141,15.625000
1142,15.625000
1143,15.625000
1144,15.625000
1145,15.625000
1146,15.625000
1147,15.625000
1148,15.625000
1149,15.625000
1150,15.625000
1151,15.625000
1152,15.625000
1153,19.531250
1154,19.531250
1155,19.531250
1156,19.531250
1157,19.531250
1158,19.531250
1159,19.531250
1160,19.531250
1161,19.531250
1162,19.531250
1163,19.531250
1164,23.437500
1165,23.437500
1166,23.437500
1167,23.437500
1168,23.437500
1169,23.437500
1170,23.437500
1171,23.437500
1172,23.437500
1173,23.437500
1174,23.437500
1175,23.437500
1176,23.437500
1177,23.437500
1178,23.437500
1179,23.437500
1180,23.437500
1181,23.437500
1182,23.437500
1183,27.343750
1184,27.343750
1185,27.343750
1186,27.343750
1187,27.343750
1188,27.343750
1189,27.343750
1190,27.343750
1191,27.343750
1192,27.343750
1193,27.343750
1194,27.343750
1195,27.343750
1196,31.250000
1197,31.250000
1198,31.250000
1199,31.250000
1200,31.250000
1201,31.250000
1202,31.250000
1203,31.250000
1204,31.250000
1205,31.250000
1206,35.156250
1207,31.250000
1208,31.250000
1209,31.250000
1210,31.250000
1211,31.250000
1212,35.156250
1213,31.250000
1214,35.156250
1215,31.250000
1216,35.156250
1217,35.156250
1218,35.156250
1219,35.156250
1220,35.156250
1221,35.156250
1222,35.156250
1223,35.156250
1224,35.156250
1225,35.156250
1226,35.156250
1227,35.156250
1228,35.156250
1229,35.156250
1230,35.156250
1231,35.156250
1232,35.156250
1233,35.156250
1234,35.156250
1235,35.156250
1236,39.062500
1237,39.062500
1238,39.062500
1239,39.062500
1240,39.062500
1241,39.062500
1242,39.062500
1243,39.062500
1244,39.062500
1245,39.062500
1246,39.062500
1247,39.062500
1248,39.062500
1249,39.062500
1250,39.062500
1251,39.062500
1252,39.062500
1253,39.062500
1254,39.062500
1255,39.062500
1256,39.062500
1257,39.062500
1258,39.062500
1259,39.062500
1260,39.062500
1261,42.968750
1262,42.968750
1263,42.968750
1264,39.062500
1265,39.062500
1266,42.968750
1267,42.968750
1268,42.968750
1269,42.968750
1270,42.968750
1271,42.968750
1272,42.968750
1273,42.968750
1274,42.968750
1275,42.968750
1276,42.968750
1277,42.968750
1278,42.968750
1279,42.968750
1280,42.968750
1281,42.968750
1282,42.968750
1283,42.968750
1284,42.968750
1285,42.968750
1286,42.968750
1287,42.968750
1288,42.968750
1289,42.968750
1290,42.968750
1291,42.968750
1292,42.968750
1293,42.968750
1294,42.968750
1295,42.968750
1296,42.968750
1297,42.968750
1298,42.968750
1299,42.968750
1300,42.968750
1301,42.968750
1302,42.968750
1303,42.968750
1304,46.875000
1305,42.968750
1306,42.968750
1307,42.968750
1308,42.968750
1309,42.968750
1310,42.968750
1311,42.968750
1312,42.968750
1313,42.968750
1314,42.968750
1315,42.968750
1316,42.968750
1317,42.968750
1318,42.968750
1319,42.968750
1320,42.968750
1321,42.968750
1322,42.968750
1323,42.968750
1324,42.968750
1325,42.968750
1326,42.968750
1327,42.968750
1328,42.968750
1329,42.968750
1330,42.968750
1331,42.968750
1332,42.968750
1333,42.968750
1334,42.968750
1335,42.968750
1336,42.968750
1337,42.968750
1338,42.968750
1339,42.968750
1340,42.968750
1341,42.968750
1342,42.968750
1343,42.968750
1344,42.968750
1345,42.968750
1346,42.968750
1347,42.968750
1348,42.968750
1349,42.968750
1350,42.968750
1351,42.968750
1352,42.968750
1353,42.968750
1354,42.968750
1355,42.968750
1356,42.968750
1357,42.968750
1358,42.968750
1359,42.968750
1360,42.968750
1361,42.968750
1362,42.968750
1363,42.968750
1364,42.968750
1365,42.968750
1366,42.968750
1367,42.968750
1368,42.968750
1369,42.968750
1370,39.062500
1371,42.968750
1372,39.062500
1373,39.062500
1374,42.968750
1375,39.062500
1376,39.062500
1377,39.062500
1378,39.062500
1379,39.062500
1380,39.062500
1381,39.062500
1382,39.062500
1383,39.062500
1384,39.062500
1385,39.062500
1386,39.062500
1387,39.062500
1388,39.062500
1389,39.062500
1390,39.062500
1391,39.062500
1392,39.062500
1393,39.062500
1394,39.062500
1395,35.156250
1396,39.062500
1397,39.062500
1398,39.062500
1399,39.062500
1400,39.062500
1401,39.062500
1402,35.156250
1403,35.156250
1404,35.156250
1405,35.156250
1406,35.156250
1407,35.156250
1408,35.156250
1409,35.156250
1410,35.156250
1411,35.156250
1412,35.156250
1413,35.156250
1414,35.156250
1415,35.156250
1416,35.156250
1417,35.156250
1418,35.156250
1419,35.156250
1420,35.156250
1421,35.156250
1422,35.156250
1423,31.250000
1424,31.250000
1425,31.250000
1426,31.250000
1427,31.250000
1428,31.250000
1429,31.250000
1430,31.250000
1431,31.250000
1432,31.250000
1433,31.250000
1434,31.250000
1435,31.250000
1436,31.250000
1437,31.250000
1438,31.250000
1439,31.250000
1440,31.250000
1441,27.343750
1442,31.250000
1443,27.343750
1444,27.343750
1445,27.343750
1446,27.343750
1447,27.343750
1448,27.343750
1449,27.343750
1450,27.343750
1451,27.343750
1452,27.343750
1453,27.343750
1454,27.343750
1455,27.343750
1456,27.343750
1457,27.343750
1458,27.343750
1459,23.437500
1460,23.437500
1461,23.437500
1462,23.437500
1463,23.437500
1464,23.437500
1465,23.437500
1466,23.437500
1467,23.437500
1468,23.437500
1469,23.437500
1470,23.437500
1471,19.531250
1472,19.531250
1473,19.531250
1474,19.531250
1475,19.531250
1476,19.531250
1477,19.531250
1478,19.531250
1479,19.531250
1480,19.531250
1481,19.531250
1482,19.531250
1483,19.531250
1484,19.531250
1485,15.625000
1486,15.625000
1487,15.625000
1488,15.625000
1489,15.625000
1490,15.625000
1491,15.625000
1492,15.625000
1493,15.625000
1494,15.625000
1495,15.625000
1496,15.625000
1497,11.718750
1498,11.718750
1499,11.718750
1500,11.718750
1501,11.718750
1502,11.718750
1503,11.718750
1504,11.718750
1505,11.718750
1506,11.718750
1507,11.718750
1508,7.812500
1509,7.812500
1510,7.812500
1511,7.812500
1512,7.812500
1513,7.812500
1514,7.812500
1515,7.812500
1516,7.812500
1517,7.812500
1518,3.906250
1519,3.906250
1520,3.906250
1521,3.906250
1522,3.906250
1523,3.906250
1524,3.906250
1525,3.906250
1526,3.906250
1527,3.906250
1528,3.906250
1529,3.906250
1530,3.906250
1531,3.906250
1532,0.000000
1533,0.000000
1534,0.000000
1535,-3.906250
1536,0.000000
1537,0.000000
1538,0.000000
1539,0.000000
1540,0.000000
1541,0.000000
1542,0.000000
1543,-3.906250
1544,-3.906250
1545,-3.906250
1546,-3.906250
1547,-3.906250
1548,-3.906250
1549,-3.906250
1550,-3.906250
1551,-3.906250
1552,-3.906250
1553,-7.812500
1554,-7.812500
1555,-7.812500
1556,-7.812500
1557,-7.812500
1558,-7.812500
1559,-7.812500
1560,-7.812500
1561,-7.812500
1562,-7.812500
1563,-11.718750
1564,-11.718750
1565,-11.718750
1566,-11.718750
1567,-11.718750
1568,-11.718750
1569,-11.718750
1570,-11.718750
1571,-11.718750
1572,-11.718750
1573,-11.718750
1574,-11.718750
1575,-11.718750
1576,-15.625000
1577,-15.625000
1578,-15.625000
1579,-15.625000
1580,-15.625000
1581,-15.625000
1582,-15.625000
1583,-15.625000
1584,-15.625000
1585,-19.531250
1586,-19.531250
1587,-19.531250
1588,-19.531250
1589,-19.531250
1590,-19.531250
1591,-19.531250
1592,-19.531250
1593,-19.531250
1594,-19.531250
1595,-19.531250
1596,-19.531250
1597,-23.437500
1598,-23.437500
1599,-23.437500
1600,-23.437500
1601,-23.437500
1602,-23.437500
1603,-23.437500
1604,-23.437500
1605,-23.437500
1606,-23.437500
1607,-27.343750
1608,-27.343750
1609,-27.343750
1610,-27.343750
1611,-27.343750
1612,-27.343750
1613,-27.343750
1614,-27.343750
1615,-27.343750
1616,-27.343750
1617,-31.250000
1618,-31.250000
1619,-31.250000
1620,-31.250000
1621,-31.250000
1622,-31.250000
1623,-31.250000
1624,-31.250000
1625,-31.250000
1626,-35.156250
1627,-35.156250
1628,-35.156250
1629,-35.156250
1630,-35.156250
1631,-35.156250
1632,-35.156250
1633,-35.156250
1634,-35.156250
1635,-35.156250
1636,-35.156250
1637,-35.156250
1638,-35.156250
1639,-35.156250
1640,-39.062500
1641,-39.062500
1642,-39.062500
1643,-39.062500
1644,-39.062500
1645,-39.062500
1646,-39.062500
1647,-39.062500
1648,-39.062500
1649,-39.062500
1650,-39.062500
1651,-42.968750
1652,-42.968750
1653,-42.968750
1654,-42.968750
1655,-42.968750
1656,-42.968750
1657,-42.968750
1658,-42.968750
1659,-42.968750
1660,-42.968750
1661,-42.968750
1662,-46.875000
1663,-46.875000
1664,-46.875000
1665,-46.875000
1666,-46.875000
1667,-46.875000
1668,-46.875000
1669,-46.875000
1670,-46.875000
1671,-46.875000
1672,-46.875000
1673,-46.875000
1674,-50.781250
1675,-46.875000
1676,-50.781250
1677,-50.781250
1678,-50.781250
1679,-50.781250
1680,-50.781250
1681,-50.781250
1682,-50.781250
1683,-50.781250
1684,-50.781250
1685,-50.781250
1686,-50.781250
1687,-50.781250
1688,-50.781250
1689,-50.781250
1690,-54.687500
1691,-54.687500
1692,-54.687500
1693,-54.687500
1694,-54.687500
1695,-54.687500
1696,-54.687500
1697,-54.687500
1698,-54.687500
1699,-54.687500
1700,-54.687500
1701,-54.687500
1702,-54.687500
1703,-58.593750
1704,-58.593750
1705,-58.593750
1706,-58.593750
1707,-58.593750
1708,-58.593750
1709,-58.593750
1710,-58.593750
1711,-58.593750
1712,-58.593750
1713,-58.593750
1714,-58.593750
1715,-58.593750
1716,-58.593750
1717,-58.593750
1718,-58.593750
1719,-58.593750
1720,-58.593750
1721,-58.593750
1722,-58.593750
1723,-62.500000
1724,-62.500000
1725,-62.500000
1726,-62.500000
1727,-62.500000
1728,-62.500000
1729,-62.500000
1730,-62.500000
1731,-62.500000
1732,-62.500000
1733,-62.500000
1734,-62.500000
1735,-62.500000
1736,-62.500000
1737,-62.500000
1738,-62.500000
1739,-66.406250
1740,-66.406250
1741,-66.406250
1742,-62.500000
1743,-66.406250
1744,-66.406250
1745,-66.406250
1746,-66.406250
1747,-66.406250
1748,-66.406250
1749,-66.406250
1750,-66.406250
1751,-66.406250
1752,-66.406250
1753,-66.406250
1754,-66.406250
1755,-66.406250
1756,-66.406250
1757,-66.406250
1758,-66.406250
1759,-66.406250
1760,-66.406250
1761,-66.406250
1762,-70.312500
1763,-66.406250
1764,-66.406250
1765,-66.406250
1766,-70.312500
1767,-66.406250
1768,-70.312500
1769,-70.312500
1770,-70.312500
1771,-70.312500
1772,-70.312500
1773,-70.312500
1774,-70.312500
1775,-70.312500
1776,-70.312500
1777,-70.312500
1778,-70.312500
1779,-70.312500
1780,-70.312500
1781,-70.312500
1782,-70.312500
1783,-70.312500
1784,-70.312500
1785,-70.312500
1786,-70.312500
1787,-70.312500
1788,-70.312500
1789,-70.312500
1790,-70.312500
1791,-70.312500
1792,-70.312500
1793,-70.312500
1794,-70.312500
1795,-70.312500
1796,-70.312500
1797,-70.312500
1798,-70.312500
1799,-70.312500
1800,-70.312500
1801,-70.312500
1802,-70.312500
1803,-70.312500
1804,-70.312500
1805,-70.312500
1806,-70.312500
1807,-70.312500
1808,-70.312500
1809,-70.312500
1810,-70.312500
1811,-70.312500
1812,-70.312500
1813,-70.312500
1814,-70.312500
1815,-70.312500
1816,-70.312500
1817,-70.312500
1818,-70.312500
1819,-70.312500
1820,-70.312500
1821,-70.312500
1822,-70.312500
1823,-70.312500
1824,-70.312500
1825,-70.312500
1826,-70.312500
1827,-70.312500
1828,-70.312500
1829,-70.312500
1830,-70.312500
1831,-70.312500
1832,-70.312500
1833,-70.312500
1834,-70.312500
1835,-70.312500
1836,-70.312500
1837,-70.312500
1838,-70.312500
1839,-70.312500
1840,-70.312500
1841,-70.312500
1842,-70.312500
1843,-70.312500
1844,-70.312500
1845,-70.312500
1846,-70.312500
1847,-70.312500
1848,-70.312500
1849,-70.312500
1850,-70.312500
1851,-70.312500
1852,-70.312500
1853,-70.312500
1854,-70.312500
1855,-70.312500
1856,-70.312500
1857,-70.312500
1858,-70.312500
1859,-70.312500
1860,-70.312500
1861,-70.312500
1862,-66.406250
1863,-70.312500
1864,-66.406250
1865,-66.406250
1866,-66.406250
1867,-66.406250
1868,-66.406250
1869,-66.406250
1870,-66.406250
1871,-66.406250
1872,-66.406250
1873,-66.406250
1874,-66.406250
1875,-66.406250
1876,-66.406250
1877,-66.406250
1878,-66.406250
1879,-66.406250
1880,-66.406250
1881,-66.406250
1882,-66.406250
1883,-66.406250
1884,-66.406250
1885,-66.406250
1886,-62.500000
1887,-66.406250
1888,-62.500000
1889,-62.500000
1890,-62.500000
1891,-62.500000
1892,-62.500000
1893,-62.500000
1894,-62.500000
1895,-62.500000
1896,-62.500000
1897,-62.500000
1898,-62.500000
1899,-62.500000
1900,-62.500000
1901,-62.500000
1902,-62.500000
1903,-62.500000
1904,-62.500000
1905,-62.500000
1906,-58.593750
1907,-58.593750
1908,-58.593750
1909,-62.500000
1910,-58.593750
1911,-58.593750
1912,-58.593750
1913,-58.593750
1914,-58.593750
1915,-58.593750
1916,-58.593750
1917,-58.593750
1918,-58.593750
1919,-58.593750
1920,-58.593750
1921,-58.593750
1922,-58.593750
1923,-58.593750
1924,-54.687500
1925,-54.687500
1926,-54.687500
1927,-54.687500
1928,-54.687500
1929,-54.687500
1930,-54.687500
1931,-54.687500
1932,-54.687500
1933,-54.687500
1934,-54.687500
1935,-54.687500
1936,-54.687500
1937,-50.781250
1938,-54.687500
1939,-50.781250
1940,-50.781250
1941,-50.781250
1942,-50.781250
1943,-50.781250
1944,-50.781250
1945,-50.781250
1946,-50.781250
1947,-50.781250
1948,-46.875000
1949,-50.781250
1950,-46.875000
1951,-46.875000
1952,-46.875000
1953,-46.875000
1954,-46.875000
1955,-46.875000
1956,-46.875000
1957,-46.875000
1958,-46.875000
1959,-46.875000
1960,-46.875000
1961,-46.875000
1962,-46.875000
1963,-46.875000
1964,-42.968750
1965,-42.968750
1966,-42.968750
1967,-42.968750
1968,-42.968750
1969,-42.968750
1970,-42.968750
1971,-42.968750
1972,-42.968750
1973,-42.968750
1974,-39.062500
1975,-39.062500
1976,-39.062500
1977,-42.968750
1978,-39.062500
1979,-39.062500
1980,-39.062500
1981,-39.062500
1982,-39.062500
1983,-39.062500
1984,-39.062500
1985,-39.062500
1986,-39.062500
1987,-39.062500
1988,-35.156250
1989,-35.156250
1990,-35.156250
1991,-35.156250
1992,-35.156250
1993,-35.156250
1994,-35.156250
1995,-35.156250
1996,-35.156250
1997,-35.156250
1998,-31.250000
1999,-35.156250
2000,-35.156250
2001,-31.250000
2002,-31.250000
2003,-31.250000
2004,-31.250000
2005,-31.250000
2006,-31.250000
2007,-31.250000
2008,-31.250000
2009,-31.250000
2010,-27.343750
2011,-31.250000
2012,-27.343750
2013,-27.343750
2014,-27.343750
2015,-27.343750
2016,-27.343750
2017,-27.343750
2018,-27.343750
2019,-27.343750
2020,-27.343750
2021,-23.437500
2022,-23.437500
2023,-23.437500
2024,-23.437500
2025,-23.437500
2026,-23.437500
2027,-23.437500
2028,-23.437500
2029,-23.437500
2030,-23.437500
2031,-23.437500
2032,-19.531250
2033,-19.531250
2034,-19.531250
2035,-19.531250
2036,-19.531250
2037,-19.531250
2038,-19.531250
2039,-19.531250
2040,-19.531250
2041,-19.531250
2042,-15.625000
2043,-15.625000
2044,-15.625000
2045,-15.625000
2046,-15.625000
2047,-15.625000
2048,-15.625000
2049,-15.625000
2050,-15.625000
2051,-15.625000
2052,-11.718750
2053,-15.625000
2054,-11.718750
2055,-11.718750
2056,-11.718750
2057,-11.718750
2058,-11.718750
2059,-11.718750
2060,-11.718750
2061,-7.812500
2062,-11.718750
2063,-11.718750
2064,-7.812500
2065,-7.812500
2066,-7.812500
2067,-7.812500
2068,-7.812500
2069,-7.812500
2070,-7.812500
2071,-7.812500
2072,-7.812500
2073,-3.906250
2074,-3.906250
2075,-3.906250
2076,-3.906250
2077,-3.906250
2078,-3.906250
2079,-3.906250
2080,-3.906250
2081,-3.906250
2082,-3.906250
2083,0.000000
2084,0.000000
2085,0.000000
2086,0.000000
2087,0.000000
2088,0.000000
2089,0.000000
2090,0.000000
2091,0.000000
2092,0.000000
2093,0.000000
2094,3.906250
2095,3.906250
2096,3.906250
2097,3.906250
2098,3.906250
2099,3.906250
2100,3.906250
2101,3.906250
2102,3.906250
2103,3.906250
2104,3.906250
2105,7.812500
2106,7.812500
2107,7.812500
2108,7.812500
2109,7.812500
2110,7.812500
2111,7.812500
2112,7.812500
2113,7.812500
2114,7.812500
2115,7.812500
2116,7.812500
2117,11.718750
2118,11.718750
2119,11.718750
2120,11.718750
2121,11.718750
2122,11.718750
2123,11.718750
2124,11.718750
2125,11.718750
2126,11.718750
2127,11.718750
2128,15.625000
2129,15.625000
2130,15.625000
2131,15.625000
2132,15.625000
2133,15.625000
2134,15.625000
2135,15.625000
2136,15.625000
2137,15.625000
2138,15.625000
2139,15.625000
2140,19.531250
2141,19.531250
2142,15.625000
2143,15.625000
2144,19.531250
2145,19.531250
2146,19.531250
2147,19.531250
2148,19.531250
2149,19.531250
2150,19.531250
2151,19.531250
2152,19.531250
2153,19.531250
2154,19.531250
2155,19.531250
2156,23.437500
2157,23.437500
2158,23.437500
2159,23.437500
2160,23.437500
2161,23.437500
2162,23.437500
2163,23.437500
2164,23.437500
2165,23.437500
2166,23.437500
2167,23.437500
2168,23.437500
2169,23.437500
2170,23.437500
2171,23.437500
2172,27.343750
2173,27.343750
2174,27.343750
2175,27.343750
2176,27.343750
2177,27.343750
2178,27.343750
2179,27.343750
2180,27.343750
2181,27.343750
2182,27.343750
2183,27.343750
2184,31.250000
2185,27.343750
2186,31.250000
2187,31.250000
2188,31.250000
2189,31.250000
2190,31.250000
2191,31.250000
2192,31.250000
2193,31.250000
2194,31.250000
2195,31.250000
2196,31.250000
2197,31.250000
2198,31.250000
2199,31.250000
2200,31.250000
2201,35.156250
2202,35.156250
2203,31.250000
2204,35.156250
2205,35.156250
2206,35.156250
2207,35.156250
2208,35.156250
2209,35.156250
2210,35.156250
2211,35.156250
2212,35.156250
2213,35.156250
2214,35.156250
2215,35.156250
2216,35.156250
2217,35.156250
2218,35.156250
2219,35.156250
2220,39.062500
2221,35.156250
2222,35.156250
2223,35.156250
2224,39.062500
2225,39.062500
2226,39.062500
2227,39.062500
2228,39.062500
2229,39.062500
2230,39.062500
2231,39.062500
2232,39.062500
2233,39.062500
2234,39.062500
2235,39.062500
2236,39.062500
2237,39.062500
2238,39.062500
2239,39.062500
2240,39.062500
2241,39.062500
2242,39.062500
2243,39.062500
2244,39.062500
2245,39.062500
2246,39.062500
2247,39.062500
2248,39.062500
2249,39.062500
2250,39.062500
2251,42.968750
2252,42.968750
2253,42.968750
2254,42.968750
2255,42.968750
2256,39.062500
2257,39.062500
2258,42.968750
2259,42.968750
2260,42.968750
2261,42.968750
2262,42.968750
2263,42.968750
2264,42.968750
2265,42.968750
2266,42.968750
2267,42.968750
2268,42.968750
2269,42.968750
2270,42.968750
2271,42.968750
2272,42.968750
2273,42.968750
2274,42.968750
2275,42.968750
2276,42.968750
2277,42.968750
2278,42.968750
2279,42.968750
2280,42.968750
2281,42.968750
2282,42.968750
2283,42.968750
2284,42.968750
2285,42.968750
2286,42.968750
2287,42.968750
2288,42.968750
2289,42.968750
2290,42.968750
2291,42.968750
2292,42.968750
2293,42.968750
2294,42.968750
2295,42.968750
2296,42.968750
2297,42.968750
2298,42.968750
2299,42.968750
2300,42.968750
2301,42.968750
2302,42.968750
2303,42.968750
2304,42.968750
2305,42.968750
2306,42.968750
2307,42.968750
2308,42.968750
2309,42.968750
2310,42.968750
2311,42.968750
2312,42.968750
2313,42.968750
2314,42.968750
2315,42.968750
2316,42.968750
2317,42.968750
2318,42.968750
2319,42.968750
2320,42.968750
2321,42.968750
2322,42.968750
2323,42.968750
2324,42.968750
2325,42.968750
2326,42.968750
2327,42.968750
2328,46.875000
2329,42.968750
2330,42.968750
2331,42.968750
2332,42.968750
2333,42.968750
2334,42.968750
2335,42.968750
2336,42.968750
2337,42.968750
2338,42.968750
2339,42.968750
2340,42.968750
2341,42.968750
2342,42.968750
2343,42.968750
2344,42.968750
2345,42.968750
2346,42.968750
2347,42.968750
2348,42.968750
2349,42.968750
2350,42.968750
2351,42.968750
2352,42.968750
2353,42.968750
2354,42.968750
2355,42.968750
2356,42.968750
2357,42.968750
2358,42.968750
2359,42.968750
2360,42.968750
2361,39.062500
2362,42.968750
2363,42.968750
2364,39.062500
2365,39.062500
2366,39.062500
2367,39.062500
2368,39.062500
2369,39.062500
2370,39.062500
2371,39.062500
2372,39.062500
2373,39.062500
2374,39.062500
2375,39.062500
2376,39.062500
2377,39.062500
2378,39.062500
2379,39.062500
2380,39.062500
2381,39.062500
2382,39.062500
2383,39.062500
2384,39.062500
2385,39.062500
2386,39.062500
2387,39.062500
2388,35.156250
2389,39.062500
2390,39.062500
2391,39.062500
2392,35.156250
2393,35.156250
2394,39.062500
2395,35.156250
2396,35.156250
2397,35.156250
2398,35.156250
2399,35.156250
2400,35.156250
2401,35.156250
2402,35.156250
2403,35.156250
2404,35.156250
2405,35.156250
2406,35.156250
2407,35.156250
2408,35.156250
2409,31.250000
2410,35.156250
2411,31.250000
2412,31.250000
2413,31.250000
2414,31.250000
2415,31.250000
2416,31.250000
2417,31.250000
2418,31.250000
2419,31.250000
2420,31.250000
2421,31.250000
2422,31.250000
2423,31.250000
2424,31.250000
2425,31.250000
2426,31.250000
2427,27.343750
2428,27.343750
2429,27.343750
2430,27.343750
2431,27.343750
2432,27.343750
2433,27.343750
2434,27.343750
2435,27.343750
2436,27.343750
2437,27.343750
2438,27.343750
2439,27.343750
2440,27.343750
2441,27.343750
2442,27.343750
2443,27.343750
2444,27.343750
2445,23.437500
2446,23.437500
2447,23.437500
2448,23.437500
2449,23.437500
2450,23.437500
2451,23.437500
2452,23.437500
2453,23.437500
2454,23.437500
2455,23.437500
2456,23.437500
2457,23.437500
2458,23.437500
2459,19.531250
2460,23.437500
2461,19.531250
2462,19.531250
2463,19.531250
2464,19.531250
2465,19.531250
2466,19.531250
2467,19.531250
2468,19.531250
2469,19.531250
2470,19.531250
2471,19.531250
2472,19.531250
2473,19.531250
2474,15.625000
2475,15.625000
2476,15.625000
2477,15.625000
2478,15.625000
2479,15.625000
2480,15.625000
2481,15.625000
2482,15.625000
2483,15.625000
2484,15.625000
2485,15.625000
2486,11.718750
2487,11.718750
2488,11.718750
2489,11.718750
2490,11.718750
2491,11.718750
2492,11.718750
2493,11.718750
2494,11.718750
2495,11.718750
2496,7.812500
2497,7.812500
2498,7.812500
2499,7.812500
2500,7.812500
2501,7.812500
2502,7.812500
2503,7.812500
2504,7.812500
2505,7.812500
2506,7.812500
2507,7.812500
2508,7.812500
2509,3.906250
2510,3.906250
2511,3.906250
2512,3.906250
2513,3.906250
2514,3.906250
2515,3.906250
2516,3.906250
2517,3.906250
2518,3.906250
2519,3.906250
2520,0.000000
2521,0.000000
2522,0.000000
2523,0.000000
2524,0.000000
2525,0.000000
2526,0.000000
2527,0.000000
2528,0.000000
2529,0.000000
2530,0.000000
2531,-3.906250
2532,-3.906250
2533,-3.906250
2534,-3.906250
2535,-3.906250
2536,-3.906250
2537,-3.906250
2538,-3.906250
2539,-3.906250
2540,-3.906250
2541,-3.906250
2542,-3.906250
2543,-7.812500
2544,-7.812500
2545,-7.812500
2546,-7.812500
2547,-7.812500
2548,-7.812500
2549,-7.812500
2550,-7.812500
2551,-7.812500
2552,-7.812500
2553,-11.718750
2554,-11.718750
2555,-11.718750
2556,-11.718750
2557,-11.718750
2558,-11.718750
2559,-11.718750
2560,-11.718750
2561,-11.718750
2562,-11.718750
2563,-11.718750
2564,-15.625000
2565,-15.625000
2566,-15.625000
2567,-15.625000
2568,-15.625000
2569,-15.625000
2570,-15.625000
2571,-15.625000
2572,-15.625000
2573,-15.625000
2574,-15.625000
2575,-15.625000
2576,-19.531250
2577,-19.531250
2578,-19.531250
2579,-19.531250
2580,-19.531250
2581,-19.531250
2582,-19.531250
2583,-19.531250
2584,-19.531250
2585,-19.531250
2586,-19.531250
2587,-19.531250
2588,-23.437500
2589,-23.437500
2590,-23.437500
2591,-23.437500
2592,-23.437500
2593,-23.437500
2594,-23.437500
2595,-23.437500
2596,-27.343750
2597,-27.343750
2598,-27.343750
2599,-27.343750
2600,-27.343750
2601,-27.343750
2602,-27.343750
2603,-27.343750
2604,-27.343750
2605,-27.343750
2606,-27.343750
2607,-31.250000
2608,-31.250000
2609,-31.250000
2610,-31.250000
2611,-31.250000
2612,-31.250000
2613,-31.250000
2614,-31.250000
2615,-31.250000
2616,-31.250000
2617,-31.250000
2618,-35.156250
2619,-35.156250
2620,-35.156250
2621,-35.156250
2622,-35.156250
2623,-35.156250
2624,-35.156250
2625,-35.156250
2626,-35.156250
2627,-35.156250
2628,-35.156250
2629,-39.062500
2630,-39.062500
2631,-39.062500
2632,-39.062500
2633,-39.062500
2634,-39.062500
2635,-39.062500
2636,-39.062500
2637,-39.062500
2638,-39.062500
2639,-39.062500
2640,-39.062500
2641,-39.062500
2642,-39.062500
2643,-42.968750
2644,-42.968750
2645,-42.968750
2646,-42.968750
2647,-42.968750
2648,-42.968750
2649,-42.968750
2650,-42.968750
2651,-42.968750
2652,-42.968750
2653,-46.875000
2654,-46.875000
2655,-46.875000
2656,-46.875000
2657,-46.875000
2658,-46.875000
2659,-46.875000
2660,-46.875000
2661,-46.875000
2662,-46.875000
2663,-46.875000
2664,-46.875000
2665,-50.781250
2666,-50.781250
2667,-50.781250
2668,-50.781250
2669,-50.781250
2670,-50.781250
2671,-50.781250
2672,-50.781250
2673,-50.781250
2674,-50.781250
2675,-50.781250
2676,-50.781250
2677,-54.687500
2678,-50.781250
2679,-54.687500
2680,-50.781250
2681,-54.687500
2682,-54.687500
2683,-54.687500
2684,-54.687500
2685,-54.687500
2686,-54.687500
2687,-54.687500
2688,-54.687500
2689,-54.687500
2690,-54.687500
2691,-54.687500
2692,-54.687500
2693,-54.687500
2694,-58.593750
2695,-58.593750
2696,-58.593750
2697,-58.593750
2698,-58.593750
2699,-58.593750
2700,-58.593750
2701,-58.593750
2702,-58.593750
2703,-58.593750
2704,-58.593750
2705,-58.593750
2706,-58.593750
2707,-58.593750
2708,-62.500000
2709,-62.500000
2710,-62.500000
2711,-62.500000
2712,-62.500000
2713,-62.500000
2714,-62.500000
2715,-62.500000
2716,-62.500000
2717,-62.500000
2718,-62.500000
2719,-62.500000
2720,-62.500000
2721,-62.500000
2722,-62.500000
2723,-62.500000
2724,-62.500000
2725,-62.500000
2726,-62.500000
2727,-62.500000
2728,-62.500000
2729,-62.500000
2730,-66.406250
2731,-66.406250
2732,-66.406250
2733,-66.406250
2734,-66.406250
2735,-66.406250
2736,-66.406250
2737,-66.406250
2738,-66.406250
2739,-66.406250
2740,-66.406250
2741,-66.406250
2742,-66.406250
2743,-66.406250
2744,-66.406250
2745,-66.406250
2746,-66.406250
2747,-66.406250
2748,-66.406250
2749,-66.406250
2750,-66.406250
2751,-66.406250
2752,-66.406250
2753,-66.406250
2754,-66.406250
2755,-66.406250
2756,-66.406250
2757,-70.312500
2758,-70.312500
2759,-70.312500
2760,-70.312500
2761,-70.312500
2762,-70.312500
2763,-70.312500
2764,-70.312500
2765,-70.312500
2766,-70.312500
2767,-70.312500
2768,-70.312500
2769,-70.312500
2770,-70.312500
2771,-70.312500
2772,-70.312500
2773,-70.312500
2774,-70.312500
2775,-70.312500
2776,-70.312500
2777,-70.312500
2778,-70.312500
2779,-70.312500
2780,-70.312500
2781,-70.312500
2782,-70.312500
2783,-70.312500
2784,-70.312500
2785,-70.312500
2786,-70.312500
2787,-70.312500
2788,-70.312500
2789,-70.312500
2790,-70.312500
2791,-70.312500
2792,-70.312500
2793,-74.218750
2794,-70.312500
2795,-70.312500
2796,-70.312500
2797,-70.312500
2798,-70.312500
2799,-70.312500
2800,-70.312500
2801,-74.218750
2802,-70.312500
2803,-70.312500
2804,-70.312500
2805,-70.312500
2806,-70.312500
2807,-70.312500
2808,-70.312500
2809,-70.312500
2810,-70.312500
2811,-70.312500
2812,-70.312500
2813,-70.312500
2814,-70.312500
2815,-70.312500
2816,-70.312500
2817,-70.312500
2818,-70.312500
2819,-70.312500
2820,-70.312500
2821,-70.312500
2822,-70.312500
2823,-70.312500
2824,-70.312500
2825,-70.312500
2826,-70.312500
2827,-70.312500
2828,-70.312500
2829,-70.312500
2830,-70.312500
2831,-70.312500
2832,-70.312500
2833,-70.312500
2834,-70.312500
2835,-70.312500
2836,-70.312500
2837,-70.312500
2838,-70.312500
2839,-70.312500
2840,-70.312500
2841,-70.312500
2842,-70.312500
2843,-70.312500
2844,-70.312500
2845,-70.312500
2846,-70.312500
2847,-70.312500
2848,-70.312500
2849,-70.312500
2850,-70.312500
2851,-66.406250
2852,-70.312500
2853,-70.312500
2854,-66.406250
2855,-66.406250
2856,-66.406250
2857,-66.406250
2858,-66.406250
2859,-66.406250
2860,-66.406250
2861,-66.406250
2862,-66.406250
2863,-66.406250
2864,-66.406250
2865,-66.406250
2866,-66.406250
2867,-66.406250
2868,-66.406250
2869,-66.406250
2870,-66.406250
2871,-66.406250
2872,-66.406250
2873,-66.406250
2874,-66.406250
2875,-66.406250
2876,-66.406250
2877,-62.500000
2878,-62.500000
2879,-62.500000
2880,-62.500000
2881,-62.500000
2882,-66.406250
2883,-62.500000
2884,-62.500000
2885,-62.500000
2886,-62.500000
2887,-62.500000
2888,-62.500000
2889,-62.500000
2890,-62.500000
2891,-62.500000
2892,-62.500000
2893,-62.500000
2894,-62.500000
2895,-62.500000
2896,-62.500000
2897,-62.500000
2898,-58.593750
2899,-58.593750
2900,-58.593750
2901,-58.593750
2902,-58.593750
2903,-58.593750
2904,-58.593750
2905,-58.593750
2906,-58.593750
2907,-58.593750
2908,-58.593750
2909,-58.593750
2910,-58.593750
2911,-58.593750
2912,-58.593750
2913,-54.687500
2914,-58.593750
2915,-54.687500
2916,-54.687500
2917,-54.687500
2918,-54.687500
2919,-54.687500
2920,-54.687500
2921,-54.687500
2922,-54.687500
2923,-54.687500
2924,-54.687500
2925,-54.687500
2926,-54.687500
2927,-50.781250
2928,-50.781250
2929,-50.781250
2930,-50.781250
2931,-50.781250
2932,-50.781250
2933,-50.781250
2934,-50.781250
2935,-50.781250
2936,-50.781250
2937,-50.781250
2938,-50.781250
2939,-50.781250
2940,-50.781250
2941,-50.781250
2942,-50.781250
2943,-46.875000
2944,-46.875000
2945,-46.875000
2946,-46.875000
2947,-46.875000
2948,-46.875000
2949,-46.875000
2950,-46.875000
2951,-46.875000
2952,-46.875000
2953,-46.875000
2954,-42.968750
2955,-42.968750
2956,-42.968750
2957,-42.968750
2958,-42.968750
2959,-42.968750
2960,-42.968750
2961,-42.968750
2962,-42.968750
2963,-42.968750
2964,-42.968750
2965,-39.062500
2966,-39.062500
2967,-39.062500
2968,-39.062500
2969,-39.062500
2970,-39.062500
2971,-39.062500
2972,-39.062500
2973,-39.062500
2974,-35.156250
2975,-39.062500
2976,-35.156250
2977,-35.156250
2978,-35.156250
2979,-35.156250
2980,-35.156250
2981,-35.156250
2982,-35.156250
2983,-35.156250
2984,-35.156250
2985,-35.156250
2986,-35.156250
2987,-31.250000
2988,-31.250000
2989,-35.156250
2990,-31.250000
2991,-31.250000
2992,-31.250000
2993,-31.250000
2994,-31.250000
2995,-31.250000
2996,-31.250000
2997,-31.250000
2998,-27.343750
2999,-27.343750
3000,-27.343750
3001,-27.343750
3002,-27.343750
3003,-27.343750
3004,-27.343750
3005,-27.343750
3006,-27.343750
3007,-27.343750
3008,-23.437500
3009,-27.343750
3010,-23.437500
3011,-23.437500
3012,-23.437500
3013,-23.437500
3014,-23.437500
3015,-23.437500
3016,-23.437500
3017,-23.437500
3018,-23.437500
3019,-23.437500
3020,-19.531250
3021,-19.531250
3022,-19.531250
3023,-19.531250
3024,-19.531250
3025,-19.531250
3026,-19.531250
3027,-19.531250
3028,-19.531250
3029,-19.531250
3030,-19.531250
3031,-15.625000
3032,-15.625000
3033,-15.625000
3034,-15.625000
3035,-15.625000
3036,-15.625000
3037,-15.625000
3038,-15.625000
3039,-15.625000
3040,-15.625000
3041,-11.718750
3042,-11.718750
3043,-11.718750
3044,-11.718750
3045,-11.718750
3046,-11.718750
3047,-11.718750
3048,-11.718750
3049,-11.718750
3050,-11.718750
3051,-7.812500
3052,-11.718750
3053,-7.812500
3054,-7.812500
3055,-7.812500
3056,-7.812500
3057,-7.812500
3058,-7.812500
3059,-7.812500
3060,-7.812500
3061,-7.812500
3062,-3.906250
3063,-3.906250
3064,-3.906250
3065,-3.906250
3066,-3.906250
3067,-3.906250
3068,-3.906250
3069,-3.906250
3070,-3.906250
3071,-3.906250
3072,-3.906250
3073,-3.906250
3074,0.000000
3075,0.000000
3076,0.000000
3077,0.000000
3078,0.000000
3079,0.000000
3080,0.000000
3081,0.000000
3082,0.000000
3083,3.906250
3084,3.906250
3085,3.906250
3086,3.906250
3087,3.906250
3088,3.906250
3089,3.906250
3090,3.906250
3091,3.906250
3092,3.906250
3093,3.906250
3094,3.906250
3095,3.906250
3096,7.812500
3097,7.812500
3098,7.812500
3099,7.812500
3100,7.812500
3101,7.812500
3102,7.812500
3103,7.812500
3104,7.812500
3105,7.812500
3106,11.718750
3107,11.718750
3108,11.718750
3109,11.718750
3110,11.718750
3111,11.718750
3112,11.718750
3113,11.718750
3114,11.718750
3115,11.718750
3116,11.718750
3117,15.625000
3118,11.718750
3119,15.625000
3120,15.625000
3121,15.625000
3122,15.625000
3123,15.625000
3124,15.625000
3125,15.625000
3126,15.625000
3127,15.625000
3128,15.625000
3129,15.625000
3130,19.531250
3131,19.531250
3132,19.531250
3133,19.531250
3134,19.531250
3135,19.531250
3136,19.531250
3137,19.531250
3138,19.531250
3139,19.531250
3140,19.531250
3141,19.531250
3142,19.531250
3143,19.531250
3144,19.531250
3145,19.531250
3146,23.437500
3147,23.437500
3148,23.437500
3149,23.437500
3150,23.437500
3151,23.437500
3152,23.437500
3153,23.437500
3154,23.437500
3155,23.437500
3156,23.437500
3157,23.437500
3158,23.437500
3159,27.343750
3160,27.343750
3161,27.343750
3162,27.343750
3163,27.343750
3164,27.343750
3165,27.343750
3166,27.343750
3167,27.343750
3168,27.343750
3169,27.343750
3170,27.343750
3171,27.343750
3172,27.343750
3173,27.343750
3174,27.343750
3175,27.343750
3176,27.343750
3177,31.250000
3178,31.250000
3179,31.250000
3180,31.250000
3181,31.250000
3182,31.250000
3183,31.250000
3184,31.250000
3185,31.250000
3186,31.250000
3187,31.250000
3188,31.250000
3189,31.250000
3190,31.250000
3191,31.250000
3192,31.250000
3193,31.250000
3194,31.250000
3195,31.250000
3196,35.156250
3197,35.156250
3198,35.156250
3199,35.156250
3200,35.156250
3201,35.156250
3202,35.156250
3203,35.156250
3204,35.156250
3205,35.156250
3206,35.156250
3207,35.156250
3208,35.156250
3209,35.156250
3210,39.062500
3211,35.156250
3212,35.156250
3213,35.156250
3214,35.156250
3215,35.156250
3216,39.062500
3217,39.062500
3218,39.062500
3219,39.062500
3220,39.062500
3221,39.062500
3222,39.062500
3223,39.062500
3224,39.062500
3225,39.062500
3226,39.062500
3227,39.062500
3228,39.062500
3229,39.062500
3230,39.062500
3231,39.062500
3232,39.062500
3233,39.062500
3234,39.062500
3235,39.062500
3236,39.062500
3237,39.062500
3238,39.062500
3239,39.062500
3240,39.062500
3241,42.968750
3242,39.062500
3243,42.968750
3244,42.968750
3245,42.968750
3246,42.968750
3247,42.968750
3248,42.968750
3249,42.968750
3250,42.968750
3251,42.968750
3252,42.968750
3253,42.968750
3254,42.968750
3255,42.968750
3256,42.968750
3257,42.968750
3258,42.968750
3259,42.968750
3260,42.968750
3261,42.968750
3262,42.968750
3263,42.968750
3264,42.968750
3265,42.968750
3266,42.968750
3267,42.968750
3268,42.968750
3269,42.968750
3270,42.968750
3271,42.968750
3272,42.968750
3273,42.968750
3274,42.968750
3275,42.968750
3276,42.968750
3277,42.968750
3278,42.968750
3279,42.968750
3280,42.968750
3281,42.968750
3282,42.968750
3283,42.968750
3284,42.968750
3285,42.968750
3286,42.968750
3287,42.968750
3288,42.968750
3289,42.968750
3290,42.968750
3291,42.968750
3292,42.968750
3293,42.968750
3294,42.968750
3295,42.968750
3296,42.968750
3297,42.968750
3298,42.968750
3299,42.968750
3300,42.968750
3301,42.968750
3302,42.968750
3303,42.968750
3304,42.968750
3305,42.968750
3306,42.968750
3307,42.968750
3308,42.968750
3309,42.968750
3310,42.968750
3311,42.968750
3312,42.968750
3313,42.968750
3314,42.968750
3315,42.968750
3316,42.968750
3317,42.968750
3318,42.968750
3319,42.968750
3320,42.968750
3321,42.968750
3322,42.968750
3323,42.968750
3324,42.968750
3325,42.968750
3326,42.968750
3327,42.968750
3328,42.968750
3329,42.968750
3330,42.968750
3331,42.968750
3332,42.968750
3333,42.968750
3334,42.968750
3335,42.968750
3336,42.968750
3337,42.968750
3338,42.968750
3339,42.968750
3340,42.968750
3341,42.968750
3342,42.968750
3343,39.062500
3344,42.968750
3345,39.062500
3346,42.968750
3347,42.968750
3348,42.968750
3349,42.968750
3350,42.968750
3351,42.968750
3352,39.062500
3353,39.062500
3354,42.968750
3355,39.062500
3356,39.062500
3357,39.062500
3358,39.062500
3359,39.062500
3360,39.062500
3361,39.062500
3362,39.062500
3363,39.062500
3364,39.062500
3365,39.062500
3366,39.062500
3367,39.062500
3368,39.062500
3369,39.062500
3370,39.062500
3371,39.062500
3372,39.062500
3373,39.062500
3374,39.062500
3375,39.062500
3376,39.062500
3377,39.062500
3378,39.062500
3379,35.156250
3380,39.062500
3381,39.062500
3382,35.156250
3383,35.156250
3384,35.156250
3385,35.156250
3386,35.156250
3387,35.156250
3388,35.156250
3389,35.156250
3390,35.156250
3391,35.156250
3392,35.156250
3393,35.156250
3394,35.156250
3395,35.156250
3396,35.156250
3397,35.156250
3398,35.156250
3399,35.156250
3400,31.250000
3401,31.250000
3402,31.250000
3403,31.250000
3404,31.250000
3405,31.250000
3406,31.250000
3407,31.250000
3408,31.250000
3409,31.250000
3410,31.250000
3411,31.250000
3412,31.250000
3413,31.250000
3414,31.250000
3415,31.250000
3416,31.250000
3417,31.250000
3418,27.343750
3419,31.250000
3420,27.343750
3421,31.250000
3422,27.343750
3423,27.343750
3424,27.343750
3425,27.343750
3426,27.343750
3427,27.343750
3428,27.343750
3429,27.343750
3430,27.343750
3431,27.343750
3432,27.343750
3433,27.343750
3434,27.343750
3435,23.437500
3436,23.437500
3437,23.437500
3438,23.437500
3439,23.437500
3440,23.437500
3441,23.437500
3442,23.437500
3443,23.437500
3444,23.437500
3445,23.437500
3446,23.437500
3447,23.437500
3448,19.531250
3449,23.437500
3450,19.531250
3451,19.531250
3452,19.531250
3453,19.531250
3454,19.531250
3455,19.531250
3456,19.531250
3457,19.531250
3458,19.531250
3459,19.531250
3460,19.531250
3461,15.625000
3462,15.625000
3463,15.625000
3464,15.625000
3465,15.625000
3466,15.625000
3467,15.625000
3468,15.625000
3469,15.625000
3470,15.625000
3471,15.625000
3472,15.625000
3473,15.625000
3474,11.718750
3475,11.718750
3476,11.718750
3477,11.718750
3478,11.718750
3479,11.718750
3480,11.718750
3481,11.718750
3482,11.718750
3483,11.718750
3484,11.718750
3485,11.718750
3486,7.812500
3487,7.812500
3488,7.812500
3489,7.812500
3490,7.812500
3491,7.812500
3492,7.812500
3493,7.812500
3494,7.812500
3495,7.812500
3496,7.812500
3497,7.812500
3498,7.812500
3499,3.906250
3500,3.906250
3501,7.812500
3502,3.906250
3503,3.906250
3504,3.906250
3505,3.906250
3506,3.906250
3507,3.906250
3508,3.906250
3509,3.906250
3510,3.906250
3511,0.000000
3512,0.000000
3513,0.000000
3514,0.000000
3515,0.000000
3516,0.000000
3517,0.000000
3518,0.000000
3519,0.000000
3520,0.000000
3521,-3.906250
3522,0.000000
3523,-3.906250
3524,-3.906250
3525,-3.906250
3526,-3.906250
3527,-3.906250
3528,-3.906250
3529,-3.906250
3530,-3.906250
3531,-3.906250
3532,-3.906250
3533,-7.812500
3534,-7.812500
3535,-7.812500
3536,-7.812500
3537,-7.812500
3538,-7.812500
3539,-7.812500
3540,-7.812500
3541,-7.812500
3542,-7.812500
3543,-7.812500
3544,-11.718750
3545,-11.718750
3546,-11.718750
3547,-11.718750
3548,-11.718750
3549,-11.718750
3550,-11.718750
3551,-11.718750
3552,-11.718750
3553,-15.625000
3554,-15.625000
3555,-15.625000
3556,-15.625000
3557,-15.625000
3558,-15.625000
3559,-15.625000
3560,-15.625000
3561,-15.625000
3562,-15.625000
3563,-15.625000
3564,-15.625000
3565,-19.531250
3566,-19.531250
3567,-19.531250
3568,-19.531250
3569,-19.531250
3570,-19.531250
3571,-19.531250
3572,-19.531250
3573,-19.531250
3574,-19.531250
3575,-23.437500
3576,-23.437500
3577,-23.437500
3578,-23.437500
3579,-23.437500
3580,-23.437500
3581,-23.437500
3582,-23.437500
3583,-23.437500
3584,-23.437500
3585,-23.437500
3586,-27.343750
3587,-27.343750
3588,-27.343750
3589,-27.343750
3590,-27.343750
3591,-27.343750
3592,-27.343750
3593,-27.343750
3594,-27.343750
3595,-27.343750
3596,-31.250000
3597,-31.250000
3598,-31.250000
3599,-31.250000
3600,-31.250000
3601,-31.250000
3602,-31.250000
3603,-31.250000
3604,-31.250000
3605,-31.250000
3606,-31.250000
3607,-31.250000
3608,-35.156250
3609,-35.156250
3610,-35.156250
3611,-35.156250
3612,-35.156250
3613,-35.156250
3614,-35.156250
3615,-35.156250
3616,-35.156250
3617,-35.156250
3618,-35.156250
3619,-39.062500
3620,-39.062500
3621,-39.062500
3622,-39.062500
3623,-39.062500
3624,-39.062500
3625,-39.062500
3626,-39.062500
3627,-39.062500
3628,-39.062500
3629,-39.062500
3630,-39.062500
3631,-42.968750
3632,-42.968750
3633,-42.968750
3634,-42.968750
3635,-42.968750
3636,-42.968750
3637,-42.968750
3638,-42.968750
3639,-42.968750
3640,-42.968750
3641,-42.968750
3642,-46.875000
3643,-46.875000
3644,-46.875000
3645,-46.875000
3646,-46.875000
3647,-46.875000
3648,-46.875000
3649,-46.875000
3650,-46.875000
3651,-46.875000
3652,-46.875000
3653,-46.875000
3654,-46.875000
3655,-50.781250
3656,-50.781250
3657,-50.781250
3658,-50.781250
3659,-50.781250
3660,-50.781250
3661,-50.781250
3662,-50.781250
3663,-50.781250
3664,-50.781250
3665,-50.781250
3666,-50.781250
3667,-54.687500
3668,-54.687500
3669,-54.687500
3670,-54.687500
3671,-54.687500
3672,-54.687500
3673,-54.687500
3674,-54.687500
3675,-54.687500
3676,-54.687500
3677,-54.687500
3678,-54.687500
3679,-58.593750
3680,-54.687500
3681,-54.687500
3682,-54.687500
3683,-58.593750
3684,-58.593750
3685,-58.593750
3686,-58.593750
3687,-58.593750
3688,-58.593750
3689,-58.593750
3690,-58.593750
3691,-58.593750
3692,-58.593750
3693,-58.593750
3694,-58.593750
3695,-58.593750
3696,-58.593750
3697,-62.500000
3698,-58.593750
3699,-62.500000
3700,-62.500000
3701,-62.500000
3702,-62.500000
3703,-62.500000
3704,-62.500000
3705,-62.500000
3706,-62.500000
3707,-62.500000
3708,-62.500000
3709,-62.500000
3710,-62.500000
3711,-62.500000
3712,-62.500000
3713,-62.500000
3714,-62.500000
3715,-62.500000
3716,-62.500000
3717,-66.406250
3718,-66.406250
3719,-66.406250
3720,-66.406250
3721,-66.406250
3722,-66.406250
3723,-66.406250
3724,-66.406250
3725,-66.406250
3726,-66.406250
3727,-66.406250
3728,-66.406250
3729,-66.406250
3730,-66.406250
3731,-66.406250
3732,-66.406250
3733,-66.406250
3734,-66.406250
3735,-66.406250
3736,-66.406250
3737,-66.406250
3738,-66.406250
3739,-66.406250
3740,-66.406250
3741,-66.406250
3742,-66.406250
3743,-70.312500
3744,-70.312500
3745,-70.312500
3746,-70.312500
3747,-70.312500
3748,-70.312500
3749,-66.406250
3750,-70.312500
3751,-70.312500
3752,-70.312500
3753,-70.312500
3754,-70.312500
3755,-70.312500
3756,-70.312500
3757,-70.312500
3758,-70.312500
3759,-70.312500
3760,-70.312500
3761,-70.312500
3762,-70.312500
3763,-70.312500
3764,-70.312500
3765,-70.312500
3766,-70.312500
3767,-70.312500
3768,-70.312500
3769,-70.312500
3770,-70.312500
3771,-70.312500
3772,-70.312500
3773,-70.312500
3774,-70.312500
3775,-70.312500
3776,-70.312500
3777,-70.312500
3778,-70.312500
3779,-70.312500
3780,-70.312500
3781,-70.312500
3782,-70.312500
3783,-70.312500
3784,-70.312500
3785,-70.312500
3786,-70.312500
3787,-70.312500
3788,-70.312500
3789,-70.312500
3790,-70.312500
3791,-70.312500
3792,-70.312500
3793,-70.312500
3794,-70.312500
3795,-70.312500
3796,-70.312500
3797,-70.312500
3798,-70.312500
3799,-70.312500
3800,-70.312500
3801,-70.312500
3802,-70.312500
3803,-70.312500
3804,-70.312500
3805,-70.312500
3806,-70.312500
3807,-70.312500
3808,-70.312500
3809,-70.312500
3810,-70.312500
3811,-70.312500
3812,-70.312500
3813,-70.312500
3814,-70.312500
3815,-70.312500
3816,-70.312500
3817,-70.312500
3818,-70.312500
3819,-70.312500
3820,-70.312500
3821,-70.312500
3822,-70.312500
3823,-70.312500
3824,-70.312500
3825,-70.312500
3826,-70.312500
3827,-70.312500
3828,-70.312500
3829,-70.312500
3830,-70.312500
3831,-70.312500
3832,-70.312500
3833,-70.312500
3834,-70.312500
3835,-70.312500
3836,-70.312500
3837,-70.312500
3838,-70.312500
3839,-70.312500
3840,-70.312500
3841,-70.312500
3842,-70.312500
3843,-66.406250
3844,-70.312500
3845,-66.406250
3846,-66.406250
3847,-70.312500
3848,-66.406250
3849,-66.406250
3850,-66.406250
3851,-66.406250
3852,-66.406250
3853,-66.406250
3854,-66.406250
3855,-66.406250
3856,-66.406250
3857,-66.406250
3858,-66.406250
3859,-66.406250
3860,-66.406250
3861,-66.406250
3862,-66.406250
3863,-66.406250
3864,-66.406250
3865,-62.500000
3866,-62.500000
3867,-66.406250
3868,-62.500000
3869,-66.406250
3870,-62.500000
3871,-62.500000
3872,-62.500000
3873,-62.500000
3874,-62.500000
3875,-62.500000
3876,-62.500000
3877,-62.500000
3878,-62.500000
3879,-62.500000
3880,-62.500000
3881,-62.500000
3882,-62.500000
3883,-62.500000
3884,-62.500000
3885,-58.593750
3886,-58.593750
3887,-58.593750
3888,-58.593750
3889,-58.593750
3890,-58.593750
3891,-58.593750
3892,-58.593750
3893,-58.593750
3894,-58.593750
3895,-58.593750
3896,-58.593750
3897,-58.593750
3898,-58.593750
3899,-58.593750
3900,-58.593750
3901,-54.687500
3902,-54.687500
3903,-58.593750
3904,-54.687500
3905,-54.687500
3906,-54.687500
3907,-54.687500
3908,-54.687500
3909,-54.687500
3910,-54.687500
3911,-54.687500
3912,-54.687500
3913,-54.687500
3914,-54.687500
3915,-54.687500
3916,-50.781250
3917,-50.781250
3918,-50.781250
3919,-50.781250
3920,-50.781250
3921,-50.781250
3922,-50.781250
3923,-50.781250
3924,-50.781250
3925,-50.781250
3926,-50.781250
3927,-50.781250
3928,-50.781250
3929,-50.781250
3930,-46.875000
3931,-46.875000
3932,-46.875000
3933,-46.875000
3934,-46.875000
3935,-46.875000
3936,-46.875000
3937,-46.875000
3938,-46.875000
3939,-46.875000
3940,-46.875000
3941,-46.875000
3942,-46.875000
3943,-42.968750
3944,-42.968750
3945,-46.875000
3946,-42.968750
3947,-42.968750
3948,-42.968750
3949,-42.968750
3950,-42.968750
3951,-42.968750
3952,-42.968750
3953,-42.968750
3954,-42.968750
3955,-39.062500
3956,-39.062500
3957,-42.968750
3958,-39.062500
3959,-39.062500
3960,-39.062500
3961,-39.062500
3962,-35.156250
3963,-39.062500
3964,-39.062500
3965,-39.062500
3966,-35.156250
3967,-35.156250
3968,-39.062500
3969,-35.156250
3970,-35.156250
3971,-35.156250
3972,-35.156250
3973,-35.156250
3974,-35.156250
3975,-35.156250
3976,-35.156250
3977,-31.250000
3978,-31.250000
3979,-31.250000
3980,-31.250000
3981,-31.250000
3982,-31.250000
3983,-31.250000
3984,-31.250000
3985,-31.250000
3986,-31.250000
3987,-31.250000
3988,-31.250000
3989,-31.250000
3990,-27.343750
3991,-27.343750
3992,-27.343750
3993,-27.343750
3994,-27.343750
3995,-27.343750
3996,-27.343750
3997,-27.343750
3998,-27.343750
3999,-23.437500
4000,-23.437500
4001,-23.437500
4002,-23.437500
4003,-23.437500
4004,-23.437500
4005,-23.437500
4006,-23.437500
4007,-23.437500
4008,-19.531250
4009,-19.531250
4010,-19.531250
4011,-19.531250
4012,-19.531250
4013,-19.531250
4014,-19.531250
4015,-19.531250
4016,-19.531250
4017,-19.531250
4018,-15.625000
4019,-19.531250
4020,-15.625000
4021,-15.625000
4022,-15.625000
4023,-15.625000
4024,-15.625000
4025,-15.625000
4026,-15.625000
4027,-15.625000
4028,-15.625000
4029,-15.625000
4030,-15.625000
4031,-15.625000
4032,-11.718750
4033,-11.718750
4034,-11.718750
4035,-11.718750
4036,-11.718750
4037,-11.718750
4038,-7.812500
4039,-11.718750
4040,-7.812500
4041,-7.812500
4042,-7.812500
4043,-7.812500
4044,-7.812500
4045,-7.812500
4046,-7.812500
4047,-7.812500
4048,-7.812500
4049,-7.812500
4050,-7.812500
4051,-7.812500
4052,-7.812500
4053,-3.906250
4054,-3.906250
4055,-3.906250
4056,-3.906250
4057,-3.906250
4058,-3.906250
4059,-3.906250
4060,-3.906250
4061,-3.906250
4062,0.000000
4063,0.000000
4064,0.000000
4065,0.000000
4066,0.000000
4067,0.000000
4068,0.000000
4069,0.000000
4070,0.000000
4071,0.000000
4072,0.000000
4073,0.000000
4074,0.000000
4075,3.906250
4076,3.906250
4077,3.906250
4078,3.906250
4079,3.906250
4080,3.906250
4081,3.906250
4082,3.906250
4083,3.906250
4084,3.906250
4085,3.906250
4086,7.812500
4087,7.812500
4088,7.812500
4089,7.812500
4090,7.812500
4091,7.812500
4092,7.812500
4093,7.812500
4094,7.812500
4095,7.812500
4096,7.812500
4097,7.812500
4098,11.718750
4099,11.718750
4100,11.718750
4101,11.718750
4102,11.718750
4103,11.718750
4104,11.718750
4105,11.718750
4106,11.718750
4107,11.718750
4108,11.718750
4109,15.625000
4110,15.625000
4111,15.625000
4112,15.625000
4113,15.625000
4114,15.625000
4115,15.625000
4116,15.625000
4117,15.625000
4118,15.625000
4119,15.625000
4120,15.625000
4121,15.625000
4122,15.625000
4123,19.531250
4124,19.531250
4125,19.531250
4126,19.531250
4127,19.531250
4128,19.531250
4129,19.531250
4130,19.531250
4131,19.531250
4132,19.531250
4133,23.437500
4134,23.437500
4135,23.437500
4136,23.437500
4137,23.437500
4138,23.437500
4139,23.437500
4140,23.437500
4141,23.437500
4142,23.437500
4143,23.437500
4144,23.437500
4145,23.437500
4146,23.437500
4147,23.437500
4148,27.343750
4149,23.437500
4150,27.343750
4151,27.343750
4152,27.343750
4153,27.343750
4154,27.343750
4155,27.343750
4156,27.343750
4157,27.343750
4158,27.343750
4159,27.343750
4160,27.343750
4161,27.343750
4162,27.343750
4163,27.343750
4164,31.250000
4165,31.250000
4166,31.250000
4167,31.250000
4168,31.250000
4169,31.250000
4170,31.250000
4171,31.250000
4172,31.250000
4173,31.250000
4174,31.250000
4175,31.250000
4176,31.250000
4177,31.250000
4178,31.250000
4179,31.250000
4180,31.250000
4181,31.250000
4182,35.156250
4183,31.250000
4184,35.156250
4185,35.156250
4186,35.156250
4187,35.156250
4188,35.156250
4189,35.156250
4190,35.156250
4191,35.156250
4192,35.156250
4193,35.156250
4194,35.156250
4195,35.156250
4196,35.156250
4197,35.156250
4198,35.156250
4199,35.156250
4200,35.156250
4201,35.156250
4202,39.062500
4203,35.156250
4204,39.062500
4205,35.156250
4206,39.062500
4207,39.062500
4208,39.062500
4209,39.062500
4210,35.156250
4211,39.062500
4212,39.062500
4213,39.062500
4214,39.062500
4215,39.062500
4216,39.062500
4217,39.062500
4218,39.062500
4219,39.062500
4220,39.062500
4221,39.062500
4222,39.062500
4223,39.062500
4224,39.062500
4225,39.062500
4226,39.062500
4227,39.062500
4228,39.062500
4229,39.062500
4230,39.062500
4231,39.062500
4232,39.062500
4233,42.968750
4234,39.062500
4235,39.062500
4236,42.968750
4237,42.968750
4238,39.062500
4239,42.968750
4240,42.968750
4241,39.062500
4242,42.968750
4243,42.968750
4244,42.968750
4245,42.968750
4246,42.968750
4247,42.968750
4248,42.968750
4249,42.968750
4250,42.968750
4251,42.968750
4252,42.968750
4253,42.968750
4254,42.968750
4255,42.968750
4256,42.968750
4257,42.968750
4258,42.968750
4259,42.968750
4260,42.968750
4261,42.968750
4262,42.968750
4263,42.968750
4264,42.968750
4265,39.062500
4266,42.968750
4267,42.968750
4268,42.968750
4269,42.968750
4270,42.968750
4271,42.968750
4272,42.968750
4273,42.968750
4274,42.968750
4275,42.968750
4276,42.968750
4277,42.968750
4278,42.968750
4279,42.968750
4280,42.968750
4281,46.875000
4282,42.968750
4283,42.968750
4284,42.968750
4285,42.968750
4286,42.968750
4287,42.968750
4288,42.968750
4289,42.968750
4290,42.968750
4291,42.968750
4292,42.968750
4293,42.968750
4294,46.875000
4295,42.968750
4296,42.968750
4297,42.968750
4298,42.968750
4299,42.968750
4300,42.968750
4301,42.968750
4302,42.968750
4303,42.968750
4304,42.968750
4305,42.968750
4306,46.875000
4307,42.968750
4308,42.968750
4309,42.968750
4310,42.968750
4311,42.968750
4312,42.968750
4313,42.968750
4314,42.968750
4315,42.968750
4316,42.968750
4317,42.968750
4318,42.968750
4319,42.968750
4320,42.968750
4321,42.968750
4322,42.968750
4323,42.968750
4324,42.968750
4325,42.968750
4326,42.968750
4327,42.968750
4328,42.968750
4329,42.968750
4330,42.968750
4331,42.968750
4332,42.968750
4333,42.968750
4334,42.968750
4335,42.968750
4336,42.968750
4337,42.968750
4338,42.968750
4339,42.968750
4340,39.062500
4341,39.062500
4342,39.062500
4343,39.062500
4344,39.062500
4345,39.062500
4346,39.062500
4347,42.968750
4348,39.062500
4349,39.062500
4350,39.062500
4351,39.062500
4352,39.062500
4353,39.062500
4354,39.062500
4355,39.062500
4356,39.062500
4357,39.062500
4358,39.062500
4359,39.062500
4360,39.062500
4361,39.062500
4362,39.062500
4363,39.062500
4364,39.062500
4365,39.062500
4366,39.062500
4367,39.062500
4368,39.062500
4369,35.156250
4370,35.156250
4371,35.156250
4372,35.156250
4373,35.156250
4374,35.156250
4375,35.156250
4376,35.156250
4377,35.156250
4378,35.156250
4379,35.156250
4380,35.156250
4381,35.156250
4382,35.156250
4383,35.156250
4384,35.156250
4385,35.156250
4386,35.156250
4387,35.156250
4388,31.250000
4389,31.250000
4390,35.156250
4391,31.250000
4392,31.250000
4393,31.250000
4394,31.250000
4395,31.250000
4396,31.250000
4397,31.250000
4398,31.250000
4399,31.250000
4400,31.250000
4401,31.250000
4402,31.250000
4403,31.250000
4404,31.250000
4405,31.250000
4406,31.250000
4407,31.250000
4408,27.343750
4409,27.343750
4410,31.250000
4411,31.250000
4412,27.343750
4413,27.343750
4414,27.343750
4415,27.343750
4416,27.343750
4417,27.343750
4418,27.343750
4419,27.343750
4420,27.343750
4421,27.343750
4422,27.343750
4423,27.343750
4424,27.343750
4425,23.437500
4426,23.437500
4427,23.437500
4428,23.437500
4429,23.437500
4430,23.437500
4431,23.437500
4432,23.437500
4433,23.437500
4434,23.437500
4435,23.437500
4436,19.531250
4437,19.531250
4438,23.437500
4439,19.531250
4440,19.531250
4441,19.531250
4442,19.531250
4443,19.531250
4444,19.531250
4445,19.531250
4446,19.531250
4447,19.531250
4448,19.531250
4449,19.531250
4450,19.531250
4451,19.531250
4452,19.531250
4453,15.625000
4454,15.625000
4455,15.625000
4456,15.625000
4457,15.625000
4458,15.625000
4459,15.625000
4460,15.625000
4461,15.625000
4462,15.625000
4463,15.625000
4464,11.718750
4465,11.718750
4466,11.718750
4467,11.718750
4468,11.718750
4469,11.718750
4470,11.718750
4471,11.718750
4472,11.718750
4473,11.718750
4474,11.718750
4475,11.718750
4476,7.812500
4477,7.812500
4478,7.812500
4479,7.812500
4480,7.812500
4481,7.812500
4482,7.812500
4483,7.812500
4484,7.812500
4485,7.812500
4486,7.812500
4487,7.812500
4488,3.906250
4489,3.906250
4490,3.906250
4491,3.906250
4492,3.906250
4493,3.906250
4494,3.906250
4495,3.906250
4496,3.906250
4497,3.906250
4498,0.000000
4499,0.000000
4500,0.000000
4501,0.000000
4502,0.000000
4503,0.000000
4504,0.000000
4505,0.000000
4506,0.000000
4507,0.000000
4508,0.000000
4509,0.000000
4510,0.000000
4511,0.000000
4512,-3.906250
4513,-3.906250
4514,-3.906250
4515,-3.906250
4516,-3.906250
4517,-3.906250
4518,-3.906250
4519,-3.906250
4520,-3.906250
4521,-3.906250
4522,-3.906250
4523,-3.906250
4524,-7.812500
4525,-7.812500
4526,-7.812500
4527,-7.812500
4528,-7.812500
4529,-7.812500
4530,-7.812500
4531,-11.718750
4532,-7.812500
4533,-11.718750
4534,-11.718750
4535,-11.718750
4536,-11.718750
4537,-11.718750
4538,-11.718750
4539,-11.718750
4540,-11.718750
4541,-11.718750
4542,-11.718750
4543,-11.718750
4544,-11.718750
4545,-15.625000
4546,-15.625000
4547,-15.625000
4548,-15.625000
4549,-15.625000
4550,-15.625000
4551,-15.625000
4552,-15.625000
4553,-15.625000
4554,-15.625000
4555,-15.625000
4556,-19.531250
4557,-19.531250
4558,-19.531250
4559,-19.531250
4560,-19.531250
4561,-19.531250
4562,-19.531250
4563,-19.531250
4564,-19.531250
4565,-19.531250
4566,-23.437500
4567,-19.531250
4568,-23.437500
4569,-23.437500
4570,-23.437500
4571,-23.437500
4572,-23.437500
4573,-23.437500
4574,-27.343750
4575,-27.343750
4576,-23.437500
4577,-27.343750
4578,-27.343750
4579,-27.343750
4580,-27.343750
4581,-27.343750
4582,-27.343750
4583,-27.343750
4584,-27.343750
4585,-31.250000
4586,-31.250000
4587,-27.343750
4588,-27.343750
4589,-31.250000
4590,-31.250000
4591,-31.250000
4592,-31.250000
4593,-31.250000
4594,-31.250000
4595,-31.250000
4596,-31.250000
4597,-35.156250
4598,-31.250000
4599,-35.156250
4600,-35.156250
4601,-35.156250
4602,-35.156250
4603,-35.156250
4604,-35.156250
4605,-35.156250
4606,-35.156250
4607,-39.062500
4608,-39.062500
4609,-39.062500
4610,-39.062500
4611,-39.062500
4612,-39.062500
4613,-39.062500
4614,-39.062500
4615,-39.062500
4616,-39.062500
4617,-39.062500
4618,-39.062500
4619,-39.062500
4620,-42.968750
4621,-42.968750
4622,-42.968750
4623,-42.968750
4624,-42.968750
4625,-42.968750
4626,-42.968750
4627,-42.968750
4628,-42.968750
4629,-42.968750
4630,-42.968750
4631,-46.875000
4632,-42.968750
4633,-46.875000
4634,-46.875000
4635,-46.875000
4636,-46.875000
4637,-46.875000
4638,-46.875000
4639,-46.875000
4640,-46.875000
4641,-46.875000
4642,-46.875000
4643,-46.875000
4644,-46.875000
4645,-46.875000
4646,-50.781250
4647,-50.781250
4648,-50.781250
4649,-50.781250
4650,-50.781250
4651,-50.781250
4652,-50.781250
4653,-50.781250
4654,-50.781250
4655,-50.781250
4656,-50.781250
4657,-50.781250
4658,-50.781250
4659,-50.781250
4660,-50.781250
4661,-54.687500
4662,-54.687500
4663,-54.687500
4664,-54.687500
4665,-54.687500
4666,-54.687500
4667,-54.687500
4668,-54.687500
4669,-54.687500
4670,-54.687500
4671,-54.687500
4672,-54.687500
4673,-58.593750
4674,-54.687500
4675,-58.593750
4676,-58.593750
4677,-58.593750
4678,-58.593750
4679,-58.593750
4680,-58.593750
4681,-58.593750
4682,-58.593750
4683,-58.593750
4684,-58.593750
4685,-58.593750
4686,-58.593750
4687,-58.593750
4688,-58.593750
4689,-58.593750
4690,-58.593750
4691,-62.500000
4692,-62.500000
4693,-62.500000
4694,-62.500000
4695,-62.500000
4696,-62.500000
4697,-62.500000
4698,-62.500000
4699,-62.500000
4700,-62.500000
4701,-62.500000
4702,-62.500000
4703,-62.500000
4704,-62.500000
4705,-66.406250
4706,-62.500000
4707,-62.500000
4708,-62.500000
4709,-66.406250
4710,-66.406250
4711,-66.406250
4712,-66.406250
4713,-66.406250
4714,-66.406250
4715,-66.406250
4716,-66.406250
4717,-66.406250
4718,-66.406250
4719,-66.406250
4720,-66.406250
4721,-66.406250
4722,-66.406250
4723,-66.406250
4724,-66.406250
4725,-66.406250
4726,-66.406250
4727,-66.406250
4728,-66.406250
4729,-66.406250
4730,-66.406250
4731,-66.406250
4732,-66.406250
4733,-70.312500
4734,-70.312500
4735,-70.312500
4736,-70.312500
4737,-70.312500
4738,-70.312500
4739,-70.312500
4740,-70.312500
4741,-70.312500
4742,-70.312500
4743,-70.312500
4744,-70.312500
4745,-70.312500
4746,-70.312500
4747,-70.312500
4748,-70.312500
4749,-70.312500
4750,-70.312500
4751,-70.312500
4752,-70.312500
4753,-70.312500
4754,-70.312500
4755,-70.312500
4756,-70.312500
4757,-70.312500
4758,-70.312500
4759,-70.312500
4760,-70.312500
4761,-70.312500
4762,-70.312500
4763,-70.312500
4764,-70.312500
4765,-70.312500
4766,-70.312500
4767,-70.312500
4768,-70.312500
4769,-70.312500
4770,-70.312500
4771,-70.312500
4772,-70.312500
4773,-70.312500
4774,-70.312500
4775,-70.312500
4776,-70.312500
4777,-70.312500
4778,-70.312500
4779,-70.312500
4780,-70.312500
4781,-70.312500
4782,-70.312500
4783,-70.312500
4784,-70.312500
4785,-70.312500
4786,-70.312500
4787,-70.312500
4788,-70.312500
4789,-70.312500
4790,-70.312500
4791,-70.312500
4792,-70.312500
4793,-70.312500
4794,-70.312500
4795,-70.312500
4796,-70.312500
4797,-70.312500
4798,-70.312500
4799,-70.312500
4800,-70.312500
4801,-70.312500
4802,-70.312500
4803,-70.312500
4804,-70.312500
4805,-70.312500
4806,-70.312500
4807,-70.312500
4808,-70.312500
4809,-70.312500
4810,-70.312500
4811,-70.312500
4812,-70.312500
4813,-70.312500
4814,-70.312500
4815,-70.312500
4816,-70.312500
4817,-70.312500
4818,-70.312500
4819,-70.312500
4820,-70.312500
4821,-70.312500
4822,-70.312500
4823,-70.312500
4824,-70.312500
4825,-70.312500
4826,-66.406250
4827,-70.312500
4828,-70.312500
4829,-70.312500
4830,-66.406250
4831,-66.406250
4832,-70.312500
4833,-66.406250
4834,-66.406250
4835,-66.406250
4836,-66.406250
4837,-66.406250
4838,-66.406250
4839,-66.406250
4840,-66.406250
4841,-66.406250
4842,-66.406250
4843,-66.406250
4844,-66.406250
4845,-66.406250
4846,-66.406250
4847,-66.406250
4848,-66.406250
4849,-66.406250
4850,-66.406250
4851,-66.406250
4852,-66.406250
4853,-66.406250
4854,-66.406250
4855,-66.406250
4856,-66.406250
4857,-66.406250
4858,-62.500000
4859,-62.500000
4860,-62.500000
4861,-62.500000
4862,-62.500000
4863,-62.500000
4864,-62.500000
4865,-62.500000
4866,-62.500000
4867,-62.500000
4868,-62.500000
4869,-62.500000
4870,-62.500000
4871,-62.500000
4872,-62.500000
4873,-62.500000
4874,-62.500000
4875,-62.500000
4876,-62.500000
4877,-62.500000
4878,-58.593750
4879,-58.593750
4880,-58.593750
4881,-58.593750
4882,-58.593750
4883,-58.593750
4884,-58.593750
4885,-58.593750
4886,-58.593750
4887,-58.593750
4888,-58.593750
4889,-58.593750
4890,-58.593750
4891,-58.593750
4892,-58.593750
4893,-58.593750
4894,-54.687500
4895,-54.687500
4896,-54.687500
4897,-54.687500
4898,-54.687500
4899,-54.687500
4900,-54.687500
4901,-54.687500
4902,-54.687500
4903,-54.687500
4904,-54.687500
4905,-54.687500
4906,-54.687500
4907,-54.687500
4908,-54.687500
4909,-50.781250
4910,-50.781250
4911,-50.781250
4912,-50.781250
4913,-50.781250
4914,-50.781250
4915,-50.781250
4916,-50.781250
4917,-50.781250
4918,-50.781250
4919,-50.781250
4920,-46.875000
4921,-46.875000
4922,-46.875000
4923,-46.875000
4924,-46.875000
4925,-46.875000
4926,-46.875000
4927,-46.875000
4928,-46.875000
4929,-46.875000
4930,-46.875000
4931,-46.875000
4932,-46.875000
4933,-42.968750
4934,-42.968750
4935,-42.968750
4936,-42.968750
4937,-42.968750
4938,-42.968750
4939,-42.968750
4940,-42.968750
4941,-42.968750
4942,-39.062500
4943,-42.968750
4944,-39.062500
4945,-39.062500
4946,-39.062500
4947,-39.062500
4948,-39.062500
4949,-39.062500
4950,-39.062500
4951,-39.062500
4952,-39.062500
4953,-39.062500
4954,-39.062500
4955,-39.062500
4956,-39.062500
4957,-35.156250
4958,-35.156250
4959,-35.156250
4960,-35.156250
4961,-35.156250
4962,-35.156250
4963,-35.156250
4964,-35.156250
4965,-35.156250
4966,-35.156250
4967,-31.250000
4968,-31.250000
4969,-31.250000
4970,-31.250000
4971,-31.250000
4972,-31.250000
4973,-31.250000
4974,-31.250000
4975,-31.250000
4976,-31.250000
4977,-27.343750
4978,-27.343750
4979,-27.343750
4980,-27.343750
4981,-27.343750
4982,-27.343750
4983,-27.343750
4984,-27.343750
4985,-27.343750
4986,-27.343750
4987,-27.343750
4988,-27.343750
4989,-23.437500
4990,-23.437500
4991,-23.437500
4992,-23.437500
4993,-23.437500
4994,-23.437500
4995,-23.437500
4996,-23.437500
4997,-23.437500
4998,-23.437500
4999,-23.437500
5000,-19.531250
5001,-19.531250
5002,-19.531250
5003,-19.531250
5004,-19.531250
5005,-19.531250
5006,-19.531250
5007,-19.531250
5008,-19.531250
5009,-19.531250
5010,-19.531250
5011,-15.625000
5012,-15.625000
5013,-15.625000
5014,-15.625000
5015,-15.625000
5016,-15.625000
5017,-15.625000
5018,-15.625000
5019,-11.718750
5020,-11.718750
5021,-15.625000
5022,-11.718750
5023,-11.718750
5024,-11.718750
5025,-11.718750
5026,-11.718750
5027,-11.718750
5028,-11.718750
5029,-11.718750
5030,-11.718750
5031,-7.812500
5032,-7.812500
5033,-11.718750
5034,-7.812500
5035,-7.812500
5036,-7.812500
5037,-7.812500
5038,-7.812500
5039,-7.812500
5040,-7.812500
5041,-3.906250
5042,-3.906250
5043,-3.906250
5044,-3.906250
5045,-3.906250
5046,-3.906250
5047,-3.906250
5048,-3.906250
5049,-3.906250
5050,-3.906250
5051,0.000000
5052,0.000000
5053,-3.906250
5054,0.000000
5055,0.000000
5056,0.000000
5057,0.000000
5058,0.000000
5059,0.000000
5060,0.000000
5061,0.000000
5062,0.000000
5063,3.906250
5064,0.000000
5065,3.906250
5066,3.906250
5067,3.906250
5068,3.906250
5069,3.906250
5070,3.906250
5071,3.906250
5072,3.906250
5073,7.812500
5074,3.906250
5075,7.812500
5076,7.812500
5077,7.812500
5078,7.812500
5079,7.812500
5080,7.812500
5081,7.812500
5082,7.812500
5083,7.812500
5084,7.812500
5085,7.812500
5086,11.718750
5087,7.812500
5088,11.718750
5089,11.718750
5090,11.718750
5091,11.718750
5092,11.718750
5093,11.718750
5094,11.718750
5095,11.718750
5096,11.718750
5097,11.718750
5098,11.718750
5099,11.718750
5100,15.625000
5101,15.625000
5102,15.625000
5103,15.625000
5104,15.625000
5105,15.625000
5106,15.625000
5107,15.625000
5108,15.625000
5109,15.625000
5110,15.625000
5111,15.625000
5112,19.531250
5113,19.531250
5114,19.531250
5115,19.531250
5116,19.531250
5117,19.531250
5118,19.531250
5119,19.531250
5120,19.531250
5121,19.531250
5122,19.531250
5123,23.437500
5124,19.531250
5125,23.437500
5126,19.531250
5127,19.531250
5128,23.437500
5129,23.437500
5130,23.437500
5131,23.437500
5132,23.437500
5133,23.437500
5134,23.437500
5135,23.437500
5136,23.437500
5137,23.437500
5138,23.437500
5139,23.437500
5140,27.343750
5141,27.343750
5142,27.343750
5143,27.343750
5144,27.343750
5145,27.343750
5146,27.343750
5147,27.343750
5148,27.343750
5149,27.343750
5150,27.343750
5151,27.343750
5152,27.343750
5153,31.250000
5154,31.250000
5155,31.250000
5156,31.250000
5157,31.250000
5158,31.250000
5159,31.250000
5160,31.250000
5161,31.250000
5162,31.250000
5163,31.250000
5164,31.250000
5165,31.250000
5166,31.250000
5167,31.250000
5168,31.250000
5169,31.250000
5170,31.250000
5171,35.156250
5172,35.156250
5173,31.250000
5174,35.156250
5175,35.156250
5176,35.156250
5177,35.156250
5178,35.156250
5179,35.156250
5180,35.156250
5181,35.156250
5182,35.156250
5183,35.156250
5184,35.156250
5185,35.156250
5186,35.156250
5187,35.156250
5188,35.156250
5189,35.156250
5190,35.156250
5191,35.156250
5192,35.156250
5193,39.062500
5194,39.062500
5195,39.062500
5196,39.062500
5197,39.062500
5198,39.062500
5199,39.062500
5200,39.062500
5201,39.062500
5202,39.062500
5203,39.062500
5204,39.062500
5205,39.062500
5206,39.062500
5207,39.062500
5208,39.062500
5209,39.062500
5210,39.062500
5211,39.062500
5212,39.062500
5213,39.062500
5214,39.062500
5215,39.062500
5216,39.062500
5217,39.062500
5218,39.062500
5219,39.062500
5220,39.062500
5221,42.968750
5222,42.968750
5223,42.968750
5224,42.968750
5225,42.968750
5226,42.968750
5227,42.968750
5228,39.062500
5229,39.062500
5230,42.968750
5231,42.968750
5232,42.968750
5233,42.968750
5234,42.968750
5235,42.968750
5236,42.968750
5237,42.968750
5238,42.968750
5239,42.968750
5240,42.968750
5241,42.968750
5242,42.968750
5243,42.968750
5244,42.968750
5245,42.968750
5246,42.968750
5247,42.968750
5248,42.968750
5249,42.968750
5250,42.968750
5251,42.968750
5252,42.968750
5253,42.968750
5254,42.968750
5255,42.968750
5256,42.968750
5257,42.968750
5258,42.968750
5259,42.968750
5260,42.968750
5261,42.968750
5262,42.968750
5263,42.968750
5264,42.968750
5265,42.968750
5266,42.968750
5267,42.968750
5268,42.968750
5269,42.968750
5270,42.968750
5271,42.968750
5272,42.968750
5273,42.968750
5274,42.968750
5275,42.968750
5276,42.968750
5277,42.968750
5278,42.968750
5279,42.968750
5280,42.968750
5281,42.968750
5282,42.968750
5283,42.968750
5284,42.968750
5285,42.968750
5286,42.968750
5287,42.968750
5288,42.968750
5289,42.968750
5290,42.968750
5291,42.968750
5292,42.968750
5293,42.968750
5294,42.968750
5295,42.968750
5296,42.968750
5297,42.968750
5298,42.968750
5299,42.968750
5300,42.968750
5301,42.968750
5302,42.968750
5303,42.968750
5304,42.968750
5305,42.968750
5306,42.968750
5307,42.968750
5308,42.968750
5309,42.968750
5310,42.968750
5311,42.968750
5312,42.968750
5313,42.968750
5314,42.968750
5315,42.968750
5316,42.968750
5317,42.968750
5318,42.968750
5319,42.968750
5320,42.968750
5321,42.968750
5322,42.968750
5323,42.968750
5324,42.968750
5325,42.968750
5326,42.968750
5327,42.968750
5328,39.062500
5329,42.968750
5330,39.062500
5331,39.062500
5332,42.968750
5333,39.062500
5334,39.062500
5335,39.062500
5336,39.062500
5337,39.062500
5338,39.062500
5339,39.062500
5340,39.062500
5341,39.062500
5342,39.062500
5343,39.062500
5344,39.062500
5345,39.062500
5346,39.062500
5347,39.062500
5348,39.062500
5349,39.062500
5350,39.062500
5351,39.062500
5352,39.062500
5353,39.062500
5354,39.062500
5355,39.062500
5356,39.062500
5357,39.062500
5358,35.156250
5359,35.156250
5360,35.156250
5361,35.156250
5362,39.062500
5363,35.156250
5364,35.156250
5365,35.156250
5366,35.156250
5367,35.156250
5368,35.156250
5369,35.156250
5370,35.156250
5371,35.156250
5372,35.156250
5373,35.156250
5374,35.156250
5375,35.156250
5376,35.156250
5377,35.156250
5378,31.250000
5379,31.250000
5380,35.156250
5381,35.156250
5382,31.250000
5383,31.250000
5384,31.250000
5385,31.250000
5386,31.250000
5387,31.250000
5388,31.250000
5389,31.250000
5390,31.250000
5391,31.250000
5392,31.250000
5393,31.250000
5394,31.250000
5395,31.250000
5396,31.250000
5397,27.343750
5398,27.343750
5399,27.343750
5400,27.343750
5401,31.250000
5402,27.343750
5403,27.343750
5404,27.343750
5405,27.343750
5406,27.343750
5407,27.343750
5408,27.343750
5409,27.343750
5410,27.343750
5411,27.343750
5412,27.343750
5413,23.437500
5414,23.437500
5415,23.437500
5416,23.437500
5417,23.437500
5418,23.437500
5419,23.437500
5420,23.437500
5421,23.437500
5422,23.437500
5423,23.437500
5424,23.437500
5425,23.437500
5426,23.437500
5427,23.437500
5428,23.437500
5429,19.531250
5430,19.531250
5431,19.531250
5432,19.531250
5433,19.531250
5434,19.531250
5435,19.531250
5436,19.531250
5437,19.531250
5438,19.531250
5439,19.531250
5440,19.531250
5441,19.531250
5442,19.531250
5443,15.625000
5444,15.625000
5445,15.625000
5446,15.625000
5447,15.625000
5448,15.625000
5449,15.625000
5450,15.625000
5451,15.625000
5452,15.625000
5453,15.625000
5454,15.625000
5455,11.718750
5456,11.718750
5457,11.718750
5458,11.718750
5459,11.718750
5460,11.718750
5461,11.718750
5462,11.718750
5463,11.718750
5464,11.718750
5465,11.718750
5466,11.718750
5467,7.812500
5468,7.812500
5469,7.812500
5470,7.812500
5471,7.812500
5472,7.812500
5473,7.812500
5474,7.812500
5475,7.812500
5476,7.812500
5477,7.812500
5478,3.906250
5479,7.812500
5480,3.906250
5481,3.906250
5482,7.812500
5483,3.906250
5484,3.906250
5485,3.906250
5486,3.906250
5487,3.906250
5488,3.906250
5489,0.000000
5490,0.000000
5491,3.906250
5492,3.906250
5493,0.000000
5494,0.000000
5495,0.000000
5496,0.000000
5497,0.000000
5498,0.000000
5499,0.000000
5500,0.000000
5501,0.000000
5502,-3.906250
5503,-3.906250
5504,-3.906250
5505,-3.906250
5506,-3.906250
5507,-3.906250
5508,-3.906250
5509,-3.906250
5510,-3.906250
5511,-3.906250
5512,-7.812500
5513,-7.812500
5514,-7.812500
5515,-7.812500
5516,-7.812500
5517,-7.812500
5518,-7.812500
5519,-7.812500
5520,-7.812500
5521,-7.812500
5522,-7.812500
5523,-11.718750
5524,-11.718750
5525,-11.718750
5526,-11.718750
5527,-11.718750
5528,-11.718750
5529,-11.718750
5530,-11.718750
5531,-15.625000
5532,-15.625000
5533,-15.625000
5534,-15.625000
5535,-15.625000
5536,-15.625000
5537,-15.625000
5538,-15.625000
5539,-15.625000
5540,-15.625000
5541,-15.625000
5542,-19.531250
5543,-19.531250
5544,-19.531250
5545,-19.531250
5546,-19.531250
5547,-19.531250
5548,-19.531250
5549,-19.531250
5550,-19.531250
5551,-19.531250
5552,-19.531250
5553,-19.531250
5554,-19.531250
5555,-23.437500
5556,-23.437500
5557,-23.437500
5558,-23.437500
5559,-23.437500
5560,-23.437500
5561,-23.437500
5562,-23.437500
5563,-23.437500
5564,-23.437500
5565,-27.343750
5566,-27.343750
5567,-27.343750
5568,-27.343750
5569,-27.343750
5570,-27.343750
5571,-27.343750
5572,-27.343750
5573,-27.343750
5574,-27.343750
5575,-31.250000
5576,-31.250000
5577,-31.250000
5578,-31.250000
5579,-31.250000
5580,-31.250000
5581,-31.250000
5582,-31.250000
5583,-31.250000
5584,-31.250000
5585,-31.250000
5586,-35.156250
5587,-35.156250
5588,-35.156250
5589,-35.156250
5590,-35.156250
5591,-35.156250
5592,-35.156250
5593,-35.156250
5594,-35.156250
5595,-35.156250
5596,-35.156250
5597,-35.156250
5598,-35.156250
5599,-35.156250
5600,-39.062500
5601,-39.062500
5602,-39.062500
5603,-39.062500
5604,-39.062500
5605,-39.062500
5606,-39.062500
5607,-39.062500
5608,-39.062500
5609,-39.062500
5610,-42.968750
5611,-42.968750
5612,-42.968750
5613,-42.968750
5614,-42.968750
5615,-42.968750
5616,-42.968750
5617,-42.968750
5618,-42.968750
5619,-42.968750
5620,-42.968750
5621,-42.968750
5622,-46.875000
5623,-46.875000
5624,-46.875000
5625,-46.875000
5626,-46.875000
5627,-46.875000
5628,-46.875000
5629,-46.875000
5630,-46.875000
5631,-46.875000
5632,-46.875000
5633,-46.875000
5634,-46.875000
5635,-46.875000
5636,-50.781250
5637,-50.781250
5638,-50.781250
5639,-50.781250
5640,-50.781250
5641,-50.781250
5642,-50.781250
5643,-50.781250
5644,-50.781250
5645,-50.781250
5646,-54.687500
5647,-54.687500
5648,-54.687500
5649,-54.687500
5650,-50.781250
5651,-54.687500
5652,-54.687500
5653,-54.687500
5654,-54.687500
5655,-54.687500
5656,-54.687500
5657,-54.687500
5658,-54.687500
5659,-54.687500
5660,-54.687500
5661,-54.687500
5662,-54.687500
5663,-58.593750
5664,-58.593750
5665,-58.593750
5666,-58.593750
5667,-58.593750
5668,-58.593750
5669,-58.593750
5670,-58.593750
5671,-58.593750
5672,-58.593750
5673,-58.593750
5674,-58.593750
5675,-58.593750
5676,-58.593750
5677,-58.593750
5678,-58.593750
5679,-62.500000
5680,-62.500000
5681,-62.500000
5682,-58.593750
5683,-62.500000
5684,-62.500000
5685,-62.500000
5686,-62.500000
5687,-62.500000
5688,-62.500000
5689,-62.500000
5690,-62.500000
5691,-62.500000
5692,-62.500000
5693,-62.500000
5694,-62.500000
5695,-62.500000
5696,-62.500000
5697,-62.500000
5698,-66.406250
5699,-66.406250
5700,-66.406250
5701,-66.406250
5702,-66.406250
5703,-66.406250
5704,-66.406250
5705,-66.406250
5706,-66.406250
5707,-66.406250
5708,-66.406250
5709,-66.406250
5710,-66.406250
5711,-66.406250
5712,-66.406250
5713,-66.406250
5714,-66.406250
5715,-66.406250
5716,-66.406250
5717,-66.406250
5718,-66.406250
5719,-70.312500
5720,-66.406250
5721,-66.406250
5722,-66.406250
5723,-66.406250
5724,-66.406250
5725,-66.406250
5726,-70.312500
5727,-70.312500
5728,-70.312500
5729,-70.312500
5730,-70.312500
5731,-70.312500
5732,-70.312500
5733,-70.312500
5734,-70.312500
5735,-70.312500
5736,-70.312500
5737,-70.312500
5738,-70.312500
5739,-70.312500
5740,-70.312500
5741,-70.312500
5742,-70.312500
5743,-70.312500
5744,-70.312500
5745,-70.312500
5746,-70.312500
5747,-70.312500
5748,-70.312500
5749,-70.312500
5750,-70.312500
5751,-70.312500
5752,-70.312500
5753,-70.312500
5754,-70.312500
5755,-70.312500
5756,-70.312500
5757,-70.312500
5758,-70.312500
5759,-70.312500
5760,-70.312500
5761,-70.312500
5762,-70.312500
5763,-70.312500
5764,-70.312500
5765,-70.312500
5766,-70.312500
5767,-70.312500
5768,-70.312500
5769,-70.312500
5770,-70.312500
5771,-70.312500
5772,-70.312500
5773,-70.312500
5774,-70.312500
5775,-70.312500
5776,-70.312500
5777,-74.218750
5778,-70.312500
5779,-70.312500
5780,-70.312500
5781,-70.312500
5782,-70.312500
5783,-70.312500
5784,-70.312500
5785,-70.312500
5786,-70.312500
5787,-70.312500
5788,-70.312500
5789,-70.312500
5790,-70.312500
5791,-70.312500
5792,-70.312500
5793,-70.312500
5794,-70.312500
5795,-70.312500
5796,-70.312500
5797,-70.312500
5798,-70.312500
5799,-70.312500
5800,-70.312500
5801,-70.312500
5802,-70.312500
5803,-70.312500
5804,-70.312500
5805,-70.312500
5806,-70.312500
5807,-70.312500
5808,-70.312500
5809,-70.312500
5810,-70.312500
5811,-70.312500
5812,-70.312500
5813,-70.312500
5814,-70.312500
5815,-70.312500
5816,-66.406250
5817,-66.406250
5818,-66.406250
5819,-70.312500
5820,-70.312500
5821,-66.406250
5822,-66.406250
5823,-66.406250
5824,-66.406250
5825,-66.406250
5826,-66.406250
5827,-66.406250
5828,-66.406250
5829,-66.406250
5830,-66.406250
5831,-66.406250
5832,-66.406250
5833,-66.406250
5834,-66.406250
5835,-66.406250
5836,-66.406250
5837,-66.406250
5838,-66.406250
5839,-66.406250
5840,-66.406250
5841,-66.406250
5842,-66.406250
5843,-66.406250
5844,-66.406250
5845,-62.500000
5846,-62.500000
5847,-62.500000
5848,-62.500000
5849,-62.500000
5850,-62.500000
5851,-62.500000
5852,-62.500000
5853,-62.500000
5854,-62.500000
5855,-62.500000
5856,-62.500000
5857,-62.500000
5858,-62.500000
5859,-62.500000
5860,-62.500000
5861,-62.500000
5862,-62.500000
5863,-58.593750
5864,-62.500000
5865,-58.593750
5866,-58.593750
5867,-62.500000
5868,-58.593750
5869,-58.593750
5870,-58.593750
5871,-58.593750
5872,-58.593750
5873,-58.593750
5874,-58.593750
5875,-58.593750
5876,-58.593750
5877,-58.593750
5878,-58.593750
5879,-58.593750
5880,-58.593750
5881,-54.687500
5882,-54.687500
5883,-54.687500
5884,-54.687500
5885,-54.687500
5886,-54.687500
5887,-54.687500
5888,-54.687500
5889,-54.687500
5890,-54.687500
5891,-54.687500
5892,-50.781250
5893,-50.781250
5894,-54.687500
5895,-54.687500
5896,-50.781250
5897,-54.687500
5898,-50.781250
5899,-50.781250
5900,-50.781250
5901,-50.781250
5902,-50.781250
5903,-50.781250
5904,-50.781250
5905,-50.781250
5906,-50.781250
5907,-50.781250
5908,-50.781250
5909,-50.781250
5910,-50.781250
5911,-46.875000
5912,-46.875000
5913,-46.875000
5914,-46.875000
5915,-46.875000
5916,-46.875000
5917,-46.875000
5918,-46.875000
5919,-46.875000
5920,-46.875000
5921,-46.875000
5922,-46.875000
5923,-42.968750
5924,-42.968750
5925,-42.968750
5926,-42.968750
5927,-42.968750
5928,-42.968750
5929,-42.968750
5930,-42.968750
5931,-42.968750
5932,-42.968750
5933,-39.062500
5934,-42.968750
5935,-39.062500
5936,-39.062500
5937,-39.062500
5938,-39.062500
5939,-39.062500
5940,-39.062500
5941,-39.062500
5942,-39.062500
5943,-39.062500
5944,-39.062500
5945,-39.062500
5946,-35.156250
5947,-35.156250
5948,-35.156250
5949,-35.156250
5950,-35.156250
5951,-35.156250
5952,-35.156250
5953,-35.156250
5954,-35.156250
5955,-35.156250
5956,-31.250000
5957,-31.250000
5958,-31.250000
5959,-31.250000
5960,-31.250000
5961,-31.250000
5962,-31.250000
5963,-31.250000
5964,-31.250000
5965,-31.250000
5966,-27.343750
5967,-27.343750
5968,-27.343750
5969,-27.343750
5970,-27.343750
5971,-27.343750
5972,-27.343750
5973,-27.343750
5974,-27.343750
5975,-27.343750
5976,-27.343750
5977,-23.437500
5978,-23.437500
5979,-23.437500
5980,-23.437500
5981,-23.437500
5982,-23.437500
5983,-23.437500
5984,-23.437500
5985,-23.437500
5986,-23.437500
5987,-23.437500
5988,-19.531250
5989,-19.531250
5990,-19.531250
5991,-19.531250
5992,-19.531250
5993,-19.531250
5994,-19.531250
5995,-19.531250
5996,-19.531250
5997,-19.531250
5998,-19.531250
5999,-15.625000
6000,-19.531250
6001,-19.531250
6002,-15.625000
6003,-15.625000
6004,-15.625000
6005,-15.625000
6006,-15.625000
6007,-15.625000
6008,-15.625000
6009,-15.625000
6010,-15.625000
6011,-11.718750
6012,-11.718750
6013,-11.718750
6014,-11.718750
6015,-11.718750
6016,-11.718750
6017,-11.718750
6018,-11.718750
6019,-11.718750
6020,-11.718750
6021,-7.812500
6022,-7.812500
6023,-7.812500
6024,-7.812500
6025,-7.812500
6026,-7.812500
6027,-7.812500
6028,-7.812500
6029,-7.812500
6030,-7.812500
6031,-3.906250
6032,-3.906250
6033,-3.906250
6034,-3.906250
6035,-3.906250
6036,-3.906250
6037,-3.906250
6038,-3.906250
6039,-3.906250
6040,-3.906250
6041,-3.906250
6042,0.000000
6043,0.000000
6044,0.000000
6045,0.000000
6046,0.000000
6047,0.000000
6048,0.000000
6049,0.000000
6050,0.000000
6051,0.000000
6052,3.906250
6053,0.000000
6054,3.906250
6055,3.906250
6056,3.906250
6057,3.906250
6058,3.906250
6059,3.906250
6060,3.906250
6061,3.906250
6062,3.906250
6063,3.906250
6064,3.906250
6065,3.906250
6066,7.812500
6067,7.812500
6068,7.812500
6069,7.812500
6070,7.812500
6071,7.812500
6072,7.812500
6073,7.812500
6074,7.812500
6075,7.812500
6076,11.718750
6077,11.718750
6078,11.718750
6079,11.718750
6080,11.718750
6081,11.718750
6082,11.718750
6083,11.718750
6084,11.718750
6085,11.718750
6086,11.718750
6087,11.718750
6088,15.625000
6089,15.625000
6090,15.625000
6091,15.625000
6092,15.625000
6093,15.625000
6094,15.625000
6095,15.625000
6096,15.625000
6097,15.625000
6098,19.531250
6099,15.625000
6100,15.625000
6101,19.531250
6102,19.531250
6103,19.531250
6104,19.531250
6105,19.531250
6106,19.531250
6107,19.531250
6108,19.531250
6109,19.531250
6110,19.531250
6111,19.531250
6112,19.531250
6113,19.531250
6114,19.531250
6115,23.437500
6116,23.437500
6117,23.437500
6118,23.437500
6119,23.437500
6120,23.437500
6121,23.437500
6122,23.437500
6123,23.437500
6124,23.437500
6125,27.343750
6126,23.437500
6127,23.437500
6128,27.343750
6129,23.437500
6130,27.343750
6131,27.343750
6132,27.343750
6133,27.343750
6134,27.343750
6135,27.343750
6136,27.343750
6137,27.343750
6138,27.343750
6139,27.343750
6140,27.343750
6141,27.343750
6142,27.343750
6143,27.343750
6144,31.250000
6145,27.343750
6146,31.250000
6147,31.250000
6148,31.250000
6149,31.250000
6150,31.250000
6151,31.250000
6152,31.250000
6153,31.250000
6154,31.250000
6155,31.250000
6156,31.250000
6157,31.250000
6158,31.250000
6159,31.250000
6160,31.250000
6161,31.250000
6162,31.250000
6163,31.250000
6164,35.156250
6165,35.156250
6166,35.156250
6167,35.156250
6168,35.156250
6169,35.156250
6170,35.156250
6171,35.156250
6172,35.156250
6173,35.156250
6174,35.156250
6175,35.156250
6176,35.156250
6177,35.156250
6178,35.156250
6179,35.156250
6180,35.156250
6181,35.156250
6182,35.156250
6183,35.156250
6184,39.062500
6185,35.156250
6186,39.062500
6187,39.062500
6188,39.062500
6189,39.062500
6190,39.062500
6191,39.062500
6192,39.062500
6193,39.062500
6194,39.062500
6195,39.062500
6196,39.062500
6197,39.062500
6198,39.062500
6199,39.062500
6200,39.062500
6201,39.062500
6202,39.062500
6203,42.968750
6204,39.062500
6205,39.062500
6206,39.062500
6207,39.062500
6208,42.968750
6209,39.062500
6210,39.062500
6211,42.968750
6212,42.968750
6213,42.968750
6214,42.968750
6215,42.968750
6216,42.968750
6217,42.968750
6218,42.968750
6219,42.968750
6220,42.968750
6221,42.968750
6222,42.968750
6223,42.968750
6224,46.875000
6225,42.968750
6226,42.968750
6227,42.968750
6228,42.968750
6229,42.968750
6230,42.968750
6231,42.968750
6232,42.968750
6233,42.968750
6234,42.968750
6235,42.968750
6236,42.968750
6237,42.968750
6238,42.968750
6239,42.968750
6240,42.968750
6241,42.968750
6242,42.968750
6243,42.968750
6244,42.968750
6245,42.968750
6246,42.968750
6247,42.968750
6248,42.968750
6249,42.968750
6250,42.968750
6251,42.968750
6252,42.968750
6253,42.968750
6254,46.875000
6255,42.968750
6256,42.968750
6257,42.968750
6258,42.968750
6259,42.968750
6260,42.968750
6261,42.968750
6262,42.968750
6263,42.968750
6264,42.968750
6265,42.968750
6266,42.968750
6267,42.968750
6268,42.968750
6269,42.968750
6270,42.968750
6271,42.968750
6272,42.968750
6273,42.968750
6274,42.968750
6275,42.968750
6276,42.968750
6277,42.968750
6278,42.968750
6279,42.968750
6280,42.968750
6281,42.968750
6282,42.968750
6283,42.968750
6284,42.968750
6285,42.968750
6286,42.968750
6287,42.968750
6288,42.968750
6289,42.968750
6290,42.968750
6291,42.968750
6292,42.968750
6293,42.968750
6294,42.968750
6295,42.968750
6296,42.968750
6297,42.968750
6298,42.968750
6299,42.968750
6300,42.968750
6301,42.968750
6302,42.968750
6303,42.968750
6304,42.968750
6305,42.968750
6306,42.968750
6307,42.968750
6308,42.968750
6309,42.968750
6310,42.968750
6311,42.968750
6312,42.968750
6313,42.968750
6314,42.968750
6315,42.968750
6316,42.968750
6317,42.968750
6318,42.968750
6319,39.062500
6320,42.968750
6321,42.968750
6322,39.062500
6323,39.062500
6324,39.062500
6325,39.062500
6326,39.062500
6327,39.062500
6328,39.062500
6329,39.062500
6330,39.062500
6331,39.062500
6332,39.062500
6333,39.062500
6334,39.062500
6335,39.062500
6336,39.062500
6337,39.062500
6338,39.062500
6339,39.062500
6340,39.062500
6341,39.062500
6342,39.062500
6343,39.062500
6344,39.062500
6345,39.062500
6346,39.062500
6347,39.062500
6348,39.062500
6349,39.062500
6350,35.156250
6351,35.156250
6352,35.156250
6353,35.156250
6354,35.156250
6355,35.156250
6356,35.156250
6357,35.156250
6358,35.156250
6359,35.156250
6360,35.156250
6361,35.156250
6362,35.156250
6363,35.156250
6364,35.156250
6365,35.156250
6366,35.156250
6367,35.156250
6368,35.156250
6369,35.156250
6370,35.156250
6371,31.250000
6372,31.250000
6373,31.250000
6374,31.250000
6375,31.250000
6376,31.250000
6377,31.250000
6378,31.250000
6379,31.250000
6380,31.250000
6381,31.250000
6382,31.250000
6383,31.250000
6384,31.250000
6385,31.250000
6386,31.250000
6387,31.250000
6388,31.250000
6389,27.343750
6390,27.343750
6391,27.343750
6392,27.343750
6393,27.343750
6394,27.343750
6395,27.343750
6396,27.343750
6397,27.343750
6398,27.343750
6399,27.343750
6400,27.343750
6401,27.343750
6402,27.343750
6403,23.437500
6404,23.437500
6405,23.437500
6406,23.437500
6407,23.437500
6408,23.437500
6409,23.437500
6410,23.437500
6411,23.437500
6412,23.437500
6413,23.437500
6414,23.437500
6415,19.531250
6416,19.531250
6417,19.531250
6418,19.531250
6419,19.531250
6420,19.531250
6421,19.531250
6422,19.531250
6423,19.531250
6424,19.531250
6425,19.531250
6426,19.531250
6427,19.531250
6428,19.531250
6429,19.531250
6430,19.531250
6431,19.531250
6432,19.531250
6433,15.625000
6434,15.625000
6435,15.625000
6436,15.625000
6437,15.625000
6438,15.625000
6439,15.625000
6440,15.625000
6441,15.625000
6442,15.625000
6443,15.625000
6444,11.718750
6445,11.718750
6446,11.718750
6447,11.718750
6448,11.718750
6449,11.718750
6450,11.718750
6451,11.718750
6452,11.718750
6453,11.718750
6454,11.718750
6455,11.718750
6456,7.812500
6457,7.812500
6458,7.812500
6459,7.812500
6460,7.812500
6461,7.812500
6462,7.812500
6463,7.812500
6464,7.812500
6465,7.812500
6466,7.812500
6467,7.812500
6468,3.906250
6469,7.812500
6470,3.906250
6471,3.906250
6472,3.906250
6473,3.906250
6474,3.906250
6475,3.906250
6476,3.906250
6477,3.906250
6478,3.906250
6479,3.906250
6480,0.000000
6481,0.000000
6482,0.000000
6483,0.000000
6484,0.000000
6485,0.000000
6486,0.000000
6487,0.000000
6488,0.000000
6489,-3.906250
6490,0.000000
6491,0.000000
6492,-3.906250
6493,-3.906250
6494,-3.906250
6495,-3.906250
6496,-3.906250
6497,-3.906250
6498,-3.906250
6499,-3.906250
6500,-3.906250
6501,-3.906250
6502,-7.812500
6503,-7.812500
6504,-7.812500
6505,-7.812500
6506,-7.812500
6507,-7.812500
6508,-7.812500
6509,-7.812500
6510,-7.812500
6511,-7.812500
6512,-11.718750
6513,-11.718750
6514,-11.718750
6515,-11.718750
6516,-11.718750
6517,-11.718750
6518,-11.718750
6519,-11.718750
6520,-11.718750
6521,-11.718750
6522,-11.718750
6523,-15.625000
6524,-15.625000
6525,-15.625000
6526,-15.625000
6527,-15.625000
6528,-15.625000
6529,-15.625000
6530,-15.625000
6531,-15.625000
6532,-15.625000
6533,-19.531250
6534,-15.625000
6535,-19.531250
6536,-19.531250
6537,-19.531250
6538,-19.531250
6539,-19.531250
6540,-19.531250
6541,-19.531250
6542,-19.531250
6543,-19.531250
6544,-23.437500
6545,-23.437500
6546,-23.437500
6547,-23.437500
6548,-23.437500
6549,-23.437500
6550,-23.437500
6551,-23.437500
6552,-23.437500
6553,-23.437500
6554,-23.437500
6555,-27.343750
6556,-27.343750
6557,-27.343750
6558,-27.343750
6559,-27.343750
6560,-27.343750
6561,-27.343750
6562,-27.343750
6563,-27.343750
6564,-27.343750
6565,-27.343750
6566,-31.250000
6567,-31.250000
6568,-31.250000
6569,-31.250000
6570,-31.250000
6571,-31.250000
6572,-31.250000
6573,-31.250000
6574,-31.250000
6575,-31.250000
6576,-31.250000
6577,-31.250000
6578,-35.156250
6579,-35.156250
6580,-35.156250
6581,-35.156250
6582,-35.156250
6583,-35.156250
6584,-35.156250
6585,-35.156250
6586,-35.156250
6587,-39.062500
6588,-39.062500
6589,-39.062500
6590,-39.062500
6591,-39.062500
6592,-39.062500
6593,-39.062500
6594,-39.062500
6595,-39.062500
6596,-39.062500
6597,-39.062500
6598,-39.062500
6599,-39.062500
6600,-42.968750
6601,-42.968750
6602,-42.968750
6603,-42.968750
6604,-42.968750
6605,-42.968750
6606,-42.968750
6607,-42.968750
6608,-42.968750
6609,-42.968750
6610,-42.968750
6611,-42.968750
6612,-42.968750
6613,-46.875000
6614,-46.875000
6615,-46.875000
6616,-46.875000
6617,-46.875000
6618,-46.875000
6619,-46.875000
6620,-46.875000
6621,-46.875000
6622,-46.875000
6623,-46.875000
6624,-46.875000
6625,-46.875000
6626,-50.781250
6627,-50.781250
6628,-50.781250
6629,-50.781250
6630,-50.781250
6631,-50.781250
6632,-50.781250
6633,-50.781250
6634,-50.781250
6635,-50.781250
6636,-50.781250
6637,-54.687500
6638,-54.687500
6639,-54.687500
6640,-54.687500
6641,-54.687500
6642,-54.687500
6643,-54.687500
6644,-54.687500
6645,-54.687500
6646,-54.687500
6647,-54.687500
6648,-54.687500
6649,-54.687500
6650,-54.687500
6651,-54.687500
6652,-54.687500
6653,-58.593750
6654,-58.593750
6655,-58.593750
6656,-58.593750
6657,-58.593750
6658,-58.593750
6659,-58.593750
6660,-58.593750
6661,-58.593750
6662,-58.593750
6663,-58.593750
6664,-58.593750
6665,-62.500000
6666,-58.593750
6667,-62.500000
6668,-58.593750
6669,-62.500000
6670,-58.593750
6671,-62.500000
6672,-62.500000
6673,-62.500000
6674,-62.500000
6675,-62.500000
6676,-62.500000
6677,-62.500000
6678,-62.500000
6679,-62.500000
6680,-62.500000
6681,-62.500000
6682,-62.500000
6683,-62.500000
6684,-62.500000
6685,-62.500000
6686,-62.500000
6687,-66.406250
6688,-66.406250
6689,-66.406250
6690,-66.406250
6691,-66.406250
6692,-66.406250
6693,-66.406250
6694,-66.406250
6695,-66.406250
6696,-66.406250
6697,-66.406250
6698,-66.406250
6699,-66.406250
6700,-66.406250
6701,-66.406250
6702,-66.406250
6703,-66.406250
6704,-66.406250
6705,-66.406250
6706,-66.406250
6707,-66.406250
6708,-70.312500
6709,-70.312500
6710,-66.406250
6711,-70.312500
6712,-70.312500
6713,-70.312500
6714,-66.406250
6715,-66.406250
6716,-70.312500
6717,-70.312500
6718,-70.312500
6719,-70.312500
6720,-70.312500
6721,-70.312500
6722,-70.312500
6723,-70.312500
6724,-70.312500
6725,-70.312500
6726,-70.312500
6727,-70.312500
6728,-70.312500
6729,-70.312500
6730,-70.312500
6731,-70.312500
6732,-70.312500
6733,-70.312500
6734,-70.312500
6735,-70.312500
6736,-70.312500
6737,-70.312500
6738,-70.312500
6739,-70.312500
6740,-70.312500
6741,-70.312500
6742,-70.312500
6743,-70.312500
6744,-70.312500
6745,-70.312500
6746,-70.312500
6747,-70.312500
6748,-70.312500
6749,-70.312500
6750,-70.312500
6751,-70.312500
6752,-70.312500
6753,-70.312500
6754,-70.312500
6755,-70.312500
6756,-70.312500
6757,-70.312500
6758,-70.312500
6759,-70.312500
6760,-70.312500
6761,-70.312500
6762,-70.312500
6763,-70.312500
6764,-70.312500
6765,-70.312500
6766,-70.312500
6767,-70.312500
6768,-70.312500
6769,-70.312500
6770,-70.312500
6771,-70.312500
6772,-70.312500
6773,-70.312500
6774,-70.312500
6775,-70.312500
6776,-70.312500
6777,-70.312500
6778,-70.312500
6779,-70.312500
6780,-70.312500
6781,-70.312500
6782,-70.312500
6783,-70.312500
6784,-70.312500
6785,-70.312500
6786,-70.312500
6787,-70.312500
6788,-70.312500
6789,-70.312500
6790,-70.312500
6791,-70.312500
6792,-70.312500
6793,-70.312500
6794,-70.312500
6795,-70.312500
6796,-70.312500
6797,-70.312500
6798,-70.312500
6799,-70.312500
6800,-70.312500
6801,-70.312500
6802,-70.312500
6803,-70.312500
6804,-70.312500
6805,-70.312500
6806,-66.406250
6807,-70.312500
6808,-70.312500
6809,-70.312500
6810,-70.312500
6811,-70.312500
6812,-66.406250
6813,-70.312500
6814,-66.406250
6815,-66.406250
6816,-66.406250
6817,-70.312500
6818,-66.406250
6819,-66.406250
6820,-66.406250
6821,-66.406250
6822,-66.406250
6823,-66.406250
6824,-66.406250
6825,-66.406250
6826,-66.406250
6827,-66.406250
6828,-66.406250
6829,-66.406250
6830,-66.406250
6831,-66.406250
6832,-66.406250
6833,-66.406250
6834,-66.406250
6835,-66.406250
6836,-66.406250
6837,-62.500000
6838,-62.500000
6839,-62.500000
6840,-62.500000
6841,-62.500000
6842,-62.500000
6843,-62.500000
6844,-62.500000
6845,-62.500000
6846,-62.500000
6847,-62.500000
6848,-62.500000
6849,-62.500000
6850,-62.500000
6851,-62.500000
6852,-62.500000
6853,-62.500000
6854,-62.500000
6855,-58.593750
6856,-58.593750
6857,-58.593750
6858,-58.593750
6859,-58.593750
6860,-58.593750
6861,-58.593750
6862,-58.593750
6863,-58.593750
6864,-58.593750
6865,-58.593750
6866,-58.593750
6867,-58.593750
6868,-58.593750
6869,-58.593750
6870,-58.593750
6871,-58.593750
6872,-54.687500
6873,-54.687500
6874,-54.687500
6875,-54.687500
6876,-54.687500
6877,-54.687500
6878,-54.687500
6879,-54.687500
6880,-54.687500
6881,-54.687500
6882,-54.687500
6883,-54.687500
6884,-50.781250
6885,-50.781250
6886,-50.781250
6887,-50.781250
6888,-50.781250
6889,-50.781250
6890,-50.781250
6891,-50.781250
6892,-50.781250
6893,-50.781250
6894,-50.781250
6895,-50.781250
6896,-50.781250
6897,-50.781250
6898,-50.781250
6899,-46.875000
6900,-46.875000
6901,-46.875000
6902,-46.875000
6903,-46.875000
6904,-46.875000
6905,-46.875000
6906,-46.875000
6907,-46.875000
6908,-46.875000
6909,-46.875000
6910,-46.875000
6911,-42.968750
6912,-42.968750
6913,-42.968750
6914,-42.968750
6915,-42.968750
6916,-42.968750
6917,-42.968750
6918,-42.968750
6919,-42.968750
6920,-42.968750
6921,-42.968750
6922,-42.968750
6923,-42.968750
6924,-42.968750
6925,-39.062500
6926,-39.062500
6927,-39.062500
6928,-39.062500
6929,-39.062500
6930,-39.062500
6931,-39.062500
6932,-39.062500
6933,-39.062500
6934,-39.062500
6935,-35.156250
6936,-35.156250
6937,-35.156250
6938,-35.156250
6939,-35.156250
6940,-35.156250
6941,-35.156250
6942,-35.156250
6943,-35.156250
6944,-35.156250
6945,-35.156250
6946,-35.156250
6947,-31.250000
6948,-31.250000
6949,-31.250000
6950,-31.250000
6951,-31.250000
6952,-31.250000
6953,-31.250000
6954,-31.250000
6955,-31.250000
6956,-31.250000
6957,-27.343750
6958,-27.343750
6959,-27.343750
6960,-27.343750
6961,-27.343750
6962,-27.343750
6963,-27.343750
6964,-27.343750
6965,-27.343750
6966,-23.437500
6967,-23.437500
6968,-23.437500
6969,-23.437500
6970,-23.437500
6971,-23.437500
6972,-27.343750
6973,-23.437500
6974,-23.437500
6975,-23.437500
6976,-23.437500
6977,-23.437500
6978,-19.531250
6979,-19.531250
6980,-19.531250
6981,-19.531250
6982,-19.531250
6983,-19.531250
6984,-19.531250
6985,-19.531250
6986,-19.531250
6987,-19.531250
6988,-19.531250
6989,-15.625000
6990,-15.625000
6991,-15.625000
6992,-15.625000
6993,-15.625000
6994,-15.625000
6995,-15.625000
6996,-15.625000
6997,-15.625000
6998,-15.625000
6999,-15.625000
7000,-11.718750
7001,-11.718750
7002,-11.718750
7003,-11.718750
7004,-11.718750
7005,-11.718750
7006,-11.718750
7007,-11.718750
7008,-11.718750
7009,-11.718750
7010,-7.812500
7011,-7.812500
7012,-7.812500
7013,-7.812500
7014,-7.812500
7015,-7.812500
7016,-7.812500
7017,-7.812500
7018,-7.812500
7019,-3.906250
7020,-3.906250
7021,-3.906250
7022,-3.906250
7023,-3.906250
7024,-3.906250
7025,-3.906250
7026,-3.906250
7027,-3.906250
7028,-3.906250
7029,-3.906250
7030,-3.906250
7031,0.000000
7032,0.000000
7033,0.000000
7034,0.000000
7035,0.000000
7036,0.000000
7037,0.000000
7038,0.000000
7039,0.000000
7040,0.000000
7041,0.000000
7042,3.906250
7043,3.906250
7044,3.906250
7045,3.906250
7046,3.906250
7047,3.906250
7048,3.906250
7049,3.906250
7050,3.906250
7051,3.906250
7052,3.906250
7053,7.812500
7054,7.812500
7055,7.812500
7056,7.812500
7057,7.812500
7058,7.812500
7059,7.812500
7060,7.812500
7061,7.812500
7062,7.812500
7063,7.812500
7064,7.812500
7065,7.812500
7066,7.812500
7067,11.718750
7068,11.718750
7069,11.718750
7070,11.718750
7071,11.718750
7072,11.718750
7073,11.718750
7074,11.718750
7075,11.718750
7076,11.718750
7077,11.718750
7078,11.718750
7079,11.718750
7080,15.625000
7081,15.625000
7082,15.625000
7083,15.625000
7084,15.625000
7085,15.625000
7086,15.625000
7087,15.625000
7088,15.625000
7089,15.625000
7090,19.531250
7091,19.531250
7092,19.531250
7093,19.531250
7094,19.531250
7095,19.531250
7096,19.531250
7097,19.531250
7098,19.531250
7099,19.531250
7100,19.531250
7101,19.531250
7102,19.531250
7103,23.437500
7104,23.437500
7105,23.437500
7106,23.437500
7107,23.437500
7108,23.437500
7109,23.437500
7110,23.437500
7111,23.437500
7112,23.437500
7113,23.437500
7114,23.437500
7115,23.437500
7116,23.437500
7117,27.343750
7118,27.343750
7119,23.437500
7120,23.437500
7121,27.343750
7122,27.343750
7123,27.343750
7124,27.343750
7125,27.343750
7126,27.343750
7127,27.343750
7128,27.343750
7129,27.343750
7130,27.343750
7131,27.343750
7132,27.343750
7133,31.250000
7134,31.250000
7135,31.250000
7136,31.250000
7137,31.250000
7138,31.250000
7139,31.250000
7140,31.250000
7141,31.250000
7142,31.250000
7143,31.250000
7144,31.250000
7145,31.250000
7146,31.250000
7147,31.250000
7148,31.250000
7149,31.250000
7150,31.250000
7151,35.156250
7152,35.156250
7153,35.156250
7154,35.156250
7155,35.156250
7156,35.156250
7157,35.156250
7158,35.156250
7159,35.156250
7160,35.156250
7161,35.156250
7162,35.156250
7163,35.156250
7164,35.156250
7165,35.156250
7166,35.156250
7167,35.156250
7168,35.156250
7169,35.156250
7170,35.156250
7171,35.156250
7172,39.062500
7173,35.156250
7174,39.062500
7175,39.062500
7176,39.062500
7177,39.062500
7178,39.062500
7179,39.062500
7180,39.062500
7181,39.062500
7182,39.062500
7183,39.062500
7184,39.062500
7185,39.062500
7186,39.062500
7187,39.062500
7188,39.062500
7189,39.062500
7190,39.062500
7191,39.062500
7192,39.062500
7193,39.062500
7194,39.062500
7195,39.062500
7196,39.062500
7197,39.062500
7198,39.062500
7199,39.062500
7200,42.968750
7201,42.968750
7202,42.968750
7203,42.968750
7204,42.968750
7205,39.062500
7206,42.968750
7207,42.968750
7208,39.062500
7209,42.968750
7210,42.968750
7211,42.968750
7212,42.968750
7213,42.968750
7214,42.968750
7215,42.968750
7216,42.968750
7217,42.968750
7218,42.968750
7219,42.968750
7220,42.968750
7221,42.968750
7222,42.968750
7223,42.968750
7224,42.968750
7225,42.968750
7226,42.968750
7227,42.968750
7228,42.968750
7229,42.968750
7230,42.968750
7231,42.968750
7232,42.968750
7233,42.968750
7234,42.968750
7235,42.968750
7236,42.968750
7237,42.968750
7238,42.968750
7239,42.968750
7240,42.968750
7241,42.968750
7242,46.875000
7243,42.968750
7244,42.968750
7245,42.968750
7246,42.968750
7247,42.968750
7248,42.968750
7249,42.968750
7250,42.968750
7251,42.968750
7252,42.968750
7253,42.968750
7254,42.968750
7255,42.968750
7256,42.968750
7257,42.968750
7258,46.875000
7259,42.968750
7260,42.968750
7261,42.968750
7262,42.968750
7263,42.968750
7264,42.968750
7265,42.968750
7266,42.968750
7267,42.968750
7268,42.968750
7269,42.968750
7270,42.968750
7271,42.968750
7272,42.968750
7273,42.968750
7274,42.968750
7275,42.968750
7276,42.968750
7277,42.968750
7278,42.968750
7279,42.968750
7280,42.968750
7281,42.968750
7282,42.968750
7283,42.968750
7284,42.968750
7285,42.968750
7286,42.968750
7287,42.968750
7288,42.968750
7289,42.968750
7290,42.968750
7291,42.968750
7292,42.968750
7293,42.968750
7294,42.968750
7295,42.968750
7296,42.968750
7297,42.968750
7298,42.968750
7299,42.968750
7300,42.968750
7301,42.968750
7302,42.968750
7303,42.968750
7304,42.968750
7305,42.968750
7306,42.968750
7307,42.968750
7308,42.968750
7309,42.968750
7310,39.062500
7311,39.062500
7312,39.062500
7313,39.062500
7314,39.062500
7315,39.062500
7316,39.062500
7317,39.062500
7318,39.062500
7319,39.062500
7320,39.062500
7321,39.062500
7322,39.062500
7323,39.062500
7324,39.062500
7325,39.062500
7326,39.062500
7327,39.062500
7328,39.062500
7329,39.062500
7330,39.062500
7331,39.062500
7332,35.156250
7333,39.062500
7334,39.062500
7335,35.156250
7336,39.062500
7337,39.062500
7338,35.156250
7339,35.156250
7340,35.156250
7341,35.156250
7342,35.156250
7343,35.156250
7344,35.156250
7345,39.062500
7346,35.156250
7347,35.156250
7348,35.156250
7349,35.156250
7350,35.156250
7351,35.156250
7352,35.156250
7353,35.156250
7354,35.156250
7355,35.156250
7356,35.156250
7357,35.156250
7358,35.156250
7359,35.156250
7360,35.156250
7361,35.156250
7362,31.250000
7363,31.250000
7364,31.250000
7365,31.250000
7366,31.250000
7367,31.250000
7368,31.250000
7369,31.250000
7370,31.250000
7371,31.250000
7372,31.250000
7373,31.250000
7374,31.250000
7375,27.343750
7376,31.250000
7377,31.250000
7378,31.250000
7379,31.250000
7380,27.343750
7381,27.343750
7382,27.343750
7383,27.343750
7384,27.343750
7385,27.343750
7386,27.343750
7387,27.343750
7388,27.343750
7389,27.343750
7390,27.343750
7391,27.343750
7392,27.343750
7393,23.437500
7394,23.437500
7395,23.437500
7396,23.437500
7397,23.437500
7398,23.437500
7399,23.437500
7400,23.437500
7401,23.437500
7402,23.437500
7403,23.437500
7404,23.437500
7405,23.437500
7406,23.437500
7407,19.531250
7408,19.531250
7409,19.531250
7410,19.531250
7411,19.531250
7412,19.531250
7413,19.531250
7414,19.531250
7415,19.531250
7416,19.531250
7417,19.531250
7418,19.531250
7419,19.531250
7420,19.531250
7421,19.531250
7422,15.625000
7423,15.625000
7424,15.625000
7425,15.625000
7426,15.625000
7427,15.625000
7428,15.625000
7429,15.625000
7430,15.625000
7431,15.625000
7432,15.625000
7433,15.625000
7434,15.625000
7435,11.718750
7436,11.718750
7437,11.718750
7438,11.718750
7439,11.718750
7440,11.718750
7441,11.718750
7442,11.718750
7443,11.718750
7444,11.718750
7445,7.812500
7446,11.718750
7447,7.812500
7448,7.812500
7449,7.812500
7450,7.812500
7451,7.812500
7452,7.812500
7453,7.812500
7454,7.812500
7455,3.906250
7456,3.906250
7457,7.812500
7458,3.906250
7459,7.812500
7460,3.906250
7461,3.906250
7462,3.906250
7463,3.906250
7464,3.906250
7465,3.906250
7466,3.906250
7467,3.906250
7468,3.906250
7469,0.000000
7470,0.000000
7471,0.000000
7472,0.000000
7473,0.000000
7474,0.000000
7475,0.000000
7476,0.000000
7477,0.000000
7478,0.000000
7479,-3.906250
7480,0.000000
7481,-3.906250
7482,-3.906250
7483,-3.906250
7484,-3.906250
7485,-3.906250
7486,-3.906250
7487,-3.906250
7488,-3.906250
7489,-3.906250
7490,-3.906250
7491,-7.812500
7492,-7.812500
7493,-7.812500
7494,-7.812500
7495,-7.812500
7496,-7.812500
7497,-7.812500
7498,-7.812500
7499,-7.812500
7500,-7.812500
7501,-7.812500
7502,-11.718750
7503,-11.718750
7504,-11.718750
7505,-11.718750
7506,-11.718750
7507,-11.718750
7508,-11.718750
7509,-11.718750
7510,-11.718750
7511,-11.718750
7512,-11.718750
7513,-15.625000
7514,-15.625000
7515,-15.625000
7516,-15.625000
7517,-15.625000
7518,-15.625000
7519,-15.625000
7520,-15.625000
7521,-15.625000
7522,-15.625000
7523,-19.531250
7524,-19.531250
7525,-19.531250
7526,-19.531250
7527,-19.531250
7528,-19.531250
7529,-19.531250
7530,-19.531250
7531,-19.531250
7532,-19.531250
7533,-19.531250
7534,-23.437500
7535,-23.437500
7536,-23.437500
7537,-23.437500
7538,-23.437500
7539,-23.437500
7540,-23.437500
7541,-23.437500
7542,-23.437500
7543,-23.437500
7544,-27.343750
7545,-27.343750
7546,-27.343750
7547,-27.343750
7548,-27.343750
7549,-27.343750
7550,-27.343750
7551,-27.343750
7552,-27.343750
7553,-27.343750
7554,-31.250000
7555,-31.250000
7556,-31.250000
7557,-31.250000
7558,-31.250000
7559,-31.250000
7560,-31.250000
7561,-31.250000
7562,-31.250000
7563,-31.250000
7564,-31.250000
7565,-31.250000
7566,-31.250000
7567,-31.250000
7568,-35.156250
7569,-35.156250
7570,-35.156250
7571,-35.156250
7572,-35.156250
7573,-35.156250
7574,-35.156250
7575,-35.156250
7576,-35.156250
7577,-39.062500
7578,-35.156250
7579,-39.062500
7580,-39.062500
7581,-39.062500
7582,-39.062500
7583,-39.062500
7584,-39.062500
7585,-39.062500
7586,-39.062500
7587,-39.062500
7588,-39.062500
7589,-39.062500
7590,-42.968750
7591,-42.968750
7592,-42.968750
7593,-42.968750
7594,-42.968750
7595,-42.968750
7596,-42.968750
7597,-42.968750
7598,-42.968750
7599,-42.968750
7600,-46.875000
7601,-46.875000
7602,-46.875000
7603,-46.875000
7604,-46.875000
7605,-46.875000
7606,-46.875000
7607,-46.875000
7608,-46.875000
7609,-46.875000
7610,-46.875000
7611,-46.875000
7612,-46.875000
7613,-50.781250
7614,-46.875000
7615,-50.781250
7616,-50.781250
7617,-50.781250
7618,-50.781250
7619,-50.781250
7620,-50.781250
7621,-50.781250
7622,-50.781250
7623,-50.781250
7624,-50.781250
7625,-50.781250
7626,-50.781250
7627,-50.781250
7628,-50.781250
7629,-54.687500
7630,-54.687500
7631,-54.687500
7632,-54.687500
7633,-54.687500
7634,-54.687500
7635,-54.687500
7636,-54.687500
7637,-54.687500
7638,-54.687500
7639,-54.687500
7640,-54.687500
7641,-54.687500
7642,-54.687500
7643,-58.593750
7644,-54.687500
7645,-58.593750
7646,-58.593750
7647,-58.593750
7648,-58.593750
7649,-58.593750
7650,-58.593750
7651,-58.593750
7652,-58.593750
7653,-58.593750
7654,-58.593750
7655,-58.593750
7656,-58.593750
7657,-58.593750
7658,-58.593750
7659,-58.593750
7660,-58.593750
7661,-62.500000
7662,-62.500000
7663,-58.593750
7664,-62.500000
7665,-62.500000
7666,-62.500000
7667,-62.500000
7668,-62.500000
7669,-62.500000
7670,-62.500000
7671,-62.500000
7672,-62.500000
7673,-62.500000
7674,-62.500000
7675,-66.406250
7676,-62.500000
7677,-66.406250
7678,-66.406250
7679,-66.406250
7680,-66.406250
7681,-66.406250
7682,-66.406250
7683,-66.406250
7684,-66.406250
7685,-66.406250
7686,-66.406250
7687,-66.406250
7688,-66.406250
7689,-66.406250
7690,-66.406250
7691,-66.406250
7692,-66.406250
7693,-66.406250
7694,-66.406250
7695,-66.406250
7696,-66.406250
7697,-66.406250
7698,-66.406250
7699,-70.312500
7700,-66.406250
7701,-66.406250
7702,-66.406250
7703,-66.406250
7704,-70.312500
7705,-70.312500
7706,-70.312500
7707,-70.312500
7708,-70.312500
7709,-70.312500
7710,-70.312500
7711,-70.312500
7712,-70.312500
7713,-70.312500
7714,-70.312500
7715,-70.312500
7716,-70.312500
7717,-70.312500
7718,-70.312500
7719,-70.312500
7720,-70.312500
7721,-70.312500
7722,-70.312500
7723,-70.312500
7724,-70.312500
7725,-70.312500
7726,-70.312500
7727,-70.312500
7728,-70.312500
7729,-70.312500
7730,-70.312500
7731,-70.312500
7732,-70.312500
7733,-70.312500
7734,-70.312500
7735,-70.312500
7736,-70.312500
7737,-70.312500
7738,-70.312500
7739,-70.312500
7740,-70.312500
7741,-70.312500
7742,-70.312500
7743,-70.312500
7744,-70.312500
7745,-70.312500
7746,-70.312500
7747,-70.312500
7748,-70.312500
7749,-70.312500
7750,-70.312500
7751,-70.312500
7752,-70.312500
7753,-70.312500
7754,-70.312500
7755,-70.312500
7756,-70.312500
7757,-70.312500
7758,-70.312500
7759,-70.312500
7760,-70.312500
7761,-74.218750
7762,-70.312500
7763,-70.312500
7764,-70.312500
7765,-70.312500
7766,-70.312500
7767,-70.312500
7768,-70.312500
7769,-70.312500
7770,-70.312500
7771,-70.312500
7772,-70.312500
7773,-70.312500
7774,-70.312500
7775,-70.312500
7776,-70.312500
7777,-70.312500
7778,-70.312500
7779,-70.312500
7780,-70.312500
7781,-70.312500
7782,-70.312500
7783,-70.312500
7784,-70.312500
7785,-70.312500
7786,-70.312500
7787,-70.312500
7788,-70.312500
7789,-70.312500
7790,-70.312500
7791,-70.312500
7792,-70.312500
7793,-70.312500
7794,-70.312500
7795,-66.406250
7796,-70.312500
7797,-70.312500
7798,-70.312500
7799,-70.312500
7800,-70.312500
7801,-70.312500
7802,-66.406250
7803,-66.406250
7804,-66.406250
7805,-66.406250
7806,-66.406250
7807,-66.406250
7808,-66.406250
7809,-66.406250
7810,-70.312500
7811,-66.406250
7812,-66.406250
7813,-66.406250
7814,-66.406250
7815,-66.406250
7816,-66.406250
7817,-66.406250
7818,-66.406250
7819,-66.406250
7820,-66.406250
7821,-66.406250
7822,-66.406250
7823,-66.406250
7824,-66.406250
7825,-62.500000
7826,-62.500000
7827,-66.406250
7828,-62.500000
7829,-66.406250
7830,-66.406250
7831,-66.406250
7832,-62.500000
7833,-62.500000
7834,-62.500000
7835,-62.500000
7836,-62.500000
7837,-62.500000
7838,-62.500000
7839,-62.500000
7840,-62.500000
7841,-62.500000
7842,-62.500000
7843,-62.500000
7844,-62.500000
7845,-62.500000
7846,-58.593750
7847,-62.500000
7848,-58.593750
7849,-58.593750
7850,-58.593750
7851,-58.593750
7852,-58.593750
7853,-58.593750
7854,-58.593750
7855,-58.593750
7856,-58.593750
7857,-58.593750
7858,-58.593750
7859,-58.593750
7860,-58.593750
7861,-58.593750
7862,-54.687500
7863,-54.687500
7864,-58.593750
7865,-54.687500
7866,-54.687500
7867,-54.687500
7868,-54.687500
7869,-54.687500
7870,-54.687500
7871,-54.687500
7872,-54.687500
7873,-54.687500
7874,-54.687500
7875,-54.687500
7876,-54.687500
7877,-54.687500
7878,-50.781250
7879,-50.781250
7880,-50.781250
7881,-50.781250
7882,-50.781250
7883,-50.781250
7884,-50.781250
7885,-50.781250
7886,-50.781250
7887,-50.781250
7888,-50.781250
7889,-46.875000
7890,-46.875000
7891,-46.875000
7892,-46.875000
7893,-46.875000
7894,-46.875000
7895,-46.875000
7896,-46.875000
7897,-46.875000
7898,-46.875000
7899,-46.875000
7900,-46.875000
7901,-42.968750
7902,-42.968750
7903,-42.968750
7904,-42.968750
7905,-42.968750
7906,-42.968750
7907,-42.968750
7908,-42.968750
7909,-42.968750
7910,-42.968750
7911,-42.968750
7912,-39.062500
7913,-39.062500
7914,-39.062500
7915,-39.062500
7916,-39.062500
7917,-39.062500
7918,-39.062500
7919,-39.062500
7920,-39.062500
7921,-39.062500
7922,-39.062500
7923,-39.062500
7924,-39.062500
7925,-35.156250
7926,-35.156250
7927,-39.062500
7928,-35.156250
7929,-35.156250
7930,-35.156250
7931,-35.156250
7932,-35.156250
7933,-35.156250
7934,-35.156250
7935,-35.156250
7936,-31.250000
7937,-31.250000
7938,-35.156250
7939,-31.250000
7940,-31.250000
7941,-31.250000
7942,-31.250000
7943,-31.250000
7944,-31.250000
7945,-31.250000
7946,-31.250000
7947,-31.250000
7948,-27.343750
7949,-27.343750
7950,-27.343750
7951,-27.343750
7952,-27.343750
7953,-27.343750
7954,-27.343750
7955,-27.343750
7956,-23.437500
7957,-23.437500
7958,-27.343750
7959,-27.343750
7960,-23.437500
7961,-23.437500
7962,-23.437500
7963,-23.437500
7964,-23.437500
7965,-23.437500
7966,-23.437500
7967,-23.437500
7968,-19.531250
7969,-19.531250
7970,-19.531250
7971,-19.531250
7972,-19.531250
7973,-19.531250
7974,-19.531250
7975,-19.531250
7976,-19.531250
7977,-19.531250
7978,-15.625000
7979,-19.531250
7980,-15.625000
7981,-15.625000
7982,-15.625000
7983,-15.625000
7984,-15.625000
7985,-15.625000
7986,-15.625000
7987,-15.625000
7988,-15.625000
7989,-15.625000
7990,-11.718750
7991,-11.718750
7992,-11.718750
7993,-11.718750
7994,-11.718750
7995,-11.718750
7996,-11.718750
7997,-11.718750
7998,-11.718750
7999,-11.718750
8000,-7.812500
8001,-7.812500
8002,-7.812500
8003,-7.812500
8004,-7.812500
8005,-7.812500
8006,-7.812500
8007,-7.812500
8008,-7.812500
8009,-7.812500
8010,-7.812500
8011,-3.906250
8012,-3.906250
8013,-3.906250
8014,-3.906250
8015,-3.906250
8016,-3.906250
8017,-3.906250
8018,-3.906250
8019,-3.906250
8020,-3.906250
8021,-3.906250
8022,0.000000
8023,0.000000
8024,0.000000
8025,0.000000
8026,0.000000
8027,0.000000
8028,0.000000
8029,0.000000
8030,0.000000
8031,0.000000
8032,3.906250
8033,3.906250
8034,3.906250
8035,3.906250
8036,3.906250
8037,3.906250
8038,3.906250
8039,3.906250
8040,3.906250
8041,3.906250
8042,3.906250
8043,3.906250
8044,3.906250
8045,7.812500
8046,7.812500
8047,7.812500
8048,7.812500
8049,7.812500
8050,7.812500
8051,7.812500
8052,7.812500
8053,7.812500
8054,7.812500
8055,7.812500
8056,7.812500
8057,11.718750
8058,11.718750
8059,11.718750
8060,11.718750
8061,11.718750
8062,11.718750
8063,11.718750
8064,11.718750
8065,11.718750
8066,11.718750
8067,11.718750
8068,11.718750
8069,15.625000
8070,15.625000
8071,11.718750
8072,15.625000
8073,15.625000
8074,15.625000
8075,15.625000
8076,15.625000
8077,15.625000
8078,15.625000
8079,19.531250
8080,19.531250
8081,19.531250
8082,19.531250
8083,19.531250
8084,19.531250
8085,19.531250
8086,19.531250
8087,19.531250
8088,19.531250
8089,19.531250
8090,19.531250
8091,19.531250
8092,23.437500
8093,23.437500
8094,23.437500
8095,23.437500
8096,23.437500
8097,23.437500
8098,23.437500
8099,23.437500
8100,23.437500
8101,23.437500
8102,23.437500
8103,23.437500
8104,23.437500
8105,23.437500
8106,23.437500
8107,23.437500
8108,27.343750
8109,27.343750
8110,27.343750
8111,27.343750
8112,27.343750
8113,27.343750
8114,27.343750
8115,27.343750
8116,27.343750
8117,27.343750
8118,27.343750
8119,27.343750
8120,27.343750
8121,27.343750
8122,27.343750
8123,27.343750
8124,31.250000
8125,31.250000
8126,31.250000
8127,31.250000
8128,31.250000
8129,31.250000
8130,31.250000
8131,31.250000
8132,31.250000
8133,31.250000
8134,31.250000
8135,31.250000
8136,31.250000
8137,31.250000
8138,31.250000
8139,35.156250
8140,31.250000
8141,35.156250
8142,35.156250
8143,35.156250
8144,35.156250
8145,35.156250
8146,35.156250
8147,35.156250
8148,35.156250
8149,35.156250
8150,35.156250
8151,35.156250
8152,35.156250
8153,35.156250
8154,35.156250
8155,35.156250
8156,35.156250
8157,35.156250
8158,35.156250
8159,35.156250
8160,39.062500
8161,35.156250
8162,35.156250
8163,35.156250
8164,39.062500
8165,35.156250
8166,39.062500
8167,39.062500
8168,39.062500
8169,39.062500
8170,39.062500
8171,39.062500
8172,39.062500
8173,39.062500
8174,39.062500
8175,39.062500
8176,39.062500
8177,39.062500
8178,39.062500
8179,39.062500
8180,39.062500
8181,39.062500
8182,39.062500
8183,42.968750
8184,39.062500
8185,39.062500
8186,39.062500
8187,39.062500
8188,39.062500
8189,39.062500
8190,39.062500
8191,39.062500
8192,42.968750
8193,42.968750
8194,42.968750
8195,42.968750
8196,42.968750
8197,42.968750
8198,39.062500
8199,42.968750
8200,42.968750
8201,42.968750
8202,42.968750
8203,42.968750
8204,42.968750
8205,42.968750
8206,42.968750
8207,42.968750
8208,42.968750
8209,42.968750
8210,42.968750
8211,42.968750
8212,42.968750
8213,42.968750
8214,42.968750
8215,42.968750
8216,42.968750
8217,42.968750
8218,42.968750
8219,42.968750
8220,42.968750
8221,42.968750
8222,42.968750
8223,42.968750
8224,42.968750
8225,42.968750
8226,42.968750
8227,42.968750
8228,42.968750
8229,42.968750
8230,42.968750
8231,42.968750
8232,42.968750
8233,42.968750
8234,42.968750
8235,42.968750
8236,42.968750
8237,42.968750
8238,42.968750
8239,42.968750
8240,42.968750
8241,42.968750
8242,42.968750
8243,42.968750
8244,42.968750
8245,42.968750
8246,42.968750
8247,42.968750
8248,42.968750
8249,42.968750
8250,42.968750
8251,42.968750
8252,42.968750
8253,42.968750
8254,42.968750
8255,42.968750
8256,42.968750
8257,42.968750
8258,42.968750
8259,42.968750
8260,42.968750
8261,42.968750
8262,42.968750
8263,42.968750
8264,42.968750
8265,42.968750
8266,42.968750
8267,42.968750
8268,42.968750
8269,42.968750
8270,42.968750
8271,42.968750
8272,42.968750
8273,42.968750
8274,42.968750
8275,42.968750
8276,42.968750
8277,42.968750
8278,42.968750
8279,42.968750
8280,42.968750
8281,42.968750
8282,42.968750
8283,42.968750
8284,42.968750
8285,42.968750
8286,42.968750
8287,42.968750
8288,42.968750
8289,42.968750
8290,42.968750
8291,42.968750
8292,42.968750
8293,42.968750
8294,42.968750
8295,42.968750
8296,42.968750
8297,39.062500
8298,39.062500
8299,39.062500
8300,42.968750
8301,42.968750
8302,39.062500
8303,39.062500
8304,39.062500
8305,39.062500
8306,39.062500
8307,39.062500
8308,39.062500
8309,39.062500
8310,39.062500
8311,39.062500
8312,39.062500
8313,39.062500
8314,39.062500
8315,39.062500
8316,39.062500
8317,39.062500
8318,39.062500
8319,39.062500
8320,39.062500
8321,39.062500
8322,39.062500
8323,39.062500
8324,39.062500
8325,39.062500
8326,39.062500
8327,35.156250
8328,39.062500
8329,39.062500
8330,35.156250
8331,35.156250
8332,35.156250
8333,35.156250
8334,35.156250
8335,35.156250
8336,35.156250
8337,35.156250
8338,35.156250
8339,35.156250
8340,35.156250
8341,35.156250
8342,35.156250
8343,35.156250
8344,35.156250
8345,35.156250
8346,31.250000
8347,31.250000
8348,35.156250
8349,35.156250
8350,31.250000
8351,31.250000
8352,31.250000
8353,31.250000
8354,31.250000
8355,31.250000
8356,31.250000
8357,31.250000
8358,31.250000
8359,31.250000
8360,31.250000
8361,31.250000
8362,31.250000
8363,31.250000
8364,31.250000
8365,31.250000
8366,31.250000
8367,27.343750
8368,27.343750
8369,27.343750
8370,27.343750
8371,27.343750
8372,27.343750
8373,27.343750
8374,27.343750
8375,27.343750
8376,27.343750
8377,27.343750
8378,27.343750
8379,27.343750
8380,27.343750
8381,27.343750
8382,27.343750
8383,23.437500
8384,23.437500
8385,23.437500
8386,23.437500
8387,23.437500
8388,23.437500
8389,23.437500
8390,23.437500
8391,23.437500
8392,23.437500
8393,23.437500
8394,23.437500
8395,23.437500
8396,23.437500
8397,19.531250
8398,19.531250
8399,19.531250
8400,19.531250
8401,19.531250
8402,19.531250
8403,19.531250
8404,19.531250
8405,19.531250
8406,19.531250
8407,19.531250
8408,19.531250
8409,19.531250
8410,19.531250
8411,15.625000
8412,15.625000
8413,15.625000
8414,15.625000
8415,15.625000
8416,15.625000
8417,15.625000
8418,15.625000
8419,15.625000
8420,15.625000
8421,15.625000
8422,15.625000
8423,15.625000
8424,11.718750
8425,11.718750
8426,11.718750
8427,11.718750
8428,11.718750
8429,11.718750
8430,11.718750
8431,11.718750
8432,11.718750
8433,11.718750
8434,11.718750
8435,11.718750
8436,11.718750
8437,11.718750
8438,7.812500
8439,7.812500
8440,7.812500
8441,7.812500
8442,7.812500
8443,7.812500
8444,7.812500
8445,7.812500
8446,7.812500
8447,7.812500
8448,7.812500
8449,3.906250
8450,3.906250
8451,3.906250
8452,3.906250
8453,3.906250
8454,3.906250
8455,3.906250
8456,3.906250
8457,0.000000
8458,0.000000
8459,0.000000
8460,0.000000
8461,0.000000
8462,0.000000
8463,0.000000
8464,0.000000
8465,0.000000
8466,0.000000
8467,0.000000
8468,0.000000
8469,-3.906250
8470,0.000000
8471,-3.906250
8472,-3.906250
8473,-3.906250
8474,-3.906250
8475,-3.906250
8476,-3.906250
8477,-3.906250
8478,-3.906250
8479,-3.906250
8480,-3.906250
8481,-7.812500
8482,-7.812500
8483,-7.812500
8484,-7.812500
8485,-7.812500
8486,-7.812500
8487,-7.812500
8488,-7.812500
8489,-7.812500
8490,-7.812500
8491,-11.718750
8492,-11.718750
8493,-11.718750
8494,-11.718750
8495,-11.718750
8496,-11.718750
8497,-11.718750
8498,-11.718750
8499,-11.718750
8500,-15.625000
8501,-11.718750
8502,-15.625000
8503,-15.625000
8504,-15.625000
8505,-15.625000
8506,-15.625000
8507,-15.625000
8508,-15.625000
8509,-15.625000
8510,-15.625000
8511,-15.625000
8512,-15.625000
8513,-15.625000
8514,-19.531250
8515,-19.531250
8516,-19.531250
8517,-19.531250
8518,-19.531250
8519,-19.531250
8520,-19.531250
8521,-19.531250
8522,-19.531250
8523,-19.531250
8524,-19.531250
8525,-23.437500
8526,-23.437500
8527,-23.437500
8528,-23.437500
8529,-23.437500
8530,-23.437500
8531,-23.437500
8532,-23.437500
8533,-23.437500
8534,-27.343750
8535,-27.343750
8536,-27.343750
8537,-27.343750
8538,-27.343750
8539,-27.343750
8540,-27.343750
8541,-27.343750
8542,-27.343750
8543,-27.343750
8544,-27.343750
8545,-31.250000
8546,-31.250000
8547,-31.250000
8548,-31.250000
8549,-31.250000
8550,-31.250000
8551,-31.250000
8552,-31.250000
8553,-31.250000
8554,-31.250000
8555,-31.250000
8556,-31.250000
8557,-35.156250
8558,-35.156250
8559,-35.156250
8560,-35.156250
8561,-35.156250
8562,-35.156250
8563,-35.156250
8564,-35.156250
8565,-35.156250
8566,-35.156250
8567,-39.062500
8568,-39.062500
8569,-39.062500
8570,-39.062500
8571,-39.062500
8572,-39.062500
8573,-39.062500
8574,-39.062500
8575,-39.062500
8576,-39.062500
8577,-39.062500
8578,-39.062500
8579,-42.968750
8580,-42.968750
8581,-42.968750
8582,-42.968750
8583,-42.968750
8584,-42.968750
8585,-42.968750
8586,-42.968750
8587,-42.968750
8588,-42.968750
8589,-42.968750
8590,-42.968750
8591,-46.875000
8592,-46.875000
8593,-46.875000
8594,-46.875000
8595,-46.875000
8596,-46.875000
8597,-46.875000
8598,-46.875000
8599,-46.875000
8600,-46.875000
8601,-46.875000
8602,-46.875000
8603,-50.781250
8604,-46.875000
8605,-50.781250
8606,-50.781250
8607,-50.781250
8608,-50.781250
8609,-50.781250
8610,-50.781250
8611,-50.781250
8612,-50.781250
8613,-50.781250
8614,-50.781250
8615,-50.781250
8616,-50.781250
8617,-54.687500
8618,-54.687500
8619,-54.687500
8620,-54.687500
8621,-54.687500
8622,-54.687500
8623,-54.687500
8624,-54.687500
8625,-54.687500
8626,-54.687500
8627,-54.687500
8628,-54.687500
8629,-54.687500
8630,-58.593750
8631,-58.593750
8632,-58.593750
8633,-58.593750
8634,-58.593750
8635,-58.593750
8636,-58.593750
8637,-58.593750
8638,-58.593750
8639,-58.593750
8640,-58.593750
8641,-58.593750
8642,-58.593750
8643,-58.593750
8644,-58.593750
8645,-58.593750
8646,-62.500000
8647,-62.500000
8648,-62.500000
8649,-62.500000
8650,-62.500000
8651,-62.500000
8652,-62.500000
8653,-62.500000
8654,-62.500000
8655,-62.500000
8656,-62.500000
8657,-62.500000
8658,-62.500000
8659,-62.500000
8660,-62.500000
8661,-62.500000
8662,-62.500000
8663,-62.500000
8664,-62.500000
8665,-62.500000
8666,-66.406250
8667,-62.500000
8668,-66.406250
8669,-66.406250
8670,-66.406250
8671,-66.406250
8672,-66.406250
8673,-66.406250
8674,-66.406250
8675,-66.406250
8676,-66.406250
8677,-66.406250
8678,-66.406250
8679,-66.406250
8680,-66.406250
8681,-66.406250
8682,-66.406250
8683,-66.406250
8684,-66.406250
8685,-66.406250
8686,-66.406250
8687,-66.406250
8688,-66.406250
8689,-66.406250
8690,-70.312500
8691,-70.312500
8692,-66.406250
8693,-70.312500
8694,-66.406250
8695,-70.312500
8696,-70.312500
8697,-70.312500
8698,-70.312500
8699,-70.312500
8700,-70.312500
8701,-70.312500
8702,-70.312500
8703,-70.312500
8704,-70.312500
8705,-70.312500
8706,-70.312500
8707,-70.312500
8708,-70.312500
8709,-70.312500
8710,-70.312500
8711,-70.312500
8712,-70.312500
8713,-70.312500
8714,-70.312500
8715,-70.312500
8716,-70.312500
8717,-70.312500
8718,-70.312500
8719,-70.312500
8720,-70.312500
8721,-70.312500
8722,-70.312500
8723,-70.312500
8724,-70.312500
8725,-70.312500
8726,-70.312500
8727,-70.312500
8728,-70.312500
8729,-70.312500
8730,-70.312500
8731,-70.312500
8732,-70.312500
8733,-70.312500
8734,-70.312500
8735,-70.312500
8736,-70.312500
8737,-70.312500
8738,-70.312500
8739,-70.312500
8740,-70.312500
8741,-70.312500
8742,-70.312500
8743,-70.312500
8744,-70.312500
8745,-70.312500
8746,-70.312500
8747,-70.312500
8748,-70.312500
8749,-74.218750
8750,-70.312500
8751,-70.312500
8752,-70.312500
8753,-70.312500
8754,-70.312500
8755,-70.312500
8756,-70.312500
8757,-70.312500
8758,-70.312500
8759,-70.312500
8760,-70.312500
8761,-70.312500
8762,-70.312500
8763,-70.312500
8764,-70.312500
8765,-70.312500
8766,-70.312500
8767,-70.312500
8768,-70.312500
8769,-70.312500
8770,-70.312500
8771,-70.312500
8772,-70.312500
8773,-70.312500
8774,-70.312500
8775,-70.312500
8776,-70.312500
8777,-70.312500
8778,-70.312500
8779,-70.312500
8780,-70.312500
8781,-70.312500
8782,-70.312500
8783,-70.312500
8784,-70.312500
8785,-70.312500
8786,-70.312500
8787,-70.312500
8788,-70.312500
8789,-70.312500
8790,-66.406250
8791,-66.406250
8792,-70.312500
8793,-66.406250
8794,-66.406250
8795,-70.312500
8796,-66.406250
8797,-66.406250
8798,-66.406250
8799,-66.406250
8800,-66.406250
8801,-66.406250
8802,-66.406250
8803,-66.406250
8804,-66.406250
8805,-66.406250
8806,-66.406250
8807,-66.406250
8808,-66.406250
8809,-66.406250
8810,-66.406250
8811,-66.406250
8812,-66.406250
8813,-66.406250
8814,-66.406250
8815,-62.500000
8816,-62.500000
8817,-62.500000
8818,-62.500000
8819,-62.500000
8820,-62.500000
8821,-62.500000
8822,-62.500000
8823,-62.500000
8824,-62.500000
8825,-62.500000
8826,-62.500000
8827,-62.500000
8828,-62.500000
8829,-62.500000
8830,-62.500000
8831,-62.500000
8832,-62.500000
8833,-62.500000
8834,-58.593750
8835,-58.593750
8836,-58.593750
8837,-58.593750
8838,-58.593750
8839,-58.593750
8840,-58.593750
8841,-58.593750
8842,-58.593750
8843,-58.593750
8844,-58.593750
8845,-58.593750
8846,-58.593750
8847,-58.593750
8848,-58.593750
8849,-58.593750
8850,-54.687500
8851,-54.687500
8852,-54.687500
8853,-54.687500
8854,-54.687500
8855,-54.687500
8856,-54.687500
8857,-54.687500
8858,-54.687500
8859,-54.687500
8860,-54.687500
8861,-54.687500
8862,-54.687500
8863,-54.687500
8864,-54.687500
8865,-54.687500
8866,-50.781250
8867,-50.781250
8868,-50.781250
8869,-50.781250
8870,-50.781250
8871,-50.781250
8872,-50.781250
8873,-50.781250
8874,-50.781250
8875,-50.781250
8876,-50.781250
8877,-50.781250
8878,-50.781250
8879,-50.781250
8880,-50.781250
8881,-46.875000
8882,-46.875000
8883,-46.875000
8884,-46.875000
8885,-46.875000
8886,-46.875000
8887,-46.875000
8888,-46.875000
8889,-46.875000
8890,-46.875000
8891,-46.875000
8892,-46.875000
8893,-46.875000
8894,-42.968750
8895,-42.968750
8896,-42.968750
8897,-42.968750
8898,-42.968750
8899,-42.968750
8900,-42.968750
8901,-42.968750
8902,-39.062500
8903,-42.968750
8904,-42.968750
8905,-42.968750
8906,-39.062500
8907,-42.968750
8908,-39.062500
8909,-39.062500
8910,-39.062500
8911,-39.062500
8912,-39.062500
8913,-39.062500
8914,-39.062500
8915,-39.062500
8916,-35.156250
8917,-39.062500
8918,-35.156250
8919,-35.156250
8920,-35.156250
8921,-35.156250
8922,-35.156250
8923,-35.156250
8924,-35.156250
8925,-35.156250
8926,-35.156250
8927,-35.156250
8928,-31.250000
8929,-31.250000
8930,-31.250000
8931,-31.250000
8932,-31.250000
8933,-31.250000
8934,-31.250000
8935,-31.250000
8936,-31.250000
8937,-31.250000
8938,-27.343750
8939,-27.343750
8940,-27.343750
8941,-27.343750
8942,-27.343750
8943,-27.343750
8944,-27.343750
8945,-27.343750
8946,-27.343750
8947,-23.437500
8948,-23.437500
8949,-23.437500
8950,-23.437500
8951,-23.437500
8952,-23.437500
8953,-23.437500
8954,-23.437500
8955,-23.437500
8956,-23.437500
8957,-23.437500
8958,-19.531250
8959,-23.437500
8960,-19.531250
8961,-19.531250
8962,-19.531250
8963,-19.531250
8964,-19.531250
8965,-19.531250
8966,-19.531250
8967,-19.531250
8968,-19.531250
8969,-15.625000
8970,-15.625000
8971,-15.625000
8972,-15.625000
8973,-15.625000
8974,-15.625000
8975,-15.625000
8976,-15.625000
8977,-15.625000
8978,-15.625000
8979,-11.718750
8980,-11.718750
8981,-11.718750
8982,-11.718750
8983,-11.718750
8984,-11.718750
8985,-11.718750
8986,-11.718750
8987,-11.718750
8988,-11.718750
8989,-11.718750
8990,-11.718750
8991,-7.812500
8992,-7.812500
8993,-7.812500
8994,-7.812500
8995,-7.812500
8996,-7.812500
8997,-7.812500
8998,-7.812500
8999,-7.812500
9000,-7.812500
9001,-7.812500
9002,-3.906250
9003,-3.906250
9004,-3.906250
9005,-3.906250
9006,-3.906250
9007,-3.906250
9008,-3.906250
9009,-3.906250
9010,-3.906250
9011,-3.906250
9012,-3.906250
9013,0.000000
9014,0.000000
9015,0.000000
9016,0.000000
9017,0.000000
9018,0.000000
9019,0.000000
9020,0.000000
9021,0.000000
9022,0.000000
9023,0.000000
9024,3.906250
9025,3.906250
9026,3.906250
9027,3.906250
9028,3.906250
9029,3.906250
9030,3.906250
9031,3.906250
9032,3.906250
9033,3.906250
9034,3.906250
9035,3.906250
9036,3.906250
9037,7.812500
9038,7.812500
9039,7.812500
9040,7.812500
9041,7.812500
9042,7.812500
9043,7.812500
9044,7.812500
9045,11.718750
9046,7.812500
9047,7.812500
9048,11.718750
9049,11.718750
9050,11.718750
9051,11.718750
9052,11.718750
9053,11.718750
9054,11.718750
9055,11.718750
9056,11.718750
9057,11.718750
9058,15.625000
9059,15.625000
9060,15.625000
9061,15.625000
9062,15.625000
9063,15.625000
9064,15.625000
9065,15.625000
9066,15.625000
9067,15.625000
9068,15.625000
9069,15.625000
9070,19.531250
9071,15.625000
9072,19.531250
9073,19.531250
9074,19.531250
9075,19.531250
9076,19.531250
9077,19.531250
9078,19.531250
9079,19.531250
9080,19.531250
9081,19.531250
9082,19.531250
9083,19.531250
9084,23.437500
9085,23.437500
9086,23.437500
9087,23.437500
9088,23.437500
9089,23.437500
9090,23.437500
9091,23.437500
9092,23.437500
9093,23.437500
9094,23.437500
9095,23.437500
9096,27.343750
9097,27.343750
9098,23.437500
9099,27.343750
9100,27.343750
9101,27.343750
9102,27.343750
9103,27.343750
9104,27.343750
9105,27.343750
9106,27.343750
9107,27.343750
9108,27.343750
9109,27.343750
9110,27.343750
9111,27.343750
9112,27.343750
9113,27.343750
9114,27.343750
9115,27.343750
9116,31.250000
9117,31.250000
9118,31.250000
9119,31.250000
9120,31.250000
9121,31.250000
9122,31.250000
9123,31.250000
9124,31.250000
9125,31.250000
9126,31.250000
9127,31.250000
9128,31.250000
9129,31.250000
9130,31.250000
9131,31.250000
9132,35.156250
9133,35.156250
9134,35.156250
9135,35.156250
9136,35.156250
9137,35.156250
9138,35.156250
9139,35.156250
9140,35.156250
9141,35.156250
9142,35.156250
9143,35.156250
9144,35.156250
9145,35.156250
9146,35.156250
9147,35.156250
9148,35.156250
9149,35.156250
9150,35.156250
9151,35.156250
9152,35.156250
9153,35.156250
9154,35.156250
9155,39.062500
9156,39.062500
9157,39.062500
9158,39.062500
9159,39.062500
9160,39.062500
9161,39.062500
9162,39.062500
9163,39.062500
9164,39.062500
9165,39.062500
9166,39.062500
9167,39.062500
9168,39.062500
9169,39.062500
9170,39.062500
9171,39.062500
9172,39.062500
9173,39.062500
9174,39.062500
9175,39.062500
9176,39.062500
9177,42.968750
9178,39.062500
9179,39.062500
9180,39.062500
9181,42.968750
9182,39.062500
9183,42.968750
9184,42.968750
9185,42.968750
9186,42.968750
9187,42.968750
9188,42.968750
9189,42.968750
9190,42.968750
9191,42.968750
9192,42.968750
9193,42.968750
9194,42.968750
9195,42.968750
9196,42.968750
9197,42.968750
9198,42.968750
9199,42.968750
9200,42.968750
9201,42.968750
9202,42.968750
9203,42.968750
9204,42.968750
9205,42.968750
9206,42.968750
9207,42.968750
9208,42.968750
9209,42.968750
9210,42.968750
9211,42.968750
9212,42.968750
9213,42.968750
9214,42.968750
9215,42.968750
9216,42.968750
9217,42.968750
9218,42.968750
9219,42.968750
9220,42.968750
9221,42.968750
9222,42.968750
9223,42.968750
9224,42.968750
9225,42.968750
9226,42.968750
9227,42.968750
9228,42.968750
9229,42.968750
9230,42.968750
9231,42.968750
9232,42.968750
9233,42.968750
9234,42.968750
9235,42.968750
9236,42.968750
9237,42.968750
9238,42.968750
9239,42.968750
9240,42.968750
9241,42.968750
9242,42.968750
9243,42.968750
9244,42.968750
9245,42.968750
9246,42.968750
9247,42.968750
9248,42.968750
9249,42.968750
9250,42.968750
9251,42.968750
9252,42.968750
9253,42.968750
9254,42.968750
9255,42.968750
9256,42.968750
9257,42.968750
9258,42.968750
9259,42.968750
9260,42.968750
9261,42.968750
9262,42.968750
9263,42.968750
9264,42.968750
9265,42.968750
9266,42.968750
9267,42.968750
9268,42.968750
9269,42.968750
9270,42.968750
9271,42.968750
9272,42.968750
9273,42.968750
9274,42.968750
9275,42.968750
9276,42.968750
9277,42.968750
9278,42.968750
9279,42.968750
9280,42.968750
9281,42.968750
9282,42.968750
9283,42.968750
9284,39.062500
9285,42.968750
9286,42.968750
9287,42.968750
9288,42.968750
9289,42.968750
9290,42.968750
9291,39.062500
9292,39.062500
9293,39.062500
9294,39.062500
9295,39.062500
9296,39.062500
9297,39.062500
9298,39.062500
9299,39.062500
9300,39.062500
9301,39.062500
9302,39.062500
9303,39.062500
9304,39.062500
9305,39.062500
9306,39.062500
9307,39.062500
9308,39.062500
9309,39.062500
9310,39.062500
9311,39.062500
9312,39.062500
9313,39.062500
9314,39.062500
9315,35.156250
9316,39.062500
9317,39.062500
9318,39.062500
9319,39.062500
9320,39.062500
9321,35.156250
9322,35.156250
9323,39.062500
9324,35.156250
9325,35.156250
9326,35.156250
9327,35.156250
9328,35.156250
9329,35.156250
9330,35.156250
9331,35.156250
9332,35.156250
9333,35.156250
9334,35.156250
9335,35.156250
9336,35.156250
9337,35.156250
9338,35.156250
9339,35.156250
9340,31.250000
9341,31.250000
9342,31.250000
9343,31.250000
9344,31.250000
9345,31.250000
9346,31.250000
9347,31.250000
9348,31.250000
9349,31.250000
9350,31.250000
9351,31.250000
9352,31.250000
9353,31.250000
9354,31.250000
9355,31.250000
9356,31.250000
9357,31.250000
9358,31.250000
9359,27.343750
9360,27.343750
9361,27.343750
9362,27.343750
9363,27.343750
9364,27.343750
9365,27.343750
9366,27.343750
9367,27.343750
9368,27.343750
9369,27.343750
9370,27.343750
9371,23.437500
9372,23.437500
9373,23.437500
9374,23.437500
9375,23.437500
9376,23.437500
9377,23.437500
9378,23.437500
9379,23.437500
9380,23.437500
9381,23.437500
9382,23.437500
9383,23.437500
9384,23.437500
9385,19.531250
9386,23.437500
9387,23.437500
9388,19.531250
9389,19.531250
9390,19.531250
9391,19.531250
9392,19.531250
9393,19.531250
9394,19.531250
9395,19.531250
9396,19.531250
9397,19.531250
9398,19.531250
9399,19.531250
9400,15.625000
9401,15.625000
9402,15.625000
9403,15.625000
9404,15.625000
9405,15.625000
9406,15.625000
9407,15.625000
9408,15.625000
9409,15.625000
9410,15.625000
9411,15.625000
9412,15.625000
9413,15.625000
9414,15.625000
9415,11.718750
9416,11.718750
9417,11.718750
9418,11.718750
9419,11.718750
9420,11.718750
9421,11.718750
9422,11.718750
9423,11.718750
9424,11.718750
9425,7.812500
9426,7.812500
9427,7.812500
9428,7.812500
9429,7.812500
9430,7.812500
9431,7.812500
9432,7.812500
9433,7.812500
9434,7.812500
9435,7.812500
9436,7.812500
9437,3.906250
9438,3.906250
9439,3.906250
9440,3.906250
9441,3.906250
9442,3.906250
9443,3.906250
9444,3.906250
9445,3.906250
9446,3.906250
9447,3.906250
9448,3.906250
9449,0.000000
9450,0.000000
9451,0.000000
9452,0.000000
9453,0.000000
9454,0.000000
9455,0.000000
9456,0.000000
9457,0.000000
9458,0.000000
9459,-3.906250
9460,-3.906250
9461,-3.906250
9462,-3.906250
9463,-3.906250
9464,-3.906250
9465,-3.906250
9466,-3.906250
9467,-3.906250
9468,-3.906250
9469,-3.906250
9470,-7.812500
9471,-7.812500
9472,-7.812500
9473,-7.812500
9474,-7.812500
9475,-7.812500
9476,-7.812500
9477,-7.812500
9478,-7.812500
9479,-7.812500
9480,-7.812500
9481,-11.718750
9482,-11.718750
9483,-11.718750
9484,-11.718750
9485,-11.718750
9486,-11.718750
9487,-11.718750
9488,-11.718750
9489,-11.718750
9490,-11.718750
9491,-11.718750
9492,-15.625000
9493,-15.625000
9494,-15.625000
9495,-15.625000
9496,-15.625000
9497,-15.625000
9498,-15.625000
9499,-15.625000
9500,-15.625000
9501,-15.625000
9502,-19.531250
9503,-19.531250
9504,-19.531250
9505,-19.531250
9506,-19.531250
9507,-19.531250
9508,-19.531250
9509,-19.531250
9510,-19.531250
9511,-23.437500
9512,-19.531250
9513,-19.531250
9514,-23.437500
9515,-23.437500
9516,-23.437500
9517,-23.437500
9518,-23.437500
9519,-23.437500
9520,-23.437500
9521,-23.437500
9522,-23.437500
9523,-27.343750
9524,-23.437500
9525,-27.343750
9526,-27.343750
9527,-27.343750
9528,-27.343750
9529,-27.343750
9530,-27.343750
9531,-27.343750
9532,-27.343750
9533,-27.343750
9534,-27.343750
9535,-27.343750
9536,-31.250000
9537,-31.250000
9538,-31.250000
9539,-31.250000
9540,-31.250000
9541,-31.250000
9542,-31.250000
9543,-31.250000
9544,-31.250000
9545,-35.156250
9546,-31.250000
9547,-35.156250
9548,-35.156250
9549,-35.156250
9550,-35.156250
9551,-35.156250
9552,-35.156250
9553,-35.156250
9554,-35.156250
9555,-35.156250
9556,-35.156250
9557,-39.062500
9558,-39.062500
9559,-39.062500
9560,-39.062500
9561,-39.062500
9562,-39.062500
9563,-39.062500
9564,-39.062500
9565,-39.062500
9566,-39.062500
9567,-42.968750
9568,-42.968750
9569,-42.968750
9570,-42.968750
9571,-42.968750
9572,-42.968750
9573,-42.968750
9574,-42.968750
9575,-42.968750
9576,-42.968750
9577,-42.968750
9578,-46.875000
9579,-42.968750
9580,-46.875000
9581,-46.875000
9582,-46.875000
9583,-46.875000
9584,-46.875000
9585,-46.875000
9586,-46.875000
9587,-46.875000
9588,-46.875000
9589,-46.875000
9590,-46.875000
9591,-46.875000
9592,-46.875000
9593,-50.781250
9594,-50.781250
9595,-50.781250
9596,-50.781250
9597,-50.781250
9598,-50.781250
9599,-50.781250
9600,-50.781250
9601,-50.781250
9602,-50.781250
9603,-50.781250
9604,-50.781250
9605,-54.687500
9606,-54.687500
9607,-54.687500
9608,-54.687500
9609,-54.687500
9610,-54.687500
9611,-54.687500
9612,-54.687500
9613,-54.687500
9614,-54.687500
9615,-54.687500
9616,-54.687500
9617,-54.687500
9618,-54.687500
9619,-54.687500
9620,-54.687500
9621,-54.687500
9622,-58.593750
9623,-54.687500
9624,-58.593750
9625,-58.593750
9626,-58.593750
9627,-58.593750
9628,-58.593750
9629,-58.593750
9630,-58.593750
9631,-58.593750
9632,-58.593750
9633,-58.593750
9634,-58.593750
9635,-58.593750
9636,-58.593750
9637,-62.500000
9638,-62.500000
9639,-62.500000
9640,-62.500000
9641,-62.500000
9642,-62.500000
9643,-62.500000
9644,-62.500000
9645,-62.500000
9646,-62.500000
9647,-62.500000
9648,-62.500000
9649,-62.500000
9650,-62.500000
9651,-62.500000
9652,-62.500000
9653,-66.406250
9654,-62.500000
9655,-62.500000
9656,-66.406250
9657,-66.406250
9658,-66.406250
9659,-66.406250
9660,-66.406250
9661,-66.406250
9662,-66.406250
9663,-66.406250
9664,-66.406250
9665,-66.406250
9666,-66.406250
9667,-66.406250
9668,-66.406250
9669,-66.406250
9670,-66.406250
9671,-66.406250
9672,-66.406250
9673,-66.406250
9674,-66.406250
9675,-70.312500
9676,-66.406250
9677,-70.312500
9678,-66.406250
9679,-66.406250
9680,-66.406250
9681,-70.312500
9682,-70.312500
9683,-70.312500
9684,-70.312500
9685,-70.312500
9686,-70.312500
9687,-70.312500
9688,-70.312500
9689,-70.312500
9690,-70.312500
9691,-70.312500
9692,-70.312500
9693,-70.312500
9694,-70.312500
9695,-70.312500
9696,-70.312500
9697,-70.312500
9698,-70.312500
9699,-70.312500
9700,-70.312500
9701,-70.312500
9702,-70.312500
9703,-70.312500
9704,-70.312500
9705,-70.312500
9706,-70.312500
9707,-70.312500
9708,-70.312500
9709,-70.312500
9710,-70.312500
9711,-70.312500
9712,-70.312500
9713,-70.312500
9714,-70.312500
9715,-70.312500
9716,-70.312500
9717,-70.312500
9718,-70.312500
9719,-70.312500
9720,-70.312500
9721,-70.312500
9722,-70.312500
9723,-70.312500
9724,-70.312500
9725,-70.312500
9726,-70.312500
9727,-70.312500
9728,-70.312500
9729,-70.312500
9730,-70.312500
9731,-70.312500
9732,-74.218750
9733,-70.312500
9734,-70.312500
9735,-70.312500
9736,-70.312500
9737,-70.312500
9738,-70.312500
9739,-70.312500
9740,-70.312500
9741,-70.312500
9742,-70.312500
9743,-70.312500
9744,-70.312500
9745,-70.312500
9746,-70.312500
9747,-70.312500
9748,-70.312500
9749,-70.312500
9750,-70.312500
9751,-70.312500
9752,-70.312500
9753,-70.312500
9754,-70.312500
9755,-70.312500
9756,-70.312500
9757,-70.312500
9758,-70.312500
9759,-70.312500
9760,-70.312500
9761,-70.312500
9762,-70.312500
9763,-70.312500
9764,-70.312500
9765,-70.312500
9766,-70.312500
9767,-70.312500
9768,-70.312500
9769,-70.312500
9770,-70.312500
9771,-70.312500
9772,-70.312500
9773,-70.312500
9774,-70.312500
9775,-70.312500
9776,-70.312500
9777,-70.312500
9778,-70.312500
9779,-70.312500
9780,-66.406250
9781,-70.312500
9782,-66.406250
9783,-66.406250
9784,-70.312500
9785,-66.406250
9786,-66.406250
9787,-66.406250
9788,-66.406250
9789,-66.406250
9790,-66.406250
9791,-66.406250
9792,-66.406250
9793,-66.406250
9794,-66.406250
9795,-66.406250
9796,-66.406250
9797,-66.406250
9798,-66.406250
9799,-66.406250
9800,-66.406250
9801,-66.406250
9802,-66.406250
9803,-66.406250
9804,-66.406250
9805,-66.406250
9806,-62.500000
9807,-62.500000
9808,-62.500000
9809,-62.500000
9810,-62.500000
9811,-62.500000
9812,-62.500000
9813,-62.500000
9814,-62.500000
9815,-62.500000
9816,-62.500000
9817,-62.500000
9818,-62.500000
9819,-62.500000
9820,-62.500000
9821,-62.500000
9822,-62.500000
9823,-62.500000
9824,-62.500000
9825,-58.593750
9826,-58.593750
9827,-58.593750
9828,-58.593750
9829,-58.593750
9830,-58.593750
9831,-58.593750
9832,-58.593750
9833,-58.593750
9834,-58.593750
9835,-58.593750
9836,-58.593750
9837,-58.593750
9838,-58.593750
9839,-58.593750
9840,-58.593750
9841,-54.687500
9842,-54.687500
9843,-54.687500
9844,-54.687500
9845,-54.687500
9846,-54.687500
9847,-54.687500
9848,-54.687500
9849,-54.687500
9850,-54.687500
9851,-54.687500
9852,-54.687500
9853,-54.687500
9854,-54.687500
9855,-50.781250
9856,-50.781250
9857,-50.781250
9858,-50.781250
9859,-50.781250
9860,-50.781250
9861,-50.781250
9862,-50.781250
9863,-50.781250
9864,-50.781250
9865,-50.781250
9866,-50.781250
9867,-50.781250
9868,-50.781250
9869,-50.781250
9870,-50.781250
9871,-46.875000
9872,-46.875000
9873,-46.875000
9874,-46.875000
9875,-46.875000
9876,-46.875000
9877,-46.875000
9878,-46.875000
9879,-46.875000
9880,-46.875000
9881,-42.968750
9882,-42.968750
9883,-42.968750
9884,-42.968750
9885,-42.968750
9886,-42.968750
9887,-42.968750
9888,-42.968750
9889,-42.968750
9890,-42.968750
9891,-42.968750
9892,-42.968750
9893,-42.968750
9894,-39.062500
9895,-39.062500
9896,-39.062500
9897,-39.062500
9898,-39.062500
9899,-39.062500
9900,-39.062500
9901,-39.062500
9902,-39.062500
9903,-39.062500
9904,-35.156250
9905,-35.156250
9906,-35.156250
9907,-35.156250
9908,-35.156250
9909,-35.156250
9910,-35.156250
9911,-35.156250
9912,-35.156250
9913,-35.156250
9914,-35.156250
9915,-31.250000
9916,-31.250000
9917,-31.250000
9918,-31.250000
9919,-31.250000
9920,-31.250000
9921,-31.250000
9922,-31.250000
9923,-31.250000
9924,-31.250000
9925,-31.250000
9926,-31.250000
9927,-31.250000
9928,-27.343750
9929,-27.343750
9930,-27.343750
9931,-27.343750
9932,-27.343750
9933,-27.343750
9934,-27.343750
9935,-27.343750
9936,-27.343750
9937,-23.437500
9938,-23.437500
9939,-27.343750
9940,-23.437500
9941,-23.437500
9942,-23.437500
9943,-23.437500
9944,-23.437500
9945,-23.437500
9946,-23.437500
9947,-23.437500
9948,-23.437500
9949,-23.437500
9950,-19.531250
9951,-19.531250
9952,-19.531250
9953,-19.531250
9954,-19.531250
9955,-19.531250
9956,-19.531250
9957,-19.531250
9958,-19.531250
9959,-19.531250
9960,-15.625000
9961,-15.625000
9962,-15.625000
9963,-15.625000
9964,-15.625000
9965,-15.625000
9966,-15.625000
9967,-15.625000
9968,-11.718750
9969,-15.625000
9970,-15.625000
9971,-11.718750
9972,-11.718750
9973,-11.718750
9974,-11.718750
9975,-11.718750
9976,-11.718750
9977,-11.718750
9978,-11.718750
9979,-7.812500
9980,-7.812500
9981,-7.812500
9982,-7.812500
9983,-7.812500
9984,-7.812500
9985,-7.812500
9986,-7.812500
9987,-7.812500
9988,-7.812500
9989,-7.812500
9990,-3.906250
9991,-3.906250
9992,-3.906250
9993,-3.906250
9994,-3.906250
9995,-3.906250
9996,-3.906250
9997,-3.906250
9998,0.000000
9999,-3.906250
10000,0.000000
