Data from Chemiepractica_Absorbance__4__11-31-53-178.txt Node

Date: Mon Dec 09 11:31:53 CET 2024
User: r0948668
Spectrometer: USB4F07138
Trigger mode: 4
Integration Time (sec): 6,000000E-3
Scans to average: 20
Electric dark correction enabled: true
Nonlinearity correction enabled: false
Boxcar width: 5
XAxis mode: Wavelengths
Number of Pixels in Spectrum: 3648
>>>>>Begin Spectral Data<<<<<
176,779	-0
176,999	-0,60012
177,218	-0,14909
177,438	0,05325
177,658	-0
177,878	-0
178,097	0,52122
178,317	0,40577
178,537	0,09343
178,757	-0,05279
178,976	-0,1079
179,196	-0
179,416	0,31584
179,635	-0,08133
179,855	0,03499
180,075	-0,03326
180,294	-0,02028
180,514	-0,03163
180,734	0,00031
180,953	0,02399
181,173	0,03786
181,392	0,03056
181,612	0,01532
181,832	0,03387
182,051	0,03438
182,271	0,03443
182,49	0,03396
182,71	0,03333
182,929	0,03624
183,149	0,03309
183,368	0,04606
183,588	0,0528
183,807	0,06069
184,027	0,0807
184,246	0,07511
184,466	0,07689
184,685	0,06911
184,905	0,07418
185,124	0,07172
185,344	0,07891
185,563	0,0767
185,782	0,06348
186,002	0,04744
186,221	0,03578
186,44	0,02282
186,66	0,02133
186,879	0,03371
187,099	0,03138
187,318	0,02582
187,537	0,02766
187,756	0,01996
187,976	0,01413
188,195	0,00889
188,414	0,02062
188,634	0,03367
188,853	0,0353
189,072	0,02512
189,291	0,00735
189,511	0,01043
189,73	0,00545
189,949	0,00943
190,168	0,01187
190,387	0,01512
190,607	0,01828
190,826	0,00945
191,045	-0,00141
191,264	-0,01192
191,483	-0,02032
191,702	-0,01724
191,921	-0,0209
192,141	-0,01389
192,36	-0,02747
192,579	-0,02189
192,798	-0,00897
193,017	-0,01366
193,236	0,00697
193,455	0,01548
193,674	0,02776
193,893	0,03036
194,112	0,03467
194,331	0,03735
194,55	0,03608
194,769	0,0419
194,988	0,04011
195,207	0,04034
195,426	0,04217
195,645	0,03098
195,864	0,03984
196,083	0,04259
196,302	0,04895
196,521	0,05071
196,739	0,06041
196,958	0,06209
197,177	0,06875
197,396	0,07407
197,615	0,0635
197,834	0,0568
198,053	0,05203
198,271	0,02977
198,49	0,03316
198,709	0,03875
198,928	0,04738
199,147	0,0485
199,365	0,04513
199,584	0,0339
199,803	0,01831
200,022	0,02768
200,24	0,0362
200,459	0,03839
200,678	0,04446
200,897	0,03171
201,115	0,02475
201,334	0,02656
201,553	0,01297
201,771	0,01932
201,99	0,02079
202,209	0,03573
202,427	0,0323
202,646	0,03637
202,864	0,02631
203,083	0,0188
203,302	0,02901
203,52	0,05233
203,739	0,0471
203,957	0,06133
204,176	0,06219
204,394	0,0697
204,613	0,06731
204,831	0,06768
205,05	0,06755
205,268	0,07416
205,487	0,0741
205,705	0,06513
205,924	0,05357
206,142	0,05997
206,361	0,05335
206,579	0,05538
206,798	0,04897
207,016	0,04604
207,234	0,04254
207,453	0,04359
207,671	0,0642
207,89	0,08002
208,108	0,08923
208,326	0,07985
208,545	0,0651
208,763	0,06263
208,981	0,0468
209,2	0,03562
209,418	0,03831
209,636	0,041
209,855	0,03513
210,073	0,01848
210,291	0,01076
210,509	0,00849
210,728	0,00938
210,946	0,0117
211,164	0,01004
211,382	0,01831
211,6	0,04342
211,819	0,03144
212,037	0,03822
212,255	0,02943
212,473	0,02497
212,691	0,0251
212,909	0,03232
213,128	0,02691
213,346	0,03237
213,564	0,04631
213,782	0,04158
214	0,0404
214,218	0,06026
214,436	0,05288
214,654	0,05508
214,872	0,05344
215,09	0,04611
215,308	0,04214
215,526	0,04868
215,744	0,03743
215,962	0,03445
216,18	0,03658
216,398	0,03458
216,616	0,02795
216,834	0,01633
217,052	0,01903
217,27	0,01087
217,488	0,02515
217,706	0,026
217,924	0,03128
218,142	0,03776
218,36	0,04734
218,578	0,05818
218,795	0,04684
219,013	0,04474
219,231	0,0464
219,449	0,04941
219,667	0,05507
219,885	0,04811
220,102	0,05884
220,32	0,04979
220,538	0,05657
220,756	0,04008
220,973	0,04215
221,191	0,04849
221,409	0,0487
221,627	0,06299
221,844	0,06449
222,062	0,06888
222,28	0,07314
222,497	0,05119
222,715	0,05615
222,933	0,04309
223,15	0,03631
223,368	0,03363
223,586	0,04063
223,803	0,03973
224,021	0,0297
224,239	0,02629
224,456	0,02936
224,674	0,0222
224,891	0,03477
225,109	0,03014
225,326	0,02793
225,544	0,04321
225,762	0,03714
225,979	0,03758
226,197	0,03671
226,414	0,03266
226,632	0,03066
226,849	0,02519
227,066	0,03835
227,284	0,03328
227,501	0,0392
227,719	0,04378
227,936	0,04135
228,154	0,04514
228,371	0,03602
228,588	0,03023
228,806	0,04336
229,023	0,053
229,241	0,06092
229,458	0,06613
229,675	0,0672
229,893	0,05596
230,11	0,06751
230,327	0,05626
230,545	0,05648
230,762	0,05391
230,979	0,06943
231,196	0,06786
231,414	0,07326
231,631	0,06467
231,848	0,04008
232,065	0,0426
232,283	0,05165
232,5	0,04014
232,717	0,04118
232,934	0,0312
233,151	0,04033
233,368	0,03226
233,586	0,01679
233,803	0,00784
234,02	0,02029
234,237	0,02202
234,454	0,01722
234,671	0,03486
234,888	0,03834
235,105	0,04932
235,322	0,06167
235,54	0,05556
235,757	0,05766
235,974	0,06937
236,191	0,06288
236,408	0,0563
236,625	0,069
236,842	0,0576
237,059	0,04373
237,276	0,03746
237,493	0,03808
237,71	0,03781
237,926	0,04076
238,143	0,03739
238,36	0,03459
238,577	0,04043
238,794	0,03862
239,011	0,02763
239,228	0,04304
239,445	0,0355
239,662	0,05588
239,878	0,06094
240,095	0,05592
240,312	0,05885
240,529	0,05766
240,746	0,06184
240,963	0,06689
241,179	0,06436
241,396	0,07405
241,613	0,06761
241,83	0,07068
242,046	0,05359
242,263	0,04682
242,48	0,04701
242,697	0,04702
242,913	0,05122
243,13	0,0397
243,347	0,04518
243,563	0,04768
243,78	0,05678
243,997	0,05756
244,213	0,05625
244,43	0,07021
244,646	0,07814
244,863	0,08423
245,08	0,07728
245,296	0,07285
245,513	0,07194
245,729	0,06115
245,946	0,06646
246,162	0,05215
246,379	0,05384
246,595	0,05486
246,812	0,04638
247,028	0,03809
247,245	0,03509
247,461	0,03749
247,678	0,03761
247,894	0,05232
248,111	0,04543
248,327	0,03906
248,544	0,03392
248,76	0,04787
248,976	0,05207
249,193	0,05266
249,409	0,05404
249,626	0,04714
249,842	0,04582
250,058	0,05181
250,275	0,04759
250,491	0,04646
250,707	0,04922
250,924	0,06196
251,14	0,05187
251,356	0,04793
251,572	0,04174
251,789	0,04595
252,005	0,05689
252,221	0,07154
252,437	0,07341
252,654	0,06386
252,87	0,06799
253,086	0,07533
253,302	0,07187
253,518	0,06366
253,735	0,06531
253,951	0,07104
254,167	0,0584
254,383	0,05346
254,599	0,03918
254,815	0,03697
255,031	0,03749
255,247	0,02785
255,463	0,02065
255,68	0,0272
255,896	0,0402
256,112	0,0406
256,328	0,04323
256,544	0,0584
256,76	0,0605
256,976	0,06234
257,192	0,05751
257,408	0,06707
257,624	0,07425
257,84	0,08348
258,056	0,08082
258,272	0,07936
258,487	0,07322
258,703	0,06868
258,919	0,05865
259,135	0,0561
259,351	0,054
259,567	0,05708
259,783	0,05467
259,999	0,06497
260,215	0,0617
260,43	0,05598
260,646	0,04918
260,862	0,06172
261,078	0,054
261,294	0,04981
261,509	0,0522
261,725	0,05812
261,941	0,05871
262,157	0,06326
262,372	0,06392
262,588	0,05755
262,804	0,06273
263,019	0,05636
263,235	0,05354
263,451	0,06303
263,667	0,07261
263,882	0,06515
264,098	0,07161
264,313	0,06508
264,529	0,05472
264,745	0,05443
264,96	0,04307
265,176	0,03668
265,391	0,03677
265,607	0,03733
265,823	0,031
266,038	0,0283
266,254	0,03332
266,469	0,02871
266,685	0,03082
266,9	0,03966
267,116	0,03948
267,331	0,0632
267,547	0,06545
267,762	0,0694
267,978	0,07639
268,193	0,0777
268,408	0,08271
268,624	0,08303
268,839	0,07874
269,055	0,07635
269,27	0,07447
269,485	0,07765
269,701	0,06659
269,916	0,07214
270,132	0,0854
270,347	0,08049
270,562	0,0842
270,777	0,07821
270,993	0,08191
271,208	0,0884
271,423	0,09896
271,639	0,1055
271,854	0,08652
272,069	0,08782
272,284	0,07804
272,5	0,0632
272,715	0,04852
272,93	0,04367
273,145	0,03381
273,36	0,03802
273,576	0,03383
273,791	0,02468
274,006	0,01378
274,221	0,02176
274,436	0,01536
274,651	0,01692
274,866	0,02228
275,081	0,03741
275,296	0,04172
275,512	0,05085
275,727	0,04543
275,942	0,04444
276,157	0,04524
276,372	0,05524
276,587	0,06771
276,802	0,07866
277,017	0,08026
277,232	0,09109
277,447	0,08452
277,662	0,08339
277,877	0,07329
278,092	0,06608
278,306	0,06254
278,521	0,06783
278,736	0,05982
278,951	0,05185
279,166	0,03158
279,381	0,02649
279,596	0,014
279,811	0,00549
280,025	-0,00275
280,24	0,00444
280,455	0,01344
280,67	0,0167
280,885	0,01688
281,099	0,01477
281,314	0,01597
281,529	0,03292
281,744	0,04336
281,959	0,03732
282,173	0,05163
282,388	0,0623
282,603	0,05388
282,817	0,05224
283,032	0,05783
283,247	0,04907
283,461	0,04833
283,676	0,03535
283,891	0,02762
284,105	0,02467
284,32	0,03709
284,535	0,03219
284,749	0,03516
284,964	0,0564
285,178	0,05007
285,393	0,05679
285,607	0,05151
285,822	0,06301
286,036	0,0684
286,251	0,07272
286,465	0,07232
286,68	0,0694
286,894	0,07212
287,109	0,0651
287,323	0,05232
287,538	0,05887
287,752	0,04254
287,967	0,05481
288,181	0,04739
288,396	0,06671
288,61	0,07742
288,824	0,07747
289,039	0,07112
289,253	0,07089
289,467	0,06305
289,682	0,059
289,896	0,0566
290,11	0,06162
290,325	0,05969
290,539	0,04599
290,753	0,0345
290,968	0,01873
291,182	0,01631
291,396	0,01617
291,61	0,01042
291,825	0,02349
292,039	0,02554
292,253	0,02509
292,467	0,01672
292,681	0,01602
292,896	0,02554
293,11	0,01497
293,324	0,02327
293,538	0,0284
293,752	0,03651
293,966	0,04221
294,18	0,03567
294,394	0,02533
294,608	0,03854
294,823	0,03966
295,037	0,03767
295,251	0,03494
295,465	0,04228
295,679	0,038
295,893	0,04021
296,107	0,02099
296,321	0,02326
296,535	0,02436
296,749	0,03159
296,963	0,01432
297,177	0,01517
297,391	0,01213
297,604	0,01517
297,818	0,01262
298,032	0,01295
298,246	-0,00047
298,46	0,01201
298,674	0,0094
298,888	0,01636
299,102	0,02018
299,315	0,02898
299,529	0,03927
299,743	0,04868
299,957	0,05365
300,171	0,05927
300,385	0,07201
300,598	0,07709
300,812	0,07896
301,026	0,08344
301,24	0,0838
301,453	0,07441
301,667	0,07302
301,881	0,06657
302,094	0,06146
302,308	0,05214
302,522	0,06298
302,735	0,04884
302,949	0,04807
303,163	0,04812
303,376	0,04644
303,59	0,04658
303,803	0,04754
304,017	0,04789
304,231	0,05535
304,444	0,05481
304,658	0,05965
304,871	0,0508
305,085	0,05288
305,298	0,05393
305,512	0,05551
305,725	0,04658
305,939	0,04378
306,152	0,04683
306,366	0,02929
306,579	0,0278
306,793	0,03452
307,006	0,03224
307,22	0,03324
307,433	0,03395
307,646	0,02572
307,86	0,02294
308,073	0,03227
308,286	0,02628
308,5	0,02415
308,713	0,03522
308,926	0,03363
309,14	0,03044
309,353	0,03276
309,566	0,01804
309,78	0,0185
309,993	0,03051
310,206	0,03316
310,419	0,03727
310,633	0,0352
310,846	0,04691
311,059	0,04077
311,272	0,0436
311,486	0,03545
311,699	0,0351
311,912	0,04362
312,125	0,04699
312,338	0,04269
312,551	0,03123
312,764	0,02157
312,978	0,03669
313,191	0,03365
313,404	0,03669
313,617	0,02922
313,83	0,04167
314,043	0,04176
314,256	0,04291
314,469	0,03614
314,682	0,04013
314,895	0,05448
315,108	0,05706
315,321	0,0462
315,534	0,03963
315,747	0,04779
315,96	0,05104
316,173	0,0486
316,386	0,0507
316,599	0,04998
316,812	0,06144
317,025	0,06332
317,237	0,06025
317,45	0,06185
317,663	0,05606
317,876	0,0681
318,089	0,0685
318,302	0,06478
318,515	0,05871
318,727	0,04814
318,94	0,04818
319,153	0,02948
319,366	0,03174
319,578	0,02965
319,791	0,03704
320,004	0,03355
320,217	0,03109
320,429	0,03225
320,642	0,03491
320,855	0,03632
321,067	0,04059
321,28	0,04491
321,493	0,06273
321,705	0,05308
321,918	0,05763
322,131	0,05578
322,343	0,06173
322,556	0,05168
322,768	0,04433
322,981	0,04261
323,194	0,04268
323,406	0,04562
323,619	0,03832
323,831	0,03124
324,044	0,03936
324,256	0,03895
324,469	0,02946
324,681	0,02821
324,894	0,02834
325,106	0,02906
325,319	0,02339
325,531	0,02696
325,743	0,02847
325,956	0,03218
326,168	0,03183
326,381	0,03306
326,593	0,02375
326,805	0,03384
327,018	0,03398
327,23	0,03343
327,442	0,03853
327,655	0,03682
327,867	0,03409
328,079	0,03121
328,292	0,02982
328,504	0,03951
328,716	0,02517
328,928	0,04119
329,141	0,04408
329,353	0,03906
329,565	0,03895
329,777	0,03448
329,99	0,04489
330,202	0,04405
330,414	0,0402
330,626	0,03756
330,838	0,03452
331,05	0,04237
331,263	0,03721
331,475	0,04281
331,687	0,04597
331,899	0,05489
332,111	0,05713
332,323	0,05353
332,535	0,05888
332,747	0,06364
332,959	0,06696
333,171	0,06175
333,383	0,06265
333,595	0,05266
333,807	0,04328
334,019	0,0489
334,231	0,03774
334,443	0,0321
334,655	0,03342
334,867	0,02915
335,079	0,03547
335,291	0,02956
335,503	0,03319
335,714	0,03282
335,926	0,04125
336,138	0,03544
336,35	0,02726
336,562	0,04141
336,774	0,044
336,986	0,0425
337,197	0,04188
337,409	0,0365
337,621	0,0341
337,833	0,02933
338,044	0,03148
338,256	0,02472
338,468	0,02601
338,68	0,02963
338,891	0,02242
339,103	0,01475
339,315	0,0112
339,526	0,00407
339,738	-0,01052
339,95	-0,01028
340,161	0,00211
340,373	-0,00954
340,585	-0,01483
340,796	-0,01422
341,008	-0,01261
341,219	-0,00763
341,431	-0,00328
341,642	-0,00024
341,854	0,00629
342,065	0,02367
342,277	0,03056
342,489	0,02192
342,7	0,03778
342,912	0,04705
343,123	0,04675
343,334	0,04752
343,546	0,03438
343,757	0,04448
343,969	0,0452
344,18	0,03888
344,392	0,02734
344,603	0,03424
344,814	0,03788
345,026	0,03411
345,237	0,03454
345,448	0,03025
345,66	0,02896
345,871	0,04203
346,082	0,04001
346,294	0,0383
346,505	0,04503
346,716	0,05811
346,927	0,05502
347,139	0,04524
347,35	0,0451
347,561	0,04181
347,772	0,04417
347,984	0,04812
348,195	0,04835
348,406	0,04055
348,617	0,04539
348,828	0,0463
349,039	0,03407
349,251	0,02712
349,462	0,0341
349,673	0,02306
349,884	0,02542
350,095	0,02467
350,306	0,01786
350,517	0,01779
350,728	0,01775
350,939	0,01475
351,15	0,01148
351,361	0,02328
351,572	0,03578
351,783	0,03049
351,994	0,03447
352,205	0,03757
352,416	0,03941
352,627	0,04761
352,838	0,04646
353,049	0,05236
353,26	0,049
353,471	0,04558
353,682	0,03663
353,893	0,02754
354,103	0,02495
354,314	0,02768
354,525	0,02766
354,736	0,02933
354,947	0,02814
355,157	0,02749
355,368	0,02714
355,579	0,02816
355,79	0,03671
356,001	0,03949
356,211	0,04807
356,422	0,04416
356,633	0,04761
356,843	0,04478
357,054	0,0395
357,265	0,03929
357,476	0,03863
357,686	0,04489
357,897	0,05302
358,107	0,04541
358,318	0,04518
358,529	0,03448
358,739	0,04866
358,95	0,04507
359,16	0,04429
359,371	0,04288
359,582	0,03587
359,792	0,03965
360,003	0,02806
360,213	0,01564
360,424	0,02111
360,634	0,02959
360,845	0,02456
361,055	0,01743
361,266	0,01672
361,476	0,02785
361,686	0,03334
361,897	0,03885
362,107	0,03868
362,318	0,04387
362,528	0,05077
362,738	0,04812
362,949	0,04179
363,159	0,04919
363,369	0,04778
363,58	0,04145
363,79	0,03327
364	0,03212
364,211	0,02601
364,421	0,02053
364,631	0,02413
364,842	0,01857
365,052	0,01806
365,262	0,01007
365,472	0,00814
365,682	0,01063
365,893	0,01614
366,103	0,01563
366,313	0,01296
366,523	0,02249
366,733	0,0245
366,943	0,01961
367,154	0,02793
367,364	0,03551
367,574	0,04452
367,784	0,04466
367,994	0,05043
368,204	0,05454
368,414	0,05383
368,624	0,05645
368,834	0,05506
369,044	0,05215
369,254	0,05171
369,464	0,04458
369,674	0,04028
369,884	0,03448
370,094	0,03383
370,304	0,02884
370,514	0,02928
370,724	0,02744
370,934	0,0302
371,144	0,02387
371,353	0,02951
371,563	0,02799
371,773	0,03192
371,983	0,02959
372,193	0,03727
372,403	0,03952
372,612	0,03845
372,822	0,03312
373,032	0,03336
373,242	0,0305
373,452	0,03469
373,661	0,03259
373,871	0,03145
374,081	0,03034
374,29	0,03448
374,5	0,03163
374,71	0,02685
374,92	0,02967
375,129	0,0333
375,339	0,03034
375,549	0,03111
375,758	0,03159
375,968	0,02466
376,177	0,02413
376,387	0,02077
376,597	0,0159
376,806	0,01353
377,016	0,01636
377,225	0,01534
377,435	0,0104
377,644	0,01322
377,854	0,01183
378,063	0,0113
378,273	0,01623
378,482	0,01913
378,692	0,02361
378,901	0,02977
379,111	0,03198
379,32	0,03637
379,529	0,03399
379,739	0,0371
379,948	0,03402
380,158	0,03584
380,367	0,03912
380,576	0,04157
380,786	0,03715
380,995	0,03718
381,204	0,03298
381,414	0,03284
381,623	0,03159
381,832	0,03317
382,041	0,03197
382,251	0,03484
382,46	0,03096
382,669	0,02466
382,878	0,02315
383,088	0,02794
383,297	0,02646
383,506	0,02819
383,715	0,02407
383,924	0,02011
384,133	0,01585
384,342	0,0185
384,552	0,02084
384,761	0,02458
384,97	0,02447
385,179	0,02703
385,388	0,02554
385,597	0,02633
385,806	0,02572
386,015	0,02963
386,224	0,03216
386,433	0,03435
386,642	0,02968
386,851	0,02848
387,06	0,0252
387,269	0,02924
387,478	0,02852
387,687	0,02742
387,896	0,02456
388,105	0,02175
388,314	0,01602
388,523	0,01495
388,731	0,01625
388,94	0,01919
389,149	0,02009
389,358	0,02357
389,567	0,02398
389,776	0,0226
389,984	0,02345
390,193	0,02633
390,402	0,02555
390,611	0,02907
390,819	0,02739
391,028	0,02651
391,237	0,02762
391,446	0,02412
391,654	0,02486
391,863	0,02314
392,072	0,02303
392,28	0,02389
392,489	0,02425
392,698	0,02439
392,906	0,02445
393,115	0,02623
393,324	0,02501
393,532	0,02282
393,741	0,02279
393,949	0,01979
394,158	0,0195
394,366	0,01816
394,575	0,01709
394,783	0,01731
394,992	0,01915
395,2	0,01678
395,409	0,01774
395,617	0,01762
395,826	0,01988
396,034	0,01874
396,243	0,01862
396,451	0,01758
396,66	0,01936
396,868	0,01954
397,076	0,01882
397,285	0,0158
397,493	0,01821
397,701	0,01737
397,91	0,01834
398,118	0,01811
398,326	0,02066
398,535	0,01965
398,743	0,02107
398,951	0,02248
399,159	0,02421
399,368	0,02482
399,576	0,02657
399,784	0,02838
399,992	0,02726
400,201	0,02523
400,409	0,0231
400,617	0,02162
400,825	0,02242
401,033	0,02167
401,241	0,02155
401,45	0,01912
401,658	0,02089
401,866	0,02345
402,074	0,0196
402,282	0,01923
402,49	0,02064
402,698	0,02251
402,906	0,02168
403,114	0,0199
403,322	0,0207
403,53	0,02072
403,738	0,01994
403,946	0,01571
404,154	0,01187
404,362	0,01379
404,57	0,01494
404,778	0,01359
404,986	0,01288
405,194	0,01471
405,402	0,01788
405,609	0,01717
405,817	0,01258
406,025	0,01468
406,233	0,01789
406,441	0,02023
406,649	0,01956
406,856	0,01956
407,064	0,02007
407,272	0,0192
407,48	0,01982
407,687	0,02068
407,895	0,02116
408,103	0,02417
408,311	0,02331
408,518	0,021
408,726	0,02012
408,934	0,02288
409,141	0,02213
409,349	0,02093
409,557	0,02314
409,764	0,02238
409,972	0,02108
410,18	0,02139
410,387	0,02083
410,595	0,02025
410,802	0,02056
411,01	0,02104
411,217	0,0167
411,425	0,0183
411,632	0,02041
411,84	0,01727
412,047	0,01554
412,255	0,01458
412,462	0,01392
412,67	0,01452
412,877	0,01503
413,085	0,0149
413,292	0,01477
413,499	0,01663
413,707	0,01433
413,914	0,01349
414,122	0,01466
414,329	0,01681
414,536	0,01729
414,744	0,01723
414,951	0,01559
415,158	0,01653
415,366	0,0152
415,573	0,01527
415,78	0,01657
415,987	0,01773
416,195	0,01868
416,402	0,01768
416,609	0,01852
416,816	0,01882
417,023	0,01933
417,231	0,02159
417,438	0,02065
417,645	0,01997
417,852	0,01926
418,059	0,0184
418,266	0,01623
418,473	0,01531
418,68	0,0178
418,888	0,0158
419,095	0,01633
419,302	0,01694
419,509	0,0144
419,716	0,01495
419,923	0,01627
420,13	0,0159
420,337	0,01736
420,544	0,01858
420,751	0,01908
420,958	0,01834
421,165	0,02048
421,371	0,01866
421,578	0,01732
421,785	0,01814
421,992	0,01804
422,199	0,01881
422,406	0,02153
422,613	0,01928
422,82	0,0206
423,026	0,02076
423,233	0,02008
423,44	0,01943
423,647	0,02014
423,854	0,02013
424,06	0,01977
424,267	0,01816
424,474	0,01756
424,681	0,0153
424,887	0,01604
425,094	0,01555
425,301	0,01623
425,507	0,01538
425,714	0,01483
425,921	0,01409
426,127	0,01354
426,334	0,01388
426,54	0,01567
426,747	0,01678
426,954	0,01628
427,16	0,01555
427,367	0,01473
427,573	0,01475
427,78	0,01567
427,986	0,01491
428,193	0,01553
428,399	0,0173
428,606	0,01691
428,812	0,01755
429,019	0,01671
429,225	0,01739
429,432	0,01775
429,638	0,01858
429,845	0,01725
430,051	0,01844
430,257	0,01813
430,464	0,01848
430,67	0,01805
430,876	0,01893
431,083	0,01848
431,289	0,01961
431,495	0,02024
431,702	0,02014
431,908	0,01923
432,114	0,01883
432,32	0,01747
432,527	0,01763
432,733	0,01641
432,939	0,0165
433,145	0,01575
433,351	0,01609
433,558	0,01599
433,764	0,01571
433,97	0,01561
434,176	0,01544
434,382	0,01704
434,588	0,01705
434,794	0,01734
435,001	0,01824
435,207	0,01815
435,413	0,01808
435,619	0,01747
435,825	0,01678
436,031	0,01671
436,237	0,01746
436,443	0,0186
436,649	0,01778
436,855	0,01968
437,061	0,01998
437,267	0,01981
437,473	0,01906
437,679	0,02028
437,884	0,01917
438,09	0,01933
438,296	0,01829
438,502	0,01728
438,708	0,01626
438,914	0,01613
439,12	0,0147
439,325	0,01439
439,531	0,01557
439,737	0,01516
439,943	0,01513
440,149	0,01534
440,354	0,01555
440,56	0,01638
440,766	0,01641
440,972	0,0175
441,177	0,01775
441,383	0,0188
441,589	0,01984
441,794	0,01905
442	0,01937
442,206	0,01935
442,411	0,02023
442,617	0,02013
442,822	0,0204
443,028	0,02037
443,234	0,02129
443,439	0,0223
443,645	0,02171
443,85	0,02089
444,056	0,02106
444,261	0,02203
444,467	0,02227
444,672	0,02253
444,878	0,02232
445,083	0,02292
445,289	0,02319
445,494	0,02259
445,699	0,02194
445,905	0,02215
446,11	0,02309
446,316	0,0237
446,521	0,02314
446,726	0,02328
446,932	0,02281
447,137	0,02403
447,342	0,02354
447,548	0,02403
447,753	0,02385
447,958	0,02389
448,164	0,02329
448,369	0,02294
448,574	0,0221
448,779	0,02203
448,984	0,02191
449,19	0,02264
449,395	0,02192
449,6	0,02224
449,805	0,02223
450,01	0,02251
450,215	0,02238
450,421	0,02371
450,626	0,0244
450,831	0,02427
451,036	0,02518
451,241	0,02562
451,446	0,02486
451,651	0,02547
451,856	0,02523
452,061	0,02575
452,266	0,0256
452,471	0,02631
452,676	0,02567
452,881	0,02503
453,086	0,02609
453,291	0,02614
453,496	0,02632
453,701	0,02717
453,906	0,02704
454,111	0,02693
454,316	0,027
454,52	0,02727
454,725	0,02679
454,93	0,02735
455,135	0,02724
455,34	0,02679
455,545	0,02694
455,749	0,02655
455,954	0,02656
456,159	0,02655
456,364	0,02788
456,568	0,02824
456,773	0,02872
456,978	0,02965
457,182	0,02963
457,387	0,03034
457,592	0,03046
457,796	0,0303
458,001	0,0311
458,206	0,03143
458,41	0,03147
458,615	0,03095
458,82	0,03051
459,024	0,03067
459,229	0,03039
459,433	0,03036
459,638	0,03041
459,842	0,0318
460,047	0,0319
460,251	0,03188
460,456	0,03157
460,66	0,03242
460,865	0,03274
461,069	0,03372
461,274	0,03414
461,478	0,03431
461,682	0,03474
461,887	0,0347
462,091	0,03427
462,296	0,03463
462,5	0,03461
462,704	0,03509
462,909	0,03484
463,113	0,03445
463,317	0,0345
463,522	0,03465
463,726	0,03512
463,93	0,03535
464,134	0,03584
464,339	0,03566
464,543	0,03588
464,747	0,0359
464,951	0,0363
465,155	0,0367
465,36	0,03774
465,564	0,0378
465,768	0,03739
465,972	0,03836
466,176	0,03851
466,38	0,03869
466,584	0,03982
466,788	0,04004
466,993	0,04027
467,197	0,04053
467,401	0,0409
467,605	0,0406
467,809	0,04086
468,013	0,0421
468,217	0,0415
468,421	0,04174
468,625	0,04172
468,829	0,04112
469,033	0,04116
469,236	0,04195
469,44	0,04171
469,644	0,04156
469,848	0,04114
470,052	0,04188
470,256	0,04112
470,46	0,04185
470,664	0,04218
470,867	0,04307
471,071	0,04364
471,275	0,04401
471,479	0,04385
471,683	0,04442
471,886	0,04512
472,09	0,04647
472,294	0,0466
472,497	0,04715
472,701	0,04716
472,905	0,04767
473,109	0,04826
473,312	0,04874
473,516	0,0495
473,719	0,04998
473,923	0,05042
474,127	0,05066
474,33	0,05039
474,534	0,05067
474,737	0,05138
474,941	0,0517
475,145	0,05139
475,348	0,0514
475,552	0,05158
475,755	0,0514
475,959	0,05197
476,162	0,05235
476,366	0,05282
476,569	0,05337
476,772	0,05413
476,976	0,05427
477,179	0,05469
477,383	0,05528
477,586	0,05532
477,789	0,05568
477,993	0,05655
478,196	0,05671
478,399	0,05704
478,603	0,05741
478,806	0,05801
479,009	0,05741
479,213	0,05728
479,416	0,05731
479,619	0,05803
479,822	0,05871
480,026	0,05923
480,229	0,05947
480,432	0,05993
480,635	0,06032
480,838	0,0608
481,041	0,06076
481,245	0,06149
481,448	0,06207
481,651	0,0628
481,854	0,06301
482,057	0,06329
482,26	0,06412
482,463	0,06467
482,666	0,06515
482,869	0,06583
483,072	0,06598
483,275	0,06658
483,478	0,06706
483,681	0,06809
483,884	0,06862
484,087	0,06931
484,29	0,07028
484,493	0,07034
484,696	0,07058
484,899	0,0714
485,102	0,07161
485,305	0,07227
485,508	0,07325
485,71	0,07376
485,913	0,07401
486,116	0,07432
486,319	0,07477
486,522	0,07477
486,725	0,07526
486,927	0,0763
487,13	0,07656
487,333	0,07744
487,536	0,07786
487,738	0,07842
487,941	0,07881
488,144	0,07957
488,346	0,08016
488,549	0,08049
488,752	0,08129
488,954	0,08215
489,157	0,08216
489,359	0,08259
489,562	0,08285
489,765	0,08327
489,967	0,08355
490,17	0,08451
490,372	0,08494
490,575	0,08532
490,777	0,08603
490,98	0,08631
491,182	0,08631
491,385	0,087
491,587	0,08751
491,79	0,08823
491,992	0,08902
492,195	0,08951
492,397	0,08973
492,599	0,09017
492,802	0,09094
493,004	0,09167
493,207	0,09233
493,409	0,09336
493,611	0,09425
493,814	0,09494
494,016	0,09512
494,218	0,09549
494,42	0,09633
494,623	0,097
494,825	0,09781
495,027	0,09811
495,229	0,09866
495,432	0,09916
495,634	0,09963
495,836	0,10009
496,038	0,10066
496,24	0,10165
496,442	0,10221
496,645	0,1025
496,847	0,10326
497,049	0,10372
497,251	0,10473
497,453	0,10543
497,655	0,10638
497,857	0,107
498,059	0,10773
498,261	0,10821
498,463	0,10899
498,665	0,11005
498,867	0,11104
499,069	0,11168
499,271	0,11219
499,473	0,11279
499,675	0,11348
499,877	0,11386
500,079	0,1146
500,281	0,11511
500,482	0,11625
500,684	0,11695
500,886	0,11757
501,088	0,11804
501,29	0,11869
501,492	0,11973
501,693	0,12064
501,895	0,12132
502,097	0,12222
502,299	0,12296
502,5	0,12348
502,702	0,12411
502,904	0,12482
503,106	0,12566
503,307	0,12646
503,509	0,12732
503,711	0,12807
503,912	0,12877
504,114	0,1293
504,315	0,13008
504,517	0,13093
504,719	0,13212
504,92	0,13289
505,122	0,13365
505,323	0,13431
505,525	0,13525
505,726	0,13614
505,928	0,13698
506,129	0,13802
506,331	0,13893
506,532	0,13974
506,734	0,14073
506,935	0,14166
507,137	0,14208
507,338	0,14281
507,539	0,14358
507,741	0,14457
507,942	0,14522
508,143	0,14611
508,345	0,14693
508,546	0,14772
508,747	0,14878
508,949	0,14964
509,15	0,15018
509,351	0,15122
509,553	0,1521
509,754	0,15312
509,955	0,15382
510,156	0,15513
510,357	0,15601
510,559	0,15694
510,76	0,15803
510,961	0,15873
511,162	0,15965
511,363	0,16064
511,564	0,16182
511,766	0,1629
511,967	0,1639
512,168	0,16494
512,369	0,16569
512,57	0,16652
512,771	0,16753
512,972	0,16851
513,173	0,1697
513,374	0,1706
513,575	0,17166
513,776	0,17277
513,977	0,17345
514,178	0,17442
514,379	0,17544
514,58	0,17653
514,781	0,17786
514,981	0,17889
515,182	0,17979
515,383	0,18083
515,584	0,18176
515,785	0,18275
515,986	0,18373
516,187	0,18492
516,387	0,18568
516,588	0,18679
516,789	0,1878
516,99	0,18875
517,19	0,18967
517,391	0,1911
517,592	0,19212
517,793	0,19329
517,993	0,19452
518,194	0,19553
518,395	0,1967
518,595	0,19782
518,796	0,19886
518,996	0,20004
519,197	0,20092
519,398	0,20193
519,598	0,20301
519,799	0,20391
519,999	0,20503
520,2	0,2058
520,4	0,20676
520,601	0,20791
520,801	0,20924
521,002	0,2103
521,202	0,21129
521,403	0,21242
521,603	0,21352
521,804	0,21416
522,004	0,21534
522,204	0,21626
522,405	0,21737
522,605	0,21826
522,806	0,21921
523,006	0,22018
523,206	0,22131
523,407	0,22239
523,607	0,22338
523,807	0,2245
524,007	0,22562
524,208	0,22673
524,408	0,22766
524,608	0,22896
524,808	0,23021
525,009	0,23138
525,209	0,23237
525,409	0,23326
525,609	0,23413
525,809	0,23548
526,009	0,23623
526,209	0,23731
526,41	0,23843
526,61	0,23976
526,81	0,24059
527,01	0,24157
527,21	0,24253
527,41	0,24361
527,61	0,24469
527,81	0,24579
528,01	0,2466
528,21	0,24778
528,41	0,24867
528,61	0,2494
528,81	0,25032
529,01	0,25145
529,21	0,25265
529,41	0,25334
529,609	0,25426
529,809	0,25507
530,009	0,25604
530,209	0,25681
530,409	0,25766
530,609	0,25874
530,808	0,25983
531,008	0,26056
531,208	0,26149
531,408	0,26225
531,608	0,2633
531,807	0,26419
532,007	0,26516
532,207	0,26585
532,406	0,2668
532,606	0,26787
532,806	0,2688
533,005	0,26979
533,205	0,27072
533,405	0,27157
533,604	0,27246
533,804	0,27341
534,003	0,27436
534,203	0,27508
534,403	0,27592
534,602	0,27672
534,802	0,27729
535,001	0,27807
535,201	0,27864
535,4	0,27941
535,6	0,28011
535,799	0,2808
535,998	0,28164
536,198	0,28218
536,397	0,28323
536,597	0,28397
536,796	0,28495
536,995	0,2859
537,195	0,28667
537,394	0,28749
537,594	0,28847
537,793	0,28933
537,992	0,29016
538,191	0,29078
538,391	0,29158
538,59	0,29211
538,789	0,29302
538,988	0,29345
539,188	0,29406
539,387	0,29487
539,586	0,29562
539,785	0,29603
539,984	0,29658
540,184	0,29724
540,383	0,29802
540,582	0,29889
540,781	0,29958
540,98	0,3002
541,179	0,30097
541,378	0,30176
541,577	0,3022
541,776	0,30273
541,975	0,3035
542,174	0,30416
542,373	0,3046
542,572	0,30501
542,771	0,30553
542,97	0,30628
543,169	0,30685
543,368	0,30739
543,567	0,30781
543,766	0,30839
543,965	0,30888
544,164	0,30928
544,362	0,30994
544,561	0,31061
544,76	0,31131
544,959	0,31215
545,158	0,31264
545,356	0,31302
545,555	0,31351
545,754	0,31404
545,953	0,31453
546,151	0,31498
546,35	0,31534
546,549	0,31556
546,748	0,31593
546,946	0,31635
547,145	0,31637
547,344	0,31657
547,542	0,31718
547,741	0,31762
547,939	0,31757
548,138	0,31797
548,337	0,31818
548,535	0,31848
548,734	0,31889
548,932	0,31918
549,131	0,31926
549,329	0,31959
549,528	0,32004
549,726	0,32029
549,925	0,32056
550,123	0,32128
550,322	0,3215
550,52	0,32221
550,718	0,32272
550,917	0,32319
551,115	0,32345
551,313	0,32402
551,512	0,32437
551,71	0,32468
551,908	0,32509
552,107	0,32553
552,305	0,3257
552,503	0,3261
552,702	0,32629
552,9	0,32655
553,098	0,32676
553,296	0,32737
553,495	0,32766
553,693	0,32784
553,891	0,32808
554,089	0,32841
554,287	0,32857
554,485	0,32877
554,683	0,329
554,882	0,32921
555,08	0,32964
555,278	0,32992
555,476	0,33015
555,674	0,33049
555,872	0,33085
556,07	0,33143
556,268	0,33173
556,466	0,33191
556,664	0,33263
556,862	0,33313
557,06	0,33366
557,258	0,33402
557,456	0,33452
557,654	0,33507
557,851	0,33541
558,049	0,33605
558,247	0,33628
558,445	0,33659
558,643	0,33716
558,841	0,33747
559,039	0,33774
559,236	0,33815
559,434	0,33868
559,632	0,3391
559,83	0,33962
560,027	0,34011
560,225	0,34065
560,423	0,34125
560,62	0,34184
560,818	0,34229
561,016	0,34285
561,213	0,34354
561,411	0,34411
561,609	0,34448
561,806	0,34492
562,004	0,34523
562,202	0,3457
562,399	0,3462
562,597	0,3465
562,794	0,34711
562,992	0,34774
563,189	0,34824
563,387	0,34896
563,584	0,34943
563,782	0,35007
563,979	0,35065
564,177	0,35119
564,374	0,35194
564,571	0,35255
564,769	0,35339
564,966	0,35355
565,164	0,35429
565,361	0,35481
565,558	0,35531
565,756	0,356
565,953	0,35695
566,15	0,35776
566,347	0,35848
566,545	0,35918
566,742	0,35987
566,939	0,3604
567,136	0,3614
567,334	0,36193
567,531	0,36274
567,728	0,36354
567,925	0,36429
568,122	0,36492
568,319	0,36565
568,517	0,36661
568,714	0,36711
568,911	0,36804
569,108	0,36914
569,305	0,3702
569,502	0,37135
569,699	0,37257
569,896	0,3735
570,093	0,37448
570,29	0,37546
570,487	0,37647
570,684	0,37729
570,881	0,37845
571,078	0,37919
571,275	0,38002
571,472	0,38088
571,669	0,38173
571,866	0,38254
572,062	0,38333
572,259	0,38438
572,456	0,38515
572,653	0,38608
572,85	0,38688
573,047	0,38787
573,243	0,38875
573,44	0,3896
573,637	0,39046
573,834	0,39152
574,03	0,39268
574,227	0,39382
574,424	0,39501
574,62	0,39616
574,817	0,39727
575,014	0,39854
575,21	0,39958
575,407	0,40089
575,604	0,40217
575,8	0,40337
575,997	0,40451
576,193	0,40544
576,39	0,40651
576,586	0,40729
576,783	0,40831
576,979	0,40932
577,176	0,41033
577,372	0,41138
577,569	0,41241
577,765	0,41335
577,962	0,41449
578,158	0,41556
578,355	0,41665
578,551	0,41763
578,747	0,41871
578,944	0,41952
579,14	0,42055
579,336	0,42149
579,533	0,42251
579,729	0,42353
579,925	0,4245
580,122	0,42523
580,318	0,42612
580,514	0,427
580,71	0,42809
580,906	0,42906
581,103	0,43048
581,299	0,43147
581,495	0,43231
581,691	0,43332
581,887	0,43425
582,084	0,43529
582,28	0,43639
582,476	0,43731
582,672	0,43822
582,868	0,43898
583,064	0,43979
583,26	0,44035
583,456	0,44107
583,652	0,44195
583,848	0,44284
584,044	0,44356
584,24	0,44423
584,436	0,44508
584,632	0,44548
584,828	0,44614
585,024	0,44676
585,22	0,4474
585,416	0,448
585,611	0,4485
585,807	0,44915
586,003	0,44964
586,199	0,45014
586,395	0,45058
586,591	0,4508
586,786	0,4516
586,982	0,45193
587,178	0,45243
587,374	0,45254
587,569	0,45278
587,765	0,45303
587,961	0,45338
588,156	0,45353
588,352	0,45363
588,548	0,45396
588,743	0,45416
588,939	0,45415
589,135	0,45414
589,33	0,45412
589,526	0,45417
589,721	0,45413
589,917	0,45408
590,112	0,45396
590,308	0,45379
590,503	0,45386
590,699	0,45346
590,894	0,45316
591,09	0,45287
591,285	0,45265
591,481	0,45241
591,676	0,45213
591,872	0,4518
592,067	0,45133
592,262	0,45091
592,458	0,45062
592,653	0,44989
592,848	0,44941
593,044	0,4488
593,239	0,44827
593,434	0,44748
593,629	0,44678
593,825	0,44591
594,02	0,44505
594,215	0,44429
594,41	0,44325
594,606	0,44188
594,801	0,44095
594,996	0,43996
595,191	0,4392
595,386	0,43786
595,581	0,43676
595,777	0,43566
595,972	0,43438
596,167	0,43323
596,362	0,43191
596,557	0,43066
596,752	0,42968
596,947	0,42849
597,142	0,42705
597,337	0,42542
597,532	0,42404
597,727	0,42249
597,922	0,4207
598,117	0,41934
598,312	0,4177
598,507	0,41596
598,701	0,41413
598,896	0,4123
599,091	0,41041
599,286	0,40865
599,481	0,4067
599,676	0,40491
599,87	0,40307
600,065	0,40128
600,26	0,39931
600,455	0,39735
600,65	0,39541
600,844	0,39348
601,039	0,39137
601,234	0,38928
601,428	0,38731
601,623	0,38537
601,818	0,3833
602,012	0,38134
602,207	0,3792
602,402	0,37706
602,596	0,37479
602,791	0,37274
602,985	0,37057
603,18	0,36837
603,374	0,36598
603,569	0,36362
603,763	0,36146
603,958	0,35923
604,152	0,35687
604,347	0,35439
604,541	0,35204
604,736	0,34976
604,93	0,34719
605,125	0,34454
605,319	0,34216
605,513	0,33971
605,708	0,33723
605,902	0,3346
606,096	0,33192
606,291	0,32945
606,485	0,32692
606,679	0,32452
606,874	0,322
607,068	0,31959
607,262	0,31732
607,456	0,31477
607,65	0,31212
607,845	0,30957
608,039	0,307
608,233	0,30449
608,427	0,30184
608,621	0,29949
608,815	0,29682
609,01	0,29432
609,204	0,2918
609,398	0,28931
609,592	0,28687
609,786	0,28464
609,98	0,2822
610,174	0,27975
610,368	0,27743
610,562	0,27487
610,756	0,2722
610,95	0,26986
611,144	0,26736
611,338	0,26476
611,532	0,26213
611,726	0,25964
611,919	0,25712
612,113	0,25463
612,307	0,2521
612,501	0,24941
612,695	0,24713
612,889	0,24466
613,082	0,24204
613,276	0,23963
613,47	0,23728
613,664	0,23477
613,857	0,23217
614,051	0,22975
614,245	0,22741
614,439	0,225
614,632	0,22268
614,826	0,22016
615,02	0,21782
615,213	0,21565
615,407	0,21337
615,6	0,21107
615,794	0,2089
615,988	0,20668
616,181	0,20432
616,375	0,20201
616,568	0,19978
616,762	0,19768
616,955	0,19561
617,149	0,1934
617,342	0,19113
617,536	0,18889
617,729	0,18675
617,923	0,18465
618,116	0,18264
618,309	0,18058
618,503	0,17847
618,696	0,17638
618,889	0,17425
619,083	0,17201
619,276	0,17003
619,469	0,16803
619,663	0,16606
619,856	0,16414
620,049	0,16218
620,242	0,16019
620,436	0,15821
620,629	0,15649
620,822	0,15469
621,015	0,15275
621,209	0,15097
621,402	0,14914
621,595	0,14724
621,788	0,14546
621,981	0,1436
622,174	0,14181
622,367	0,13999
622,56	0,13818
622,753	0,1363
622,946	0,13446
623,139	0,1328
623,332	0,13121
623,525	0,12946
623,718	0,12781
623,911	0,12621
624,104	0,12461
624,297	0,12291
624,49	0,12143
624,683	0,12006
624,876	0,11859
625,069	0,11718
625,262	0,1157
625,454	0,11421
625,647	0,11287
625,84	0,11141
626,033	0,10999
626,226	0,1086
626,418	0,10728
626,611	0,10591
626,804	0,10443
626,997	0,10295
627,189	0,10152
627,382	0,10021
627,575	0,09892
627,767	0,09764
627,96	0,0964
628,153	0,09501
628,345	0,09371
628,538	0,09252
628,731	0,09125
628,923	0,09001
629,116	0,08899
629,308	0,08775
629,501	0,08657
629,693	0,08545
629,886	0,08427
630,078	0,08306
630,271	0,0821
630,463	0,08106
630,656	0,07998
630,848	0,07897
631,04	0,07798
631,233	0,07683
631,425	0,07595
631,617	0,07484
631,81	0,07376
632,002	0,07265
632,194	0,07178
632,387	0,07076
632,579	0,06974
632,771	0,0687
632,964	0,0678
633,156	0,06679
633,348	0,06579
633,54	0,06486
633,732	0,06399
633,925	0,06317
634,117	0,0625
634,309	0,06167
634,501	0,06083
634,693	0,06002
634,885	0,05923
635,077	0,05827
635,269	0,05755
635,462	0,05695
635,654	0,05618
635,846	0,05555
636,038	0,05471
636,23	0,05384
636,422	0,05307
636,614	0,05239
636,806	0,05181
636,997	0,05118
637,189	0,05056
637,381	0,04986
637,573	0,04911
637,765	0,04849
637,957	0,04775
638,149	0,04724
638,341	0,04669
638,532	0,04605
638,724	0,04535
638,916	0,04468
639,108	0,04399
639,299	0,04354
639,491	0,04295
639,683	0,04256
639,875	0,04203
640,066	0,04153
640,258	0,04091
640,45	0,04038
640,641	0,03995
640,833	0,03952
641,025	0,03909
641,216	0,03869
641,408	0,0381
641,599	0,03765
641,791	0,03706
641,982	0,0365
642,174	0,03604
642,366	0,03565
642,557	0,03516
642,748	0,03447
642,94	0,03398
643,131	0,03336
643,323	0,03282
643,514	0,03238
643,706	0,03201
643,897	0,03158
644,088	0,03122
644,28	0,03075
644,471	0,03025
644,662	0,02983
644,854	0,02964
645,045	0,02926
645,236	0,02895
645,428	0,02864
645,619	0,02829
645,81	0,02797
646,001	0,02753
646,193	0,02717
646,384	0,02681
646,575	0,02646
646,766	0,02627
646,957	0,02584
647,148	0,0255
647,339	0,02522
647,531	0,02496
647,722	0,02464
647,913	0,02422
648,104	0,02402
648,295	0,02373
648,486	0,0235
648,677	0,02322
648,868	0,02287
649,059	0,02274
649,25	0,02249
649,441	0,02224
649,632	0,02181
649,823	0,02161
650,013	0,02146
650,204	0,02114
650,395	0,02078
650,586	0,0206
650,777	0,02036
650,968	0,0201
651,159	0,0198
651,349	0,01956
651,54	0,01923
651,731	0,01907
651,922	0,01886
652,112	0,01857
652,303	0,01834
652,494	0,01826
652,684	0,01805
652,875	0,01788
653,066	0,01772
653,256	0,0175
653,447	0,01734
653,638	0,01719
653,828	0,01703
654,019	0,01674
654,209	0,01656
654,4	0,01641
654,59	0,01629
654,781	0,01614
654,972	0,01597
655,162	0,0158
655,352	0,01559
655,543	0,01537
655,733	0,01518
655,924	0,01511
656,114	0,01494
656,305	0,01479
656,495	0,01461
656,685	0,0143
656,876	0,01415
657,066	0,01398
657,256	0,01385
657,447	0,0138
657,637	0,01372
657,827	0,01366
658,017	0,01347
658,208	0,01344
658,398	0,01321
658,588	0,01306
658,778	0,01301
658,968	0,01277
659,159	0,01268
659,349	0,01248
659,539	0,01228
659,729	0,01212
659,919	0,012
660,109	0,01186
660,299	0,01173
660,489	0,01184
660,679	0,0118
660,869	0,01172
661,059	0,01163
661,249	0,01146
661,439	0,01135
661,629	0,01119
661,819	0,01109
662,009	0,01097
662,199	0,01089
662,389	0,01068
662,579	0,01036
662,769	0,0102
662,959	0,01013
663,149	0,01013
663,338	0,01006
663,528	0,01009
663,718	0,01002
663,908	0,00979
664,097	0,00967
664,287	0,00956
664,477	0,00947
664,667	0,00945
664,856	0,00937
665,046	0,00923
665,236	0,00905
665,425	0,00897
665,615	0,00882
665,805	0,0088
665,994	0,00893
666,184	0,00885
666,373	0,00882
666,563	0,00886
666,753	0,00881
666,942	0,00871
667,132	0,00854
667,321	0,00847
667,511	0,00844
667,7	0,00839
667,889	0,0082
668,079	0,00806
668,268	0,00801
668,458	0,00791
668,647	0,00783
668,836	0,00776
669,026	0,00774
669,215	0,00775
669,404	0,00781
669,594	0,00772
669,783	0,00768
669,972	0,0078
670,162	0,00775
670,351	0,00759
670,54	0,00747
670,729	0,00733
670,919	0,00727
671,108	0,00723
671,297	0,00719
671,486	0,00706
671,675	0,00698
671,864	0,00696
672,053	0,00685
672,243	0,00689
672,432	0,00692
672,621	0,00699
672,81	0,00699
672,999	0,00701
673,188	0,00702
673,377	0,00697
673,566	0,00697
673,755	0,00696
673,944	0,00681
674,133	0,00668
674,322	0,00661
674,51	0,00658
674,699	0,00654
674,888	0,00643
675,077	0,00633
675,266	0,00617
675,455	0,00619
675,644	0,00601
675,832	0,00594
676,021	0,00592
676,21	0,00597
676,399	0,00584
676,587	0,00581
676,776	0,00566
676,965	0,00567
677,153	0,00568
677,342	0,00567
677,531	0,00553
677,719	0,00552
677,908	0,0055
678,097	0,00549
678,285	0,00543
678,474	0,00545
678,662	0,00549
678,851	0,00546
679,039	0,00539
679,228	0,00535
679,416	0,00543
679,605	0,00543
679,793	0,00548
679,982	0,00543
680,17	0,0054
680,359	0,00543
680,547	0,00538
680,736	0,00527
680,924	0,00537
681,112	0,00543
681,301	0,00547
681,489	0,00536
681,677	0,0054
681,866	0,00528
682,054	0,00526
682,242	0,00519
682,43	0,00514
682,619	0,00509
682,807	0,00507
682,995	0,00503
683,183	0,0049
683,371	0,0049
683,559	0,00487
683,748	0,0049
683,936	0,00496
684,124	0,00502
684,312	0,00506
684,5	0,00497
684,688	0,00504
684,876	0,00497
685,064	0,0048
685,252	0,00481
685,44	0,00469
685,628	0,00472
685,816	0,00466
686,004	0,00462
686,192	0,00447
686,38	0,00444
686,568	0,0044
686,756	0,00426
686,944	0,00428
687,131	0,00436
687,319	0,00437
687,507	0,00431
687,695	0,00419
687,883	0,00412
688,07	0,00413
688,258	0,0042
688,446	0,00425
688,634	0,00433
688,821	0,00432
689,009	0,00434
689,197	0,00435
689,384	0,00433
689,572	0,00433
689,76	0,00435
689,947	0,00437
690,135	0,00434
690,323	0,00442
690,51	0,00437
690,698	0,00428
690,885	0,00442
691,073	0,00433
691,26	0,00429
691,448	0,00427
691,635	0,00434
691,823	0,00433
692,01	0,00425
692,197	0,00419
692,385	0,00416
692,572	0,00415
692,76	0,00419
692,947	0,00419
693,134	0,00434
693,322	0,00433
693,509	0,00428
693,696	0,00415
693,884	0,00412
694,071	0,00409
694,258	0,00406
694,445	0,00399
694,633	0,00398
694,82	0,00383
695,007	0,00373
695,194	0,00369
695,381	0,00367
695,568	0,00366
695,756	0,00368
695,943	0,00369
696,13	0,00367
696,317	0,00371
696,504	0,00369
696,691	0,00359
696,878	0,00367
697,065	0,00358
697,252	0,00354
697,439	0,00352
697,626	0,00354
697,813	0,00352
698	0,00344
698,187	0,00343
698,374	0,00348
698,561	0,00348
698,747	0,00356
698,934	0,00349
699,121	0,0036
699,308	0,00354
699,495	0,00348
699,682	0,00342
699,868	0,00338
700,055	0,00333
700,242	0,00325
700,429	0,00311
700,615	0,003
700,802	0,00293
700,989	0,00298
701,175	0,00284
701,362	0,00282
701,549	0,00282
701,735	0,00285
701,922	0,00289
702,108	0,00299
702,295	0,00304
702,482	0,00309
702,668	0,00322
702,855	0,00323
703,041	0,00323
703,228	0,00331
703,414	0,00327
703,601	0,00321
703,787	0,00327
703,973	0,00322
704,16	0,00307
704,346	0,00318
704,533	0,00315
704,719	0,00308
704,905	0,00297
705,092	0,00293
705,278	0,00291
705,464	0,00296
705,65	0,00302
705,837	0,00298
706,023	0,00304
706,209	0,00316
706,395	0,00309
706,582	0,00313
706,768	0,00312
706,954	0,00329
707,14	0,00327
707,326	0,00325
707,512	0,00326
707,698	0,00327
707,885	0,00325
708,071	0,00312
708,257	0,00311
708,443	0,00308
708,629	0,00306
708,815	0,00305
709,001	0,00292
709,187	0,00291
709,373	0,00287
709,559	0,00285
709,745	0,00282
709,93	0,00268
710,116	0,00272
710,302	0,00265
710,488	0,00271
710,674	0,00276
710,86	0,0027
711,046	0,00271
711,231	0,00266
711,417	0,00267
711,603	0,0026
711,789	0,00261
711,974	0,00274
712,16	0,0027
712,346	0,00271
712,532	0,00269
712,717	0,0026
712,903	0,00261
713,089	0,00261
713,274	0,00263
713,46	0,00262
713,645	0,00269
713,831	0,00272
714,016	0,00261
714,202	0,00277
714,388	0,00295
714,573	0,00292
714,759	0,00295
714,944	0,00298
715,129	0,00294
715,315	0,003
715,5	0,00302
715,686	0,00298
715,871	0,00299
716,057	0,00304
716,242	0,00303
716,427	0,00283
716,613	0,00279
716,798	0,00271
716,983	0,00267
717,168	0,00268
717,354	0,00269
717,539	0,00261
717,724	0,00253
717,909	0,00245
718,095	0,00255
718,28	0,00244
718,465	0,00254
718,65	0,00254
718,835	0,00258
719,02	0,00251
719,206	0,00262
719,391	0,00257
719,576	0,00254
719,761	0,00258
719,946	0,00258
720,131	0,00243
720,316	0,0025
720,501	0,00241
720,686	0,00246
720,871	0,00253
721,056	0,00258
721,241	0,00234
721,426	0,00232
721,61	0,00238
721,795	0,00239
721,98	0,00238
722,165	0,00242
722,35	0,00249
722,535	0,00245
722,719	0,00239
722,904	0,00242
723,089	0,00242
723,274	0,00247
723,458	0,00241
723,643	0,00244
723,828	0,00237
724,013	0,00239
724,197	0,00234
724,382	0,0022
724,567	0,00226
724,751	0,0022
724,936	0,0021
725,12	0,00208
725,305	0,00221
725,489	0,00227
725,674	0,00215
725,859	0,00223
726,043	0,00226
726,228	0,00241
726,412	0,00238
726,596	0,00235
726,781	0,00246
726,965	0,00242
727,15	0,00247
727,334	0,00237
727,518	0,0023
727,703	0,00245
727,887	0,00242
728,072	0,0024
728,256	0,00226
728,44	0,00228
728,624	0,00229
728,809	0,00221
728,993	0,00224
729,177	0,00229
729,361	0,00236
729,546	0,00237
729,73	0,00232
729,914	0,00221
730,098	0,00221
730,282	0,00221
730,466	0,00213
730,65	0,00216
730,834	0,00222
731,019	0,00219
731,203	0,00213
731,387	0,00216
731,571	0,0022
731,755	0,00221
731,939	0,00225
732,123	0,00218
732,306	0,00223
732,49	0,00229
732,674	0,0022
732,858	0,00212
733,042	0,00212
733,226	0,00223
733,41	0,00217
733,594	0,00219
733,778	0,00218
733,961	0,00227
734,145	0,00235
734,329	0,00236
734,513	0,00232
734,696	0,00242
734,88	0,00247
735,064	0,00251
735,247	0,00237
735,431	0,00235
735,615	0,00228
735,798	0,00226
735,982	0,0023
736,166	0,00232
736,349	0,00224
736,533	0,00225
736,716	0,00226
736,9	0,00224
737,083	0,00215
737,267	0,00212
737,45	0,00204
737,634	0,00213
737,817	0,00207
738,001	0,00203
738,184	0,00197
738,368	0,00199
738,551	0,00196
738,734	0,00187
738,918	0,00182
739,101	0,00196
739,284	0,00196
739,468	0,00202
739,651	0,00207
739,834	0,00213
740,018	0,00201
740,201	0,00202
740,384	0,00203
740,567	0,00214
740,75	0,00213
740,934	0,00208
741,117	0,002
741,3	0,00203
741,483	0,00203
741,666	0,00189
741,849	0,00183
742,032	0,00188
742,215	0,00185
742,399	0,00184
742,582	0,0018
742,765	0,0019
742,948	0,00199
743,131	0,00206
743,314	0,00199
743,496	0,00192
743,679	0,00197
743,862	0,00201
744,045	0,00204
744,228	0,00206
744,411	0,0021
744,594	0,00203
744,777	0,00194
744,959	0,00188
745,142	0,00189
745,325	0,00201
745,508	0,00204
745,691	0,00216
745,873	0,00213
746,056	0,00207
746,239	0,00197
746,421	0,00199
746,604	0,00197
746,787	0,00201
746,969	0,00211
747,152	0,00206
747,335	0,00194
747,517	0,00199
747,7	0,00197
747,882	0,00203
748,065	0,00202
748,247	0,00222
748,43	0,00216
748,612	0,00215
748,795	0,00215
748,977	0,00208
749,16	0,00195
749,342	0,00207
749,524	0,00209
749,707	0,00199
749,889	0,00194
750,072	0,00196
750,254	0,00182
750,436	0,00183
750,619	0,00186
750,801	0,00182
750,983	0,00182
751,165	0,00188
751,348	0,00188
751,53	0,00184
751,712	0,00185
751,894	0,00187
752,076	0,00195
752,259	0,00194
752,441	0,00191
752,623	0,0019
752,805	0,00185
752,987	0,00185
753,169	0,00188
753,351	0,0018
753,533	0,0018
753,715	0,00177
753,897	0,00172
754,079	0,00163
754,261	0,00173
754,443	0,00171
754,625	0,00173
754,807	0,00184
754,989	0,00193
755,171	0,00199
755,353	0,002
755,534	0,00192
755,716	0,00196
755,898	0,00193
756,08	0,002
756,262	0,00191
756,443	0,00191
756,625	0,00197
756,807	0,00188
756,989	0,0018
757,17	0,00173
757,352	0,00175
757,534	0,00189
757,715	0,00187
757,897	0,00191
758,079	0,00189
758,26	0,0019
758,442	0,00197
758,623	0,00189
758,805	0,00197
758,987	0,00192
759,168	0,00187
759,35	0,00175
759,531	0,00173
759,713	0,00179
759,894	0,00175
760,075	0,00167
760,257	0,00166
760,438	0,00167
760,62	0,00167
760,801	0,0016
760,982	0,00164
761,164	0,00162
761,345	0,00172
761,526	0,00173
761,708	0,00172
761,889	0,00179
762,07	0,00187
762,251	0,00199
762,433	0,00199
762,614	0,00201
762,795	0,002
762,976	0,00203
763,157	0,00215
763,338	0,0021
763,52	0,00204
763,701	0,00199
763,882	0,00202
764,063	0,00198
764,244	0,00191
764,425	0,00189
764,606	0,00183
764,787	0,00175
764,968	0,00178
765,149	0,00165
765,33	0,00162
765,511	0,00167
765,692	0,00162
765,873	0,00159
766,053	0,00156
766,234	0,00148
766,415	0,00149
766,596	0,00151
766,777	0,00156
766,958	0,00142
767,138	0,00156
767,319	0,00153
767,5	0,00153
767,681	0,00149
767,861	0,00154
768,042	0,00151
768,223	0,00166
768,403	0,00164
768,584	0,00165
768,765	0,00166
768,945	0,00172
769,126	0,00169
769,307	0,0018
769,487	0,00173
769,668	0,00182
769,848	0,0017
770,029	0,00179
770,209	0,00159
770,39	0,00159
770,57	0,00164
770,751	0,00165
770,931	0,00159
771,111	0,00139
771,292	0,00138
771,472	0,00135
771,653	0,00134
771,833	0,00138
772,013	0,00134
772,194	0,00149
772,374	0,0014
772,554	0,0013
772,734	0,00134
772,915	0,00153
773,095	0,0017
773,275	0,00162
773,455	0,00166
773,635	0,00151
773,816	0,00159
773,996	0,00164
774,176	0,00162
774,356	0,00166
774,536	0,00172
774,716	0,00165
774,896	0,00149
775,076	0,00138
775,256	0,00144
775,436	0,00148
775,616	0,00163
775,796	0,00163
775,976	0,00157
776,156	0,00156
776,336	0,00158
776,516	0,00156
776,696	0,00152
776,876	0,00156
777,056	0,00169
777,235	0,00164
777,415	0,0017
777,595	0,00158
777,775	0,00148
777,955	0,00142
778,134	0,00141
778,314	0,00147
778,494	0,00151
778,674	0,00166
778,853	0,00161
779,033	0,00153
779,213	0,00149
779,392	0,00137
779,572	0,00144
779,751	0,00142
779,931	0,00152
780,111	0,00154
780,29	0,00141
780,47	0,00142
780,649	0,00129
780,829	0,00125
781,008	0,00136
781,188	0,00144
781,367	0,00152
781,546	0,00158
781,726	0,00161
781,905	0,0016
782,085	0,00155
782,264	0,00159
782,443	0,00156
782,623	0,00166
782,802	0,00177
782,981	0,00166
783,161	0,00158
783,34	0,00158
783,519	0,0016
783,698	0,00166
783,878	0,00162
784,057	0,00161
784,236	0,00176
784,415	0,0018
784,594	0,00183
784,773	0,00181
784,952	0,00198
785,132	0,00195
785,311	0,00214
785,49	0,00211
785,669	0,00205
785,848	0,00214
786,027	0,00219
786,206	0,00206
786,385	0,00196
786,564	0,0019
786,743	0,00193
786,922	0,0019
787,1	0,00201
787,279	0,00177
787,458	0,00182
787,637	0,00187
787,816	0,0019
787,995	0,00182
788,174	0,00184
788,352	0,00192
788,531	0,00191
788,71	0,00192
788,889	0,00178
789,067	0,0017
789,246	0,00175
789,425	0,00175
789,603	0,00173
789,782	0,00157
789,961	0,00162
790,139	0,00169
790,318	0,00161
790,496	0,00169
790,675	0,00181
790,853	0,00182
791,032	0,00173
791,211	0,00168
791,389	0,00162
791,568	0,00169
791,746	0,00176
791,924	0,00191
792,103	0,0018
792,281	0,00193
792,46	0,00192
792,638	0,00179
792,816	0,00183
792,995	0,00202
793,173	0,00208
793,351	0,00212
793,53	0,00217
793,708	0,00221
793,886	0,00206
794,064	0,00211
794,243	0,00212
794,421	0,00214
794,599	0,00213
794,777	0,00209
794,955	0,002
795,133	0,00199
795,312	0,00183
795,49	0,00172
795,668	0,00163
795,846	0,00165
796,024	0,00174
796,202	0,0016
796,38	0,00151
796,558	0,00146
796,736	0,00148
796,914	0,00158
797,092	0,00152
797,27	0,00165
797,448	0,00158
797,626	0,00162
797,803	0,00154
797,981	0,00141
798,159	0,00137
798,337	0,00134
798,515	0,00132
798,693	0,00126
798,87	0,00115
799,048	0,00119
799,226	0,00122
799,404	0,00125
799,581	0,00122
799,759	0,00121
799,937	0,00121
800,114	0,00132
800,292	0,00135
800,469	0,00148
800,647	0,00146
800,825	0,00151
801,002	0,0014
801,18	0,00134
801,357	0,00137
801,535	0,00152
801,712	0,00156
801,89	0,00162
802,067	0,00157
802,245	0,00158
802,422	0,00153
802,6	0,00163
802,777	0,00155
802,954	0,00172
803,132	0,00191
803,309	0,00195
803,486	0,00185
803,664	0,00193
803,841	0,00197
804,018	0,00204
804,195	0,0021
804,373	0,00203
804,55	0,0021
804,727	0,00221
804,904	0,00209
805,081	0,00209
805,259	0,00197
805,436	0,00183
805,613	0,00176
805,79	0,0016
805,967	0,00151
806,144	0,00136
806,321	0,00141
806,498	0,00151
806,675	0,00157
806,852	0,00152
807,029	0,00142
807,206	0,00158
807,383	0,00176
807,56	0,00192
807,737	0,00207
807,914	0,00213
808,091	0,00221
808,268	0,00242
808,444	0,00234
808,621	0,00225
808,798	0,00208
808,975	0,00198
809,152	0,00182
809,328	0,00178
809,505	0,00172
809,682	0,00162
809,858	0,00158
810,035	0,00163
810,212	0,0013
810,388	0,00139
810,565	0,00149
810,742	0,00171
810,918	0,00179
811,095	0,00181
811,271	0,0018
811,448	0,00161
811,625	0,00163
811,801	0,00155
811,978	0,00156
812,154	0,00157
812,33	0,00142
812,507	0,00136
812,683	0,00152
812,86	0,00152
813,036	0,00165
813,212	0,00166
813,389	0,00181
813,565	0,00172
813,741	0,00191
813,918	0,0018
814,094	0,00201
814,27	0,00199
814,447	0,002
814,623	0,00189
814,799	0,00198
814,975	0,00202
815,151	0,002
815,328	0,00193
815,504	0,00221
815,68	0,0022
815,856	0,00235
816,032	0,00239
816,208	0,00238
816,384	0,00233
816,56	0,00237
816,736	0,00213
816,912	0,002
817,088	0,00203
817,264	0,0021
817,44	0,00203
817,616	0,00193
817,792	0,00171
817,968	0,00167
818,144	0,00179
818,32	0,00185
818,495	0,00176
818,671	0,00194
818,847	0,00186
819,023	0,00191
819,199	0,00195
819,374	0,00197
819,55	0,00192
819,726	0,00215
819,902	0,00218
820,077	0,00201
820,253	0,00198
820,429	0,00199
820,604	0,00197
820,78	0,00203
820,956	0,00192
821,131	0,00179
821,307	0,00169
821,482	0,00183
821,658	0,00181
821,833	0,00146
822,009	0,00147
822,184	0,00152
822,36	0,00155
822,535	0,00148
822,711	0,00152
822,886	0,00152
823,061	0,00155
823,237	0,00159
823,412	0,0015
823,587	0,00144
823,763	0,00162
823,938	0,00172
824,113	0,00146
824,289	0,00143
824,464	0,00152
824,639	0,00153
824,814	0,00154
824,99	0,00146
825,165	0,00144
825,34	0,0016
825,515	0,00175
825,69	0,00182
825,865	0,00193
826,04	0,00223
826,215	0,00238
826,39	0,0025
826,566	0,00263
826,741	0,00269
826,916	0,00293
827,091	0,00292
827,265	0,00281
827,44	0,00278
827,615	0,00281
827,79	0,00269
827,965	0,00259
828,14	0,00253
828,315	0,00248
828,49	0,00239
828,665	0,00235
828,839	0,00218
829,014	0,00218
829,189	0,00213
829,364	0,00206
829,538	0,00218
829,713	0,00214
829,888	0,00213
830,063	0,00207
830,237	0,00195
830,412	0,00199
830,587	0,0022
830,761	0,00241
830,936	0,00233
831,11	0,00246
831,285	0,00233
831,459	0,00221
831,634	0,00224
831,809	0,00227
831,983	0,00212
832,157	0,00204
832,332	0,00182
832,506	0,00156
832,681	0,00138
832,855	0,00143
833,03	0,00121
833,204	0,00129
833,378	0,00128
833,553	0,00113
833,727	0,00114
833,901	0,00137
834,076	0,00161
834,25	0,00179
834,424	0,00187
834,598	0,00192
834,773	0,0019
834,947	0,00211
835,121	0,002
835,295	0,00186
835,469	0,002
835,643	0,0018
835,817	0,00166
835,991	0,00126
836,166	0,00114
836,34	0,00121
836,514	0,00115
836,688	0,00121
836,862	0,00114
837,036	0,00115
837,21	0,00133
837,384	0,00132
837,557	0,00148
837,731	0,00151
837,905	0,00183
838,079	0,00186
838,253	0,0017
838,427	0,00183
838,601	0,00154
838,774	0,00156
838,948	0,00175
839,122	0,00176
839,296	0,00183
839,469	0,00186
839,643	0,00178
839,817	0,00154
839,991	0,00147
840,164	0,00164
840,338	0,0013
840,512	0,00151
840,685	0,00155
840,859	0,00159
841,032	0,00148
841,206	0,00139
841,379	0,0013
841,553	0,00145
841,726	0,00165
841,9	0,00181
842,073	0,00179
842,247	0,00209
842,42	0,00201
842,594	0,00193
842,767	0,00181
842,94	0,00185
843,114	0,00204
843,287	0,00211
843,46	0,00197
843,634	0,00176
843,807	0,0017
843,98	0,00158
844,154	0,00148
844,327	0,00155
844,5	0,00147
844,673	0,00142
844,846	0,00132
845,02	0,00108
845,193	0,00098
845,366	0,00098
845,539	0,00103
845,712	0,00111
845,885	0,00105
846,058	0,00083
846,231	0,00079
846,404	0,0009
846,577	0,00094
846,75	0,00107
846,923	0,00124
847,096	0,00135
847,269	0,00159
847,442	0,00183
847,615	0,00171
847,788	0,00183
847,961	0,00203
848,133	0,00222
848,306	0,00214
848,479	0,00209
848,652	0,00224
848,825	0,00189
848,997	0,00185
849,17	0,00165
849,343	0,00135
849,515	0,00131
849,688	0,00133
849,861	0,00124
850,033	0,00124
850,206	0,00143
850,379	0,00144
850,551	0,00123
850,724	0,00148
850,896	0,00128
851,069	0,00149
851,241	0,00167
851,414	0,00191
851,586	0,00167
851,759	0,00184
851,931	0,00169
852,104	0,00154
852,276	0,00163
852,449	0,00163
852,621	0,00175
852,793	0,00185
852,966	0,00179
853,138	0,00181
853,31	0,00166
853,483	0,00185
853,655	0,00182
853,827	0,00178
853,999	0,00183
854,172	0,00179
854,344	0,00187
854,516	0,00188
854,688	0,00198
854,86	0,00176
855,032	0,00175
855,204	0,00191
855,377	0,00183
855,549	0,00176
855,721	0,00171
855,893	0,00156
856,065	0,00153
856,237	0,00129
856,409	0,00117
856,581	0,00102
856,753	0,00119
856,924	0,00122
857,096	0,00134
857,268	0,00151
857,44	0,00145
857,612	0,0017
857,784	0,00175
857,956	0,00188
858,127	0,00223
858,299	0,0022
858,471	0,00245
858,643	0,00251
858,814	0,00259
858,986	0,00233
859,158	0,00217
859,33	0,00237
859,501	0,00204
859,673	0,00213
859,844	0,00214
860,016	0,00193
860,188	0,00184
860,359	0,00174
860,531	0,00171
860,702	0,00149
860,874	0,00128
861,045	0,00127
861,217	0,00127
861,388	0,00171
861,56	0,0017
861,731	0,00136
861,902	0,00139
862,074	0,00139
862,245	0,00151
862,417	0,00147
862,588	0,00151
862,759	0,00157
862,931	0,00165
863,102	0,0015
863,273	0,00139
863,444	0,00146
863,616	0,00174
863,787	0,00163
863,958	0,00161
864,129	0,00141
864,3	0,00143
864,471	0,00142
864,642	0,00162
864,814	0,00148
864,985	0,00143
865,156	0,00114
865,327	0,00087
865,498	0,00089
865,669	0,00087
865,84	0,00091
866,011	0,00116
866,182	0,001
866,353	0,00093
866,523	0,00049
866,694	0,00066
866,865	0,00071
867,036	0,00085
867,207	0,00077
867,378	0,00034
867,549	0,0004
867,719	0,00044
867,89	0,00013
868,061	0,00032
868,232	0,00028
868,402	0,00056
868,573	0,00045
868,744	0,00063
868,914	0,00059
869,085	0,00077
869,256	0,00103
869,426	0,00075
869,597	0,00068
869,767	0,00081
869,938	0,00093
870,108	0,00108
870,279	0,00119
870,449	0,00105
870,62	0,00073
870,79	0,00086
870,961	0,00104
871,131	0,00101
871,302	0,0014
871,472	0,00142
871,642	0,00145
871,813	0,00142
871,983	0,00125
872,153	0,00103
872,324	0,00131
872,494	0,00145
872,664	0,00124
872,835	0,00127
873,005	0,00152
873,175	0,00149
873,345	0,00161
873,515	0,00155
873,685	0,0013
873,856	0,00157
874,026	0,0015
874,196	0,00165
874,366	0,0016
874,536	0,00165
874,706	0,00143
874,876	0,00094
875,046	0,00085
875,216	0,00058
875,386	0,00083
875,556	0,00107
875,726	0,00079
875,896	0,00082
876,066	0,00073
876,236	0,0007
876,405	0,00079
876,575	0,00088
876,745	0,0012
876,915	0,00144
877,085	0,00186
877,254	0,00145
877,424	0,00139
877,594	0,0016
877,764	0,00168
877,933	0,00169
878,103	0,00164
878,273	0,00176
878,442	0,00175
878,612	0,00169
878,781	0,00155
878,951	0,00157
879,121	0,00155
879,29	0,00127
879,46	0,00134
879,629	0,00146
879,799	0,00133
879,968	0,0015
880,138	0,00156
880,307	0,00164
880,476	0,0019
880,646	0,00176
880,815	0,00139
880,985	0,00151
881,154	0,00161
881,323	0,00161
881,493	0,00152
881,662	0,00135
881,831	0,00153
882	0,00135
882,17	0,00112
882,339	0,0007
882,508	0,00074
882,677	0,00095
882,846	0,00125
883,016	0,00129
883,185	0,00125
883,354	0,00149
883,523	0,00144
883,692	0,00129
883,861	0,00141
884,03	0,00107
884,199	0,00132
884,368	0,00165
884,537	0,00143
884,706	0,00134
884,875	0,00145
885,044	0,00154
885,213	0,00161
885,382	0,00172
885,55	0,00159
885,719	0,00154
885,888	0,00197
886,057	0,00189
886,226	0,00138
886,395	0,00177
886,563	0,00148
886,732	0,00137
886,901	0,0013
887,069	0,00099
887,238	0,001
887,407	0,00101
887,575	0,00099
887,744	0,00116
887,913	0,00127
888,081	0,00161
888,25	0,00139
888,418	0,00141
888,587	0,00131
888,755	0,00102
888,924	0,00144
889,092	0,00138
889,261	0,00134
889,429	0,00117
889,598	0,00101
889,766	0,001
889,935	0,00102
890,103	0,00079
890,271	0,00088
890,44	0,00092
890,608	0,00079
890,776	0,00032
890,944	0,0005
891,113	0,00046
891,281	0,00035
891,449	0,00015
891,617	0,00002
891,786	-0,00033
891,954	-0,00017
892,122	0,00018
892,29	0,00029
892,458	0,00022
892,626	0,00043
892,794	0,00026
892,962	0,00036
893,13	0,00058
893,298	0,00087
893,466	0,00089
