Data from Chemiepractica_Absorbance__1__11-30-53-179.txt Node

Date: Mon Dec 09 11:30:53 CET 2024
User: r0948668
Spectrometer: USB4F07138
Trigger mode: 4
Integration Time (sec): 6,000000E-3
Scans to average: 20
Electric dark correction enabled: true
Nonlinearity correction enabled: false
Boxcar width: 5
XAxis mode: Wavelengths
Number of Pixels in Spectrum: 3648
>>>>>Begin Spectral Data<<<<<
176,779	-0,80317
176,999	-1,67135
177,218	-0,82449
177,438	-0
177,658	-0
177,878	-0
178,097	-0
178,317	-0
178,537	-0
178,757	0,4857
178,976	-0
179,196	0,07314
179,416	-0
179,635	0,03214
179,855	0,20738
180,075	0,06914
180,294	-0,01285
180,514	-0,01891
180,734	0,02492
180,953	0,03386
181,173	0,04337
181,392	0,04031
181,612	0,05202
181,832	0,06104
182,051	0,05398
182,271	0,04955
182,49	0,04157
182,71	0,04578
182,929	0,04726
183,149	0,03754
183,368	0,04089
183,588	0,03249
183,807	0,04083
184,027	0,06045
184,246	0,06636
184,466	0,05897
184,685	0,05859
184,905	0,06248
185,124	0,07287
185,344	0,0807
185,563	0,0854
185,782	0,08135
186,002	0,09172
186,221	0,07632
186,44	0,06035
186,66	0,05178
186,879	0,06712
187,099	0,05804
187,318	0,05982
187,537	0,04554
187,756	0,04457
187,976	0,04281
188,195	0,04768
188,414	0,06161
188,634	0,08388
188,853	0,08797
189,072	0,08772
189,291	0,08558
189,511	0,09462
189,73	0,08635
189,949	0,09758
190,168	0,08877
190,387	0,10742
190,607	0,09906
190,826	0,08264
191,045	0,07562
191,264	0,08345
191,483	0,07503
191,702	0,07364
191,921	0,07013
192,141	0,07556
192,36	0,07373
192,579	0,07758
192,798	0,0625
193,017	0,05868
193,236	0,08044
193,455	0,07319
193,674	0,06315
193,893	0,06323
194,112	0,06709
194,331	0,06145
194,55	0,06888
194,769	0,05719
194,988	0,04538
195,207	0,05523
195,426	0,05978
195,645	0,04508
195,864	0,05899
196,083	0,05547
196,302	0,04603
196,521	0,04317
196,739	0,05217
196,958	0,05119
197,177	0,06111
197,396	0,0747
197,615	0,06322
197,834	0,06356
198,053	0,06152
198,271	0,04088
198,49	0,0646
198,709	0,07738
198,928	0,08217
199,147	0,07831
199,365	0,07847
199,584	0,08812
199,803	0,06871
200,022	0,07469
200,24	0,0737
200,459	0,06876
200,678	0,0751
200,897	0,05199
201,115	0,05226
201,334	0,04557
201,553	0,04416
201,771	0,03754
201,99	0,02331
202,209	0,04104
202,427	0,04761
202,646	0,04373
202,864	0,04359
203,083	0,03205
203,302	0,03988
203,52	0,04422
203,739	0,04317
203,957	0,04938
204,176	0,06934
204,394	0,07125
204,613	0,07553
204,831	0,07484
205,05	0,07682
205,268	0,08581
205,487	0,10199
205,705	0,09804
205,924	0,11278
206,142	0,11542
206,361	0,11162
206,579	0,10207
206,798	0,10224
207,016	0,09933
207,234	0,09185
207,453	0,09419
207,671	0,10178
207,89	0,0998
208,108	0,10966
208,326	0,08207
208,545	0,08771
208,763	0,08354
208,981	0,07164
209,2	0,05723
209,418	0,04809
209,636	0,03645
209,855	0,03787
210,073	0,03899
210,291	0,02679
210,509	0,01433
210,728	0,02669
210,946	0,01464
211,164	0,00453
211,382	0,02283
211,6	0,05721
211,819	0,06724
212,037	0,07125
212,255	0,06857
212,473	0,05698
212,691	0,083
212,909	0,09857
213,128	0,09228
213,346	0,10775
213,564	0,1274
213,782	0,114
214	0,10468
214,218	0,10143
214,436	0,10987
214,654	0,09396
214,872	0,10043
215,09	0,08655
215,308	0,0923
215,526	0,09596
215,744	0,08673
215,962	0,07685
216,18	0,07427
216,398	0,06849
216,616	0,06321
216,834	0,06469
217,052	0,0824
217,27	0,05926
217,488	0,05473
217,706	0,04149
217,924	0,0455
218,142	0,03918
218,36	0,04846
218,578	0,05618
218,795	0,05143
219,013	0,05581
219,231	0,03424
219,449	0,02765
219,667	0,03556
219,885	0,03481
220,102	0,04537
220,32	0,0342
220,538	0,04748
220,756	0,03972
220,973	0,03749
221,191	0,04189
221,409	0,03538
221,627	0,04752
221,844	0,05106
222,062	0,05826
222,28	0,05807
222,497	0,05008
222,715	0,06497
222,933	0,0537
223,15	0,05551
223,368	0,05442
223,586	0,05965
223,803	0,0786
224,021	0,08708
224,239	0,08184
224,456	0,08837
224,674	0,09536
224,891	0,10422
225,109	0,09715
225,326	0,08827
225,544	0,0881
225,762	0,07588
225,979	0,07839
226,197	0,071
226,414	0,06176
226,632	0,06048
226,849	0,0383
227,066	0,03906
227,284	0,02942
227,501	0,03451
227,719	0,05177
227,936	0,05451
228,154	0,06472
228,371	0,05892
228,588	0,06892
228,806	0,0826
229,023	0,09285
229,241	0,11037
229,458	0,1043
229,675	0,10415
229,893	0,09288
230,11	0,10131
230,327	0,1075
230,545	0,09973
230,762	0,09458
230,979	0,08118
231,196	0,0739
231,414	0,06367
231,631	0,0495
231,848	0,03233
232,065	0,03258
232,283	0,036
232,5	0,01714
232,717	0,00511
232,934	0,00778
233,151	0,0194
233,368	0,01624
233,586	0,0183
233,803	0,01963
234,02	0,0321
234,237	0,04786
234,454	0,05188
234,671	0,05612
234,888	0,06884
235,105	0,07784
235,322	0,08306
235,54	0,08294
235,757	0,09312
235,974	0,09323
236,191	0,09051
236,408	0,0934
236,625	0,10084
236,842	0,09176
237,059	0,08982
237,276	0,07774
237,493	0,07825
237,71	0,08606
237,926	0,06516
238,143	0,05619
238,36	0,06106
238,577	0,06001
238,794	0,04654
239,011	0,0422
239,228	0,04997
239,445	0,04838
239,662	0,06366
239,878	0,05992
240,095	0,05928
240,312	0,07817
240,529	0,07744
240,746	0,07741
240,963	0,09161
241,179	0,09975
241,396	0,10188
241,613	0,08851
241,83	0,09719
242,046	0,08684
242,263	0,09674
242,48	0,08809
242,697	0,07543
242,913	0,0804
243,13	0,06959
243,347	0,06834
243,563	0,07216
243,78	0,07321
243,997	0,07932
244,213	0,08407
244,43	0,0996
244,646	0,09424
244,863	0,09325
245,08	0,09687
245,296	0,09025
245,513	0,08686
245,729	0,08741
245,946	0,07657
246,162	0,07041
246,379	0,08095
246,595	0,07433
246,812	0,06071
247,028	0,06592
247,245	0,07113
247,461	0,0676
247,678	0,07398
247,894	0,09002
248,111	0,07294
248,327	0,08469
248,544	0,08154
248,76	0,07029
248,976	0,07346
249,193	0,06861
249,409	0,0684
249,626	0,07031
249,842	0,0785
250,058	0,07749
250,275	0,06767
250,491	0,07766
250,707	0,07659
250,924	0,08467
251,14	0,08768
251,356	0,09447
251,572	0,1017
251,789	0,09664
252,005	0,08807
252,221	0,0852
252,437	0,08052
252,654	0,07837
252,87	0,06919
253,086	0,07371
253,302	0,07619
253,518	0,08637
253,735	0,07044
253,951	0,07442
254,167	0,07615
254,383	0,07886
254,599	0,07306
254,815	0,08328
255,031	0,07556
255,247	0,07787
255,463	0,06688
255,68	0,07311
255,896	0,05784
256,112	0,05514
256,328	0,05028
256,544	0,05243
256,76	0,05762
256,976	0,06066
257,192	0,06164
257,408	0,07397
257,624	0,07756
257,84	0,0772
258,056	0,07193
258,272	0,07688
258,487	0,07152
258,703	0,06939
258,919	0,06588
259,135	0,06046
259,351	0,06219
259,567	0,06258
259,783	0,06512
259,999	0,06316
260,215	0,06889
260,43	0,05486
260,646	0,06381
260,862	0,07774
261,078	0,08033
261,294	0,07051
261,509	0,07506
261,725	0,07183
261,941	0,06856
262,157	0,06937
262,372	0,07156
262,588	0,06976
262,804	0,08694
263,019	0,07416
263,235	0,07108
263,451	0,07888
263,667	0,08986
263,882	0,09174
264,098	0,10586
264,313	0,10895
264,529	0,09862
264,745	0,10908
264,96	0,10666
265,176	0,10081
265,391	0,10104
265,607	0,11075
265,823	0,10137
266,038	0,10094
266,254	0,09942
266,469	0,09327
266,685	0,07695
266,9	0,07436
267,116	0,06885
267,331	0,06976
267,547	0,07188
267,762	0,07181
267,978	0,0595
268,193	0,0634
268,408	0,05811
268,624	0,05844
268,839	0,04649
269,055	0,04675
269,27	0,05918
269,485	0,05849
269,701	0,05627
269,916	0,05869
270,132	0,06713
270,347	0,07893
270,562	0,08496
270,777	0,08597
270,993	0,08781
271,208	0,09903
271,423	0,11713
271,639	0,11539
271,854	0,10632
272,069	0,1112
272,284	0,10163
272,5	0,09401
272,715	0,08241
272,93	0,07436
273,145	0,07235
273,36	0,06528
273,576	0,06518
273,791	0,05256
274,006	0,04393
274,221	0,05432
274,436	0,04976
274,651	0,0477
274,866	0,05418
275,081	0,06108
275,296	0,06101
275,512	0,0634
275,727	0,07396
275,942	0,06114
276,157	0,06106
276,372	0,06968
276,587	0,07385
276,802	0,08983
277,017	0,0867
277,232	0,09068
277,447	0,09499
277,662	0,093
277,877	0,09342
278,092	0,09015
278,306	0,104
278,521	0,11171
278,736	0,10806
278,951	0,10804
279,166	0,09405
279,381	0,09497
279,596	0,09252
279,811	0,08507
280,025	0,07731
280,24	0,07622
280,455	0,08014
280,67	0,0779
280,885	0,0708
281,099	0,06073
281,314	0,05296
281,529	0,06955
281,744	0,08822
281,959	0,08103
282,173	0,08286
282,388	0,1004
282,603	0,09656
282,817	0,09488
283,032	0,11279
283,247	0,11571
283,461	0,12034
283,676	0,11736
283,891	0,11949
284,105	0,10459
284,32	0,10599
284,535	0,10101
284,749	0,09904
284,964	0,10581
285,178	0,09066
285,393	0,08316
285,607	0,07466
285,822	0,08194
286,036	0,08112
286,251	0,06331
286,465	0,07281
286,68	0,07255
286,894	0,07664
287,109	0,06839
287,323	0,05581
287,538	0,06871
287,752	0,05942
287,967	0,07195
288,181	0,07375
288,396	0,0898
288,61	0,09605
288,824	0,09191
289,039	0,1018
289,253	0,0961
289,467	0,10451
289,682	0,10521
289,896	0,10341
290,11	0,10902
290,325	0,1092
290,539	0,09534
290,753	0,08551
290,968	0,0781
291,182	0,06919
291,396	0,06113
291,61	0,06266
291,825	0,05596
292,039	0,06453
292,253	0,05064
292,467	0,04712
292,681	0,04003
292,896	0,04839
293,11	0,04674
293,324	0,05812
293,538	0,05917
293,752	0,0633
293,966	0,06415
294,18	0,06551
294,394	0,05838
294,608	0,07064
294,823	0,06046
295,037	0,06111
295,251	0,06002
295,465	0,05758
295,679	0,05327
295,893	0,05417
296,107	0,03999
296,321	0,04338
296,535	0,03405
296,749	0,038
296,963	0,03094
297,177	0,03775
297,391	0,04284
297,604	0,04403
297,818	0,05163
298,032	0,04115
298,246	0,03408
298,46	0,04404
298,674	0,05487
298,888	0,06874
299,102	0,07761
299,315	0,08618
299,529	0,09718
299,743	0,10599
299,957	0,10131
300,171	0,08787
300,385	0,09912
300,598	0,10433
300,812	0,10852
301,026	0,09153
301,24	0,08677
301,453	0,0793
301,667	0,07613
301,881	0,07287
302,094	0,06167
302,308	0,06231
302,522	0,08228
302,735	0,07408
302,949	0,0732
303,163	0,06792
303,376	0,06997
303,59	0,07997
303,803	0,07198
304,017	0,07624
304,231	0,06393
304,444	0,05959
304,658	0,06532
304,871	0,06038
305,085	0,06077
305,298	0,06177
305,512	0,06313
305,725	0,06147
305,939	0,05438
306,152	0,0491
306,366	0,03178
306,579	0,04215
306,793	0,0506
307,006	0,04337
307,22	0,03572
307,433	0,03685
307,646	0,0398
307,86	0,03847
308,073	0,04409
308,286	0,03528
308,5	0,04452
308,713	0,05638
308,926	0,05824
309,14	0,05837
309,353	0,06227
309,566	0,05749
309,78	0,0571
309,993	0,0542
310,206	0,05548
310,419	0,05833
310,633	0,05326
310,846	0,05818
311,059	0,05683
311,272	0,05781
311,486	0,06076
311,699	0,05661
311,912	0,05987
312,125	0,06396
312,338	0,06357
312,551	0,06535
312,764	0,06428
312,978	0,07892
313,191	0,07288
313,404	0,066
313,617	0,05678
313,83	0,05724
314,043	0,05976
314,256	0,05659
314,469	0,04763
314,682	0,04313
314,895	0,03897
315,108	0,04301
315,321	0,04161
315,534	0,03307
315,747	0,04182
315,96	0,0486
316,173	0,04541
316,386	0,04719
316,599	0,05771
316,812	0,07
317,025	0,07951
317,237	0,08295
317,45	0,07688
317,663	0,07051
317,876	0,08041
318,089	0,0699
318,302	0,06316
318,515	0,05848
318,727	0,05743
318,94	0,05285
319,153	0,04083
319,366	0,03432
319,578	0,03776
319,791	0,03544
320,004	0,02911
320,217	0,0261
320,429	0,0355
320,642	0,03806
320,855	0,03185
321,067	0,02193
321,28	0,0157
321,493	0,02111
321,705	0,01719
321,918	0,01126
322,131	0,01075
322,343	0,02294
322,556	0,03415
322,768	0,03114
322,981	0,02432
323,194	0,0344
323,406	0,03686
323,619	0,04575
323,831	0,04942
324,044	0,05953
324,256	0,061
324,469	0,06039
324,681	0,0614
324,894	0,04979
325,106	0,05007
325,319	0,05
325,531	0,0485
325,743	0,05292
325,956	0,04943
326,168	0,05037
326,381	0,04703
326,593	0,04549
326,805	0,05632
327,018	0,05573
327,23	0,04954
327,442	0,05411
327,655	0,05195
327,867	0,05774
328,079	0,05531
328,292	0,05783
328,504	0,06186
328,716	0,05564
328,928	0,06409
329,141	0,05463
329,353	0,04987
329,565	0,06542
329,777	0,06583
329,99	0,07517
330,202	0,07327
330,414	0,0723
330,626	0,07039
330,838	0,06978
331,05	0,07695
331,263	0,0765
331,475	0,08071
331,687	0,07482
331,899	0,0738
332,111	0,07851
332,323	0,07879
332,535	0,07847
332,747	0,08637
332,959	0,08274
333,171	0,08053
333,383	0,07796
333,595	0,07656
333,807	0,06877
334,019	0,07376
334,231	0,06949
334,443	0,05531
334,655	0,05007
334,867	0,04599
335,079	0,04455
335,291	0,0478
335,503	0,04794
335,714	0,05134
335,926	0,0529
336,138	0,05614
336,35	0,05653
336,562	0,06225
336,774	0,06599
336,986	0,07282
337,197	0,06867
337,409	0,06656
337,621	0,05863
337,833	0,05868
338,044	0,06085
338,256	0,0608
338,468	0,06238
338,68	0,05334
338,891	0,04638
339,103	0,04521
339,315	0,04464
339,526	0,04011
339,738	0,03152
339,95	0,03624
340,161	0,03834
340,373	0,02582
340,585	0,01217
340,796	0,01463
341,008	0,02876
341,219	0,03516
341,431	0,04022
341,642	0,04379
341,854	0,05441
342,065	0,06691
342,277	0,07027
342,489	0,06383
342,7	0,0735
342,912	0,08627
343,123	0,08343
343,334	0,07986
343,546	0,06767
343,757	0,06818
343,969	0,0564
344,18	0,04863
344,392	0,03854
344,603	0,04435
344,814	0,04698
345,026	0,04744
345,237	0,03471
345,448	0,02965
345,66	0,02277
345,871	0,02782
346,082	0,02754
346,294	0,03149
346,505	0,03424
346,716	0,04288
346,927	0,03537
347,139	0,03693
347,35	0,03546
347,561	0,0411
347,772	0,04349
347,984	0,05084
348,195	0,05593
348,406	0,05263
348,617	0,05457
348,828	0,05693
349,039	0,05227
349,251	0,05156
349,462	0,05147
349,673	0,04665
349,884	0,05093
350,095	0,04625
350,306	0,04418
350,517	0,04232
350,728	0,0425
350,939	0,04724
351,15	0,04099
351,361	0,04264
351,572	0,04815
351,783	0,04812
351,994	0,05184
352,205	0,05031
352,416	0,05288
352,627	0,05582
352,838	0,0559
353,049	0,05954
353,26	0,0575
353,471	0,05755
353,682	0,06072
353,893	0,05739
354,103	0,06052
354,314	0,05657
354,525	0,04903
354,736	0,05339
354,947	0,0531
355,157	0,04985
355,368	0,05029
355,579	0,04177
355,79	0,04776
356,001	0,04064
356,211	0,03905
356,422	0,02436
356,633	0,02775
356,843	0,03277
357,054	0,02759
357,265	0,03052
357,476	0,0311
357,686	0,02848
357,897	0,033
358,107	0,03002
358,318	0,03533
358,529	0,03473
358,739	0,04849
358,95	0,04582
359,16	0,04966
359,371	0,05131
359,582	0,04013
359,792	0,03974
360,003	0,0357
360,213	0,03356
360,424	0,03783
360,634	0,03982
360,845	0,03756
361,055	0,0329
361,266	0,03283
361,476	0,03736
361,686	0,03373
361,897	0,03648
362,107	0,04054
362,318	0,04338
362,528	0,04657
362,738	0,0389
362,949	0,03399
363,159	0,03945
363,369	0,03793
363,58	0,0387
363,79	0,03238
364	0,03667
364,211	0,03773
364,421	0,03156
364,631	0,03627
364,842	0,03145
365,052	0,03238
365,262	0,03547
365,472	0,03713
365,682	0,04357
365,893	0,04831
366,103	0,05294
366,313	0,05637
366,523	0,05867
366,733	0,05721
366,943	0,05606
367,154	0,0575
367,364	0,06478
367,574	0,06539
367,784	0,06426
367,994	0,05941
368,204	0,05836
368,414	0,05399
368,624	0,04634
368,834	0,04657
369,044	0,04931
369,254	0,04826
369,464	0,05178
369,674	0,04987
369,884	0,04465
370,094	0,04463
370,304	0,04121
370,514	0,04381
370,724	0,03912
370,934	0,04079
371,144	0,03573
371,353	0,04071
371,563	0,04032
371,773	0,03936
371,983	0,03677
372,193	0,03443
372,403	0,03071
372,612	0,03171
372,822	0,02795
373,032	0,03078
373,242	0,03564
373,452	0,0377
373,661	0,03316
373,871	0,02964
374,081	0,02821
374,29	0,02628
374,5	0,03009
374,71	0,0273
374,92	0,02639
375,129	0,02477
375,339	0,02383
375,549	0,01588
375,758	0,01723
375,968	0,01459
376,177	0,01431
376,387	0,01185
376,597	0,01903
376,806	0,02181
377,016	0,02393
377,225	0,02679
377,435	0,02464
377,644	0,02841
377,854	0,03303
378,063	0,03606
378,273	0,03923
378,482	0,04143
378,692	0,047
378,901	0,04023
379,111	0,03748
379,32	0,04039
379,529	0,03807
379,739	0,03828
379,948	0,03617
380,158	0,04038
380,367	0,03738
380,576	0,03695
380,786	0,03342
380,995	0,03572
381,204	0,03944
381,414	0,03916
381,623	0,03831
381,832	0,04102
382,041	0,04329
382,251	0,04363
382,46	0,03982
382,669	0,03651
382,878	0,03659
383,088	0,03548
383,297	0,03135
383,506	0,03314
383,715	0,03139
383,924	0,02843
384,133	0,02687
384,342	0,02891
384,552	0,03003
384,761	0,03238
384,97	0,03522
385,179	0,03458
385,388	0,03928
385,597	0,04041
385,806	0,03627
386,015	0,03945
386,224	0,04164
386,433	0,04253
386,642	0,03701
386,851	0,03567
387,06	0,03651
387,269	0,03671
387,478	0,03892
387,687	0,04016
387,896	0,03554
388,105	0,03447
388,314	0,02794
388,523	0,02673
388,731	0,02535
388,94	0,03308
389,149	0,03241
389,358	0,03067
389,567	0,03291
389,776	0,03257
389,984	0,02957
390,193	0,0332
390,402	0,03401
390,611	0,03836
390,819	0,03903
391,028	0,04144
391,237	0,03972
391,446	0,03969
391,654	0,03919
391,863	0,0358
392,072	0,03413
392,28	0,03704
392,489	0,03557
392,698	0,03506
392,906	0,03489
393,115	0,03472
393,324	0,03614
393,532	0,03328
393,741	0,02961
393,949	0,02564
394,158	0,02726
394,366	0,02725
394,575	0,02491
394,783	0,02382
394,992	0,02246
395,2	0,02211
395,409	0,02227
395,617	0,01797
395,826	0,01938
396,034	0,0206
396,243	0,02323
396,451	0,02322
396,66	0,02685
396,868	0,02588
397,076	0,02336
397,285	0,02258
397,493	0,0228
397,701	0,02216
397,91	0,02305
398,118	0,02215
398,326	0,02376
398,535	0,02015
398,743	0,02061
398,951	0,02085
399,159	0,02175
399,368	0,02641
399,576	0,02869
399,784	0,028
399,992	0,02805
400,201	0,02611
400,409	0,02404
400,617	0,02433
400,825	0,03
401,033	0,02847
401,241	0,02479
401,45	0,02389
401,658	0,02299
401,866	0,02625
402,074	0,02732
402,282	0,02707
402,49	0,02996
402,698	0,03253
402,906	0,03097
403,114	0,02979
403,322	0,03081
403,53	0,03066
403,738	0,03085
403,946	0,02971
404,154	0,02549
404,362	0,02463
404,57	0,02443
404,778	0,02138
404,986	0,02049
405,194	0,02189
405,402	0,02161
405,609	0,02053
405,817	0,01999
406,025	0,02074
406,233	0,02141
406,441	0,0232
406,649	0,02297
406,856	0,02349
407,064	0,02349
407,272	0,02006
407,48	0,02007
407,687	0,02078
407,895	0,0212
408,103	0,02146
408,311	0,02186
408,518	0,02107
408,726	0,02108
408,934	0,02277
409,141	0,02441
409,349	0,02432
409,557	0,02704
409,764	0,02682
409,972	0,0267
410,18	0,02614
410,387	0,02522
410,595	0,02441
410,802	0,02337
411,01	0,02179
411,217	0,0191
411,425	0,01672
411,632	0,01843
411,84	0,0179
412,047	0,01678
412,255	0,01488
412,462	0,01596
412,67	0,01722
412,877	0,01739
413,085	0,01797
413,292	0,01892
413,499	0,02059
413,707	0,02155
413,914	0,02222
414,122	0,02094
414,329	0,02148
414,536	0,0207
414,744	0,02025
414,951	0,02014
415,158	0,01954
415,366	0,01917
415,573	0,01896
415,78	0,01955
415,987	0,01961
416,195	0,01969
416,402	0,02003
416,609	0,02072
416,816	0,02174
417,023	0,02224
417,231	0,02338
417,438	0,02435
417,645	0,02445
417,852	0,02424
418,059	0,02402
418,266	0,02247
418,473	0,02133
418,68	0,023
418,888	0,02155
419,095	0,02268
419,302	0,02104
419,509	0,02038
419,716	0,02051
419,923	0,02157
420,13	0,02099
420,337	0,02056
420,544	0,021
420,751	0,02142
420,958	0,02144
421,165	0,02257
421,371	0,02117
421,578	0,02146
421,785	0,02091
421,992	0,01948
422,199	0,02002
422,406	0,02078
422,613	0,02009
422,82	0,02096
423,026	0,02015
423,233	0,01992
423,44	0,01859
423,647	0,01944
423,854	0,01904
424,06	0,01954
424,267	0,01988
424,474	0,01854
424,681	0,01887
424,887	0,01957
425,094	0,01957
425,301	0,02136
425,507	0,01945
425,714	0,01984
425,921	0,01836
426,127	0,01899
426,334	0,01826
426,54	0,01884
426,747	0,02011
426,954	0,01945
427,16	0,01928
427,367	0,01928
427,573	0,01751
427,78	0,01908
427,986	0,01989
428,193	0,02023
428,399	0,02072
428,606	0,02102
428,812	0,02202
429,019	0,0217
429,225	0,02218
429,432	0,02204
429,638	0,02104
429,845	0,02128
430,051	0,02212
430,257	0,02122
430,464	0,02123
430,67	0,02095
430,876	0,02102
431,083	0,02099
431,289	0,02164
431,495	0,02168
431,702	0,02174
431,908	0,02154
432,114	0,02114
432,32	0,02028
432,527	0,02101
432,733	0,02113
432,939	0,02114
433,145	0,0207
433,351	0,02032
433,558	0,02073
433,764	0,02129
433,97	0,02147
434,176	0,02145
434,382	0,02269
434,588	0,02302
434,794	0,02217
435,001	0,02288
435,207	0,02267
435,413	0,02238
435,619	0,02232
435,825	0,02012
436,031	0,01954
436,237	0,02035
436,443	0,02157
436,649	0,02181
436,855	0,02175
437,061	0,0232
437,267	0,02281
437,473	0,02311
437,679	0,02448
437,884	0,0234
438,09	0,02422
438,296	0,02322
438,502	0,02184
438,708	0,02215
438,914	0,02097
439,12	0,02065
439,325	0,02075
439,531	0,02117
439,737	0,021
439,943	0,02102
440,149	0,02199
440,354	0,02313
440,56	0,02398
440,766	0,0242
440,972	0,02414
441,177	0,02524
441,383	0,0261
441,589	0,02578
441,794	0,0259
442	0,02572
442,206	0,02614
442,411	0,02529
442,617	0,02505
442,822	0,02583
443,028	0,02561
443,234	0,02581
443,439	0,0259
443,645	0,02613
443,85	0,02674
444,056	0,02725
444,261	0,02866
444,467	0,02823
444,672	0,02917
444,878	0,02881
445,083	0,02859
445,289	0,02957
445,494	0,02921
445,699	0,03039
445,905	0,03042
446,11	0,03032
446,316	0,03035
446,521	0,0295
446,726	0,03037
446,932	0,03079
447,137	0,03163
447,342	0,03132
447,548	0,03015
447,753	0,03043
447,958	0,02946
448,164	0,02928
448,369	0,02875
448,574	0,02772
448,779	0,028
448,984	0,02735
449,19	0,02763
449,395	0,02746
449,6	0,02844
449,805	0,02963
450,01	0,03054
450,215	0,02981
450,421	0,03053
450,626	0,03113
450,831	0,03169
451,036	0,03198
451,241	0,03246
451,446	0,03159
451,651	0,03134
451,856	0,03176
452,061	0,03217
452,266	0,03137
452,471	0,03205
452,676	0,03206
452,881	0,03187
453,086	0,03236
453,291	0,03277
453,496	0,03274
453,701	0,03378
453,906	0,0338
454,111	0,03271
454,316	0,03272
454,52	0,03328
454,725	0,03284
454,93	0,03313
455,135	0,03396
455,34	0,03456
455,545	0,03518
455,749	0,03597
455,954	0,03582
456,159	0,03641
456,364	0,03774
456,568	0,03759
456,773	0,03835
456,978	0,03932
457,182	0,03998
457,387	0,04012
457,592	0,04016
457,796	0,03953
458,001	0,03965
458,206	0,03951
458,41	0,03988
458,615	0,03937
458,82	0,04033
459,024	0,04038
459,229	0,04075
459,433	0,04005
459,638	0,03989
459,842	0,04009
460,047	0,04017
460,251	0,04003
460,456	0,04055
460,66	0,04113
460,865	0,0416
461,069	0,04179
461,274	0,04192
461,478	0,0419
461,682	0,04252
461,887	0,04339
462,091	0,04398
462,296	0,045
462,5	0,0459
462,704	0,04669
462,909	0,04687
463,113	0,04697
463,317	0,04667
463,522	0,04692
463,726	0,04775
463,93	0,04762
464,134	0,04723
464,339	0,04731
464,543	0,0476
464,747	0,04769
464,951	0,0477
465,155	0,0477
465,36	0,04858
465,564	0,04894
465,768	0,04927
465,972	0,04976
466,176	0,05007
466,38	0,05092
466,584	0,05112
466,788	0,05135
466,993	0,05166
467,197	0,05181
467,401	0,0524
467,605	0,05186
467,809	0,05304
468,013	0,05396
468,217	0,05407
468,421	0,0545
468,625	0,05488
468,829	0,05529
469,033	0,0556
469,236	0,05606
469,44	0,05577
469,644	0,0556
469,848	0,05652
470,052	0,05718
470,256	0,05685
470,46	0,05712
470,664	0,05798
470,867	0,05819
471,071	0,05858
471,275	0,05905
471,479	0,05913
471,683	0,05995
471,886	0,06096
472,09	0,06128
472,294	0,06104
472,497	0,06169
472,701	0,06191
472,905	0,06234
473,109	0,06306
473,312	0,0636
473,516	0,06443
473,719	0,06499
473,923	0,06586
474,127	0,06637
474,33	0,06689
474,534	0,06743
474,737	0,06794
474,941	0,06866
475,145	0,06881
475,348	0,06914
475,552	0,06943
475,755	0,0692
475,959	0,06994
476,162	0,07034
476,366	0,07068
476,569	0,07119
476,772	0,07191
476,976	0,07222
477,179	0,07273
477,383	0,07341
477,586	0,0735
477,789	0,07424
477,993	0,07517
478,196	0,07548
478,399	0,07629
478,603	0,07705
478,806	0,07764
479,009	0,07743
479,213	0,07765
479,416	0,07787
479,619	0,07886
479,822	0,08007
480,026	0,08099
480,229	0,08127
480,432	0,08215
480,635	0,08243
480,838	0,08272
481,041	0,08303
481,245	0,08395
481,448	0,08459
481,651	0,08567
481,854	0,08608
482,057	0,08605
482,26	0,08632
482,463	0,08705
482,666	0,08758
482,869	0,08816
483,072	0,08892
483,275	0,08957
483,478	0,08995
483,681	0,09113
483,884	0,09135
484,087	0,09172
484,29	0,09311
484,493	0,09379
484,696	0,09465
484,899	0,09505
485,102	0,09594
485,305	0,09646
485,508	0,09749
485,71	0,09847
485,913	0,09882
486,116	0,09982
486,319	0,10081
486,522	0,10111
486,725	0,10188
486,927	0,10258
487,13	0,10326
487,333	0,10402
487,536	0,10465
487,738	0,10529
487,941	0,10584
488,144	0,10665
488,346	0,10707
488,549	0,10724
488,752	0,10818
488,954	0,10897
489,157	0,10949
489,359	0,11025
489,562	0,11069
489,765	0,11162
489,967	0,11265
490,17	0,11345
490,372	0,11429
490,575	0,11498
490,777	0,11599
490,98	0,11638
491,182	0,11687
491,385	0,11771
491,587	0,11847
491,79	0,11931
491,992	0,11981
492,195	0,12024
492,397	0,12109
492,599	0,12162
492,802	0,12236
493,004	0,12332
493,207	0,1242
493,409	0,12486
493,611	0,12554
493,814	0,12646
494,016	0,1272
494,218	0,12801
494,42	0,12882
494,623	0,12988
494,825	0,13099
495,027	0,13176
495,229	0,13252
495,432	0,13314
495,634	0,13428
495,836	0,13543
496,038	0,13616
496,24	0,13704
496,442	0,13794
496,645	0,13877
496,847	0,1394
497,049	0,1402
497,251	0,14129
497,453	0,14216
497,655	0,14326
497,857	0,14397
498,059	0,14473
498,261	0,14587
498,463	0,14695
498,665	0,14793
498,867	0,1489
499,069	0,1501
499,271	0,15087
499,473	0,15188
499,675	0,15292
499,877	0,15408
500,079	0,15521
500,281	0,15618
500,482	0,15712
500,684	0,15793
500,886	0,15895
501,088	0,15996
501,29	0,16088
501,492	0,16206
501,693	0,16325
501,895	0,16436
502,097	0,1652
502,299	0,16612
502,5	0,16707
502,702	0,16814
502,904	0,16968
503,106	0,17061
503,307	0,17152
503,509	0,17264
503,711	0,17365
503,912	0,17456
504,114	0,17539
504,315	0,17645
504,517	0,1777
504,719	0,17872
504,92	0,17974
505,122	0,18055
505,323	0,18175
505,525	0,18294
505,726	0,18404
505,928	0,1853
506,129	0,18638
506,331	0,18747
506,532	0,18875
506,734	0,18986
506,935	0,19128
507,137	0,19218
507,338	0,1932
507,539	0,19426
507,741	0,19568
507,942	0,19665
508,143	0,19776
508,345	0,19907
508,546	0,20017
508,747	0,20154
508,949	0,20306
509,15	0,20391
509,351	0,20517
509,553	0,20628
509,754	0,20783
509,955	0,20891
510,156	0,21039
510,357	0,21169
510,559	0,21286
510,76	0,2142
510,961	0,21529
511,162	0,21611
511,363	0,21748
511,564	0,21864
511,766	0,21999
511,967	0,22121
512,168	0,22257
512,369	0,22389
512,57	0,22515
512,771	0,22653
512,972	0,22797
513,173	0,22963
513,374	0,23115
513,575	0,23266
513,776	0,2343
513,977	0,2355
514,178	0,23694
514,379	0,23811
514,58	0,23937
514,781	0,24078
514,981	0,24214
515,182	0,24325
515,383	0,24434
515,584	0,2457
515,785	0,24699
515,986	0,24827
516,187	0,24987
516,387	0,25086
516,588	0,25267
516,789	0,25405
516,99	0,2556
517,19	0,25705
517,391	0,2587
517,592	0,26023
517,793	0,26159
517,993	0,2633
518,194	0,26481
518,395	0,26631
518,595	0,26798
518,796	0,26911
518,996	0,27049
519,197	0,27174
519,398	0,27311
519,598	0,27468
519,799	0,27604
519,999	0,27748
520,2	0,27852
520,4	0,27983
520,601	0,28128
520,801	0,283
521,002	0,28464
521,202	0,28602
521,403	0,28753
521,603	0,28881
521,804	0,29011
522,004	0,29175
522,204	0,29315
522,405	0,2946
522,605	0,29601
522,806	0,29741
523,006	0,29866
523,206	0,29993
523,407	0,30149
523,607	0,30292
523,807	0,30453
524,007	0,30578
524,208	0,30702
524,408	0,3084
524,608	0,31012
524,808	0,31167
525,009	0,31309
525,209	0,31434
525,409	0,31605
525,609	0,31711
525,809	0,31854
526,009	0,31982
526,209	0,32138
526,41	0,32268
526,61	0,32439
526,81	0,32568
527,01	0,32713
527,21	0,32842
527,41	0,32987
527,61	0,33106
527,81	0,33269
528,01	0,33408
528,21	0,33565
528,41	0,33697
528,61	0,33848
528,81	0,33961
529,01	0,34079
529,21	0,34201
529,41	0,34313
529,609	0,34432
529,809	0,34551
530,009	0,34678
530,209	0,34807
530,409	0,34929
530,609	0,35065
530,808	0,35193
531,008	0,35346
531,208	0,35479
531,408	0,35603
531,608	0,35754
531,807	0,35886
532,007	0,36019
532,207	0,36133
532,406	0,36249
532,606	0,3637
532,806	0,36502
533,005	0,36612
533,205	0,36713
533,405	0,36841
533,604	0,36964
533,804	0,3708
534,003	0,37209
534,203	0,37304
534,403	0,37412
534,602	0,37506
534,802	0,37606
535,001	0,377
535,201	0,37788
535,4	0,37879
535,6	0,37988
535,799	0,38105
535,998	0,38211
536,198	0,38294
536,397	0,38424
536,597	0,38545
536,796	0,38679
536,995	0,38785
537,195	0,3889
537,394	0,38996
537,594	0,39102
537,793	0,39182
537,992	0,39289
538,191	0,39402
538,391	0,39503
538,59	0,39586
538,789	0,39703
538,988	0,3977
539,188	0,39866
539,387	0,39983
539,586	0,401
539,785	0,40205
539,984	0,40309
540,184	0,40382
540,383	0,40467
540,582	0,40574
540,781	0,40666
540,98	0,40744
541,179	0,4085
541,378	0,4094
541,577	0,41002
541,776	0,41076
541,975	0,41146
542,174	0,41207
542,373	0,41288
542,572	0,4135
542,771	0,41428
542,97	0,41512
543,169	0,41585
543,368	0,41651
543,567	0,41711
543,766	0,41795
543,965	0,41864
544,164	0,41937
544,362	0,42045
544,561	0,42132
544,76	0,42245
544,959	0,42316
545,158	0,4239
545,356	0,42453
545,555	0,42534
545,754	0,42615
545,953	0,42662
546,151	0,42725
546,35	0,42792
546,549	0,42828
546,748	0,42869
546,946	0,42871
547,145	0,42921
547,344	0,42944
547,542	0,42973
547,741	0,4301
547,939	0,43045
548,138	0,43078
548,337	0,43131
548,535	0,43168
548,734	0,43194
548,932	0,4324
549,131	0,43269
549,329	0,43307
549,528	0,43348
549,726	0,43405
549,925	0,43461
550,123	0,43517
550,322	0,43581
550,52	0,43613
550,718	0,43651
550,917	0,43719
551,115	0,43762
551,313	0,43839
551,512	0,43876
551,71	0,43939
551,908	0,43973
552,107	0,44033
552,305	0,44071
552,503	0,44116
552,702	0,44144
552,9	0,4419
553,098	0,44248
553,296	0,4429
553,495	0,44334
553,693	0,44388
553,891	0,44419
554,089	0,44468
554,287	0,44495
554,485	0,44539
554,683	0,44567
554,882	0,44633
555,08	0,44688
555,278	0,44724
555,476	0,44751
555,674	0,44785
555,872	0,44817
556,07	0,44875
556,268	0,44936
556,466	0,44976
556,664	0,45025
556,862	0,45095
557,06	0,45156
557,258	0,45223
557,456	0,45267
557,654	0,45327
557,851	0,45367
558,049	0,45419
558,247	0,45476
558,445	0,45548
558,643	0,45599
558,841	0,45655
559,039	0,45708
559,236	0,45759
559,434	0,45787
559,632	0,45856
559,83	0,45945
560,027	0,46034
560,225	0,46122
560,423	0,46172
560,62	0,46216
560,818	0,46263
561,016	0,4635
561,213	0,46419
561,411	0,46485
561,609	0,46572
561,806	0,46642
562,004	0,46689
562,202	0,46765
562,399	0,46825
562,597	0,46918
562,794	0,46982
562,992	0,47061
563,189	0,47137
563,387	0,47226
563,584	0,47327
563,782	0,47402
563,979	0,47487
564,177	0,47601
564,374	0,47683
564,571	0,47779
564,769	0,47856
564,966	0,47962
565,164	0,48079
565,361	0,48147
565,558	0,48234
565,756	0,48306
565,953	0,48408
566,15	0,4851
566,347	0,48588
566,545	0,48691
566,742	0,48789
566,939	0,48888
567,136	0,48967
567,334	0,49076
567,531	0,49198
567,728	0,49309
567,925	0,49431
568,122	0,49541
568,319	0,49654
568,517	0,49759
568,714	0,49851
568,911	0,49968
569,108	0,50083
569,305	0,50221
569,502	0,50323
569,699	0,50436
569,896	0,50564
570,093	0,50687
570,29	0,50802
570,487	0,50914
570,684	0,51084
570,881	0,51238
571,078	0,5136
571,275	0,51503
571,472	0,51628
571,669	0,51748
571,866	0,51899
572,062	0,52008
572,259	0,52138
572,456	0,52256
572,653	0,52398
572,85	0,5251
573,047	0,52625
573,243	0,52748
573,44	0,52853
573,637	0,52993
573,834	0,5314
574,03	0,53276
574,227	0,53419
574,424	0,53555
574,62	0,53732
574,817	0,53864
575,014	0,53997
575,21	0,54139
575,407	0,54302
575,604	0,54449
575,8	0,54618
575,997	0,54769
576,193	0,54888
576,39	0,55052
576,586	0,55206
576,783	0,55345
576,979	0,55488
577,176	0,5565
577,372	0,55804
577,569	0,55958
577,765	0,56115
577,962	0,56242
578,158	0,56401
578,355	0,56554
578,551	0,56696
578,747	0,5683
578,944	0,56955
579,14	0,57108
579,336	0,57236
579,533	0,57395
579,729	0,57528
579,925	0,57689
580,122	0,57821
580,318	0,57948
580,514	0,58088
580,71	0,58208
580,906	0,58361
581,103	0,5851
581,299	0,58641
581,495	0,58764
581,691	0,58887
581,887	0,59027
582,084	0,59146
582,28	0,59278
582,476	0,59423
582,672	0,59534
582,868	0,59633
583,064	0,59745
583,26	0,59856
583,456	0,59948
583,652	0,60022
583,848	0,60128
584,044	0,6019
584,24	0,60283
584,436	0,60369
584,632	0,60417
584,828	0,60481
585,024	0,60565
585,22	0,60636
585,416	0,60688
585,611	0,60765
585,807	0,60852
586,003	0,60938
586,199	0,61021
586,395	0,61089
586,591	0,61145
586,786	0,61225
586,982	0,61315
587,178	0,61378
587,374	0,61397
587,569	0,61448
587,765	0,61474
587,961	0,61523
588,156	0,6152
588,352	0,61533
588,548	0,61526
588,743	0,61522
588,939	0,61516
589,135	0,61524
589,33	0,61513
589,526	0,6152
589,721	0,61512
589,917	0,61503
590,112	0,61495
590,308	0,61462
590,503	0,61452
590,699	0,61425
590,894	0,61423
591,09	0,61393
591,285	0,61339
591,481	0,61301
591,676	0,61263
591,872	0,61187
592,067	0,61109
592,262	0,61019
592,458	0,60926
592,653	0,60842
592,848	0,60768
593,044	0,60674
593,239	0,60569
593,434	0,60453
593,629	0,60335
593,825	0,60188
594,02	0,60071
594,215	0,59964
594,41	0,59847
594,606	0,5973
594,801	0,59597
594,996	0,5945
595,191	0,5929
595,386	0,59117
595,581	0,58969
595,777	0,58824
595,972	0,58672
596,167	0,585
596,362	0,58309
596,557	0,58131
596,752	0,57977
596,947	0,57781
597,142	0,57592
597,337	0,57402
597,532	0,57225
597,727	0,57018
597,922	0,56802
598,117	0,56586
598,312	0,56402
598,507	0,56215
598,701	0,5598
598,896	0,55738
599,091	0,55488
599,286	0,55244
599,481	0,54977
599,676	0,54733
599,87	0,54474
600,065	0,54211
600,26	0,53948
600,455	0,53655
600,65	0,53364
600,844	0,5307
601,039	0,5278
601,234	0,52515
601,428	0,52239
601,623	0,51957
601,818	0,51672
602,012	0,514
602,207	0,5109
602,402	0,50803
602,596	0,505
602,791	0,50202
602,985	0,49919
603,18	0,49611
603,374	0,49276
603,569	0,48943
603,763	0,48629
603,958	0,48318
604,152	0,48001
604,347	0,47694
604,541	0,47354
604,736	0,47029
604,93	0,46688
605,125	0,46332
605,319	0,45995
605,513	0,45665
605,708	0,45343
605,902	0,45012
606,096	0,44659
606,291	0,44299
606,485	0,43952
606,679	0,43614
606,874	0,43283
607,068	0,42957
607,262	0,42627
607,456	0,42292
607,65	0,41951
607,845	0,41614
608,039	0,41261
608,233	0,40907
608,427	0,40574
608,621	0,4024
608,815	0,3989
609,01	0,39539
609,204	0,39189
609,398	0,38862
609,592	0,38524
609,786	0,382
609,98	0,37859
610,174	0,37527
610,368	0,37205
610,562	0,36876
610,756	0,36525
610,95	0,36204
611,144	0,35864
611,338	0,3553
611,532	0,35168
611,726	0,34819
611,919	0,34456
612,113	0,34114
612,307	0,33779
612,501	0,33429
612,695	0,33075
612,889	0,32731
613,082	0,32386
613,276	0,32054
613,47	0,31738
613,664	0,31419
613,857	0,3108
614,051	0,30765
614,245	0,30431
614,439	0,30081
614,632	0,29775
614,826	0,29454
615,02	0,29148
615,213	0,28851
615,407	0,28546
615,6	0,28219
615,794	0,279
615,988	0,27605
616,181	0,27283
616,375	0,26976
616,568	0,26671
616,762	0,26361
616,955	0,26047
617,149	0,25745
617,342	0,25426
617,536	0,25132
617,729	0,24843
617,923	0,24571
618,116	0,24268
618,309	0,23985
618,503	0,23711
618,696	0,23436
618,889	0,23156
619,083	0,22877
619,276	0,22599
619,469	0,22325
619,663	0,22045
619,856	0,21774
620,049	0,21499
620,242	0,2124
620,436	0,20982
620,629	0,20727
620,822	0,20469
621,015	0,20202
621,209	0,19977
621,402	0,19725
621,595	0,19477
621,788	0,1925
621,981	0,19007
622,174	0,18765
622,367	0,18537
622,56	0,18296
622,753	0,18062
622,946	0,17826
623,139	0,17601
623,332	0,17368
623,525	0,17139
623,718	0,16916
623,911	0,16689
624,104	0,16464
624,297	0,16237
624,49	0,16029
624,683	0,15826
624,876	0,15616
625,069	0,15414
625,262	0,15214
625,454	0,15008
625,647	0,14822
625,84	0,14622
626,033	0,14428
626,226	0,14236
626,418	0,14057
626,611	0,13872
626,804	0,13671
626,997	0,13482
627,189	0,13307
627,382	0,13125
627,575	0,12959
627,767	0,12784
627,96	0,12628
628,153	0,12444
628,345	0,12283
628,538	0,12114
628,731	0,11938
628,923	0,11786
629,116	0,11637
629,308	0,11468
629,501	0,11311
629,693	0,11155
629,886	0,11002
630,078	0,1083
630,271	0,10694
630,463	0,10541
630,656	0,10393
630,848	0,10248
631,04	0,10108
631,233	0,0996
631,425	0,09838
631,617	0,09703
631,81	0,09554
632,002	0,09411
632,194	0,09283
632,387	0,09145
632,579	0,09014
632,771	0,08883
632,964	0,08758
633,156	0,08625
633,348	0,08501
633,54	0,08374
633,732	0,08246
633,925	0,08135
634,117	0,08036
634,309	0,07931
634,501	0,07818
634,693	0,07701
634,885	0,07599
635,077	0,07502
635,269	0,07396
635,462	0,07292
635,654	0,0719
635,846	0,07106
636,038	0,07003
636,23	0,06903
636,422	0,06805
636,614	0,06708
636,806	0,06628
636,997	0,0653
637,189	0,06432
637,381	0,06338
637,573	0,0625
637,765	0,0616
637,957	0,06065
638,149	0,05976
638,341	0,05887
638,532	0,05798
638,724	0,05719
638,916	0,05641
639,108	0,05561
639,299	0,05479
639,491	0,05401
639,683	0,0533
639,875	0,05268
640,066	0,05198
640,258	0,05128
640,45	0,05052
640,641	0,04991
640,833	0,04923
641,025	0,04854
641,216	0,04783
641,408	0,04723
641,599	0,04661
641,791	0,04603
641,982	0,0452
642,174	0,04452
642,366	0,0439
642,557	0,04321
642,748	0,04244
642,94	0,04192
643,131	0,04119
643,323	0,04067
643,514	0,04007
643,706	0,03959
643,897	0,039
644,088	0,03855
644,28	0,03804
644,471	0,03752
644,662	0,0371
644,854	0,03674
645,045	0,03627
645,236	0,03577
645,428	0,03524
645,619	0,0347
645,81	0,03431
646,001	0,03372
646,193	0,03329
646,384	0,03282
646,575	0,03236
646,766	0,03195
646,957	0,03146
647,148	0,0309
647,339	0,0306
647,531	0,03031
647,722	0,02989
647,913	0,02933
648,104	0,029
648,295	0,02861
648,486	0,02821
648,677	0,02777
648,868	0,02736
649,059	0,02702
649,25	0,02673
649,441	0,02638
649,632	0,02595
649,823	0,02571
650,013	0,02541
650,204	0,02505
650,395	0,02465
650,586	0,02442
650,777	0,02418
650,968	0,02386
651,159	0,02362
651,349	0,02321
651,54	0,02284
651,731	0,02251
651,922	0,02223
652,112	0,02196
652,303	0,02173
652,494	0,02148
652,684	0,02112
652,875	0,02088
653,066	0,02065
653,256	0,02034
653,447	0,02014
653,638	0,01983
653,828	0,01966
654,019	0,01938
654,209	0,0191
654,4	0,01888
654,59	0,0187
654,781	0,01852
654,972	0,01825
655,162	0,01802
655,352	0,01774
655,543	0,01751
655,733	0,01742
655,924	0,01728
656,114	0,01699
656,305	0,01684
656,495	0,01663
656,685	0,01638
656,876	0,01615
657,066	0,016
657,256	0,01584
657,447	0,01574
657,637	0,01561
657,827	0,01537
658,017	0,01515
658,208	0,01502
658,398	0,01477
658,588	0,01459
658,778	0,01446
658,968	0,01427
659,159	0,01406
659,349	0,0139
659,539	0,01363
659,729	0,01351
659,919	0,01341
660,109	0,01323
660,299	0,01315
660,489	0,01317
660,679	0,01297
660,869	0,01278
661,059	0,01268
661,249	0,01257
661,439	0,01235
661,629	0,01221
661,819	0,01199
662,009	0,01184
662,199	0,01167
662,389	0,01153
662,579	0,01135
662,769	0,01127
662,959	0,01128
663,149	0,0112
663,338	0,0111
663,528	0,01103
663,718	0,01098
663,908	0,01082
664,097	0,01068
664,287	0,01058
664,477	0,01044
664,667	0,0102
664,856	0,01005
665,046	0,00981
665,236	0,00972
665,425	0,00957
665,615	0,00951
665,805	0,0095
665,994	0,00956
666,184	0,00944
666,373	0,00939
666,563	0,00934
666,753	0,00935
666,942	0,00925
667,132	0,00913
667,321	0,009
667,511	0,00896
667,7	0,00888
667,889	0,00862
668,079	0,00846
668,268	0,00848
668,458	0,00829
668,647	0,00824
668,836	0,00809
669,026	0,00803
669,215	0,00796
669,404	0,00795
669,594	0,00781
669,783	0,00774
669,972	0,00777
670,162	0,00763
670,351	0,00742
670,54	0,00731
670,729	0,00715
670,919	0,00707
671,108	0,00705
671,297	0,00698
671,486	0,00687
671,675	0,00685
671,864	0,00683
672,053	0,00677
672,243	0,00682
672,432	0,00684
672,621	0,00687
672,81	0,00684
672,999	0,00679
673,188	0,00685
673,377	0,00691
673,566	0,00681
673,755	0,00678
673,944	0,00662
674,133	0,00646
674,322	0,00641
674,51	0,00645
674,699	0,00641
674,888	0,00638
675,077	0,0063
675,266	0,00616
675,455	0,00607
675,644	0,0061
675,832	0,00599
676,021	0,00595
676,21	0,00601
676,399	0,00588
676,587	0,00569
676,776	0,00565
676,965	0,00561
677,153	0,00562
677,342	0,00559
677,531	0,00562
677,719	0,00548
677,908	0,00553
678,097	0,00554
678,285	0,00549
678,474	0,00557
678,662	0,00563
678,851	0,00557
679,039	0,00549
679,228	0,00553
679,416	0,00551
679,605	0,00539
679,793	0,00546
679,982	0,00541
680,17	0,00533
680,359	0,00529
680,547	0,00518
680,736	0,00511
680,924	0,00523
681,112	0,00523
681,301	0,00521
681,489	0,00515
681,677	0,00508
681,866	0,00498
682,054	0,00494
682,242	0,00489
682,43	0,00493
682,619	0,00484
682,807	0,00479
682,995	0,00457
683,183	0,00452
683,371	0,00448
683,559	0,00444
683,748	0,00449
683,936	0,00452
684,124	0,00456
684,312	0,00451
684,5	0,00435
684,688	0,00448
684,876	0,00443
685,064	0,00443
685,252	0,00449
685,44	0,00448
685,628	0,00451
685,816	0,00451
686,004	0,00444
686,192	0,00433
686,38	0,00435
686,568	0,00438
686,756	0,00424
686,944	0,00428
687,131	0,0043
687,319	0,00432
687,507	0,00423
687,695	0,00401
687,883	0,0039
688,07	0,00388
688,258	0,00393
688,446	0,00395
688,634	0,00401
688,821	0,00401
689,009	0,00398
689,197	0,00398
689,384	0,00383
689,572	0,00376
689,76	0,00393
689,947	0,0039
690,135	0,00391
690,323	0,00391
690,51	0,00387
690,698	0,00381
690,885	0,00387
691,073	0,00394
691,26	0,00388
691,448	0,00389
691,635	0,00395
691,823	0,00385
692,01	0,0038
692,197	0,00368
692,385	0,00362
692,572	0,00365
692,76	0,00371
692,947	0,00367
693,134	0,00363
693,322	0,00352
693,509	0,00345
693,696	0,00334
693,884	0,00326
694,071	0,00331
694,258	0,00335
694,445	0,0033
694,633	0,0033
694,82	0,00312
695,007	0,00307
695,194	0,00313
695,381	0,00315
695,568	0,00312
695,756	0,00317
695,943	0,00325
696,13	0,00316
696,317	0,00318
696,504	0,00315
696,691	0,00308
696,878	0,00315
697,065	0,00313
697,252	0,00308
697,439	0,00315
697,626	0,00325
697,813	0,00322
698	0,00314
698,187	0,00315
698,374	0,00313
698,561	0,00315
698,747	0,00308
698,934	0,00305
699,121	0,00305
699,308	0,00293
699,495	0,00292
699,682	0,00292
699,868	0,0028
700,055	0,00273
700,242	0,00268
700,429	0,00262
700,615	0,00257
700,802	0,00252
700,989	0,00251
701,175	0,00243
701,362	0,00244
701,549	0,00238
701,735	0,00237
701,922	0,00249
702,108	0,00262
702,295	0,00261
702,482	0,00264
702,668	0,00275
702,855	0,00275
703,041	0,00276
703,228	0,00276
703,414	0,00281
703,601	0,00284
703,787	0,00279
703,973	0,0027
704,16	0,00258
704,346	0,00261
704,533	0,00261
704,719	0,00248
704,905	0,00246
705,092	0,00241
705,278	0,00245
705,464	0,00243
705,65	0,00249
705,837	0,00245
706,023	0,0025
706,209	0,00263
706,395	0,0027
706,582	0,00263
706,768	0,00267
706,954	0,00278
707,14	0,00269
707,326	0,00267
707,512	0,00264
707,698	0,00258
707,885	0,00253
708,071	0,00243
708,257	0,0023
708,443	0,00226
708,629	0,00231
708,815	0,00228
709,001	0,00225
709,187	0,00229
709,373	0,00232
709,559	0,00227
709,745	0,0022
709,93	0,00222
710,116	0,00229
710,302	0,00239
710,488	0,00249
710,674	0,00245
710,86	0,00233
711,046	0,00238
711,231	0,00241
711,417	0,00239
711,603	0,00235
711,789	0,00235
711,974	0,00234
712,16	0,00226
712,346	0,00223
712,532	0,00213
712,717	0,00213
712,903	0,00215
713,089	0,0021
713,274	0,00212
713,46	0,00205
713,645	0,00209
713,831	0,00219
714,016	0,00221
714,202	0,0023
714,388	0,00235
714,573	0,00227
714,759	0,00227
714,944	0,00232
715,129	0,00222
715,315	0,00224
715,5	0,00219
715,686	0,00216
715,871	0,00212
716,057	0,00207
716,242	0,00212
716,427	0,00203
716,613	0,00211
716,798	0,00208
716,983	0,00204
717,168	0,00207
717,354	0,00214
717,539	0,00219
717,724	0,00222
717,909	0,00219
718,095	0,00222
718,28	0,00201
718,465	0,00197
718,65	0,00194
718,835	0,00183
719,02	0,00184
719,206	0,00191
719,391	0,00184
719,576	0,00169
719,761	0,00166
719,946	0,00165
720,131	0,00167
720,316	0,00175
720,501	0,00178
720,686	0,00186
720,871	0,00204
721,056	0,00208
721,241	0,00203
721,426	0,00197
721,61	0,00214
721,795	0,00219
721,98	0,00217
722,165	0,0022
722,35	0,00232
722,535	0,00229
722,719	0,00213
722,904	0,00204
723,089	0,002
723,274	0,00201
723,458	0,0019
723,643	0,00185
723,828	0,00176
724,013	0,00172
724,197	0,0017
724,382	0,0016
724,567	0,00156
724,751	0,00158
724,936	0,00159
725,12	0,00162
725,305	0,00167
725,489	0,00179
725,674	0,00174
725,859	0,00183
726,043	0,00186
726,228	0,00182
726,412	0,00181
726,596	0,00187
726,781	0,00195
726,965	0,00194
727,15	0,00198
727,334	0,00196
727,518	0,00188
727,703	0,00197
727,887	0,00187
728,072	0,0019
728,256	0,00186
728,44	0,00183
728,624	0,00183
728,809	0,00168
728,993	0,00176
729,177	0,00159
729,361	0,00159
729,546	0,00158
729,73	0,00152
729,914	0,00142
730,098	0,00142
730,282	0,00141
730,466	0,00144
730,65	0,00141
730,834	0,0015
731,019	0,0014
731,203	0,00138
731,387	0,0013
731,571	0,00129
731,755	0,00128
731,939	0,0013
732,123	0,00118
732,306	0,00115
732,49	0,00117
732,674	0,00121
732,858	0,00125
733,042	0,0012
733,226	0,00141
733,41	0,00145
733,594	0,00149
733,778	0,0015
733,961	0,00169
734,145	0,00178
734,329	0,00192
734,513	0,00195
734,696	0,00186
734,88	0,00178
735,064	0,00179
735,247	0,00168
735,431	0,00167
735,615	0,00165
735,798	0,00167
735,982	0,00166
736,166	0,00169
736,349	0,00165
736,533	0,00163
736,716	0,00166
736,9	0,00154
737,083	0,00153
737,267	0,00148
737,45	0,00144
737,634	0,0015
737,817	0,00151
738,001	0,00143
738,184	0,00135
738,368	0,00127
738,551	0,00123
738,734	0,00119
738,918	0,00138
739,101	0,00154
739,284	0,00148
739,468	0,00148
739,651	0,00145
739,834	0,00137
740,018	0,00132
740,201	0,00134
740,384	0,00137
740,567	0,00133
740,75	0,00133
740,934	0,00119
741,117	0,00108
741,3	0,00123
741,483	0,0012
741,666	0,00118
741,849	0,00122
742,032	0,00138
742,215	0,00143
742,399	0,00143
742,582	0,00143
742,765	0,00151
742,948	0,00161
743,131	0,0017
743,314	0,0016
743,496	0,00158
743,679	0,00163
743,862	0,00173
744,045	0,00161
744,228	0,00152
744,411	0,0015
744,594	0,00147
744,777	0,00144
744,959	0,00148
745,142	0,00151
745,325	0,00151
745,508	0,00146
745,691	0,00146
745,873	0,00135
746,056	0,00139
746,239	0,00134
746,421	0,00136
746,604	0,00145
746,787	0,00147
746,969	0,00138
747,152	0,00122
747,335	0,00122
747,517	0,00128
747,7	0,00128
747,882	0,0013
748,065	0,00116
748,247	0,00126
748,43	0,00116
748,612	0,00112
748,795	0,00116
748,977	0,00118
749,16	0,00116
749,342	0,0012
749,524	0,00127
749,707	0,00119
749,889	0,00118
750,072	0,00117
750,254	0,00112
750,436	0,00112
750,619	0,00118
750,801	0,00106
750,983	0,00109
751,165	0,00113
751,348	0,00113
751,53	0,00107
751,712	0,0011
751,894	0,00112
752,076	0,00129
752,259	0,00134
752,441	0,00136
752,623	0,00137
752,805	0,00136
752,987	0,00127
753,169	0,00128
753,351	0,00118
753,533	0,00111
753,715	0,00109
753,897	0,00098
754,079	0,00086
754,261	0,00077
754,443	0,00076
754,625	0,00068
754,807	0,0008
754,989	0,00086
755,171	0,00088
755,353	0,00098
755,534	0,00102
755,716	0,00105
755,898	0,00105
756,08	0,00112
756,262	0,00116
756,443	0,00104
756,625	0,00108
756,807	0,00095
756,989	0,00086
757,17	0,00081
757,352	0,00075
757,534	0,00084
757,715	0,00087
757,897	0,00088
758,079	0,00086
758,26	0,00083
758,442	0,00102
758,623	0,00097
758,805	0,00101
758,987	0,00104
759,168	0,00099
759,35	0,00097
759,531	0,00088
759,713	0,00083
759,894	0,00082
760,075	0,00074
760,257	0,00067
760,438	0,00061
760,62	0,00053
760,801	0,00053
760,982	0,00055
761,164	0,0005
761,345	0,00054
761,526	0,00056
761,708	0,00059
761,889	0,00072
762,07	0,00083
762,251	0,00101
762,433	0,00105
762,614	0,00112
762,795	0,00108
762,976	0,00108
763,157	0,00119
763,338	0,00114
763,52	0,00116
763,701	0,00107
763,882	0,00096
764,063	0,00096
764,244	0,0009
764,425	0,00088
764,606	0,00084
764,787	0,00093
764,968	0,00089
765,149	0,00087
765,33	0,00084
765,511	0,00079
765,692	0,00079
765,873	0,00089
766,053	0,00079
766,234	0,00076
766,415	0,00074
766,596	0,00075
766,777	0,00063
766,958	0,00056
767,138	0,00058
767,319	0,00063
767,5	0,00068
767,681	0,00066
767,861	0,00072
768,042	0,00064
768,223	0,00066
768,403	0,00063
768,584	0,00072
768,765	0,00072
768,945	0,00076
769,126	0,0007
769,307	0,00072
769,487	0,00074
769,668	0,00079
769,848	0,00062
770,029	0,0008
770,209	0,0007
770,39	0,00075
770,57	0,00075
770,751	0,0008
770,931	0,00089
771,111	0,00082
771,292	0,00076
771,472	0,00061
771,653	0,00058
771,833	0,00064
772,013	0,00061
772,194	0,00073
772,374	0,00063
772,554	0,00058
772,734	0,00057
772,915	0,00058
773,095	0,00069
773,275	0,00076
773,455	0,00088
773,635	0,00089
773,816	0,00083
773,996	0,00088
774,176	0,00097
774,356	0,00101
774,536	0,00093
774,716	0,00093
774,896	0,00083
775,076	0,0007
775,256	0,00062
775,436	0,00067
775,616	0,00076
775,796	0,0009
775,976	0,00091
776,156	0,00084
776,336	0,00094
776,516	0,00102
776,696	0,00093
776,876	0,00098
777,056	0,00103
777,235	0,00102
777,415	0,00105
777,595	0,00093
777,775	0,00083
777,955	0,00068
778,134	0,00052
778,314	0,00051
778,494	0,00039
778,674	0,00053
778,853	0,00054
779,033	0,00062
779,213	0,00061
779,392	0,00051
779,572	0,00055
779,751	0,00039
779,931	0,00033
780,111	0,00039
780,29	0,00031
780,47	0,00036
780,649	0,00022
780,829	0,0002
781,008	0,00018
781,188	0,00031
781,367	0,00042
781,546	0,00043
781,726	0,00059
781,905	0,00074
782,085	0,00065
782,264	0,00073
782,443	0,00075
782,623	0,00081
782,802	0,0009
782,981	0,00088
783,161	0,00084
783,34	0,00077
783,519	0,00068
783,698	0,00063
783,878	0,00058
784,057	0,00074
784,236	0,00075
784,415	0,00074
784,594	0,00087
784,773	0,0008
784,952	0,00087
785,132	0,00068
785,311	0,00088
785,49	0,00088
785,669	0,00089
785,848	0,00094
786,027	0,00077
786,206	0,00076
786,385	0,00073
786,564	0,00064
786,743	0,00076
786,922	0,00069
787,1	0,00082
787,279	0,0007
787,458	0,00074
787,637	0,00075
787,816	0,00087
787,995	0,00088
788,174	0,00089
788,352	0,00096
788,531	0,00093
788,71	0,00078
788,889	0,00076
789,067	0,00068
789,246	0,00055
789,425	0,0006
789,603	0,00054
789,782	0,00032
789,961	0,00039
790,139	0,00042
790,318	0,00037
790,496	0,00041
790,675	0,00063
790,853	0,00063
791,032	0,00065
791,211	0,00076
791,389	0,00075
791,568	0,00095
791,746	0,00111
791,924	0,00121
792,103	0,00119
792,281	0,0012
792,46	0,00129
792,638	0,00108
792,816	0,00115
792,995	0,00127
793,173	0,00113
793,351	0,00107
793,53	0,00107
793,708	0,00092
793,886	0,0009
794,064	0,00083
794,243	0,00092
794,421	0,00076
794,599	0,00085
794,777	0,00082
794,955	0,00075
795,133	0,00082
795,312	0,00086
795,49	0,00074
795,668	0,00071
795,846	0,00071
796,024	0,00072
796,202	0,00055
796,38	0,00059
796,558	0,00039
796,736	0,00037
796,914	0,00038
797,092	0,00035
797,27	0,00032
797,448	0,00026
797,626	0,00029
797,803	0,00021
797,981	0,00012
798,159	0,00017
798,337	0,00013
798,515	0,00017
798,693	0,00021
798,87	0,00012
799,048	0,00016
799,226	0,00017
799,404	0,00016
799,581	0,00018
799,759	0,00015
799,937	0,00018
800,114	0,00019
800,292	0,0002
800,469	0,00034
800,647	0,00028
800,825	0,00032
801,002	0,0002
801,18	0,0001
801,357	0,00021
801,535	0,0003
801,712	0,00036
801,89	0,0005
802,067	0,0005
802,245	0,00039
802,422	0,00025
802,6	0,00026
802,777	0,00035
802,954	0,00047
803,132	0,00059
803,309	0,00043
803,486	0,00037
803,664	0,00037
803,841	0,00042
804,018	0,00045
804,195	0,00061
804,373	0,0006
804,55	0,00065
804,727	0,00051
804,904	0,00046
805,081	0,00048
805,259	0,00055
805,436	0,00035
805,613	0,0003
805,79	0,00017
805,967	0,00014
806,144	0,00005
806,321	0,00005
806,498	0,00009
806,675	0,0003
806,852	0,0003
807,029	0,00026
807,206	0,00031
807,383	0,00047
807,56	0,00058
807,737	0,00051
807,914	0,00054
808,091	0,00069
808,268	0,0009
808,444	0,00095
808,621	0,0008
808,798	0,00056
808,975	0,00058
809,152	0,00056
809,328	0,00055
809,505	0,0005
809,682	0,00056
809,858	0,00046
810,035	0,00036
810,212	0,00024
810,388	0,00015
810,565	0,00048
810,742	0,00084
810,918	0,00077
811,095	0,00078
811,271	0,0008
811,448	0,00086
811,625	0,00075
811,801	0,0009
811,978	0,00096
812,154	0,00087
812,33	0,00088
812,507	0,0007
812,683	0,00063
812,86	0,00074
813,036	0,00082
813,212	0,00077
813,389	0,00072
813,565	0,00076
813,741	0,0008
813,918	0,00085
814,094	0,00093
814,27	0,00089
814,447	0,00087
814,623	0,00088
814,799	0,00088
814,975	0,00087
815,151	0,001
815,328	0,00097
815,504	0,00107
815,68	0,00094
815,856	0,00084
816,032	0,001
816,208	0,00107
816,384	0,00091
816,56	0,00089
816,736	0,00063
816,912	0,00066
817,088	0,00056
817,264	0,00063
817,44	0,00059
817,616	0,00068
817,792	0,0007
817,968	0,0007
818,144	0,00074
818,32	0,00083
818,495	0,00088
818,671	0,00105
818,847	0,00099
819,023	0,00099
819,199	0,00091
819,374	0,00108
819,55	0,00092
819,726	0,001
819,902	0,00089
820,077	0,00087
820,253	0,00093
820,429	0,00089
820,604	0,00109
820,78	0,00103
820,956	0,00111
821,131	0,00105
821,307	0,00086
821,482	0,001
821,658	0,00104
821,833	0,00088
822,009	0,00068
822,184	0,00061
822,36	0,00062
822,535	0,00044
822,711	0,00039
822,886	0,00038
823,061	0,00036
823,237	0,00045
823,412	0,00035
823,587	0,00019
823,763	0,00018
823,938	0,0002
824,113	0,00016
824,289	0,00013
824,464	0,00013
824,639	0,00026
824,814	0,00005
824,99	0,00008
825,165	0,00012
825,34	0,00034
825,515	0,00044
825,69	0,00051
825,865	0,00056
826,04	0,00081
826,215	0,00097
826,39	0,00113
826,566	0,0012
826,741	0,00143
826,916	0,00152
827,091	0,00145
827,265	0,00127
827,44	0,00118
827,615	0,00122
827,79	0,00119
827,965	0,00116
828,14	0,00101
828,315	0,00086
828,49	0,00081
828,665	0,00087
828,839	0,00075
829,014	0,00071
829,189	0,00071
829,364	0,00072
829,538	0,00091
829,713	0,00084
829,888	0,00066
830,063	0,00063
830,237	0,00066
830,412	0,0007
830,587	0,00056
830,761	0,0008
830,936	0,00084
831,11	0,00073
831,285	0,00069
831,459	0,00063
831,634	0,00067
831,809	0,00087
831,983	0,00081
832,157	0,00073
832,332	0,00058
832,506	0,00056
832,681	0,00028
832,855	0,0001
833,03	0,0001
833,204	0,00015
833,378	0,00008
833,553	0,00011
833,727	-0,00005
833,901	0,00003
834,076	0,00027
834,25	0,0002
834,424	0,0003
834,598	0,00055
834,773	0,00072
834,947	0,00092
835,121	0,00079
835,295	0,00082
835,469	0,00092
835,643	0,00087
835,817	0,00073
835,991	0,00043
836,166	0,00066
836,34	0,00065
836,514	0,00032
836,688	0,0004
836,862	0,00036
837,036	0,00034
837,21	0,00033
837,384	0,0002
837,557	0,00026
837,731	0,0004
837,905	0,00057
838,079	0,00043
838,253	0,00028
838,427	0,00051
838,601	0,00023
838,774	0,00005
838,948	0,00018
839,122	0,00022
839,296	0,00053
839,469	0,00049
839,643	0,00031
839,817	0,00027
839,991	0,00018
840,164	0,00045
840,338	0,00032
840,512	0,00062
840,685	0,00072
840,859	0,00064
841,032	0,00041
841,206	0,00017
841,379	0,00012
841,553	0,00047
841,726	0,00052
841,9	0,00073
842,073	0,00056
842,247	0,0007
842,42	0,00061
842,594	0,00068
842,767	0,00084
842,94	0,00095
843,114	0,00116
843,287	0,00131
843,46	0,001
843,634	0,00075
843,807	0,00056
843,98	0,00066
844,154	0,00065
844,327	0,00061
844,5	0,00054
844,673	0,00071
844,846	0,00073
845,02	0,00056
845,193	0,00038
845,366	0,00051
845,539	0,00064
845,712	0,00083
845,885	0,00047
846,058	0,00043
846,231	0,00052
846,404	0,00047
846,577	0,00016
846,75	0,00031
846,923	0,00032
847,096	0,00053
847,269	0,00054
847,442	0,00067
847,615	0,00067
847,788	0,00089
847,961	0,00081
848,133	0,00092
848,306	0,00102
848,479	0,00107
848,652	0,00103
848,825	0,00101
848,997	0,00101
849,17	0,00103
849,343	0,00079
849,515	0,00064
849,688	0,00065
849,861	0,00071
850,033	0,00063
850,206	0,00073
850,379	0,00093
850,551	0,00095
850,724	0,00096
850,896	0,00077
851,069	0,00084
851,241	0,00107
851,414	0,00106
851,586	0,00093
851,759	0,00111
851,931	0,00107
852,104	0,001
852,276	0,00074
852,449	0,00081
852,621	0,00073
852,793	0,00074
852,966	0,00055
853,138	0,00057
853,31	0,00077
853,483	0,00089
853,655	0,00079
853,827	0,00052
853,999	0,00051
854,172	0,00049
854,344	0,00035
854,516	0,00052
854,688	0,00052
854,86	0,00064
855,032	0,00052
855,204	0,0004
855,377	0,00033
855,549	0,00016
855,721	0,00033
855,893	0,00019
856,065	0,00007
856,237	0,00008
856,409	0,0001
856,581	0,00013
856,753	0,00013
856,924	0,00028
857,096	0,00051
857,268	0,00071
857,44	0,00087
857,612	0,00086
857,784	0,0008
857,956	0,00114
858,127	0,00104
858,299	0,00084
858,471	0,00093
858,643	0,00091
858,814	0,00072
858,986	0,00048
859,158	0,00041
859,33	0,00045
859,501	0,00044
859,673	0,00068
859,844	0,00062
860,016	0,00048
860,188	0,00043
860,359	0,00053
860,531	0,00051
860,702	0,00053
860,874	0,00049
861,045	0,00041
861,217	0,00022
861,388	0,00015
861,56	0,00002
861,731	-0,00016
861,902	0,00003
862,074	0,00032
862,245	0,0003
862,417	0,00025
862,588	0,00023
862,759	0,00022
862,931	0,00009
863,102	0,00023
863,273	0,00033
863,444	0,00018
863,616	0,0004
863,787	0,0004
863,958	0,00017
864,129	0,00006
864,3	0,00004
864,471	-0,00006
864,642	0,00006
864,814	0,00011
864,985	-0,00007
865,156	-0,00024
865,327	-0,00019
865,498	0,00005
865,669	-0,00031
865,84	-0,00011
866,011	-0,00009
866,182	0,00011
866,353	0,00028
866,523	0,00013
866,694	0,00024
866,865	0,00049
867,036	0,00055
867,207	0,0004
867,378	-0,00029
867,549	-0,00025
867,719	-0,00037
867,89	-0,00053
868,061	-0,00059
868,232	-0,00065
868,402	-0,00053
868,573	-0,00075
868,744	-0,00081
868,914	-0,00066
869,085	-0,00052
869,256	-0,00027
869,426	-0,00005
869,597	0,00002
869,767	0,00003
869,938	-0,0001
870,108	0,00007
870,279	0,00007
870,449	0,00012
870,62	-0,00017
870,79	-0,00018
870,961	0,00006
871,131	0,00031
871,302	0,0004
871,472	0,0003
871,642	0,0005
871,813	0,00047
871,983	0,00025
872,153	0,00016
872,324	0,00029
872,494	0,00044
872,664	0,00017
872,835	0,00037
873,005	0,0004
873,175	0,00038
873,345	0,00032
873,515	0,00006
873,685	-0,00002
873,856	0,00035
874,026	0,00018
874,196	0,00031
874,366	0,00039
874,536	0,00052
874,706	0,00034
874,876	-0,00003
875,046	-0,00014
875,216	-0,00011
875,386	0,00028
875,556	0,00053
875,726	0,00016
875,896	0,00013
876,066	0,00022
876,236	-0,00006
876,405	0,0003
876,575	0,00007
876,745	0,0002
876,915	0,00055
877,085	0,00056
877,254	0,00028
877,424	0,00032
877,594	0,00048
877,764	0,00074
877,933	0,00075
878,103	0,00087
878,273	0,00068
878,442	0,00054
878,612	0,00054
878,781	0,00033
878,951	0,00043
879,121	0,00035
879,29	0,0001
879,46	-0,0001
879,629	0,00002
879,799	0,00007
879,968	0,00034
880,138	0,00047
880,307	0,00105
880,476	0,00096
880,646	0,00081
880,815	0,00094
880,985	0,0008
881,154	0,00083
881,323	0,00063
881,493	0,00052
881,662	0,0002
881,831	0
882	-0,00023
882,17	-0,00065
882,339	-0,00057
882,508	-0,00063
882,677	-0,00035
882,846	0,00008
883,016	0
883,185	0,00049
883,354	0,00053
883,523	0,00047
883,692	0,00063
883,861	0,00085
884,03	0,00063
884,199	0,0008
884,368	0,00133
884,537	0,00071
884,706	0,00084
884,875	0,00097
885,044	0,00098
885,213	0,00101
885,382	0,00111
885,55	0,00091
885,719	0,0008
885,888	0,00122
886,057	0,00098
886,226	0,00073
886,395	0,00092
886,563	0,00042
886,732	0,00031
886,901	0,00016
887,069	-0,00006
887,238	-0,00006
887,407	0,00007
887,575	0,00027
887,744	0,00019
887,913	0,00012
888,081	-0,00001
888,25	0,00013
888,418	0,00023
888,587	0,00034
888,755	0,00018
888,924	0,00053
889,092	0,00064
889,261	0,00056
889,429	0,00018
889,598	0,0003
889,766	0,00039
889,935	0,00026
890,103	-0,0001
890,271	-0,00004
890,44	-0,00014
890,608	-0,00002
890,776	0,0001
890,944	0,00015
891,113	0,00014
891,281	0,00015
891,449	-0,00008
891,617	-0,00003
891,786	0,00014
891,954	0,0003
892,122	0,00052
892,29	0,00079
892,458	0,00059
892,626	0,00026
892,794	0,00014
892,962	0,00023
893,13	0,00048
893,298	0,00064
893,466	0,00086
