Data from Chemiepractica_Absorbance__0__11-30-33-099.txt Node

Date: Mon Dec 09 11:30:33 CET 2024
User: r0948668
Spectrometer: USB4F07138
Trigger mode: 4
Integration Time (sec): 6,000000E-3
Scans to average: 20
Electric dark correction enabled: true
Nonlinearity correction enabled: false
Boxcar width: 5
XAxis mode: Wavelengths
Number of Pixels in Spectrum: 3648
>>>>>Begin Spectral Data<<<<<
176,779	-0,95145
176,999	-1,74971
177,218	-0,86478
177,438	-0
177,658	-0
177,878	-0
178,097	-0
178,317	-0
178,537	-0,04987
178,757	-0,0014
178,976	0,10068
179,196	-0,24502
179,416	-0
179,635	-0,06139
179,855	-0,04622
180,075	-0,02372
180,294	-0,02706
180,514	-0,05663
180,734	0,00068
180,953	0,01007
181,173	0,01581
181,392	0,01526
181,612	0,01635
181,832	0,02078
182,051	0,01661
182,271	0,01887
182,49	0,0127
182,71	0,02694
182,929	0,04641
183,149	0,04146
183,368	0,06095
183,588	0,05706
183,807	0,05608
184,027	0,05862
184,246	0,05727
184,466	0,06069
184,685	0,07016
184,905	0,07928
185,124	0,08244
185,344	0,07407
185,563	0,08169
185,782	0,08814
186,002	0,08691
186,221	0,0892
186,44	0,08511
186,66	0,09146
186,879	0,11097
187,099	0,10378
187,318	0,08753
187,537	0,07152
187,756	0,08137
187,976	0,0645
188,195	0,04832
188,414	0,05958
188,634	0,06848
188,853	0,08219
189,072	0,08408
189,291	0,06066
189,511	0,0646
189,73	0,07892
189,949	0,09056
190,168	0,07828
190,387	0,08956
190,607	0,09406
190,826	0,07973
191,045	0,07106
191,264	0,05738
191,483	0,05083
191,702	0,05543
191,921	0,04251
192,141	0,04422
192,36	0,03032
192,579	0,0336
192,798	0,03248
193,017	0,02706
193,236	0,03826
193,455	0,03251
193,674	0,04322
193,893	0,03942
194,112	0,04534
194,331	0,05173
194,55	0,05419
194,769	0,05975
194,988	0,05872
195,207	0,05773
195,426	0,063
195,645	0,0604
195,864	0,07432
196,083	0,06944
196,302	0,07741
196,521	0,08167
196,739	0,09188
196,958	0,07603
197,177	0,07824
197,396	0,08822
197,615	0,0975
197,834	0,07685
198,053	0,07563
198,271	0,05454
198,49	0,05851
198,709	0,0551
198,928	0,04755
199,147	0,0325
199,365	0,04351
199,584	0,04717
199,803	0,02713
200,022	0,01661
200,24	0,02393
200,459	0,02801
200,678	0,04026
200,897	0,035
201,115	0,02851
201,334	0,03862
201,553	0,04787
201,771	0,03648
201,99	0,0225
202,209	0,04661
202,427	0,05563
202,646	0,06462
202,864	0,04626
203,083	0,04001
203,302	0,05482
203,52	0,07349
203,739	0,07031
203,957	0,05606
204,176	0,06875
204,394	0,07395
204,613	0,06754
204,831	0,06043
205,05	0,06604
205,268	0,07665
205,487	0,06541
205,705	0,05347
205,924	0,04548
206,142	0,04697
206,361	0,05851
206,579	0,05514
206,798	0,05462
207,016	0,05122
207,234	0,05446
207,453	0,05093
207,671	0,0585
207,89	0,08239
208,108	0,10019
208,326	0,08953
208,545	0,08129
208,763	0,07867
208,981	0,07602
209,2	0,06945
209,418	0,06643
209,636	0,06446
209,855	0,06082
210,073	0,0637
210,291	0,04468
210,509	0,02232
210,728	0,02957
210,946	0,03455
211,164	0,02837
211,382	0,03565
211,6	0,05091
211,819	0,05866
212,037	0,0506
212,255	0,05049
212,473	0,04132
212,691	0,05525
212,909	0,06999
213,128	0,05796
213,346	0,05733
213,564	0,06954
213,782	0,06146
214	0,06515
214,218	0,05703
214,436	0,07082
214,654	0,06559
214,872	0,05741
215,09	0,03499
215,308	0,03831
215,526	0,04872
215,744	0,05117
215,962	0,04734
216,18	0,0372
216,398	0,03326
216,616	0,03211
216,834	0,03224
217,052	0,049
217,27	0,0451
217,488	0,05612
217,706	0,05612
217,924	0,06296
218,142	0,065
218,36	0,06603
218,578	0,0898
218,795	0,07853
219,013	0,07095
219,231	0,0544
219,449	0,03433
219,667	0,04423
219,885	0,05437
220,102	0,05201
220,32	0,05072
220,538	0,06241
220,756	0,05939
220,973	0,05762
221,191	0,06012
221,409	0,07562
221,627	0,08061
221,844	0,09948
222,062	0,08755
222,28	0,08963
222,497	0,07182
222,715	0,07007
222,933	0,05381
223,15	0,04727
223,368	0,04891
223,586	0,06086
223,803	0,06603
224,021	0,06395
224,239	0,05109
224,456	0,05838
224,674	0,05017
224,891	0,06964
225,109	0,07162
225,326	0,06339
225,544	0,06545
225,762	0,04837
225,979	0,04753
226,197	0,03393
226,414	0,04377
226,632	0,05548
226,849	0,05455
227,066	0,06508
227,284	0,05132
227,501	0,04532
227,719	0,05755
227,936	0,06203
228,154	0,0758
228,371	0,06889
228,588	0,08655
228,806	0,08826
229,023	0,07383
229,241	0,09081
229,458	0,0894
229,675	0,08769
229,893	0,0914
230,11	0,09129
230,327	0,08814
230,545	0,08675
230,762	0,08719
230,979	0,07341
231,196	0,06307
231,414	0,06372
231,631	0,04035
231,848	0,03343
232,065	0,03612
232,283	0,03283
232,5	0,0246
232,717	0,01991
232,934	0,00951
233,151	0,02225
233,368	0,02153
233,586	0,02348
233,803	0,03015
234,02	0,03901
234,237	0,03379
234,454	0,03993
234,671	0,05571
234,888	0,06167
235,105	0,06604
235,322	0,07464
235,54	0,06677
235,757	0,08117
235,974	0,08743
236,191	0,0807
236,408	0,08434
236,625	0,09607
236,842	0,08564
237,059	0,07376
237,276	0,0603
237,493	0,06873
237,71	0,06795
237,926	0,05856
238,143	0,0391
238,36	0,03956
238,577	0,04823
238,794	0,04002
239,011	0,03139
239,228	0,03637
239,445	0,02918
239,662	0,04438
239,878	0,03897
240,095	0,03896
240,312	0,04655
240,529	0,05513
240,746	0,05294
240,963	0,05196
241,179	0,05702
241,396	0,07171
241,613	0,05647
241,83	0,0652
242,046	0,06321
242,263	0,07244
242,48	0,0659
242,697	0,0694
242,913	0,06393
243,13	0,04621
243,347	0,05781
243,563	0,05993
243,78	0,05088
243,997	0,07234
244,213	0,07354
244,43	0,07788
244,646	0,06559
244,863	0,07283
245,08	0,06998
245,296	0,06801
245,513	0,07305
245,729	0,07421
245,946	0,07651
246,162	0,0698
246,379	0,06562
246,595	0,0531
246,812	0,04625
247,028	0,05049
247,245	0,05564
247,461	0,04757
247,678	0,04727
247,894	0,06602
248,111	0,04399
248,327	0,04061
248,544	0,04674
248,76	0,05378
248,976	0,06548
249,193	0,06766
249,409	0,07018
249,626	0,06325
249,842	0,07169
250,058	0,07555
250,275	0,06749
250,491	0,06375
250,707	0,06863
250,924	0,08203
251,14	0,07032
251,356	0,07195
251,572	0,07166
251,789	0,07755
252,005	0,07882
252,221	0,07956
252,437	0,08033
252,654	0,08249
252,87	0,0896
253,086	0,09547
253,302	0,09489
253,518	0,10218
253,735	0,08735
253,951	0,08203
254,167	0,07545
254,383	0,05967
254,599	0,05161
254,815	0,0528
255,031	0,04137
255,247	0,03677
255,463	0,02514
255,68	0,01834
255,896	0,02135
256,112	0,01699
256,328	0,0163
256,544	0,01772
256,76	0,0351
256,976	0,03837
257,192	0,04612
257,408	0,05105
257,624	0,05446
257,84	0,06613
258,056	0,06845
258,272	0,06164
258,487	0,07677
258,703	0,08495
258,919	0,08553
259,135	0,08593
259,351	0,08483
259,567	0,07765
259,783	0,08854
259,999	0,09588
260,215	0,08933
260,43	0,08414
260,646	0,0896
260,862	0,08377
261,078	0,07568
261,294	0,05667
261,509	0,05555
261,725	0,06222
261,941	0,0671
262,157	0,06215
262,372	0,05627
262,588	0,04632
262,804	0,05096
263,019	0,04222
263,235	0,04106
263,451	0,04618
263,667	0,0586
263,882	0,06367
264,098	0,07079
264,313	0,06521
264,529	0,06781
264,745	0,07946
264,96	0,07536
265,176	0,07287
265,391	0,07444
265,607	0,0895
265,823	0,08214
266,038	0,08858
266,254	0,08204
266,469	0,07948
266,685	0,07553
266,9	0,07008
267,116	0,06884
267,331	0,0815
267,547	0,08312
267,762	0,08365
267,978	0,07324
268,193	0,0846
268,408	0,08646
268,624	0,09254
268,839	0,08205
269,055	0,07903
269,27	0,07733
269,485	0,06617
269,701	0,06386
269,916	0,06695
270,132	0,07544
270,347	0,08006
270,562	0,07502
270,777	0,06805
270,993	0,06607
271,208	0,07347
271,423	0,07978
271,639	0,08758
271,854	0,09212
272,069	0,08528
272,284	0,07823
272,5	0,06741
272,715	0,06136
272,93	0,0532
273,145	0,0428
273,36	0,04709
273,576	0,05403
273,791	0,05848
274,006	0,05234
274,221	0,05725
274,436	0,06701
274,651	0,06762
274,866	0,07689
275,081	0,08994
275,296	0,09658
275,512	0,11067
275,727	0,10707
275,942	0,09298
276,157	0,08326
276,372	0,09349
276,587	0,09351
276,802	0,09277
277,017	0,09067
277,232	0,08976
277,447	0,07403
277,662	0,07397
277,877	0,0681
278,092	0,05886
278,306	0,06639
278,521	0,08505
278,736	0,08541
278,951	0,07527
279,166	0,06364
279,381	0,0678
279,596	0,06373
279,811	0,07389
280,025	0,06988
280,24	0,07012
280,455	0,07071
280,67	0,05905
280,885	0,04894
281,099	0,03761
281,314	0,03963
281,529	0,04425
281,744	0,04766
281,959	0,04939
282,173	0,04966
282,388	0,06158
282,603	0,05764
282,817	0,06254
283,032	0,0633
283,247	0,05114
283,461	0,05763
283,676	0,05297
283,891	0,06424
284,105	0,06852
284,32	0,07378
284,535	0,07187
284,749	0,0736
284,964	0,08636
285,178	0,08128
285,393	0,0918
285,607	0,09822
285,822	0,09456
286,036	0,10168
286,251	0,10241
286,465	0,10121
286,68	0,09582
286,894	0,09661
287,109	0,0879
287,323	0,07576
287,538	0,08186
287,752	0,07633
287,967	0,07842
288,181	0,07395
288,396	0,08093
288,61	0,08045
288,824	0,08417
289,039	0,08707
289,253	0,08363
289,467	0,09384
289,682	0,09727
289,896	0,09488
290,11	0,08973
290,325	0,08811
290,539	0,08106
290,753	0,0801
290,968	0,07542
291,182	0,06347
291,396	0,05705
291,61	0,06477
291,825	0,04812
292,039	0,04314
292,253	0,0475
292,467	0,05192
292,681	0,05451
292,896	0,06772
293,11	0,0544
293,324	0,05681
293,538	0,06408
293,752	0,07223
293,966	0,07059
294,18	0,08197
294,394	0,08079
294,608	0,08176
294,823	0,07332
295,037	0,07327
295,251	0,07389
295,465	0,08839
295,679	0,08684
295,893	0,08104
296,107	0,07252
296,321	0,07466
296,535	0,06321
296,749	0,06134
296,963	0,04526
297,177	0,04544
297,391	0,0421
297,604	0,03558
297,818	0,02733
298,032	0,02227
298,246	0,00819
298,46	0,0211
298,674	0,02597
298,888	0,03289
299,102	0,04194
299,315	0,05984
299,529	0,07315
299,743	0,07889
299,957	0,08731
300,171	0,08124
300,385	0,08351
300,598	0,09815
300,812	0,08641
301,026	0,07315
301,24	0,07569
301,453	0,07372
301,667	0,06737
301,881	0,06128
302,094	0,05379
302,308	0,04861
302,522	0,06305
302,735	0,05378
302,949	0,04432
303,163	0,0379
303,376	0,03809
303,59	0,04215
303,803	0,03439
304,017	0,03058
304,231	0,03333
304,444	0,03656
304,658	0,03916
304,871	0,04237
305,085	0,05644
305,298	0,06015
305,512	0,06619
305,725	0,06837
305,939	0,06391
306,152	0,06099
306,366	0,05632
306,579	0,05484
306,793	0,06777
307,006	0,06417
307,22	0,05785
307,433	0,0467
307,646	0,04562
307,86	0,04466
308,073	0,05122
308,286	0,04712
308,5	0,05207
308,713	0,05449
308,926	0,0578
309,14	0,04353
309,353	0,04461
309,566	0,03822
309,78	0,03701
309,993	0,04595
310,206	0,04899
310,419	0,04242
310,633	0,04586
310,846	0,06121
311,059	0,05426
311,272	0,04836
311,486	0,04889
311,699	0,04196
311,912	0,04457
312,125	0,05117
312,338	0,04753
312,551	0,046
312,764	0,04695
312,978	0,04986
313,191	0,04171
313,404	0,0451
313,617	0,04333
313,83	0,05291
314,043	0,06306
314,256	0,06574
314,469	0,06111
314,682	0,06508
314,895	0,06714
315,108	0,07405
315,321	0,05803
315,534	0,06169
315,747	0,06796
315,96	0,07012
316,173	0,06046
316,386	0,05845
316,599	0,05282
316,812	0,05363
317,025	0,0565
317,237	0,05918
317,45	0,04695
317,663	0,05531
317,876	0,05782
318,089	0,06024
318,302	0,06098
318,515	0,0594
318,727	0,04825
318,94	0,04649
319,153	0,04728
319,366	0,04379
319,578	0,03137
319,791	0,04332
320,004	0,04447
320,217	0,03707
320,429	0,0404
320,642	0,0429
320,855	0,04314
321,067	0,04778
321,28	0,04753
321,493	0,05187
321,705	0,04429
321,918	0,0529
322,131	0,04538
322,343	0,05018
322,556	0,05728
322,768	0,05065
322,981	0,0417
323,194	0,04847
323,406	0,04372
323,619	0,04086
323,831	0,03818
324,044	0,04833
324,256	0,044
324,469	0,04015
324,681	0,03877
324,894	0,03121
325,106	0,032
325,319	0,03622
325,531	0,03071
325,743	0,03522
325,956	0,03928
326,168	0,03427
326,381	0,03099
326,593	0,03189
326,805	0,03297
327,018	0,03172
327,23	0,02493
327,442	0,02651
327,655	0,0252
327,867	0,03168
328,079	0,03909
328,292	0,05603
328,504	0,06419
328,716	0,05487
328,928	0,06237
329,141	0,06731
329,353	0,05768
329,565	0,0637
329,777	0,06417
329,99	0,06496
330,202	0,05886
330,414	0,04982
330,626	0,0361
330,838	0,0302
331,05	0,03841
331,263	0,03487
331,475	0,04703
331,687	0,057
331,899	0,06455
332,111	0,06157
332,323	0,06624
332,535	0,07188
332,747	0,07627
332,959	0,07206
333,171	0,07876
333,383	0,0838
333,595	0,08326
333,807	0,06391
334,019	0,06286
334,231	0,05395
334,443	0,05425
334,655	0,05812
334,867	0,05281
335,079	0,0594
335,291	0,04472
335,503	0,04794
335,714	0,03552
335,926	0,03455
336,138	0,04444
336,35	0,03812
336,562	0,0457
336,774	0,04471
336,986	0,04308
337,197	0,04417
337,409	0,0431
337,621	0,05565
337,833	0,05277
338,044	0,06547
338,256	0,06319
338,468	0,06634
338,68	0,07761
338,891	0,07363
339,103	0,07182
339,315	0,06018
339,526	0,05439
339,738	0,04321
339,95	0,03707
340,161	0,04204
340,373	0,03041
340,585	0,02809
340,796	0,01824
341,008	0,01234
341,219	0,0133
341,431	0,01904
341,642	0,02553
341,854	0,03164
342,065	0,03944
342,277	0,04368
342,489	0,03679
342,7	0,04735
342,912	0,05073
343,123	0,05349
343,334	0,05826
343,546	0,04956
343,757	0,04677
343,969	0,04209
344,18	0,0401
344,392	0,03753
344,603	0,04715
344,814	0,04841
345,026	0,04398
345,237	0,04317
345,448	0,03756
345,66	0,03646
345,871	0,04796
346,082	0,04695
346,294	0,05028
346,505	0,05045
346,716	0,04799
346,927	0,04799
347,139	0,04904
347,35	0,04546
347,561	0,04993
347,772	0,0497
347,984	0,04932
348,195	0,04801
348,406	0,0468
348,617	0,04875
348,828	0,05483
349,039	0,05715
349,251	0,05495
349,462	0,05534
349,673	0,04829
349,884	0,0452
350,095	0,05408
350,306	0,05275
350,517	0,05992
350,728	0,0607
350,939	0,05934
351,15	0,05024
351,361	0,04959
351,572	0,05139
351,783	0,0445
351,994	0,05336
352,205	0,04911
352,416	0,042
352,627	0,04167
352,838	0,03957
353,049	0,04337
353,26	0,04599
353,471	0,04353
353,682	0,04301
353,893	0,04527
354,103	0,04508
354,314	0,04296
354,525	0,04502
354,736	0,04466
354,947	0,04416
355,157	0,03857
355,368	0,0331
355,579	0,0217
355,79	0,02816
356,001	0,02129
356,211	0,01768
356,422	0,01202
356,633	0,01368
356,843	0,01644
357,054	0,01955
357,265	0,02073
357,476	0,01951
357,686	0,0194
357,897	0,0309
358,107	0,02816
358,318	0,03082
358,529	0,03318
358,739	0,04898
358,95	0,05079
359,16	0,05259
359,371	0,05183
359,582	0,04847
359,792	0,0542
360,003	0,05474
360,213	0,04879
360,424	0,05049
360,634	0,05813
360,845	0,04828
361,055	0,0424
361,266	0,04459
361,476	0,04686
361,686	0,04801
361,897	0,04714
362,107	0,04609
362,318	0,04845
362,528	0,04741
362,738	0,04232
362,949	0,03988
363,159	0,04475
363,369	0,04325
363,58	0,03506
363,79	0,03159
364	0,02915
364,211	0,03125
364,421	0,02452
364,631	0,02588
364,842	0,02689
365,052	0,02354
365,262	0,02404
365,472	0,02408
365,682	0,02417
365,893	0,03003
366,103	0,03509
366,313	0,03698
366,523	0,04234
366,733	0,04408
366,943	0,04437
367,154	0,0439
367,364	0,05847
367,574	0,05884
367,784	0,06193
367,994	0,06416
368,204	0,06767
368,414	0,06019
368,624	0,06079
368,834	0,05403
369,044	0,0556
369,254	0,05229
369,464	0,04965
369,674	0,0456
369,884	0,03671
370,094	0,03204
370,304	0,02758
370,514	0,02468
370,724	0,02133
370,934	0,01643
371,144	0,01653
371,353	0,01748
371,563	0,02421
371,773	0,03028
371,983	0,02663
372,193	0,03225
372,403	0,03184
372,612	0,03257
372,822	0,02825
373,032	0,03293
373,242	0,03876
373,452	0,04092
373,661	0,04248
373,871	0,03956
374,081	0,04051
374,29	0,04427
374,5	0,04403
374,71	0,04457
374,92	0,04292
375,129	0,04587
375,339	0,0448
375,549	0,03882
375,758	0,03863
375,968	0,03205
376,177	0,02795
376,387	0,02234
376,597	0,02268
376,806	0,02585
377,016	0,0238
377,225	0,02745
377,435	0,02559
377,644	0,02561
377,854	0,03064
378,063	0,02779
378,273	0,02842
378,482	0,03143
378,692	0,03564
378,901	0,03321
379,111	0,03543
379,32	0,04031
379,529	0,03898
379,739	0,04194
379,948	0,04054
380,158	0,04112
380,367	0,04755
380,576	0,04557
380,786	0,03951
380,995	0,03835
381,204	0,04183
381,414	0,03815
381,623	0,03442
381,832	0,03381
382,041	0,03293
382,251	0,03559
382,46	0,03147
382,669	0,02667
382,878	0,03216
383,088	0,03651
383,297	0,03577
383,506	0,03087
383,715	0,02912
383,924	0,02697
384,133	0,02503
384,342	0,02825
384,552	0,02895
384,761	0,03379
384,97	0,0343
385,179	0,03468
385,388	0,03334
385,597	0,03467
385,806	0,03594
386,015	0,03597
386,224	0,03999
386,433	0,04097
386,642	0,03436
386,851	0,03351
387,06	0,03278
387,269	0,03238
387,478	0,03254
387,687	0,03412
387,896	0,03114
388,105	0,03004
388,314	0,02636
388,523	0,02614
388,731	0,02478
388,94	0,02748
389,149	0,0266
389,358	0,02538
389,567	0,03006
389,776	0,02761
389,984	0,02555
390,193	0,03093
390,402	0,02824
390,611	0,03258
390,819	0,03062
391,028	0,03193
391,237	0,03273
391,446	0,03109
391,654	0,02988
391,863	0,02604
392,072	0,02389
392,28	0,02462
392,489	0,01966
392,698	0,02149
392,906	0,02139
393,115	0,02247
393,324	0,0237
393,532	0,02192
393,741	0,02078
393,949	0,02067
394,158	0,01985
394,366	0,02192
394,575	0,02323
394,783	0,02446
394,992	0,02606
395,2	0,02343
395,409	0,02224
395,617	0,02204
395,826	0,02413
396,034	0,02276
396,243	0,02297
396,451	0,02115
396,66	0,0218
396,868	0,01826
397,076	0,01617
397,285	0,01198
397,493	0,01451
397,701	0,01558
397,91	0,01289
398,118	0,01075
398,326	0,0133
398,535	0,01094
398,743	0,01348
398,951	0,01357
399,159	0,01485
399,368	0,01619
399,576	0,02003
399,784	0,01894
399,992	0,01988
400,201	0,01959
400,409	0,01885
400,617	0,01974
400,825	0,02476
401,033	0,02303
401,241	0,0239
401,45	0,02636
401,658	0,0273
401,866	0,02968
402,074	0,03098
402,282	0,03247
402,49	0,03271
402,698	0,03539
402,906	0,03272
403,114	0,02877
403,322	0,02804
403,53	0,02882
403,738	0,02576
403,946	0,0235
404,154	0,01997
404,362	0,0206
404,57	0,01685
404,778	0,01734
404,986	0,01798
405,194	0,01841
405,402	0,02048
405,609	0,02037
405,817	0,01759
406,025	0,02076
406,233	0,02469
406,441	0,02505
406,649	0,02244
406,856	0,02184
407,064	0,0236
407,272	0,02054
407,48	0,02269
407,687	0,02334
407,895	0,0241
408,103	0,02459
408,311	0,02247
408,518	0,01896
408,726	0,01936
408,934	0,02132
409,141	0,02244
409,349	0,01913
409,557	0,02219
409,764	0,02125
409,972	0,02048
410,18	0,01962
410,387	0,02009
410,595	0,0212
410,802	0,02293
411,01	0,02304
411,217	0,02044
411,425	0,02193
411,632	0,02364
411,84	0,02285
412,047	0,02002
412,255	0,01718
412,462	0,01893
412,67	0,01967
412,877	0,01963
413,085	0,01895
413,292	0,02009
413,499	0,02298
413,707	0,02353
413,914	0,02319
414,122	0,02082
414,329	0,02344
414,536	0,02501
414,744	0,02535
414,951	0,02387
415,158	0,02457
415,366	0,02253
415,573	0,02065
415,78	0,01969
415,987	0,01725
416,195	0,01949
416,402	0,02024
416,609	0,02068
416,816	0,02129
417,023	0,02071
417,231	0,02336
417,438	0,02295
417,645	0,02454
417,852	0,02376
418,059	0,02367
418,266	0,02384
418,473	0,02185
418,68	0,02195
418,888	0,02191
419,095	0,02222
419,302	0,02144
419,509	0,01908
419,716	0,01895
419,923	0,01936
420,13	0,01904
420,337	0,0189
420,544	0,0201
420,751	0,02107
420,958	0,02104
421,165	0,02077
421,371	0,02014
421,578	0,02135
421,785	0,0214
421,992	0,02155
422,199	0,02244
422,406	0,02441
422,613	0,02388
422,82	0,02452
423,026	0,02327
423,233	0,02367
423,44	0,02269
423,647	0,02187
423,854	0,02099
424,06	0,02069
424,267	0,02028
424,474	0,01878
424,681	0,01848
424,887	0,01796
425,094	0,01663
425,301	0,01897
425,507	0,0184
425,714	0,019
425,921	0,01891
426,127	0,01795
426,334	0,0195
426,54	0,01903
426,747	0,0215
426,954	0,02014
427,16	0,02094
427,367	0,02185
427,573	0,02033
427,78	0,02112
427,986	0,02208
428,193	0,02302
428,399	0,02435
428,606	0,02248
428,812	0,02363
429,019	0,02132
429,225	0,02292
429,432	0,02435
429,638	0,02365
429,845	0,02285
430,051	0,02262
430,257	0,02091
430,464	0,02093
430,67	0,02112
430,876	0,02193
431,083	0,02147
431,289	0,023
431,495	0,02442
431,702	0,02224
431,908	0,0212
432,114	0,02074
432,32	0,02026
432,527	0,02095
432,733	0,02184
432,939	0,02182
433,145	0,02218
433,351	0,0226
433,558	0,02182
433,764	0,02047
433,97	0,02052
434,176	0,02198
434,382	0,02419
434,588	0,02478
434,794	0,0239
435,001	0,023
435,207	0,02264
435,413	0,02235
435,619	0,02253
435,825	0,02282
436,031	0,02243
436,237	0,02399
436,443	0,0233
436,649	0,02283
436,855	0,02239
437,061	0,02372
437,267	0,02365
437,473	0,02375
437,679	0,02478
437,884	0,02418
438,09	0,02295
438,296	0,02232
438,502	0,02152
438,708	0,02227
438,914	0,0225
439,12	0,02358
439,325	0,02476
439,531	0,02626
439,737	0,02598
439,943	0,02547
440,149	0,02571
440,354	0,02701
440,56	0,02708
440,766	0,02664
440,972	0,02731
441,177	0,0279
441,383	0,02702
441,589	0,02605
441,794	0,02428
442	0,02488
442,206	0,02471
442,411	0,02421
442,617	0,02401
442,822	0,0251
443,028	0,02579
443,234	0,02521
443,439	0,02428
443,645	0,02474
443,85	0,02493
444,056	0,02522
444,261	0,02605
444,467	0,02677
444,672	0,02723
444,878	0,02746
445,083	0,02769
445,289	0,02794
445,494	0,02853
445,699	0,02903
445,905	0,0293
446,11	0,03001
446,316	0,03053
446,521	0,02976
446,726	0,02989
446,932	0,03028
447,137	0,03073
447,342	0,03105
447,548	0,03129
447,753	0,031
447,958	0,03123
448,164	0,03034
448,369	0,03027
448,574	0,03001
448,779	0,02992
448,984	0,02968
449,19	0,03036
449,395	0,03032
449,6	0,03008
449,805	0,02964
450,01	0,03039
450,215	0,02958
450,421	0,03164
450,626	0,03217
450,831	0,03268
451,036	0,03295
451,241	0,03352
451,446	0,03283
451,651	0,03361
451,856	0,03377
452,061	0,03469
452,266	0,03454
452,471	0,0357
452,676	0,03528
452,881	0,03541
453,086	0,03611
453,291	0,03709
453,496	0,03695
453,701	0,03808
453,906	0,0383
454,111	0,03864
454,316	0,0385
454,52	0,0388
454,725	0,03902
454,93	0,03867
455,135	0,03797
455,34	0,03769
455,545	0,03788
455,749	0,03826
455,954	0,03788
456,159	0,03765
456,364	0,03824
456,568	0,0389
456,773	0,03927
456,978	0,03966
457,182	0,04075
457,387	0,0418
457,592	0,0418
457,796	0,04134
458,001	0,04235
458,206	0,04255
458,41	0,04287
458,615	0,04213
458,82	0,04183
459,024	0,04218
459,229	0,04231
459,433	0,0421
459,638	0,04223
459,842	0,04324
460,047	0,04358
460,251	0,04285
460,456	0,04263
460,66	0,04353
460,865	0,04521
461,069	0,04619
461,274	0,04626
461,478	0,04609
461,682	0,04615
461,887	0,04611
462,091	0,0464
462,296	0,04748
462,5	0,04827
462,704	0,04962
462,909	0,04908
463,113	0,04859
463,317	0,04872
463,522	0,04926
463,726	0,05036
463,93	0,0511
464,134	0,05166
464,339	0,05218
464,543	0,05206
464,747	0,05196
464,951	0,05192
465,155	0,05194
465,36	0,05287
465,564	0,05304
465,768	0,05305
465,972	0,05392
466,176	0,05415
466,38	0,05506
466,584	0,05542
466,788	0,05562
466,993	0,05627
467,197	0,05659
467,401	0,05772
467,605	0,05762
467,809	0,05855
468,013	0,05952
468,217	0,05947
468,421	0,05932
468,625	0,05892
468,829	0,05944
469,033	0,05984
469,236	0,06064
469,44	0,06052
469,644	0,06048
469,848	0,0613
470,052	0,0619
470,256	0,06135
470,46	0,06203
470,664	0,06322
470,867	0,06405
471,071	0,06433
471,275	0,06519
471,479	0,06545
471,683	0,06647
471,886	0,06712
472,09	0,06717
472,294	0,06709
472,497	0,06782
472,701	0,0676
472,905	0,06765
473,109	0,06834
473,312	0,06883
473,516	0,06957
473,719	0,06979
473,923	0,07019
474,127	0,07069
474,33	0,07107
474,534	0,07178
474,737	0,07266
474,941	0,07303
475,145	0,07349
475,348	0,07355
475,552	0,07425
475,755	0,07429
475,959	0,07501
476,162	0,07563
476,366	0,07616
476,569	0,07706
476,772	0,07772
476,976	0,07817
477,179	0,07896
477,383	0,0797
477,586	0,08036
477,789	0,08082
477,993	0,0818
478,196	0,0824
478,399	0,08304
478,603	0,08372
478,806	0,08432
479,009	0,08454
479,213	0,08471
479,416	0,08538
479,619	0,08653
479,822	0,0871
480,026	0,08797
480,229	0,08832
480,432	0,08892
480,635	0,08936
480,838	0,09016
481,041	0,0903
481,245	0,09118
481,448	0,09221
481,651	0,09309
481,854	0,09318
482,057	0,09399
482,26	0,09452
482,463	0,09519
482,666	0,09595
482,869	0,09679
483,072	0,09727
483,275	0,09822
483,478	0,09875
483,681	0,09946
483,884	0,09978
484,087	0,10081
484,29	0,10166
484,493	0,10223
484,696	0,10278
484,899	0,10366
485,102	0,10441
485,305	0,10519
485,508	0,10631
485,71	0,10727
485,913	0,10821
486,116	0,10898
486,319	0,10983
486,522	0,11026
486,725	0,11066
486,927	0,11198
487,13	0,11282
487,333	0,11384
487,536	0,11488
487,738	0,11561
487,941	0,11617
488,144	0,11686
488,346	0,11795
488,549	0,11843
488,752	0,11953
488,954	0,12093
489,157	0,12129
489,359	0,12192
489,562	0,1223
489,765	0,12277
489,967	0,12341
490,17	0,12473
490,372	0,12572
490,575	0,12636
490,777	0,12734
490,98	0,1279
491,182	0,12813
491,385	0,1289
491,587	0,1297
491,79	0,13046
491,992	0,13144
492,195	0,13246
492,397	0,13285
492,599	0,13355
492,802	0,13435
493,004	0,1355
493,207	0,13652
493,409	0,13781
493,611	0,13885
493,814	0,13984
494,016	0,14091
494,218	0,14154
494,42	0,14235
494,623	0,14349
494,825	0,14431
495,027	0,14511
495,229	0,14552
495,432	0,14621
495,634	0,14698
495,836	0,14808
496,038	0,14884
496,24	0,14974
496,442	0,15081
496,645	0,15161
496,847	0,15227
497,049	0,15312
497,251	0,15448
497,453	0,1557
497,655	0,1569
497,857	0,1582
498,059	0,1591
498,261	0,16008
498,463	0,16124
498,665	0,16275
498,867	0,16402
499,069	0,16539
499,271	0,16647
499,473	0,16751
499,675	0,16874
499,877	0,16973
500,079	0,17065
500,281	0,17165
500,482	0,17291
500,684	0,1743
500,886	0,17521
501,088	0,176
501,29	0,17699
501,492	0,17812
501,693	0,17922
501,895	0,1803
502,097	0,18114
502,299	0,18227
502,5	0,1834
502,702	0,18459
502,904	0,18573
503,106	0,18676
503,307	0,18801
503,509	0,18924
503,711	0,19038
503,912	0,19157
504,114	0,19233
504,315	0,19394
504,517	0,19502
504,719	0,19615
504,92	0,1972
505,122	0,19817
505,323	0,19925
505,525	0,20041
505,726	0,20144
505,928	0,20288
506,129	0,20404
506,331	0,2056
506,532	0,20704
506,734	0,20824
506,935	0,20985
507,137	0,2109
507,338	0,21205
507,539	0,21332
507,741	0,2151
507,942	0,21656
508,143	0,21793
508,345	0,21907
508,546	0,22043
508,747	0,22166
508,949	0,22332
509,15	0,22428
509,351	0,22596
509,553	0,22727
509,754	0,22869
509,955	0,22967
510,156	0,23121
510,357	0,23227
510,559	0,23399
510,76	0,23529
510,961	0,23656
511,162	0,23785
511,363	0,23934
511,564	0,24062
511,766	0,24221
511,967	0,2438
512,168	0,24514
512,369	0,2465
512,57	0,24801
512,771	0,24944
512,972	0,25096
513,173	0,25255
513,374	0,25404
513,575	0,25563
513,776	0,25734
513,977	0,25868
514,178	0,26014
514,379	0,2618
514,58	0,26314
514,781	0,26478
514,981	0,26658
515,182	0,26789
515,383	0,26918
515,584	0,27063
515,785	0,27202
515,986	0,27337
516,187	0,27517
516,387	0,27655
516,588	0,27825
516,789	0,27996
516,99	0,28154
517,19	0,28264
517,391	0,2843
517,592	0,28618
517,793	0,2878
517,993	0,28974
518,194	0,29147
518,395	0,29279
518,595	0,29445
518,796	0,29598
518,996	0,29754
519,197	0,29907
519,398	0,30076
519,598	0,30244
519,799	0,30368
519,999	0,3053
520,2	0,30674
520,4	0,30811
520,601	0,31002
520,801	0,31172
521,002	0,31334
521,202	0,31491
521,403	0,31658
521,603	0,31826
521,804	0,31969
522,004	0,32159
522,204	0,32326
522,405	0,32465
522,605	0,32639
522,806	0,32785
523,006	0,3294
523,206	0,33083
523,407	0,33248
523,607	0,33418
523,807	0,33583
524,007	0,33728
524,208	0,33876
524,408	0,34021
524,608	0,34218
524,808	0,34377
525,009	0,3452
525,209	0,34666
525,409	0,34845
525,609	0,34984
525,809	0,35145
526,009	0,35307
526,209	0,35496
526,41	0,35627
526,61	0,35795
526,81	0,35928
527,01	0,36056
527,21	0,36206
527,41	0,36368
527,61	0,36489
527,81	0,36626
528,01	0,36756
528,21	0,36867
528,41	0,36987
528,61	0,37162
528,81	0,37292
529,01	0,3741
529,21	0,37577
529,41	0,37716
529,609	0,37839
529,809	0,37988
530,009	0,3817
530,209	0,38317
530,409	0,38471
530,609	0,38625
530,808	0,38727
531,008	0,38873
531,208	0,39027
531,408	0,39182
531,608	0,39321
531,807	0,39462
532,007	0,39606
532,207	0,39722
532,406	0,39845
532,606	0,39988
532,806	0,40121
533,005	0,40293
533,205	0,40404
533,405	0,40519
533,604	0,4063
533,804	0,4077
534,003	0,40905
534,203	0,41019
534,403	0,41138
534,602	0,41273
534,802	0,41384
535,001	0,41529
535,201	0,41636
535,4	0,41755
535,6	0,41901
535,799	0,42033
535,998	0,42159
536,198	0,42276
536,397	0,42402
536,597	0,42505
536,796	0,42628
536,995	0,42759
537,195	0,42844
537,394	0,42953
537,594	0,431
537,793	0,43199
537,992	0,43288
538,191	0,43381
538,391	0,43477
538,59	0,4358
538,789	0,43685
538,988	0,43764
539,188	0,43839
539,387	0,43966
539,586	0,44077
539,785	0,44161
539,984	0,44284
540,184	0,44394
540,383	0,44527
540,582	0,44647
540,781	0,4477
540,98	0,44893
541,179	0,45038
541,378	0,45163
541,577	0,4524
541,776	0,45326
541,975	0,45433
542,174	0,45488
542,373	0,45554
542,572	0,45616
542,771	0,45693
542,97	0,4574
543,169	0,45812
543,368	0,45868
543,567	0,45956
543,766	0,46017
543,965	0,46093
544,164	0,46177
544,362	0,46269
544,561	0,4638
544,76	0,46485
544,959	0,4658
545,158	0,46694
545,356	0,46775
545,555	0,46825
545,754	0,46867
545,953	0,46949
546,151	0,47042
546,35	0,47095
546,549	0,47144
546,748	0,47195
546,946	0,47229
547,145	0,47248
547,344	0,47285
547,542	0,47306
547,741	0,47378
547,939	0,47433
548,138	0,47473
548,337	0,47482
548,535	0,47507
548,734	0,4757
548,932	0,47585
549,131	0,47626
549,329	0,47695
549,528	0,47752
549,726	0,47816
549,925	0,47842
550,123	0,47886
550,322	0,4796
550,52	0,48037
550,718	0,48106
550,917	0,48151
551,115	0,48217
551,313	0,48264
551,512	0,48325
551,71	0,48352
551,908	0,484
552,107	0,48476
552,305	0,48519
552,503	0,48554
552,702	0,48583
552,9	0,48633
553,098	0,48681
553,296	0,48732
553,495	0,48805
553,693	0,48843
553,891	0,48885
554,089	0,48945
554,287	0,48994
554,485	0,49056
554,683	0,49109
554,882	0,4917
555,08	0,49209
555,278	0,49274
555,476	0,4934
555,674	0,49377
555,872	0,49415
556,07	0,49473
556,268	0,49539
556,466	0,49582
556,664	0,49643
556,862	0,4969
557,06	0,4977
557,258	0,49825
557,456	0,49887
557,654	0,49957
557,851	0,50016
558,049	0,50083
558,247	0,50166
558,445	0,50216
558,643	0,50284
558,841	0,50342
559,039	0,50414
559,236	0,50468
559,434	0,5053
559,632	0,50606
559,83	0,50669
560,027	0,50726
560,225	0,50807
560,423	0,50856
560,62	0,50927
560,818	0,50988
561,016	0,51065
561,213	0,51162
561,411	0,51236
561,609	0,5132
561,806	0,51373
562,004	0,5144
562,202	0,51525
562,399	0,51596
562,597	0,51696
562,794	0,51783
562,992	0,51865
563,189	0,51945
563,387	0,52036
563,584	0,52136
563,782	0,52234
563,979	0,5233
564,177	0,52437
564,374	0,52541
564,571	0,52638
564,769	0,52729
564,966	0,52834
565,164	0,52953
565,361	0,53049
565,558	0,53126
565,756	0,53219
565,953	0,53331
566,15	0,53434
566,347	0,53522
566,545	0,53624
566,742	0,53747
566,939	0,53841
567,136	0,53936
567,334	0,54043
567,531	0,54168
567,728	0,54296
567,925	0,54417
568,122	0,54525
568,319	0,54657
568,517	0,54791
568,714	0,54927
568,911	0,55044
569,108	0,55224
569,305	0,55355
569,502	0,55483
569,699	0,55625
569,896	0,55744
570,093	0,55872
570,29	0,56021
570,487	0,56151
570,684	0,56303
570,881	0,56459
571,078	0,56612
571,275	0,56724
571,472	0,56881
571,669	0,57046
571,866	0,57181
572,062	0,57333
572,259	0,57467
572,456	0,57639
572,653	0,57794
572,85	0,57935
573,047	0,58072
573,243	0,58213
573,44	0,58351
573,637	0,58493
573,834	0,58647
574,03	0,58817
574,227	0,58967
574,424	0,59152
574,62	0,59278
574,817	0,59458
575,014	0,59596
575,21	0,59732
575,407	0,59893
575,604	0,60063
575,8	0,60233
575,997	0,60375
576,193	0,60505
576,39	0,60683
576,586	0,60844
576,783	0,6101
576,979	0,61148
577,176	0,61327
577,372	0,61489
577,569	0,61667
577,765	0,61818
577,962	0,61979
578,158	0,62143
578,355	0,62328
578,551	0,62473
578,747	0,62622
578,944	0,62767
579,14	0,62918
579,336	0,63095
579,533	0,63235
579,729	0,63369
579,925	0,6353
580,122	0,63658
580,318	0,63803
580,514	0,63945
580,71	0,64089
580,906	0,64218
581,103	0,64388
581,299	0,64536
581,495	0,64646
581,691	0,64807
581,887	0,64955
582,084	0,6509
582,28	0,65239
582,476	0,65358
582,672	0,65481
582,868	0,65606
583,064	0,65751
583,26	0,65849
583,456	0,6597
583,652	0,66063
583,848	0,66173
584,044	0,66278
584,24	0,66389
584,436	0,66475
584,632	0,66572
584,828	0,66693
585,024	0,66799
585,22	0,66871
585,416	0,66972
585,611	0,67039
585,807	0,67154
586,003	0,67234
586,199	0,67279
586,395	0,67336
586,591	0,67404
586,786	0,67485
586,982	0,67518
587,178	0,67554
587,374	0,67605
587,569	0,67598
587,765	0,67622
587,961	0,67625
588,156	0,67655
588,352	0,67688
588,548	0,67725
588,743	0,67766
588,939	0,67761
589,135	0,67769
589,33	0,67755
589,526	0,67741
589,721	0,67783
589,917	0,6779
590,112	0,6777
590,308	0,67704
590,503	0,6768
590,699	0,67639
590,894	0,67576
591,09	0,67546
591,285	0,6749
591,481	0,6748
591,676	0,67449
591,872	0,67346
592,067	0,67258
592,262	0,67199
592,458	0,67143
592,653	0,67053
592,848	0,66946
593,044	0,66852
593,239	0,66732
593,434	0,66626
593,629	0,66483
593,825	0,66318
594,02	0,66223
594,215	0,66097
594,41	0,65952
594,606	0,65813
594,801	0,6568
594,996	0,65519
595,191	0,65354
595,386	0,65203
595,581	0,65026
595,777	0,64843
595,972	0,6468
596,167	0,64471
596,362	0,64281
596,557	0,64094
596,752	0,63883
596,947	0,63651
597,142	0,63456
597,337	0,63232
597,532	0,62988
597,727	0,62768
597,922	0,62539
598,117	0,6228
598,312	0,62039
598,507	0,61818
598,701	0,61562
598,896	0,61313
599,091	0,61063
599,286	0,60801
599,481	0,60514
599,676	0,60243
599,87	0,59951
600,065	0,59652
600,26	0,59405
600,455	0,59108
600,65	0,58783
600,844	0,58474
601,039	0,58164
601,234	0,57844
601,428	0,57517
601,623	0,57225
601,818	0,56912
602,012	0,56592
602,207	0,56278
602,402	0,55927
602,596	0,55588
602,791	0,55257
602,985	0,54923
603,18	0,5457
603,374	0,54221
603,569	0,53876
603,763	0,53534
603,958	0,53188
604,152	0,52839
604,347	0,52478
604,541	0,52109
604,736	0,51757
604,93	0,51384
605,125	0,5098
605,319	0,50618
605,513	0,50251
605,708	0,49877
605,902	0,49482
606,096	0,49095
606,291	0,48716
606,485	0,48334
606,679	0,47977
606,874	0,47585
607,068	0,47211
607,262	0,46867
607,456	0,46483
607,65	0,46096
607,845	0,45726
608,039	0,45368
608,233	0,44983
608,427	0,4459
608,621	0,44216
608,815	0,43816
609,01	0,43467
609,204	0,43092
609,398	0,42727
609,592	0,42357
609,786	0,42007
609,98	0,4166
610,174	0,41273
610,368	0,40913
610,562	0,40554
610,756	0,40178
610,95	0,39814
611,144	0,39431
611,338	0,39052
611,532	0,3866
611,726	0,38286
611,919	0,3791
612,113	0,37501
612,307	0,37129
612,501	0,36751
612,695	0,36388
612,889	0,36016
613,082	0,35642
613,276	0,35267
613,47	0,34916
613,664	0,34539
613,857	0,34157
614,051	0,33785
614,245	0,33434
614,439	0,33068
614,632	0,32722
614,826	0,32334
615,02	0,31986
615,213	0,3166
615,407	0,31317
615,6	0,30956
615,794	0,30622
615,988	0,30291
616,181	0,29945
616,375	0,29607
616,568	0,29269
616,762	0,28925
616,955	0,28613
617,149	0,28272
617,342	0,27913
617,536	0,27591
617,729	0,27278
617,923	0,26964
618,116	0,26646
618,309	0,26326
618,503	0,26015
618,696	0,25715
618,889	0,25404
619,083	0,25088
619,276	0,24786
619,469	0,24497
619,663	0,24195
619,856	0,23896
620,049	0,236
620,242	0,2331
620,436	0,23034
620,629	0,22757
620,822	0,22467
621,015	0,22191
621,209	0,21918
621,402	0,21649
621,595	0,21386
621,788	0,21112
621,981	0,20837
622,174	0,20564
622,367	0,20309
622,56	0,20039
622,753	0,1977
622,946	0,19512
623,139	0,1926
623,332	0,19027
623,525	0,18768
623,718	0,18501
623,911	0,18259
624,104	0,18025
624,297	0,17793
624,49	0,17572
624,683	0,17336
624,876	0,17106
625,069	0,16876
625,262	0,1665
625,454	0,1642
625,647	0,16214
625,84	0,1599
626,033	0,15785
626,226	0,15573
626,418	0,15368
626,611	0,1516
626,804	0,14963
626,997	0,14751
627,189	0,14551
627,382	0,14346
627,575	0,14145
627,767	0,13948
627,96	0,1377
628,153	0,13564
628,345	0,13379
628,538	0,13196
628,731	0,12998
628,923	0,12813
629,116	0,12654
629,308	0,12471
629,501	0,12301
629,693	0,12139
629,886	0,11979
630,078	0,11795
630,271	0,11648
630,463	0,11485
630,656	0,11318
630,848	0,11161
631,04	0,11006
631,233	0,10843
631,425	0,10703
631,617	0,1054
631,81	0,10377
632,002	0,10225
632,194	0,10086
632,387	0,09935
632,579	0,09799
632,771	0,09653
632,964	0,09515
633,156	0,09374
633,348	0,09236
633,54	0,09107
633,732	0,08988
633,925	0,08869
634,117	0,08751
634,309	0,08641
634,501	0,08516
634,693	0,08382
634,885	0,08263
635,077	0,08144
635,269	0,08033
635,462	0,07917
635,654	0,078
635,846	0,07699
636,038	0,07581
636,23	0,07458
636,422	0,07343
636,614	0,07234
636,806	0,07141
636,997	0,07046
637,189	0,06945
637,381	0,06839
637,573	0,06753
637,765	0,06664
637,957	0,06551
638,149	0,06462
638,341	0,06385
638,532	0,06301
638,724	0,06219
638,916	0,06129
639,108	0,06031
639,299	0,05948
639,491	0,05861
639,683	0,05778
639,875	0,05699
640,066	0,05626
640,258	0,05542
640,45	0,05452
640,641	0,05373
640,833	0,05292
641,025	0,05218
641,216	0,05147
641,408	0,05068
641,599	0,05005
641,791	0,04924
641,982	0,04844
642,174	0,04784
642,366	0,04721
642,557	0,04646
642,748	0,04571
642,94	0,04509
643,131	0,04437
643,323	0,04379
643,514	0,04324
643,706	0,04263
643,897	0,04207
644,088	0,04151
644,28	0,04089
644,471	0,0403
644,662	0,03982
644,854	0,03943
645,045	0,03884
645,236	0,03826
645,428	0,03781
645,619	0,0372
645,81	0,03665
646,001	0,03609
646,193	0,03559
646,384	0,03496
646,575	0,03442
646,766	0,03397
646,957	0,03339
647,148	0,0329
647,339	0,03254
647,531	0,03202
647,722	0,03162
647,913	0,03114
648,104	0,0308
648,295	0,03033
648,486	0,03004
648,677	0,02964
648,868	0,02922
649,059	0,02877
649,25	0,02838
649,441	0,02792
649,632	0,02739
649,823	0,02711
650,013	0,02681
650,204	0,02636
650,395	0,02586
650,586	0,02558
650,777	0,0252
650,968	0,02481
651,159	0,02461
651,349	0,02426
651,54	0,02391
651,731	0,02358
651,922	0,02318
652,112	0,02288
652,303	0,02259
652,494	0,02248
652,684	0,02205
652,875	0,02188
653,066	0,02158
653,256	0,02121
653,447	0,02092
653,638	0,02067
653,828	0,02046
654,019	0,02029
654,209	0,01998
654,4	0,01973
654,59	0,01951
654,781	0,01935
654,972	0,01898
655,162	0,01884
655,352	0,01854
655,543	0,01831
655,733	0,0181
655,924	0,01795
656,114	0,01768
656,305	0,0175
656,495	0,01733
656,685	0,01705
656,876	0,01676
657,066	0,01661
657,256	0,01646
657,447	0,01639
657,637	0,01622
657,827	0,01603
658,017	0,01584
658,208	0,01557
658,398	0,01528
658,588	0,01509
658,778	0,01494
658,968	0,01469
659,159	0,01451
659,349	0,01426
659,539	0,01395
659,729	0,01385
659,919	0,01374
660,109	0,01364
660,299	0,01355
660,489	0,01357
660,679	0,01339
660,869	0,01319
661,059	0,01314
661,249	0,01297
661,439	0,01276
661,629	0,01266
661,819	0,01249
662,009	0,01225
662,199	0,01205
662,389	0,01187
662,579	0,01162
662,769	0,01135
662,959	0,01125
663,149	0,01109
663,338	0,01103
663,528	0,01097
663,718	0,01087
663,908	0,01071
664,097	0,01067
664,287	0,0105
664,477	0,01041
664,667	0,01022
664,856	0,01017
665,046	0,01001
665,236	0,01001
665,425	0,00981
665,615	0,00966
665,805	0,00964
665,994	0,00962
666,184	0,00952
666,373	0,00949
666,563	0,00938
666,753	0,00935
666,942	0,00933
667,132	0,00914
667,321	0,00897
667,511	0,00896
667,7	0,00895
667,889	0,00862
668,079	0,00848
668,268	0,00839
668,458	0,0083
668,647	0,00829
668,836	0,00826
669,026	0,0081
669,215	0,00811
669,404	0,00815
669,594	0,00807
669,783	0,00799
669,972	0,00804
670,162	0,008
670,351	0,00783
670,54	0,00763
670,729	0,00747
670,919	0,00732
671,108	0,00732
671,297	0,00724
671,486	0,00705
671,675	0,00692
671,864	0,00686
672,053	0,00682
672,243	0,00668
672,432	0,00665
672,621	0,0067
672,81	0,00664
672,999	0,00669
673,188	0,00664
673,377	0,00663
673,566	0,00656
673,755	0,00648
673,944	0,00633
674,133	0,00621
674,322	0,00625
674,51	0,00629
674,699	0,00621
674,888	0,00612
675,077	0,00599
675,266	0,00593
675,455	0,00587
675,644	0,00584
675,832	0,00593
676,021	0,00594
676,21	0,00603
676,399	0,00589
676,587	0,0058
676,776	0,00572
676,965	0,0057
677,153	0,0056
677,342	0,00555
677,531	0,00548
677,719	0,00531
677,908	0,00524
678,097	0,00522
678,285	0,00508
678,474	0,00507
678,662	0,0051
678,851	0,00515
679,039	0,00511
679,228	0,00511
679,416	0,0051
679,605	0,00502
679,793	0,00512
679,982	0,00498
680,17	0,00493
680,359	0,00492
680,547	0,00493
680,736	0,00485
680,924	0,00482
681,112	0,00484
681,301	0,00486
681,489	0,0048
681,677	0,00482
681,866	0,00472
682,054	0,00466
682,242	0,00463
682,43	0,00459
682,619	0,00449
682,807	0,00437
682,995	0,0042
683,183	0,00411
683,371	0,00413
683,559	0,0041
683,748	0,00406
683,936	0,00412
684,124	0,00412
684,312	0,00406
684,5	0,00396
684,688	0,004
684,876	0,00397
685,064	0,00389
685,252	0,00388
685,44	0,00378
685,628	0,00374
685,816	0,00373
686,004	0,00365
686,192	0,00358
686,38	0,00358
686,568	0,00361
686,756	0,00353
686,944	0,00355
687,131	0,00365
687,319	0,00363
687,507	0,00363
687,695	0,00356
687,883	0,00347
688,07	0,00345
688,258	0,0035
688,446	0,00351
688,634	0,00357
688,821	0,00355
689,009	0,00356
689,197	0,00358
689,384	0,00356
689,572	0,00343
689,76	0,00344
689,947	0,00352
690,135	0,00348
690,323	0,00348
690,51	0,0034
690,698	0,00336
690,885	0,00345
691,073	0,00343
691,26	0,00339
691,448	0,00342
691,635	0,00351
691,823	0,00356
692,01	0,00346
692,197	0,00344
692,385	0,0034
692,572	0,00341
692,76	0,00332
692,947	0,00327
693,134	0,00333
693,322	0,00325
693,509	0,00318
693,696	0,00305
693,884	0,00294
694,071	0,00306
694,258	0,00308
694,445	0,0031
694,633	0,00303
694,82	0,00298
695,007	0,00299
695,194	0,00289
695,381	0,0029
695,568	0,0028
695,756	0,00287
695,943	0,00287
696,13	0,00278
696,317	0,0028
696,504	0,00281
696,691	0,00282
696,878	0,0028
697,065	0,00262
697,252	0,00266
697,439	0,0027
697,626	0,00277
697,813	0,0028
698	0,00273
698,187	0,00263
698,374	0,00264
698,561	0,00261
698,747	0,00257
698,934	0,00263
699,121	0,00271
699,308	0,00264
699,495	0,00256
699,682	0,00258
699,868	0,00247
700,055	0,00252
700,242	0,00251
700,429	0,00238
700,615	0,00227
700,802	0,00223
700,989	0,00225
701,175	0,00218
701,362	0,00221
701,549	0,00217
701,735	0,00214
701,922	0,00218
702,108	0,00219
702,295	0,00226
702,482	0,00222
702,668	0,00231
702,855	0,00236
703,041	0,00236
703,228	0,00241
703,414	0,00238
703,601	0,00241
703,787	0,00243
703,973	0,00238
704,16	0,0023
704,346	0,00235
704,533	0,00243
704,719	0,0023
704,905	0,00225
705,092	0,00213
705,278	0,0021
705,464	0,00214
705,65	0,0022
705,837	0,00212
706,023	0,00214
706,209	0,00219
706,395	0,00217
706,582	0,00212
706,768	0,00213
706,954	0,00221
707,14	0,00225
707,326	0,00222
707,512	0,00212
707,698	0,00205
707,885	0,002
708,071	0,0019
708,257	0,00179
708,443	0,00182
708,629	0,00193
708,815	0,00192
709,001	0,00184
709,187	0,00183
709,373	0,00185
709,559	0,00179
709,745	0,0018
709,93	0,00173
710,116	0,00178
710,302	0,00188
710,488	0,00182
710,674	0,00175
710,86	0,00178
711,046	0,00188
711,231	0,00183
711,417	0,0018
711,603	0,00189
711,789	0,00185
711,974	0,00196
712,16	0,00193
712,346	0,00185
712,532	0,00185
712,717	0,00176
712,903	0,00177
713,089	0,00166
713,274	0,00166
713,46	0,00156
713,645	0,00154
713,831	0,00158
714,016	0,00157
714,202	0,00163
714,388	0,00179
714,573	0,00173
714,759	0,00176
714,944	0,00174
715,129	0,00181
715,315	0,00186
715,5	0,00193
715,686	0,00182
715,871	0,00173
716,057	0,00171
716,242	0,00172
716,427	0,00154
716,613	0,00152
716,798	0,00152
716,983	0,00153
717,168	0,00151
717,354	0,00155
717,539	0,00156
717,724	0,00161
717,909	0,00172
718,095	0,00175
718,28	0,00175
718,465	0,00178
718,65	0,00171
718,835	0,00162
719,02	0,0016
719,206	0,00159
719,391	0,00158
719,576	0,00142
719,761	0,0014
719,946	0,00132
720,131	0,00124
720,316	0,00115
720,501	0,00114
720,686	0,00129
720,871	0,00144
721,056	0,00142
721,241	0,0013
721,426	0,00124
721,61	0,00141
721,795	0,00148
721,98	0,00151
722,165	0,00157
722,35	0,00173
722,535	0,00169
722,719	0,00158
722,904	0,00156
723,089	0,00153
723,274	0,00159
723,458	0,00151
723,643	0,00155
723,828	0,00142
724,013	0,00137
724,197	0,00132
724,382	0,00122
724,567	0,00124
724,751	0,00126
724,936	0,00121
725,12	0,00122
725,305	0,00124
725,489	0,00128
725,674	0,0012
725,859	0,00124
726,043	0,00131
726,228	0,00135
726,412	0,00131
726,596	0,00123
726,781	0,00125
726,965	0,00124
727,15	0,00128
727,334	0,00118
727,518	0,00118
727,703	0,00122
727,887	0,0012
728,072	0,00116
728,256	0,00117
728,44	0,00122
728,624	0,00127
728,809	0,0012
728,993	0,00123
729,177	0,00119
729,361	0,0013
729,546	0,00129
729,73	0,00132
729,914	0,00127
730,098	0,00126
730,282	0,00121
730,466	0,00109
730,65	0,00111
730,834	0,00126
731,019	0,0011
731,203	0,00109
731,387	0,00107
731,571	0,00099
731,755	0,00087
731,939	0,00088
732,123	0,00085
732,306	0,00083
732,49	0,00085
732,674	0,0008
732,858	0,00069
733,042	0,00077
733,226	0,00085
733,41	0,00085
733,594	0,00092
733,778	0,00095
733,961	0,00113
734,145	0,00121
734,329	0,00127
734,513	0,00137
734,696	0,0014
734,88	0,0014
735,064	0,00139
735,247	0,00132
735,431	0,00138
735,615	0,00136
735,798	0,00142
735,982	0,00133
736,166	0,00125
736,349	0,00112
736,533	0,00108
736,716	0,00116
736,9	0,00113
737,083	0,00111
737,267	0,00105
737,45	0,00081
737,634	0,00087
737,817	0,00079
738,001	0,00074
738,184	0,00069
738,368	0,00072
738,551	0,00068
738,734	0,00056
738,918	0,0006
739,101	0,0007
739,284	0,00071
739,468	0,00083
739,651	0,00086
739,834	0,00084
740,018	0,0008
740,201	0,00088
740,384	0,00093
740,567	0,00099
740,75	0,00107
740,934	0,00103
741,117	0,00102
741,3	0,00111
741,483	0,00107
741,666	0,00092
741,849	0,00096
742,032	0,001
742,215	0,00095
742,399	0,00097
742,582	0,00091
742,765	0,00093
742,948	0,00098
743,131	0,00097
743,314	0,00083
743,496	0,00085
743,679	0,00091
743,862	0,00089
744,045	0,00092
744,228	0,00089
744,411	0,00089
744,594	0,0009
744,777	0,00086
744,959	0,00077
745,142	0,00073
745,325	0,00078
745,508	0,00078
745,691	0,00093
745,873	0,00084
746,056	0,00075
746,239	0,00077
746,421	0,00076
746,604	0,00068
746,787	0,00066
746,969	0,00075
747,152	0,0007
747,335	0,00063
747,517	0,00066
747,7	0,00061
747,882	0,00079
748,065	0,00076
748,247	0,00088
748,43	0,00077
748,612	0,0008
748,795	0,00083
748,977	0,00074
749,16	0,0008
749,342	0,00095
749,524	0,00093
749,707	0,00084
749,889	0,00072
750,072	0,00076
750,254	0,00065
750,436	0,00068
750,619	0,00072
750,801	0,00063
750,983	0,00063
751,165	0,00058
751,348	0,00049
751,53	0,00041
751,712	0,00039
751,894	0,00038
752,076	0,00048
752,259	0,00048
752,441	0,00052
752,623	0,00056
752,805	0,00054
752,987	0,00048
753,169	0,00042
753,351	0,00039
753,533	0,00046
753,715	0,00047
753,897	0,00042
754,079	0,00048
754,261	0,00052
754,443	0,00042
754,625	0,00041
754,807	0,00046
754,989	0,00061
755,171	0,00068
755,353	0,00079
755,534	0,00075
755,716	0,0007
755,898	0,00073
756,08	0,00066
756,262	0,00063
756,443	0,00054
756,625	0,00053
756,807	0,00056
756,989	0,00047
757,17	0,00045
757,352	0,00044
757,534	0,00051
757,715	0,00059
757,897	0,00069
758,079	0,00069
758,26	0,00072
758,442	0,00092
758,623	0,00086
758,805	0,00085
758,987	0,00086
759,168	0,00087
759,35	0,0008
759,531	0,00081
759,713	0,00075
759,894	0,00062
760,075	0,00056
760,257	0,00052
760,438	0,00049
760,62	0,00046
760,801	0,00044
760,982	0,00053
761,164	0,00053
761,345	0,00057
761,526	0,00049
761,708	0,00057
761,889	0,00065
762,07	0,00063
762,251	0,00068
762,433	0,00068
762,614	0,00068
762,795	0,00073
762,976	0,00072
763,157	0,00072
763,338	0,00065
763,52	0,00064
763,701	0,00054
763,882	0,00048
764,063	0,00054
764,244	0,00056
764,425	0,00061
764,606	0,00063
764,787	0,00068
764,968	0,00059
765,149	0,00059
765,33	0,00063
765,511	0,00061
765,692	0,00062
765,873	0,0007
766,053	0,00055
766,234	0,00049
766,415	0,00046
766,596	0,00032
766,777	0,00017
766,958	0,00008
767,138	0,00014
767,319	0,00012
767,5	0,00018
767,681	0,00008
767,861	0,00011
768,042	0,00016
768,223	0,00016
768,403	0,00008
768,584	0,00024
768,765	0,0003
768,945	0,00022
769,126	0,0003
769,307	0,00028
769,487	0,00028
769,668	0,0004
769,848	0,00036
770,029	0,00033
770,209	0,00027
770,39	0,0003
770,57	0,00031
770,751	0,00032
770,931	0,00044
771,111	0,0002
771,292	0,00026
771,472	0,0003
771,653	0,00028
771,833	0,0002
772,013	0,00022
772,194	0,00034
772,374	0,00022
772,554	0,0002
772,734	0,00021
772,915	0,00028
773,095	0,00045
773,275	0,00039
773,455	0,00023
773,635	0,00008
773,816	0,00014
773,996	0,00029
774,176	0,00035
774,356	0,00042
774,536	0,00044
774,716	0,00042
774,896	0,00032
775,076	0,00018
775,256	0,00026
775,436	0,00039
775,616	0,00062
775,796	0,00063
775,976	0,00061
776,156	0,00055
776,336	0,00061
776,516	0,0006
776,696	0,00055
776,876	0,00072
777,056	0,00069
777,235	0,00058
777,415	0,00064
777,595	0,00044
777,775	0,00041
777,955	0,00023
778,134	0,0002
778,314	0,00025
778,494	0,00017
778,674	0,00019
778,853	0
779,033	0,00003
779,213	0,00003
779,392	-0,00012
779,572	-0,00008
779,751	-0,00004
779,931	-0,00003
780,111	-0,00003
780,29	-0,0002
780,47	-0,00017
780,649	-0,00019
780,829	-0,00013
781,008	-0,00002
781,188	0,0001
781,367	0,0003
781,546	0,00038
781,726	0,00027
781,905	0,0003
782,085	0,00027
782,264	0,00039
782,443	0,00043
782,623	0,00037
782,802	0,00037
782,981	0,00037
783,161	0,00034
783,34	0,00027
783,519	0,00026
783,698	0,00034
783,878	0,00041
784,057	0,0004
784,236	0,00048
784,415	0,00047
784,594	0,00058
784,773	0,00067
784,952	0,00061
785,132	0,00055
785,311	0,00069
785,49	0,00063
785,669	0,0007
785,848	0,00069
786,027	0,00068
786,206	0,00061
786,385	0,00057
786,564	0,00057
786,743	0,00052
786,922	0,00057
787,1	0,00061
787,279	0,00037
787,458	0,00049
787,637	0,00044
787,816	0,00049
787,995	0,0005
788,174	0,00048
788,352	0,00056
788,531	0,00044
788,71	0,0005
788,889	0,00039
789,067	0,00025
789,246	0,00023
789,425	0,00019
789,603	0,00012
789,782	-0,00003
789,961	0,00002
790,139	0,00008
790,318	-0,00006
790,496	0,00011
790,675	0,00013
790,853	0,00017
791,032	0,00023
791,211	0,00019
791,389	0,00021
791,568	0,00031
791,746	0,00048
791,924	0,0005
792,103	0,00044
792,281	0,00048
792,46	0,0005
792,638	0,00046
792,816	0,00052
792,995	0,00057
793,173	0,0006
793,351	0,00046
793,53	0,00045
793,708	0,0004
793,886	0,0004
794,064	0,00042
794,243	0,00053
794,421	0,00039
794,599	0,00032
794,777	0,00027
794,955	0,00021
795,133	0,00021
795,312	0,00023
795,49	0,00021
795,668	0,0002
795,846	0,00012
796,024	0,0001
796,202	0,00001
796,38	-0,00002
796,558	-0,00003
796,736	-0,00022
796,914	-0,00019
797,092	-0,00015
797,27	-0,00002
797,448	-0,00011
797,626	-0,00017
797,803	-0,00024
797,981	-0,00026
798,159	-0,00026
798,337	-0,0002
798,515	-0,00017
798,693	0,00004
798,87	-0,00006
799,048	-0,00007
799,226	-0,00016
799,404	-0,00016
799,581	-0,00012
799,759	-0,00007
799,937	-0,00004
800,114	-0,00009
800,292	-0,00016
800,469	-0,00008
800,647	-0,00013
800,825	0
801,002	-0,00004
801,18	-0,0001
801,357	-0,00007
801,535	-0,00006
801,712	0,00004
801,89	0,00008
802,067	0,00006
802,245	0,00006
802,422	-0,00015
802,6	-0,00006
802,777	-0,00005
802,954	-0,0001
803,132	0,00005
803,309	0,00004
803,486	0,00002
803,664	-0,00009
803,841	-0,00003
804,018	0,00005
804,195	0,00022
804,373	0,0002
804,55	0,00005
804,727	0,00004
804,904	0,00016
805,081	0,00015
805,259	0,0001
805,436	-0,00007
805,613	-0,00007
805,79	-0,00031
805,967	-0,00033
806,144	-0,00041
806,321	-0,00033
806,498	-0,00024
806,675	-0,00017
806,852	-0,00024
807,029	-0,00028
807,206	-0,0002
807,383	0,00003
807,56	0,00009
807,737	0,00013
807,914	0,00014
808,091	0,00019
808,268	0,00035
808,444	0,00038
808,621	0,00033
808,798	0,00012
808,975	0,00028
809,152	0,00016
809,328	0,00005
809,505	0,00003
809,682	0,00002
809,858	0,00006
810,035	0,00007
810,212	-0,00006
810,388	-0,00018
810,565	-0,00008
810,742	0,00024
810,918	0,00007
811,095	0,00013
811,271	0,00016
811,448	0,00017
811,625	0,00033
811,801	0,00023
811,978	0,0003
812,154	0,00025
812,33	0,00044
812,507	0,00046
812,683	0,00035
812,86	0,00035
813,036	0,00043
813,212	0,00041
813,389	0,00031
813,565	0,00023
813,741	0,00039
813,918	0,00041
814,094	0,00045
814,27	0,00043
814,447	0,00027
814,623	0,00031
814,799	0,00038
814,975	0,00034
815,151	0,00042
815,328	0,00045
815,504	0,00042
815,68	0,00024
815,856	0,00023
816,032	0,0003
816,208	0,00026
816,384	0,00014
816,56	0,00009
816,736	-0,00009
816,912	-0,00005
817,088	-0,0001
817,264	-0,00002
817,44	-0,00008
817,616	-0,00001
817,792	-0,00017
817,968	-0,00021
818,144	-0,00012
818,32	0,00006
818,495	0,0001
818,671	0,00022
818,847	0,0001
819,023	0,00004
819,199	-0,00012
819,374	-0,00001
819,55	-0,00013
819,726	-0,00017
819,902	-0,00013
820,077	-0,00029
820,253	-0,00029
820,429	-0,00033
820,604	-0,00022
820,78	-0,00012
820,956	-0,00011
821,131	-0,00013
821,307	-0,0001
821,482	0
821,658	0,00027
821,833	0,00009
822,009	0,00005
822,184	-0,00012
822,36	-0,00011
822,535	-0,00024
822,711	-0,00029
822,886	-0,00025
823,061	-0,00016
823,237	-0,00015
823,412	-0,00017
823,587	-0,00043
823,763	-0,00042
823,938	-0,00038
824,113	-0,00044
824,289	-0,0005
824,464	-0,00046
824,639	-0,00035
824,814	-0,00045
824,99	-0,00048
825,165	-0,00053
825,34	-0,00045
825,515	-0,00025
825,69	-0,00011
825,865	-0,00007
826,04	0,00009
826,215	0,00031
826,39	0,00047
826,566	0,0005
826,741	0,00061
826,916	0,00068
827,091	0,00072
827,265	0,00069
827,44	0,00061
827,615	0,00059
827,79	0,00062
827,965	0,00079
828,14	0,0006
828,315	0,00043
828,49	0,0003
828,665	0,00041
828,839	0,00043
829,014	0,00038
829,189	0,00029
829,364	0,00029
829,538	0,00037
829,713	0,00029
829,888	0,00011
830,063	0,00007
830,237	-0,00009
830,412	-0,00003
830,587	-0,00014
830,761	-0,00009
830,936	-0,00012
831,11	-0,00009
831,285	-0,00001
831,459	0,00004
831,634	-0,00003
831,809	0,00013
831,983	0,00012
832,157	0,00029
832,332	0,00018
832,506	0,00021
832,681	0,00006
832,855	0,00008
833,03	0
833,204	-0,00004
833,378	-0,00006
833,553	0
833,727	-0,00004
833,901	0,00008
834,076	0,00026
834,25	0,00024
834,424	0,00026
834,598	0,00047
834,773	0,00043
834,947	0,00062
835,121	0,00052
835,295	0,00032
835,469	0,00031
835,643	0,00023
835,817	0,00016
835,991	-0,00014
836,166	-0,00015
836,34	-0,00009
836,514	-0,00028
836,688	-0,00019
836,862	-0,00016
837,036	-0,00029
837,21	-0,00015
837,384	-0,00013
837,557	-0,00008
837,731	-0,00001
837,905	0,00011
838,079	0,00008
838,253	-0,00015
838,427	-0,00022
838,601	-0,00031
838,774	-0,00044
838,948	-0,00043
839,122	-0,00038
839,296	-0,00038
839,469	-0,00038
839,643	-0,00058
839,817	-0,00064
839,991	-0,00083
840,164	-0,00067
840,338	-0,00068
840,512	-0,00055
840,685	-0,00038
840,859	-0,00034
841,032	-0,00052
841,206	-0,00038
841,379	-0,00033
841,553	-0,00005
841,726	0,00007
841,9	0,00028
842,073	0,00029
842,247	0,00036
842,42	0,00019
842,594	0,00032
842,767	0,00031
842,94	0,00026
843,114	0,00044
843,287	0,00057
843,46	0,00046
843,634	0,00026
843,807	0,00036
843,98	0,00026
844,154	0,00037
844,327	0,00035
844,5	0,00017
844,673	0,00017
844,846	0,00018
845,02	-0,00014
845,193	-0,00056
845,366	-0,00078
845,539	-0,00084
845,712	-0,00078
845,885	-0,00089
846,058	-0,00094
846,231	-0,00109
846,404	-0,00127
846,577	-0,00116
846,75	-0,00093
846,923	-0,00084
847,096	-0,00073
847,269	-0,00043
847,442	-0,00024
847,615	-0,00022
847,788	-0,00014
847,961	-0,00001
848,133	0,00038
848,306	0,0005
848,479	0,00046
848,652	0,00031
848,825	0,00026
848,997	0,00033
849,17	0,00014
849,343	-0
849,515	-0,00012
849,688	-0,00017
849,861	-0,00035
850,033	-0,0003
850,206	-0,00052
850,379	-0,00053
850,551	-0,00051
850,724	-0,00054
850,896	-0,0007
851,069	-0,0005
851,241	-0,00035
851,414	-0,00032
851,586	-0,00028
851,759	-0,00018
851,931	-0,00053
852,104	-0,00039
852,276	-0,00036
852,449	-0,00024
852,621	-0,00019
852,793	-0,0001
852,966	-0,00017
853,138	0,00008
853,31	0,00011
853,483	0,00027
853,655	0,0003
853,827	0,00032
853,999	0,0003
854,172	0,00033
854,344	0,00022
854,516	0,00023
854,688	0,0004
854,86	0,00027
855,032	0,00006
855,204	0,0001
855,377	-0,00003
855,549	-0,00009
855,721	0,00003
855,893	0,00004
856,065	-0,00002
856,237	-0,00005
856,409	-0,00014
856,581	-0,00015
856,753	0,00001
856,924	0
857,096	0,00018
857,268	0,00034
857,44	0,00035
857,612	0,0003
857,784	0,0003
857,956	0,00047
858,127	0,00053
858,299	0,0003
858,471	0,00021
858,643	-0,00008
858,814	0,00003
858,986	-0,00029
859,158	-0,00053
859,33	-0,00052
859,501	-0,00057
859,673	-0,00043
859,844	-0,00058
860,016	-0,00063
860,188	-0,00019
860,359	-0,00007
860,531	0,0001
860,702	-0,00014
860,874	-0,0002
861,045	-0,00008
861,217	-0,00006
861,388	0,00002
861,56	-0
861,731	0,0001
861,902	0,00006
862,074	0,00002
862,245	0,00009
862,417	0,00014
862,588	0,00012
862,759	0,00019
862,931	-0,00001
863,102	-0,00005
863,273	0,00011
863,444	-0,00007
863,616	-0,00003
863,787	-0,00013
863,958	-0,00038
864,129	-0,00057
864,3	-0,00072
864,471	-0,00065
864,642	-0,00049
864,814	-0,00048
864,985	-0,00044
865,156	-0,00074
865,327	-0,00057
865,498	-0,00058
865,669	-0,0004
865,84	-0,00019
866,011	-0,00034
866,182	-0,00009
866,353	0,00019
866,523	0,00006
866,694	0,00034
866,865	0,00031
867,036	0,00051
867,207	0,00023
867,378	-0,00007
867,549	-0,00019
867,719	-0,00039
867,89	-0,00039
868,061	-0,00037
868,232	-0,00055
868,402	-0,00059
868,573	-0,00083
868,744	-0,00073
868,914	-0,00063
869,085	-0,00045
869,256	-0,00033
869,426	-0,00027
869,597	0,00003
869,767	0,00016
869,938	0,00015
870,108	0,00006
870,279	-0,00004
870,449	-0,00009
870,62	-0,00026
870,79	-0,00032
870,961	-0,00009
871,131	0,00012
871,302	0,0003
871,472	0,00008
871,642	0,00006
871,813	-0,0003
871,983	-0,0003
872,153	-0,00024
872,324	-0,00012
872,494	-0,00017
872,664	-0,00046
872,835	-0,00043
873,005	-0,00049
873,175	-0,00058
873,345	-0,00073
873,515	-0,0008
873,685	-0,00081
873,856	-0,00063
874,026	-0,00059
874,196	-0,00047
874,366	-0,00043
874,536	-0,00019
874,706	-0,00025
874,876	-0,00044
875,046	-0,00056
875,216	-0,00057
875,386	-0,00023
875,556	0,00031
875,726	-0,00011
875,896	-0,0001
876,066	-0,00004
876,236	-0,00028
876,405	-0,00034
876,575	-0,00067
876,745	-0,00078
876,915	-0,00046
877,085	-0,00022
877,254	-0,00042
877,424	-0,00043
877,594	-0,00029
877,764	-0,00025
877,933	-0,00045
878,103	-0,00034
878,273	0,00001
878,442	0,00006
878,612	0,00031
878,781	-0,00007
878,951	-0,00034
879,121	-0,00051
879,29	-0,00078
879,46	-0,00054
879,629	-0,00031
879,799	-0,00044
879,968	-0,00028
880,138	-0,00037
880,307	-0,00009
880,476	-0,00004
880,646	-0,00014
880,815	0,00016
880,985	-0,00001
881,154	0,00008
881,323	-0,00016
881,493	-0,00051
881,662	-0,0006
881,831	-0,00046
882	-0,00072
882,17	-0,00063
882,339	-0,00068
882,508	-0,00061
882,677	-0,00053
882,846	-0,00013
883,016	-0,00025
883,185	0,00007
883,354	0,00007
883,523	0,00009
883,692	-0,00012
883,861	0,00002
884,03	-0,00038
884,199	-0,00053
884,368	0,00003
884,537	-0,00021
884,706	-0,00016
884,875	0,00007
885,044	-0,00006
885,213	0,00037
885,382	0,00075
885,55	0,00085
885,719	0,00076
885,888	0,00073
886,057	0,00047
886,226	-0,00007
886,395	0,00008
886,563	-0,00018
886,732	-0,00034
886,901	-0,00039
887,069	-0,00067
887,238	-0,00083
887,407	-0,00097
887,575	-0,00057
887,744	-0,00039
887,913	-0,00023
888,081	-0,00015
888,25	0
888,418	0,00006
888,587	-0,0002
888,755	-0,00043
888,924	-0,0004
889,092	-0,00024
889,261	-0,00014
889,429	-0,00061
889,598	-0,00052
889,766	-0,00017
889,935	-0
890,103	-0,00038
890,271	-0,00035
890,44	-0,00014
890,608	0,00002
890,776	0,00021
890,944	0,00025
891,113	0,00027
891,281	0,00023
891,449	-0,00025
891,617	-0,00073
891,786	-0,00093
891,954	-0,0007
892,122	-0,00048
892,29	-0,00043
892,458	-0,00051
892,626	-0,00058
892,794	-0,0008
892,962	-0,00079
893,13	-0,0008
893,298	-0,00025
893,466	0,00028
