Data from Chemiepractica_Absorbance__3__11-31-33-135.txt Node

Date: Mon Dec 09 11:31:33 CET 2024
User: r0948668
Spectrometer: USB4F07138
Trigger mode: 4
Integration Time (sec): 6,000000E-3
Scans to average: 20
Electric dark correction enabled: true
Nonlinearity correction enabled: false
Boxcar width: 5
XAxis mode: Wavelengths
Number of Pixels in Spectrum: 3648
>>>>>Begin Spectral Data<<<<<
176,779	-0,47712
176,999	-0,65321
177,218	-0,36133
177,438	-0
177,658	-0
177,878	-0
178,097	1,14252
178,317	0,83463
178,537	0,30821
178,757	-0,03084
178,976	0,04725
179,196	-0,19312
179,416	-0
179,635	-0,22217
179,855	-0,09223
180,075	-0,10423
180,294	-0,16802
180,514	-0,15383
180,734	-0,07977
180,953	-0,05063
181,173	-0,02631
181,392	-0,04668
181,612	-0,04441
181,832	-0,02107
182,051	-0,02254
182,271	-0,01218
182,49	-0,00368
182,71	0,00835
182,929	0,02049
183,149	-0,00022
183,368	0,00523
183,588	0,00399
183,807	0,01486
184,027	0,01911
184,246	0,01794
184,466	0,0177
184,685	0,01217
184,905	0,00625
185,124	0,01316
185,344	0,00688
185,563	0,02103
185,782	0,01702
186,002	0,01025
186,221	0,01345
186,44	0,0199
186,66	0,00653
186,879	0,0185
187,099	-0,00047
187,318	0,00528
187,537	0,00258
187,756	0,01609
187,976	0,00258
188,195	0,00189
188,414	0,01553
188,634	0,01784
188,853	0,01859
189,072	0,02297
189,291	0,01628
189,511	0,04744
189,73	0,04701
189,949	0,05281
190,168	0,04965
190,387	0,06508
190,607	0,06429
190,826	0,06122
191,045	0,05973
191,264	0,05965
191,483	0,05418
191,702	0,05376
191,921	0,03429
192,141	0,02983
192,36	0,01814
192,579	0,00972
192,798	0,00777
193,017	0,00155
193,236	0,01718
193,455	0,02154
193,674	0,01316
193,893	0,01794
194,112	0,02894
194,331	0,03194
194,55	0,03941
194,769	0,04827
194,988	0,05099
195,207	0,05041
195,426	0,04927
195,645	0,03191
195,864	0,02482
196,083	0,02704
196,302	0,01851
196,521	0,01061
196,739	0,00643
196,958	-0,00411
197,177	-0,01192
197,396	-0,00215
197,615	-0,00471
197,834	-0,01817
198,053	-0,01854
198,271	-0,01707
198,49	0,00186
198,709	0,01035
198,928	0,01516
199,147	0,02025
199,365	0,04274
199,584	0,0423
199,803	0,02668
200,022	0,0216
200,24	0,02875
200,459	0,03304
200,678	0,02714
200,897	0,01538
201,115	0,02244
201,334	0,02508
201,553	0,02426
201,771	0,0011
201,99	0,00399
202,209	0,01878
202,427	0,0194
202,646	0,02548
202,864	0,01384
203,083	0,02155
203,302	0,02315
203,52	0,02684
203,739	0,02974
203,957	0,03706
204,176	0,04595
204,394	0,05292
204,613	0,03832
204,831	0,04612
205,05	0,04895
205,268	0,06526
205,487	0,06094
205,705	0,05646
205,924	0,0587
206,142	0,05656
206,361	0,05077
206,579	0,04908
206,798	0,03831
207,016	0,04495
207,234	0,03985
207,453	0,0424
207,671	0,04728
207,89	0,05471
208,108	0,05021
208,326	0,04298
208,545	0,03598
208,763	0,04338
208,981	0,03824
209,2	0,0294
209,418	0,0323
209,636	0,01939
209,855	0,01323
210,073	-0,0082
210,291	-0,01327
210,509	-0,01599
210,728	-0,02658
210,946	-0,02154
211,164	-0,02253
211,382	-0,01708
211,6	0,00778
211,819	0,00571
212,037	0,01206
212,255	0,01091
212,473	0,02237
212,691	0,02162
212,909	0,03204
213,128	0,03088
213,346	0,02078
213,564	0,01638
213,782	0,01943
214	0,01682
214,218	0,01355
214,436	0,02898
214,654	0,02886
214,872	0,01952
215,09	0,00785
215,308	0,01332
215,526	0,02955
215,744	0,03781
215,962	0,04313
216,18	0,02797
216,398	0,03051
216,616	0,03258
216,834	0,02311
217,052	0,02259
217,27	0,01781
217,488	0,0331
217,706	0,02894
217,924	0,0204
218,142	0,0216
218,36	0,02596
218,578	0,03908
218,795	0,01832
219,013	0,01818
219,231	0,00259
219,449	0,0046
219,667	0,01217
219,885	0,00602
220,102	0,00578
220,32	0,00524
220,538	0,00768
220,756	0,00395
220,973	0,01405
221,191	0,02681
221,409	0,01652
221,627	0,02187
221,844	0,01943
222,062	0,0271
222,28	0,03058
222,497	0,02211
222,715	0,01864
222,933	0,01232
223,15	0,00945
223,368	0,00575
223,586	0,00699
223,803	0,02004
224,021	0,02702
224,239	0,03041
224,456	0,02947
224,674	0,02411
224,891	0,03384
225,109	0,04096
225,326	0,04057
225,544	0,04024
225,762	0,02799
225,979	0,03893
226,197	0,03598
226,414	0,03216
226,632	0,02289
226,849	0,01119
227,066	0,02131
227,284	0,01622
227,501	0,01738
227,719	0,03244
227,936	0,03129
228,154	0,05209
228,371	0,04179
228,588	0,04883
228,806	0,06047
229,023	0,07212
229,241	0,08262
229,458	0,0799
229,675	0,08467
229,893	0,08301
230,11	0,08042
230,327	0,07789
230,545	0,06787
230,762	0,0768
230,979	0,07387
231,196	0,06747
231,414	0,05849
231,631	0,0477
231,848	0,04085
232,065	0,03295
232,283	0,02376
232,5	0,01385
232,717	0,01157
232,934	0,0021
233,151	0,00236
233,368	-0,00967
233,586	-0,00965
233,803	0,00097
234,02	0,00842
234,237	0,01653
234,454	0,02482
234,671	0,05205
234,888	0,05763
235,105	0,06595
235,322	0,07168
235,54	0,05666
235,757	0,06939
235,974	0,06401
236,191	0,05461
236,408	0,05564
236,625	0,05592
236,842	0,04974
237,059	0,03567
237,276	0,02636
237,493	0,02962
237,71	0,03562
237,926	0,03028
238,143	0,02746
238,36	0,03449
238,577	0,03918
238,794	0,04023
239,011	0,0367
239,228	0,03814
239,445	0,02521
239,662	0,04648
239,878	0,04728
240,095	0,04027
240,312	0,05284
240,529	0,05823
240,746	0,06664
240,963	0,06365
241,179	0,06499
241,396	0,07886
241,613	0,07334
241,83	0,08273
242,046	0,06614
242,263	0,06208
242,48	0,05896
242,697	0,0632
242,913	0,05832
243,13	0,04142
243,347	0,05509
243,563	0,0497
243,78	0,03626
243,997	0,04594
244,213	0,04408
244,43	0,05613
244,646	0,05774
244,863	0,05741
245,08	0,05661
245,296	0,05671
245,513	0,05881
245,729	0,05054
245,946	0,0621
246,162	0,06261
246,379	0,05662
246,595	0,06037
246,812	0,06016
247,028	0,05686
247,245	0,06144
247,461	0,05337
247,678	0,0391
247,894	0,05027
248,111	0,05168
248,327	0,03846
248,544	0,04191
248,76	0,04576
248,976	0,04639
249,193	0,03382
249,409	0,04368
249,626	0,04476
249,842	0,05181
250,058	0,06941
250,275	0,06241
250,491	0,05271
250,707	0,06123
250,924	0,06511
251,14	0,06289
251,356	0,06098
251,572	0,06312
251,789	0,06495
252,005	0,06733
252,221	0,07762
252,437	0,06425
252,654	0,06231
252,87	0,05874
253,086	0,06127
253,302	0,05594
253,518	0,06115
253,735	0,05665
253,951	0,0601
254,167	0,04075
254,383	0,02226
254,599	0,00236
254,815	0,01159
255,031	-0,00363
255,247	-0,00094
255,463	-0,01037
255,68	-0,00209
255,896	-0,00872
256,112	-0,00851
256,328	-0,01051
256,544	-0,0026
256,76	0,01442
256,976	0,02418
257,192	0,03153
257,408	0,04874
257,624	0,0504
257,84	0,05845
258,056	0,04828
258,272	0,05171
258,487	0,04557
258,703	0,05267
258,919	0,05452
259,135	0,05821
259,351	0,05776
259,567	0,06239
259,783	0,05847
259,999	0,06005
260,215	0,06116
260,43	0,05711
260,646	0,06525
260,862	0,07187
261,078	0,06437
261,294	0,05588
261,509	0,05087
261,725	0,0554
261,941	0,03637
262,157	0,03911
262,372	0,04117
262,588	0,02412
262,804	0,02497
263,019	0,01049
263,235	0,02112
263,451	0,02143
263,667	0,03473
263,882	0,03611
264,098	0,03611
264,313	0,0399
264,529	0,03564
264,745	0,04052
264,96	0,04253
265,176	0,05373
265,391	0,06069
265,607	0,05992
265,823	0,05545
266,038	0,05067
266,254	0,04541
266,469	0,04523
266,685	0,04452
266,9	0,04502
267,116	0,04268
267,331	0,05845
267,547	0,05588
267,762	0,05842
267,978	0,04977
268,193	0,05822
268,408	0,05818
268,624	0,06033
268,839	0,061
269,055	0,0503
269,27	0,05561
269,485	0,05184
269,701	0,05194
269,916	0,05207
270,132	0,05489
270,347	0,0582
270,562	0,05277
270,777	0,04678
270,993	0,04683
271,208	0,03652
271,423	0,06109
271,639	0,05585
271,854	0,04892
272,069	0,04208
272,284	0,03188
272,5	0,03399
272,715	0,03178
272,93	0,02668
273,145	0,02297
273,36	0,03345
273,576	0,0397
273,791	0,02693
274,006	0,02276
274,221	0,02717
274,436	0,02313
274,651	0,02619
274,866	0,0276
275,081	0,03355
275,296	0,03457
275,512	0,03535
275,727	0,02536
275,942	0,02105
276,157	0,0173
276,372	0,02385
276,587	0,03455
276,802	0,04336
277,017	0,03815
277,232	0,03035
277,447	0,02532
277,662	0,02859
277,877	0,03357
278,092	0,03285
278,306	0,04412
278,521	0,05633
278,736	0,06387
278,951	0,05919
279,166	0,05188
279,381	0,05917
279,596	0,06146
279,811	0,06099
280,025	0,05357
280,24	0,04238
280,455	0,04848
280,67	0,03564
280,885	0,02096
281,099	0,01048
281,314	-0,00436
281,529	-0,0021
281,744	0,00198
281,959	0,00131
282,173	0,00794
282,388	0,01791
282,603	0,02222
282,817	0,02819
283,032	0,03297
283,247	0,03628
283,461	0,03814
283,676	0,04539
283,891	0,05215
284,105	0,04772
284,32	0,05666
284,535	0,05162
284,749	0,05573
284,964	0,0707
285,178	0,05715
285,393	0,06092
285,607	0,06064
285,822	0,06942
286,036	0,08029
286,251	0,06864
286,465	0,07274
286,68	0,07673
286,894	0,07156
287,109	0,06999
287,323	0,05876
287,538	0,06044
287,752	0,05026
287,967	0,05419
288,181	0,04148
288,396	0,04657
288,61	0,0544
288,824	0,06675
289,039	0,06337
289,253	0,06801
289,467	0,06263
289,682	0,06513
289,896	0,06851
290,11	0,07237
290,325	0,07698
290,539	0,08167
290,753	0,074
290,968	0,06766
291,182	0,04778
291,396	0,04473
291,61	0,04805
291,825	0,05125
292,039	0,04782
292,253	0,0521
292,467	0,05139
292,681	0,04301
292,896	0,04087
293,11	0,02435
293,324	0,03834
293,538	0,04221
293,752	0,04078
293,966	0,03483
294,18	0,02851
294,394	0,02227
294,608	0,02382
294,823	0,0206
295,037	0,0199
295,251	0,02139
295,465	0,03605
295,679	0,02163
295,893	0,02425
296,107	0,01552
296,321	0,02886
296,535	0,03187
296,749	0,03372
296,963	0,01823
297,177	0,02097
297,391	0,03292
297,604	0,02581
297,818	0,02534
298,032	0,02392
298,246	0,01561
298,46	0,02936
298,674	0,0165
298,888	0,01485
299,102	0,02302
299,315	0,03271
299,529	0,04104
299,743	0,03537
299,957	0,05089
300,171	0,05115
300,385	0,0594
300,598	0,07976
300,812	0,07346
301,026	0,0726
301,24	0,08099
301,453	0,07095
301,667	0,07097
301,881	0,0671
302,094	0,05734
302,308	0,04346
302,522	0,05016
302,735	0,04446
302,949	0,02945
303,163	0,02752
303,376	0,02921
303,59	0,02771
303,803	0,03513
304,017	0,03581
304,231	0,03374
304,444	0,04792
304,658	0,05441
304,871	0,06089
305,085	0,06336
305,298	0,06152
305,512	0,05943
305,725	0,05879
305,939	0,05281
306,152	0,04367
306,366	0,03319
306,579	0,03995
306,793	0,03432
307,006	0,03386
307,22	0,01304
307,433	0,01337
307,646	0,01539
307,86	0,00965
308,073	0,00869
308,286	0,0038
308,5	0,01186
308,713	0,01212
308,926	0,01531
309,14	0,01521
309,353	0,01197
309,566	0,01025
309,78	0,01257
309,993	0,01348
310,206	0,02808
310,419	0,03723
310,633	0,03883
310,846	0,05005
311,059	0,05406
311,272	0,04212
311,486	0,03314
311,699	0,03398
311,912	0,04578
312,125	0,04553
312,338	0,04203
312,551	0,03534
312,764	0,02772
312,978	0,03961
313,191	0,02978
313,404	0,02726
313,617	0,02462
313,83	0,03228
314,043	0,03723
314,256	0,03199
314,469	0,02047
314,682	0,01914
314,895	0,02029
315,108	0,02654
315,321	0,01833
315,534	0,0163
315,747	0,02327
315,96	0,03526
316,173	0,02714
316,386	0,02073
316,599	0,02665
316,812	0,03836
317,025	0,04913
317,237	0,0449
317,45	0,03991
317,663	0,04332
317,876	0,04481
318,089	0,0443
318,302	0,03659
318,515	0,04223
318,727	0,04207
318,94	0,04163
319,153	0,03109
319,366	0,02269
319,578	0,02038
319,791	0,03379
320,004	0,02519
320,217	0,03094
320,429	0,03013
320,642	0,03151
320,855	0,02544
321,067	0,02779
321,28	0,02225
321,493	0,02834
321,705	0,02592
321,918	0,02961
322,131	0,02264
322,343	0,02434
322,556	0,02558
322,768	0,02522
322,981	0,01877
323,194	0,01823
323,406	0,01611
323,619	0,02225
323,831	0,02848
324,044	0,03119
324,256	0,03313
324,469	0,02307
324,681	0,03272
324,894	0,0279
325,106	0,03242
325,319	0,03034
325,531	0,03908
325,743	0,03821
325,956	0,03673
326,168	0,03731
326,381	0,03778
326,593	0,03378
326,805	0,04367
327,018	0,04015
327,23	0,02967
327,442	0,02617
327,655	0,021
327,867	0,02085
328,079	0,01683
328,292	0,0116
328,504	0,01221
328,716	0,01473
328,928	0,02394
329,141	0,02385
329,353	0,01859
329,565	0,02777
329,777	0,02777
329,99	0,04161
330,202	0,04703
330,414	0,05201
330,626	0,05016
330,838	0,04787
331,05	0,045
331,263	0,03832
331,475	0,03826
331,687	0,03855
331,899	0,04144
332,111	0,04422
332,323	0,03931
332,535	0,03387
332,747	0,03669
332,959	0,04086
333,171	0,03794
333,383	0,03226
333,595	0,03042
333,807	0,02471
334,019	0,02394
334,231	0,01853
334,443	0,00803
334,655	0,00985
334,867	0,00585
335,079	0,00982
335,291	0,00193
335,503	0,0076
335,714	0,00779
335,926	0,0133
336,138	0,01515
336,35	0,01537
336,562	0,01664
336,774	0,02161
336,986	0,02396
337,197	0,02398
337,409	0,01637
337,621	0,01927
337,833	0,01563
338,044	0,02513
338,256	0,02238
338,468	0,02206
338,68	0,02773
338,891	0,02458
339,103	0,02643
339,315	0,02482
339,526	0,02408
339,738	0,02133
339,95	0,01892
340,161	0,03303
340,373	0,02169
340,585	0,01395
340,796	0,01661
341,008	0,01446
341,219	0,02115
341,431	0,01786
341,642	0,01399
341,854	0,02474
342,065	0,0315
342,277	0,03035
342,489	0,01732
342,7	0,02705
342,912	0,03795
343,123	0,03779
343,334	0,038
343,546	0,02177
343,757	0,02603
343,969	0,02041
344,18	0,01588
344,392	0,01841
344,603	0,03314
344,814	0,03192
345,026	0,03617
345,237	0,03163
345,448	0,02593
345,66	0,0283
345,871	0,04009
346,082	0,04572
346,294	0,05756
346,505	0,05171
346,716	0,04719
346,927	0,04295
347,139	0,04476
347,35	0,04078
347,561	0,03958
347,772	0,04053
347,984	0,04066
348,195	0,04723
348,406	0,03546
348,617	0,03015
348,828	0,03321
349,039	0,03762
349,251	0,03776
349,462	0,03171
349,673	0,03032
349,884	0,03363
350,095	0,0358
350,306	0,03042
350,517	0,02823
350,728	0,0329
350,939	0,03149
351,15	0,03159
351,361	0,02595
351,572	0,02428
351,783	0,03033
351,994	0,03437
352,205	0,03577
352,416	0,03514
352,627	0,03639
352,838	0,03203
353,049	0,03767
353,26	0,04276
353,471	0,03874
353,682	0,03346
353,893	0,03448
354,103	0,03053
354,314	0,01677
354,525	0,01115
354,736	0,00864
354,947	0,00787
355,157	0,00316
355,368	-0,00216
355,579	-0,0094
355,79	-0,00464
356,001	-0,00342
356,211	0,00192
356,422	-0,00481
356,633	0,00282
356,843	0,00659
357,054	0,00889
357,265	0,00717
357,476	0,01226
357,686	0,01327
357,897	0,0212
358,107	0,01593
358,318	0,02017
358,529	0,01665
358,739	0,02715
358,95	0,02656
359,16	0,02534
359,371	0,02236
359,582	0,02586
359,792	0,02308
360,003	0,02242
360,213	0,01622
360,424	0,01981
360,634	0,03018
360,845	0,02156
361,055	0,01839
361,266	0,01575
361,476	0,02756
361,686	0,03316
361,897	0,03255
362,107	0,04034
362,318	0,04024
362,528	0,04411
362,738	0,04201
362,949	0,03222
363,159	0,0389
363,369	0,04229
363,58	0,04115
363,79	0,03143
364	0,03022
364,211	0,02787
364,421	0,02212
364,631	0,02755
364,842	0,01883
365,052	0,01765
365,262	0,01789
365,472	0,01954
365,682	0,01558
365,893	0,0159
366,103	0,01634
366,313	0,01404
366,523	0,02156
366,733	0,01837
366,943	0,01519
367,154	0,02532
367,364	0,03456
367,574	0,03623
367,784	0,03131
367,994	0,03549
368,204	0,03904
368,414	0,03876
368,624	0,03708
368,834	0,03429
369,044	0,0422
369,254	0,04033
369,464	0,03639
369,674	0,03417
369,884	0,03101
370,094	0,03015
370,304	0,02363
370,514	0,02404
370,724	0,01909
370,934	0,01563
371,144	0,01159
371,353	0,00957
371,563	0,01156
371,773	0,01061
371,983	0,00818
372,193	0,00962
372,403	0,01589
372,612	0,01686
372,822	0,01747
373,032	0,01982
373,242	0,02832
373,452	0,03039
373,661	0,03152
373,871	0,03077
374,081	0,03266
374,29	0,03286
374,5	0,03261
374,71	0,02632
374,92	0,02727
375,129	0,02673
375,339	0,02309
375,549	0,02123
375,758	0,01908
375,968	0,01738
376,177	0,01488
376,387	0,01169
376,597	0,01103
376,806	0,00897
377,016	0,00802
377,225	0,00933
377,435	0,01088
377,644	0,01334
377,854	0,01541
378,063	0,01774
378,273	0,01635
378,482	0,02048
378,692	0,02681
378,901	0,02531
379,111	0,0298
379,32	0,03655
379,529	0,03589
379,739	0,03474
379,948	0,03642
380,158	0,03558
380,367	0,03577
380,576	0,03861
380,786	0,0311
380,995	0,029
381,204	0,03134
381,414	0,02837
381,623	0,02242
381,832	0,02585
382,041	0,02406
382,251	0,02474
382,46	0,0221
382,669	0,0193
382,878	0,01655
383,088	0,02089
383,297	0,02198
383,506	0,01899
383,715	0,01906
383,924	0,02214
384,133	0,01984
384,342	0,01966
384,552	0,01837
384,761	0,02003
384,97	0,02549
385,179	0,02683
385,388	0,02502
385,597	0,02203
385,806	0,02454
386,015	0,02424
386,224	0,02229
386,433	0,02205
386,642	0,01894
386,851	0,02037
387,06	0,01999
387,269	0,01455
387,478	0,01814
387,687	0,01987
387,896	0,0216
388,105	0,0207
388,314	0,0194
388,523	0,02081
388,731	0,02256
388,94	0,02663
389,149	0,02624
389,358	0,02722
389,567	0,03311
389,776	0,02998
389,984	0,02985
390,193	0,0292
390,402	0,03045
390,611	0,03281
390,819	0,03343
391,028	0,03284
391,237	0,03341
391,446	0,03354
391,654	0,03454
391,863	0,02996
392,072	0,03019
392,28	0,0293
392,489	0,02829
392,698	0,02387
392,906	0,02342
393,115	0,02243
393,324	0,02178
393,532	0,01896
393,741	0,01821
393,949	0,01599
394,158	0,01561
394,366	0,01283
394,575	0,01205
394,783	0,01114
394,992	0,01151
395,2	0,00984
395,409	0,01164
395,617	0,00845
395,826	0,00989
396,034	0,0078
396,243	0,00744
396,451	0,00854
396,66	0,0142
396,868	0,01498
397,076	0,01503
397,285	0,01658
397,493	0,01828
397,701	0,01582
397,91	0,01725
398,118	0,01891
398,326	0,02062
398,535	0,01832
398,743	0,01964
398,951	0,01598
399,159	0,01716
399,368	0,01896
399,576	0,01843
399,784	0,0192
399,992	0,01793
400,201	0,01794
400,409	0,0133
400,617	0,01373
400,825	0,01766
401,033	0,01618
401,241	0,0178
401,45	0,01953
401,658	0,02048
401,866	0,02214
402,074	0,01953
402,282	0,02161
402,49	0,02184
402,698	0,02589
402,906	0,02425
403,114	0,02178
403,322	0,01849
403,53	0,01766
403,738	0,01709
403,946	0,01454
404,154	0,01174
404,362	0,0135
404,57	0,01278
404,778	0,01061
404,986	0,0094
405,194	0,01126
405,402	0,01288
405,609	0,016
405,817	0,01252
406,025	0,0122
406,233	0,01573
406,441	0,01862
406,649	0,01725
406,856	0,01726
407,064	0,01843
407,272	0,01963
407,48	0,01953
407,687	0,01943
407,895	0,02063
408,103	0,02357
408,311	0,02291
408,518	0,01985
408,726	0,01916
408,934	0,02034
409,141	0,02102
409,349	0,02011
409,557	0,01976
409,764	0,01892
409,972	0,01904
410,18	0,01737
410,387	0,01742
410,595	0,01682
410,802	0,0169
411,01	0,01699
411,217	0,01646
411,425	0,01633
411,632	0,0181
411,84	0,01718
412,047	0,01675
412,255	0,01577
412,462	0,01637
412,67	0,01675
412,877	0,01712
413,085	0,01587
413,292	0,01522
413,499	0,01631
413,707	0,01565
413,914	0,01535
414,122	0,01568
414,329	0,01588
414,536	0,01454
414,744	0,01389
414,951	0,0136
415,158	0,01388
415,366	0,01364
415,573	0,01409
415,78	0,01377
415,987	0,01309
416,195	0,01327
416,402	0,01246
416,609	0,01319
416,816	0,01499
417,023	0,01672
417,231	0,01792
417,438	0,01712
417,645	0,0181
417,852	0,01771
418,059	0,01838
418,266	0,01987
418,473	0,01923
418,68	0,02035
418,888	0,02104
419,095	0,02129
419,302	0,01955
419,509	0,01729
419,716	0,01779
419,923	0,0186
420,13	0,01768
420,337	0,01828
420,544	0,01734
420,751	0,01726
420,958	0,01745
421,165	0,01676
421,371	0,01614
421,578	0,01559
421,785	0,01672
421,992	0,0174
422,199	0,01719
422,406	0,01933
422,613	0,01722
422,82	0,01708
423,026	0,0175
423,233	0,01686
423,44	0,01647
423,647	0,01715
423,854	0,01774
424,06	0,01628
424,267	0,01486
424,474	0,01358
424,681	0,01231
424,887	0,01243
425,094	0,01275
425,301	0,01364
425,507	0,01296
425,714	0,01223
425,921	0,01079
426,127	0,00965
426,334	0,01022
426,54	0,01126
426,747	0,01329
426,954	0,01214
427,16	0,01168
427,367	0,01166
427,573	0,01097
427,78	0,01213
427,986	0,01329
428,193	0,01335
428,399	0,01543
428,606	0,01588
428,812	0,01512
429,019	0,0142
429,225	0,01618
429,432	0,01699
429,638	0,0167
429,845	0,01561
430,051	0,01516
430,257	0,01439
430,464	0,01509
430,67	0,01465
430,876	0,01482
431,083	0,01517
431,289	0,01609
431,495	0,0161
431,702	0,0159
431,908	0,01608
432,114	0,01597
432,32	0,01596
432,527	0,01663
432,733	0,01655
432,939	0,0167
433,145	0,01716
433,351	0,01722
433,558	0,01746
433,764	0,01714
433,97	0,01691
434,176	0,01731
434,382	0,01912
434,588	0,01909
434,794	0,01881
435,001	0,01847
435,207	0,01787
435,413	0,01735
435,619	0,01829
435,825	0,01676
436,031	0,0167
436,237	0,01721
436,443	0,01722
436,649	0,01702
436,855	0,01801
437,061	0,01864
437,267	0,01876
437,473	0,01987
437,679	0,02105
437,884	0,0203
438,09	0,02036
438,296	0,01902
438,502	0,01767
438,708	0,01745
438,914	0,01676
439,12	0,01687
439,325	0,01733
439,531	0,01765
439,737	0,01665
439,943	0,01634
440,149	0,01654
440,354	0,01759
440,56	0,01851
440,766	0,01982
440,972	0,02044
441,177	0,02111
441,383	0,02097
441,589	0,02047
441,794	0,02059
442	0,02099
442,206	0,02078
442,411	0,02104
442,617	0,02089
442,822	0,02146
443,028	0,0214
443,234	0,02239
443,439	0,02288
443,645	0,02204
443,85	0,02228
444,056	0,02323
444,261	0,02357
444,467	0,02335
444,672	0,02269
444,878	0,02318
445,083	0,02286
445,289	0,02285
445,494	0,02181
445,699	0,02166
445,905	0,02217
446,11	0,0225
446,316	0,02161
446,521	0,02158
446,726	0,021
446,932	0,02128
447,137	0,02108
447,342	0,02159
447,548	0,021
447,753	0,02084
447,958	0,02122
448,164	0,02103
448,369	0,02058
448,574	0,02049
448,779	0,0206
448,984	0,02113
449,19	0,02155
449,395	0,02135
449,6	0,02132
449,805	0,02317
450,01	0,02354
450,215	0,02291
450,421	0,02382
450,626	0,02467
450,831	0,02493
451,036	0,02466
451,241	0,02537
451,446	0,02502
451,651	0,02565
451,856	0,0263
452,061	0,0258
452,266	0,02612
452,471	0,02695
452,676	0,02635
452,881	0,02641
453,086	0,02725
453,291	0,02765
453,496	0,02804
453,701	0,02861
453,906	0,02836
454,111	0,02765
454,316	0,02806
454,52	0,0281
454,725	0,02723
454,93	0,02798
455,135	0,02796
455,34	0,02795
455,545	0,0283
455,749	0,02762
455,954	0,02752
456,159	0,02786
456,364	0,0289
456,568	0,02833
456,773	0,02887
456,978	0,02995
457,182	0,03046
457,387	0,03033
457,592	0,03021
457,796	0,02993
458,001	0,03088
458,206	0,0316
458,41	0,03201
458,615	0,03158
458,82	0,03256
459,024	0,03328
459,229	0,03385
459,433	0,03323
459,638	0,03336
459,842	0,03403
460,047	0,03424
460,251	0,0338
460,456	0,03367
460,66	0,03417
460,865	0,03496
461,069	0,03498
461,274	0,03476
461,478	0,03422
461,682	0,03467
461,887	0,03546
462,091	0,03557
462,296	0,03654
462,5	0,0373
462,704	0,03747
462,909	0,03651
463,113	0,03658
463,317	0,03688
463,522	0,0378
463,726	0,03857
463,93	0,03933
464,134	0,03908
464,339	0,03922
464,543	0,03874
464,747	0,03884
464,951	0,03963
465,155	0,04056
465,36	0,04096
465,564	0,04059
465,768	0,03988
465,972	0,04066
466,176	0,04049
466,38	0,04132
466,584	0,04168
466,788	0,04283
466,993	0,04283
467,197	0,04263
467,401	0,04303
467,605	0,04344
467,809	0,04445
468,013	0,04517
468,217	0,0452
468,421	0,04538
468,625	0,0454
468,829	0,04588
469,033	0,04598
469,236	0,04727
469,44	0,04666
469,644	0,04654
469,848	0,04692
470,052	0,04771
470,256	0,0471
470,46	0,04687
470,664	0,04775
470,867	0,04819
471,071	0,04834
471,275	0,04855
471,479	0,04794
471,683	0,04911
471,886	0,04956
472,09	0,04954
472,294	0,04895
472,497	0,04958
472,701	0,05024
472,905	0,05044
473,109	0,051
473,312	0,05109
473,516	0,05202
473,719	0,05266
473,923	0,0531
474,127	0,05389
474,33	0,05415
474,534	0,05457
474,737	0,05552
474,941	0,05565
475,145	0,05543
475,348	0,0555
475,552	0,05613
475,755	0,05605
475,959	0,05671
476,162	0,05735
476,366	0,05727
476,569	0,05755
476,772	0,05832
476,976	0,05892
477,179	0,05966
477,383	0,06036
477,586	0,0607
477,789	0,06092
477,993	0,06121
478,196	0,06143
478,399	0,06163
478,603	0,06244
478,806	0,06323
479,009	0,06326
479,213	0,06296
479,416	0,06315
479,619	0,06373
479,822	0,06454
480,026	0,06534
480,229	0,06578
480,432	0,06654
480,635	0,0668
480,838	0,06741
481,041	0,06726
481,245	0,06776
481,448	0,06826
481,651	0,06878
481,854	0,06928
482,057	0,06942
482,26	0,06965
482,463	0,0701
482,666	0,07023
482,869	0,07093
483,072	0,07147
483,275	0,07206
483,478	0,07256
483,681	0,07356
483,884	0,07409
484,087	0,07453
484,29	0,07518
484,493	0,07562
484,696	0,07646
484,899	0,07722
485,102	0,07771
485,305	0,07778
485,508	0,07922
485,71	0,07993
485,913	0,08022
486,116	0,08076
486,319	0,08187
486,522	0,08245
486,725	0,08312
486,927	0,08362
487,13	0,08423
487,333	0,08503
487,536	0,08595
487,738	0,08596
487,941	0,08637
488,144	0,08708
488,346	0,08773
488,549	0,08753
488,752	0,08812
488,954	0,08871
489,157	0,08927
489,359	0,0898
489,562	0,0903
489,765	0,09071
489,967	0,0913
490,17	0,09211
490,372	0,09268
490,575	0,09327
490,777	0,09434
490,98	0,09486
491,182	0,09546
491,385	0,09613
491,587	0,09685
491,79	0,09759
491,992	0,09821
492,195	0,09885
492,397	0,09937
492,599	0,09989
492,802	0,10032
493,004	0,10111
493,207	0,10168
493,409	0,10242
493,611	0,10297
493,814	0,10347
494,016	0,10387
494,218	0,10458
494,42	0,1056
494,623	0,10639
494,825	0,10735
495,027	0,10776
495,229	0,10826
495,432	0,10891
495,634	0,1095
495,836	0,11023
496,038	0,11095
496,24	0,11161
496,442	0,11208
496,645	0,11255
496,847	0,11328
497,049	0,1137
497,251	0,11473
497,453	0,1155
497,655	0,11627
497,857	0,11747
498,059	0,11852
498,261	0,11897
498,463	0,1202
498,665	0,12131
498,867	0,12193
499,069	0,12274
499,271	0,12348
499,473	0,12435
499,675	0,12522
499,877	0,12616
500,079	0,1267
500,281	0,12711
500,482	0,12813
500,684	0,12871
500,886	0,12952
501,088	0,1306
501,29	0,13147
501,492	0,13227
501,693	0,1333
501,895	0,13391
502,097	0,13454
502,299	0,13531
502,5	0,13621
502,702	0,13709
502,904	0,13809
503,106	0,13889
503,307	0,13946
503,509	0,14029
503,711	0,14149
503,912	0,14217
504,114	0,14314
504,315	0,14421
504,517	0,14508
504,719	0,14593
504,92	0,14693
505,122	0,14753
505,323	0,14836
505,525	0,14952
505,726	0,15049
505,928	0,15126
506,129	0,1521
506,331	0,15278
506,532	0,15392
506,734	0,15496
506,935	0,15608
507,137	0,15681
507,338	0,15756
507,539	0,15846
507,741	0,15937
507,942	0,16018
508,143	0,16128
508,345	0,16244
508,546	0,16353
508,747	0,16451
508,949	0,16545
509,15	0,16596
509,351	0,1669
509,553	0,1681
509,754	0,1692
509,955	0,17015
510,156	0,17131
510,357	0,17196
510,559	0,17295
510,76	0,17402
510,961	0,17482
511,162	0,1755
511,363	0,1768
511,564	0,17785
511,766	0,17907
511,967	0,18007
512,168	0,18109
512,369	0,18215
512,57	0,18328
512,771	0,18441
512,972	0,18555
513,173	0,18678
513,374	0,18821
513,575	0,18944
513,776	0,19081
513,977	0,19149
514,178	0,19266
514,379	0,19377
514,58	0,19459
514,781	0,19613
514,981	0,19726
515,182	0,1981
515,383	0,19936
515,584	0,20044
515,785	0,20168
515,986	0,20252
516,187	0,20404
516,387	0,20511
516,588	0,20644
516,789	0,20787
516,99	0,20877
517,19	0,21002
517,391	0,21148
517,592	0,21261
517,793	0,21364
517,993	0,21471
518,194	0,21623
518,395	0,21737
518,595	0,21843
518,796	0,21944
518,996	0,22046
519,197	0,22155
519,398	0,22243
519,598	0,22363
519,799	0,22456
519,999	0,22582
520,2	0,22685
520,4	0,22771
520,601	0,2289
520,801	0,23031
521,002	0,23157
521,202	0,23278
521,403	0,23413
521,603	0,23546
521,804	0,23658
522,004	0,23794
522,204	0,23902
522,405	0,24032
522,605	0,24154
522,806	0,24274
523,006	0,24384
523,206	0,24489
523,407	0,24624
523,607	0,24711
523,807	0,24823
524,007	0,249
524,208	0,25007
524,408	0,25133
524,608	0,25269
524,808	0,25397
525,009	0,25512
525,209	0,25627
525,409	0,25768
525,609	0,25894
525,809	0,26048
526,009	0,26173
526,209	0,26325
526,41	0,26433
526,61	0,26592
526,81	0,2668
527,01	0,26788
527,21	0,26909
527,41	0,27029
527,61	0,27126
527,81	0,27203
528,01	0,27301
528,21	0,27401
528,41	0,27498
528,61	0,27597
528,81	0,27671
529,01	0,27782
529,21	0,27889
529,41	0,27961
529,609	0,28052
529,809	0,28151
530,009	0,28273
530,209	0,28385
530,409	0,28492
530,609	0,28606
530,808	0,28717
531,008	0,28809
531,208	0,28924
531,408	0,29025
531,608	0,29168
531,807	0,29265
532,007	0,2939
532,207	0,29488
532,406	0,2957
532,606	0,29674
532,806	0,29779
533,005	0,29886
533,205	0,29978
533,405	0,30063
533,604	0,30158
533,804	0,30233
534,003	0,30334
534,203	0,30398
534,403	0,30473
534,602	0,30578
534,802	0,30665
535,001	0,30771
535,201	0,30859
535,4	0,3096
535,6	0,3104
535,799	0,31139
535,998	0,31237
536,198	0,31329
536,397	0,31423
536,597	0,31513
536,796	0,31603
536,995	0,31704
537,195	0,3176
537,394	0,31836
537,594	0,31911
537,793	0,31994
537,992	0,32093
538,191	0,32178
538,391	0,32256
538,59	0,32345
538,789	0,32427
538,988	0,32479
539,188	0,32538
539,387	0,32636
539,586	0,3272
539,785	0,32803
539,984	0,32895
540,184	0,32956
540,383	0,33037
540,582	0,33109
540,781	0,33201
540,98	0,33294
541,179	0,33393
541,378	0,33475
541,577	0,33531
541,776	0,33579
541,975	0,33659
542,174	0,33702
542,373	0,33759
542,572	0,33809
542,771	0,33889
542,97	0,33935
543,169	0,33975
543,368	0,34014
543,567	0,34075
543,766	0,34133
543,965	0,34209
544,164	0,34247
544,362	0,34353
544,561	0,34413
544,76	0,3447
544,959	0,34531
545,158	0,34578
545,356	0,34644
545,555	0,3472
545,754	0,34758
545,953	0,34813
546,151	0,34868
546,35	0,34935
546,549	0,34934
546,748	0,34966
546,946	0,35004
547,145	0,35038
547,344	0,35092
547,542	0,35127
547,741	0,3517
547,939	0,35189
548,138	0,35208
548,337	0,35241
548,535	0,35282
548,734	0,35323
548,932	0,35368
549,131	0,35408
549,329	0,35434
549,528	0,35462
549,726	0,3549
549,925	0,35504
550,123	0,35559
550,322	0,35603
550,52	0,35644
550,718	0,35675
550,917	0,35729
551,115	0,3575
551,313	0,35779
551,512	0,35827
551,71	0,35874
551,908	0,35922
552,107	0,35979
552,305	0,36014
552,503	0,36083
552,702	0,36103
552,9	0,36128
553,098	0,36152
553,296	0,36207
553,495	0,36246
553,693	0,36278
553,891	0,36317
554,089	0,36358
554,287	0,36393
554,485	0,36449
554,683	0,36443
554,882	0,36491
555,08	0,36549
555,278	0,366
555,476	0,36653
555,674	0,36686
555,872	0,36731
556,07	0,36724
556,268	0,36767
556,466	0,36799
556,664	0,36832
556,862	0,36901
557,06	0,36964
557,258	0,36998
557,456	0,37034
557,654	0,37072
557,851	0,37133
558,049	0,37165
558,247	0,37263
558,445	0,37308
558,643	0,37345
558,841	0,3739
559,039	0,37436
559,236	0,37459
559,434	0,37517
559,632	0,37566
559,83	0,37613
560,027	0,37666
560,225	0,37712
560,423	0,37753
560,62	0,37786
560,818	0,3784
561,016	0,37911
561,213	0,37974
561,411	0,38044
561,609	0,3809
561,806	0,38155
562,004	0,38197
562,202	0,38256
562,399	0,38331
562,597	0,38392
562,794	0,3845
562,992	0,38514
563,189	0,38554
563,387	0,38598
563,584	0,38674
563,782	0,38738
563,979	0,38815
564,177	0,38912
564,374	0,38989
564,571	0,39068
564,769	0,39138
564,966	0,39207
565,164	0,39287
565,361	0,39358
565,558	0,39428
565,756	0,39492
565,953	0,39566
566,15	0,39635
566,347	0,39722
566,545	0,39805
566,742	0,39875
566,939	0,39948
567,136	0,40041
567,334	0,40114
567,531	0,40202
567,728	0,40298
567,925	0,40385
568,122	0,40469
568,319	0,40565
568,517	0,40654
568,714	0,40718
568,911	0,40825
569,108	0,40927
569,305	0,41021
569,502	0,41132
569,699	0,41247
569,896	0,41372
570,093	0,41461
570,29	0,41579
570,487	0,4167
570,684	0,41762
570,881	0,4187
571,078	0,41981
571,275	0,42097
571,472	0,42208
571,669	0,42304
571,866	0,4239
572,062	0,42472
572,259	0,426
572,456	0,42691
572,653	0,4281
572,85	0,42898
573,047	0,43015
573,243	0,43089
573,44	0,43176
573,637	0,43311
573,834	0,43423
574,03	0,4355
574,227	0,43674
574,424	0,4379
574,62	0,4393
574,817	0,44045
575,014	0,44172
575,21	0,44284
575,407	0,44409
575,604	0,44527
575,8	0,4465
575,997	0,44777
576,193	0,44878
576,39	0,44999
576,586	0,45117
576,783	0,45207
576,979	0,45306
577,176	0,45428
577,372	0,4555
577,569	0,45676
577,765	0,45805
577,962	0,45902
578,158	0,46025
578,355	0,46175
578,551	0,46293
578,747	0,46393
578,944	0,46514
579,14	0,46636
579,336	0,46763
579,533	0,46878
579,729	0,47005
579,925	0,47114
580,122	0,47222
580,318	0,47321
580,514	0,47412
580,71	0,47519
580,906	0,47662
581,103	0,47789
581,299	0,47894
581,495	0,47988
581,691	0,48096
581,887	0,48184
582,084	0,48298
582,28	0,48402
582,476	0,48516
582,672	0,48609
582,868	0,4871
583,064	0,48802
583,26	0,48885
583,456	0,4898
583,652	0,49066
583,848	0,49162
584,044	0,49246
584,24	0,4931
584,436	0,4938
584,632	0,4943
584,828	0,49514
585,024	0,49562
585,22	0,49618
585,416	0,49674
585,611	0,4975
585,807	0,49796
586,003	0,4985
586,199	0,49896
586,395	0,49975
586,591	0,50028
586,786	0,50085
586,982	0,50132
587,178	0,50189
587,374	0,50203
587,569	0,50246
587,765	0,50267
587,961	0,50314
588,156	0,50316
588,352	0,50334
588,548	0,50325
588,743	0,50332
588,939	0,50337
589,135	0,50329
589,33	0,50319
589,526	0,50322
589,721	0,50323
589,917	0,5031
590,112	0,50277
590,308	0,50252
590,503	0,50252
590,699	0,50233
590,894	0,5021
591,09	0,50189
591,285	0,50157
591,481	0,50134
591,676	0,50097
591,872	0,50029
592,067	0,49969
592,262	0,49929
592,458	0,49876
592,653	0,49823
592,848	0,49742
593,044	0,49676
593,239	0,49591
593,434	0,49503
593,629	0,49391
593,825	0,49289
594,02	0,49204
594,215	0,49105
594,41	0,49015
594,606	0,48908
594,801	0,48795
594,996	0,48689
595,191	0,4858
595,386	0,48471
595,581	0,48354
595,777	0,48245
595,972	0,48114
596,167	0,47963
596,362	0,47834
596,557	0,47689
596,752	0,47569
596,947	0,47408
597,142	0,47264
597,337	0,47085
597,532	0,46915
597,727	0,46743
597,922	0,46574
598,117	0,46407
598,312	0,46233
598,507	0,46047
598,701	0,4584
598,896	0,45631
599,091	0,45438
599,286	0,4524
599,481	0,45038
599,676	0,4484
599,87	0,44631
600,065	0,44409
600,26	0,44201
600,455	0,43979
600,65	0,43777
600,844	0,43545
601,039	0,43308
601,234	0,43073
601,428	0,4285
601,623	0,42631
601,818	0,42401
602,012	0,42183
602,207	0,4195
602,402	0,41727
602,596	0,41489
602,791	0,41217
602,985	0,40992
603,18	0,40757
603,374	0,40499
603,569	0,40241
603,763	0,39986
603,958	0,39712
604,152	0,39431
604,347	0,39153
604,541	0,38862
604,736	0,38592
604,93	0,38329
605,125	0,3805
605,319	0,37775
605,513	0,37498
605,708	0,37218
605,902	0,3693
606,096	0,3665
606,291	0,36385
606,485	0,3611
606,679	0,35849
606,874	0,35579
607,068	0,35297
607,262	0,35027
607,456	0,34746
607,65	0,34467
607,845	0,34186
608,039	0,33906
608,233	0,33618
608,427	0,33329
608,621	0,33043
608,815	0,32756
609,01	0,32471
609,204	0,32196
609,398	0,31908
609,592	0,3164
609,786	0,31377
609,98	0,31101
610,174	0,30833
610,368	0,30573
610,562	0,30291
610,756	0,30032
610,95	0,29747
611,144	0,29481
611,338	0,29196
611,532	0,28922
611,726	0,28631
611,919	0,28351
612,113	0,28064
612,307	0,27794
612,501	0,27518
612,695	0,27253
612,889	0,26963
613,082	0,26692
613,276	0,26413
613,47	0,26159
613,664	0,2589
613,857	0,25599
614,051	0,25317
614,245	0,25052
614,439	0,24774
614,632	0,24502
614,826	0,24221
615,02	0,23964
615,213	0,23699
615,407	0,23448
615,6	0,23179
615,794	0,2292
615,988	0,2269
616,181	0,22443
616,375	0,22207
616,568	0,21956
616,762	0,21717
616,955	0,21483
617,149	0,21247
617,342	0,21001
617,536	0,20754
617,729	0,20523
617,923	0,20295
618,116	0,20057
618,309	0,19825
618,503	0,19583
618,696	0,1936
618,889	0,19131
619,083	0,18898
619,276	0,18663
619,469	0,18442
619,663	0,18214
619,856	0,17988
620,049	0,17757
620,242	0,17546
620,436	0,17324
620,629	0,17117
620,822	0,16898
621,015	0,16686
621,209	0,16495
621,402	0,163
621,595	0,16103
621,788	0,15914
621,981	0,15712
622,174	0,15515
622,367	0,15315
622,56	0,15124
622,753	0,14925
622,946	0,14734
623,139	0,14542
623,332	0,14348
623,525	0,14159
623,718	0,13973
623,911	0,13784
624,104	0,13608
624,297	0,13429
624,49	0,13259
624,683	0,13092
624,876	0,12921
625,069	0,1275
625,262	0,12593
625,454	0,1242
625,647	0,12255
625,84	0,12078
626,033	0,11928
626,226	0,11778
626,418	0,11619
626,611	0,11468
626,804	0,11301
626,997	0,11143
627,189	0,11006
627,382	0,10856
627,575	0,10721
627,767	0,10579
627,96	0,10452
628,153	0,10297
628,345	0,10159
628,538	0,10037
628,731	0,09901
628,923	0,09783
629,116	0,09666
629,308	0,09529
629,501	0,09395
629,693	0,0927
629,886	0,09153
630,078	0,09016
630,271	0,08912
630,463	0,08788
630,656	0,08661
630,848	0,08537
631,04	0,08417
631,233	0,08301
631,425	0,08187
631,617	0,08077
631,81	0,07962
632,002	0,07846
632,194	0,07758
632,387	0,0764
632,579	0,07532
632,771	0,07429
632,964	0,07327
633,156	0,07216
633,348	0,07107
633,54	0,07022
633,732	0,06923
633,925	0,06828
634,117	0,06751
634,309	0,0665
634,501	0,06558
634,693	0,06468
634,885	0,06379
635,077	0,06293
635,269	0,06213
635,462	0,06128
635,654	0,06037
635,846	0,0596
636,038	0,05876
636,23	0,05782
636,422	0,05704
636,614	0,05624
636,806	0,05549
636,997	0,05477
637,189	0,05405
637,381	0,0533
637,573	0,05261
637,765	0,05192
637,957	0,0511
638,149	0,05044
638,341	0,04981
638,532	0,04903
638,724	0,04832
638,916	0,04767
639,108	0,04693
639,299	0,04633
639,491	0,0456
639,683	0,04504
639,875	0,04444
640,066	0,04387
640,258	0,04313
640,45	0,04253
640,641	0,04214
640,833	0,04169
641,025	0,04114
641,216	0,0406
641,408	0,03992
641,599	0,03945
641,791	0,03895
641,982	0,03832
642,174	0,0378
642,366	0,03742
642,557	0,03679
642,748	0,03617
642,94	0,0356
643,131	0,035
643,323	0,03453
643,514	0,03411
643,706	0,03366
643,897	0,03312
644,088	0,03275
644,28	0,03236
644,471	0,03189
644,662	0,03155
644,854	0,03109
645,045	0,03074
645,236	0,03028
645,428	0,02983
645,619	0,02946
645,81	0,02916
646,001	0,0287
646,193	0,02822
646,384	0,02773
646,575	0,02737
646,766	0,02693
646,957	0,0266
647,148	0,02611
647,339	0,02594
647,531	0,02571
647,722	0,02529
647,913	0,02488
648,104	0,02466
648,295	0,02438
648,486	0,02413
648,677	0,02371
648,868	0,02346
649,059	0,02315
649,25	0,02292
649,441	0,02253
649,632	0,02213
649,823	0,02195
650,013	0,02173
650,204	0,02135
650,395	0,02097
650,586	0,02077
650,777	0,02059
650,968	0,02026
651,159	0,02008
651,349	0,01975
651,54	0,01949
651,731	0,01917
651,922	0,01891
652,112	0,0186
652,303	0,01843
652,494	0,01835
652,684	0,01801
652,875	0,01777
653,066	0,01759
653,256	0,01732
653,447	0,01725
653,638	0,01712
653,828	0,01699
654,019	0,01678
654,209	0,01659
654,4	0,01637
654,59	0,01616
654,781	0,01617
654,972	0,01601
655,162	0,01586
655,352	0,01559
655,543	0,01526
655,733	0,01508
655,924	0,01493
656,114	0,01463
656,305	0,01448
656,495	0,01437
656,685	0,01412
656,876	0,01384
657,066	0,01364
657,256	0,01353
657,447	0,01349
657,637	0,01344
657,827	0,01323
658,017	0,01309
658,208	0,01305
658,398	0,01282
658,588	0,01266
658,778	0,01258
658,968	0,01239
659,159	0,01229
659,349	0,01206
659,539	0,0119
659,729	0,01172
659,919	0,01165
660,109	0,01154
660,299	0,01142
660,489	0,0114
660,679	0,01127
660,869	0,01118
661,059	0,01108
661,249	0,01087
661,439	0,01079
661,629	0,01064
661,819	0,01053
662,009	0,01044
662,199	0,01031
662,389	0,01022
662,579	0,01009
662,769	0,00994
662,959	0,00978
663,149	0,00971
663,338	0,00961
663,528	0,00959
663,718	0,00954
663,908	0,00934
664,097	0,0092
664,287	0,00902
664,477	0,0089
664,667	0,00873
664,856	0,00867
665,046	0,00854
665,236	0,00849
665,425	0,00847
665,615	0,00838
665,805	0,00827
665,994	0,00837
666,184	0,00832
666,373	0,00832
666,563	0,00821
666,753	0,00822
666,942	0,00811
667,132	0,00807
667,321	0,00793
667,511	0,0079
667,7	0,00776
667,889	0,00758
668,079	0,0075
668,268	0,00743
668,458	0,00733
668,647	0,00733
668,836	0,0072
669,026	0,00713
669,215	0,007
669,404	0,00706
669,594	0,00702
669,783	0,007
669,972	0,00708
670,162	0,007
670,351	0,0069
670,54	0,00675
670,729	0,00657
670,919	0,00656
671,108	0,00653
671,297	0,00652
671,486	0,00637
671,675	0,00619
671,864	0,00616
672,053	0,00604
672,243	0,00598
672,432	0,00591
672,621	0,00595
672,81	0,00599
672,999	0,00591
673,188	0,00592
673,377	0,00591
673,566	0,00584
673,755	0,00586
673,944	0,00571
674,133	0,00555
674,322	0,00558
674,51	0,00561
674,699	0,00557
674,888	0,00548
675,077	0,00548
675,266	0,00537
675,455	0,00536
675,644	0,00526
675,832	0,00527
676,021	0,00524
676,21	0,0054
676,399	0,00524
676,587	0,00516
676,776	0,00512
676,965	0,00508
677,153	0,00507
677,342	0,00503
677,531	0,00494
677,719	0,00488
677,908	0,00479
678,097	0,00484
678,285	0,00478
678,474	0,00475
678,662	0,00477
678,851	0,00476
679,039	0,00465
679,228	0,00453
679,416	0,00456
679,605	0,00453
679,793	0,00462
679,982	0,0046
680,17	0,00453
680,359	0,0045
680,547	0,00451
680,736	0,00456
680,924	0,00452
681,112	0,00463
681,301	0,00468
681,489	0,00464
681,677	0,00455
681,866	0,00445
682,054	0,00441
682,242	0,00432
682,43	0,0043
682,619	0,0042
682,807	0,00402
682,995	0,00398
683,183	0,00393
683,371	0,00388
683,559	0,00386
683,748	0,00393
683,936	0,00399
684,124	0,00399
684,312	0,00401
684,5	0,00387
684,688	0,00397
684,876	0,00395
685,064	0,00386
685,252	0,00385
685,44	0,00384
685,628	0,0038
685,816	0,00383
686,004	0,00376
686,192	0,00367
686,38	0,00361
686,568	0,00366
686,756	0,00354
686,944	0,00356
687,131	0,00361
687,319	0,00354
687,507	0,00341
687,695	0,00327
687,883	0,00321
688,07	0,00325
688,258	0,00332
688,446	0,00331
688,634	0,00338
688,821	0,00344
689,009	0,00338
689,197	0,00347
689,384	0,00351
689,572	0,00358
689,76	0,00365
689,947	0,00359
690,135	0,00346
690,323	0,00341
690,51	0,0034
690,698	0,00334
690,885	0,00336
691,073	0,00334
691,26	0,00316
691,448	0,00313
691,635	0,00314
691,823	0,00321
692,01	0,00311
692,197	0,00308
692,385	0,00309
692,572	0,00314
692,76	0,00312
692,947	0,0031
693,134	0,00321
693,322	0,00325
693,509	0,00321
693,696	0,00317
693,884	0,00308
694,071	0,00317
694,258	0,00311
694,445	0,0031
694,633	0,00302
694,82	0,00291
695,007	0,00283
695,194	0,00279
695,381	0,00278
695,568	0,00271
695,756	0,00274
695,943	0,00274
696,13	0,00266
696,317	0,0028
696,504	0,00266
696,691	0,00261
696,878	0,00269
697,065	0,00268
697,252	0,0027
697,439	0,00271
697,626	0,00272
697,813	0,00263
698	0,00247
698,187	0,00244
698,374	0,00239
698,561	0,00248
698,747	0,00251
698,934	0,00246
699,121	0,00247
699,308	0,00232
699,495	0,00228
699,682	0,00233
699,868	0,00235
700,055	0,00246
700,242	0,00249
700,429	0,00241
700,615	0,00237
700,802	0,00237
700,989	0,00229
701,175	0,0022
701,362	0,00225
701,549	0,00219
701,735	0,00212
701,922	0,00206
702,108	0,00203
702,295	0,00204
702,482	0,00202
702,668	0,00215
702,855	0,00211
703,041	0,00223
703,228	0,00233
703,414	0,00234
703,601	0,00238
703,787	0,00238
703,973	0,00236
704,16	0,00232
704,346	0,00233
704,533	0,00238
704,719	0,00225
704,905	0,00212
705,092	0,0021
705,278	0,0021
705,464	0,002
705,65	0,00204
705,837	0,00203
706,023	0,00206
706,209	0,00211
706,395	0,00211
706,582	0,00208
706,768	0,00206
706,954	0,00224
707,14	0,00213
707,326	0,0021
707,512	0,00215
707,698	0,00207
707,885	0,00207
708,071	0,00207
708,257	0,00203
708,443	0,00207
708,629	0,00206
708,815	0,0021
709,001	0,00196
709,187	0,00198
709,373	0,00201
709,559	0,00192
709,745	0,00195
709,93	0,00184
710,116	0,00187
710,302	0,00202
710,488	0,00199
710,674	0,00198
710,86	0,00195
711,046	0,00204
711,231	0,00206
711,417	0,00203
711,603	0,00211
711,789	0,00205
711,974	0,00215
712,16	0,00201
712,346	0,0019
712,532	0,00185
712,717	0,00182
712,903	0,00174
713,089	0,0017
713,274	0,00163
713,46	0,00154
713,645	0,00148
713,831	0,00147
714,016	0,00138
714,202	0,00152
714,388	0,00165
714,573	0,00162
714,759	0,00163
714,944	0,00162
715,129	0,00155
715,315	0,00162
715,5	0,0016
715,686	0,00162
715,871	0,00167
716,057	0,00175
716,242	0,00177
716,427	0,00158
716,613	0,00157
716,798	0,00158
716,983	0,00161
717,168	0,00169
717,354	0,00178
717,539	0,00175
717,724	0,00176
717,909	0,00175
718,095	0,00175
718,28	0,00167
718,465	0,0017
718,65	0,00175
718,835	0,00163
719,02	0,00165
719,206	0,0016
719,391	0,00155
719,576	0,00153
719,761	0,00151
719,946	0,00147
720,131	0,00142
720,316	0,00147
720,501	0,00143
720,686	0,00145
720,871	0,0016
721,056	0,00169
721,241	0,0017
721,426	0,00163
721,61	0,0017
721,795	0,00175
721,98	0,00176
722,165	0,00185
722,35	0,00185
722,535	0,00182
722,719	0,00174
722,904	0,00169
723,089	0,00155
723,274	0,00154
723,458	0,00153
723,643	0,00153
723,828	0,00145
724,013	0,00146
724,197	0,00144
724,382	0,00139
724,567	0,00137
724,751	0,00137
724,936	0,00137
725,12	0,00139
725,305	0,00146
725,489	0,00147
725,674	0,00142
725,859	0,0015
726,043	0,00149
726,228	0,00151
726,412	0,00146
726,596	0,00148
726,781	0,00149
726,965	0,00151
727,15	0,0016
727,334	0,00153
727,518	0,00149
727,703	0,00156
727,887	0,00147
728,072	0,00145
728,256	0,00143
728,44	0,00142
728,624	0,00146
728,809	0,00134
728,993	0,00132
729,177	0,0012
729,361	0,00125
729,546	0,00133
729,73	0,00131
729,914	0,0012
730,098	0,00118
730,282	0,00114
730,466	0,00116
730,65	0,0012
730,834	0,00129
731,019	0,00117
731,203	0,00117
731,387	0,00121
731,571	0,00111
731,755	0,00105
731,939	0,00114
732,123	0,00109
732,306	0,00108
732,49	0,00103
732,674	0,0009
732,858	0,00087
733,042	0,00089
733,226	0,00107
733,41	0,00105
733,594	0,0011
733,778	0,0011
733,961	0,00115
734,145	0,00121
734,329	0,00126
734,513	0,00128
734,696	0,00127
734,88	0,00128
735,064	0,00133
735,247	0,00124
735,431	0,00122
735,615	0,00116
735,798	0,0013
735,982	0,0013
736,166	0,0013
736,349	0,0013
736,533	0,0014
736,716	0,00148
736,9	0,00153
737,083	0,00151
737,267	0,00138
737,45	0,00128
737,634	0,00135
737,817	0,00119
738,001	0,00119
738,184	0,00114
738,368	0,00109
738,551	0,00096
738,734	0,00089
738,918	0,00087
739,101	0,00093
739,284	0,00094
739,468	0,00101
739,651	0,00097
739,834	0,00102
740,018	0,00087
740,201	0,00097
740,384	0,00099
740,567	0,00111
740,75	0,00115
740,934	0,00109
741,117	0,00103
741,3	0,00123
741,483	0,0012
741,666	0,00117
741,849	0,00116
742,032	0,00127
742,215	0,00121
742,399	0,00123
742,582	0,00112
742,765	0,00114
742,948	0,00115
743,131	0,00124
743,314	0,0011
743,496	0,00098
743,679	0,00103
743,862	0,00104
744,045	0,00108
744,228	0,00103
744,411	0,001
744,594	0,00107
744,777	0,00105
744,959	0,00109
745,142	0,00107
745,325	0,00111
745,508	0,00112
745,691	0,00113
745,873	0,0011
746,056	0,00102
746,239	0,00103
746,421	0,00107
746,604	0,00104
746,787	0,0011
746,969	0,00109
747,152	0,00096
747,335	0,0009
747,517	0,00096
747,7	0,0011
747,882	0,00115
748,065	0,00107
748,247	0,00121
748,43	0,00113
748,612	0,00117
748,795	0,00115
748,977	0,00114
749,16	0,00108
749,342	0,00113
749,524	0,00114
749,707	0,00107
749,889	0,00108
750,072	0,00105
750,254	0,0009
750,436	0,00088
750,619	0,00088
750,801	0,00074
750,983	0,00062
751,165	0,00077
751,348	0,00071
751,53	0,00061
751,712	0,00055
751,894	0,00052
752,076	0,00072
752,259	0,00076
752,441	0,00081
752,623	0,00075
752,805	0,00076
752,987	0,00086
753,169	0,00089
753,351	0,00082
753,533	0,00088
753,715	0,00091
753,897	0,00084
754,079	0,00078
754,261	0,00071
754,443	0,00068
754,625	0,00071
754,807	0,0008
754,989	0,00084
755,171	0,00085
755,353	0,00097
755,534	0,00094
755,716	0,00098
755,898	0,00104
756,08	0,00109
756,262	0,0011
756,443	0,00091
756,625	0,0009
756,807	0,00089
756,989	0,00088
757,17	0,00083
757,352	0,00077
757,534	0,00084
757,715	0,00079
757,897	0,0008
758,079	0,00073
758,26	0,00083
758,442	0,00104
758,623	0,00095
758,805	0,00094
758,987	0,00082
759,168	0,00081
759,35	0,00085
759,531	0,00076
759,713	0,00066
759,894	0,00056
760,075	0,00056
760,257	0,00039
760,438	0,00033
760,62	0,00033
760,801	0,00029
760,982	0,00037
761,164	0,00029
761,345	0,00031
761,526	0,00039
761,708	0,0004
761,889	0,00044
762,07	0,00034
762,251	0,00048
762,433	0,00047
762,614	0,00051
762,795	0,00052
762,976	0,00053
763,157	0,00068
763,338	0,00064
763,52	0,00063
763,701	0,00069
763,882	0,00073
764,063	0,00081
764,244	0,00082
764,425	0,00084
764,606	0,00082
764,787	0,00087
764,968	0,0008
765,149	0,00065
765,33	0,00058
765,511	0,00055
765,692	0,0004
765,873	0,00034
766,053	0,00024
766,234	0,00021
766,415	0,00031
766,596	0,00029
766,777	0,00022
766,958	0,00014
767,138	0,00025
767,319	0,00023
767,5	0,00027
767,681	0,00018
767,861	0,00033
768,042	0,0003
768,223	0,0003
768,403	0,00022
768,584	0,00024
768,765	0,00023
768,945	0,00031
769,126	0,00029
769,307	0,00037
769,487	0,00029
769,668	0,00052
769,848	0,00042
770,029	0,00046
770,209	0,00038
770,39	0,00032
770,57	0,00039
770,751	0,00039
770,931	0,00038
771,111	0,00024
771,292	0,00012
771,472	0,00016
771,653	0,00007
771,833	0,00002
772,013	0,00014
772,194	0,00024
772,374	0,00023
772,554	0,00017
772,734	0,00022
772,915	0,0003
773,095	0,00038
773,275	0,00053
773,455	0,00048
773,635	0,00033
773,816	0,00047
773,996	0,0005
774,176	0,0005
774,356	0,00044
774,536	0,00038
774,716	0,00032
774,896	0,00031
775,076	0,0002
775,256	0,00024
775,436	0,00028
775,616	0,0005
775,796	0,00045
775,976	0,0004
776,156	0,00043
776,336	0,0006
776,516	0,00068
776,696	0,00067
776,876	0,00067
777,056	0,00077
777,235	0,00069
777,415	0,00073
777,595	0,00058
777,775	0,00054
777,955	0,00044
778,134	0,00028
778,314	0,00024
778,494	0,00026
778,674	0,00032
778,853	0,00019
779,033	0,00014
779,213	0,00022
779,392	0,00023
779,572	0,00036
779,751	0,00033
779,931	0,00037
780,111	0,00051
780,29	0,00038
780,47	0,00039
780,649	0,00038
780,829	0,00044
781,008	0,00048
781,188	0,00047
781,367	0,00051
781,546	0,00046
781,726	0,00043
781,905	0,00047
782,085	0,00042
782,264	0,0005
782,443	0,0004
782,623	0,00042
782,802	0,00044
782,981	0,00051
783,161	0,00049
783,34	0,00044
783,519	0,00053
783,698	0,00064
783,878	0,00052
784,057	0,00048
784,236	0,00051
784,415	0,00064
784,594	0,00069
784,773	0,00064
784,952	0,00057
785,132	0,00045
785,311	0,00043
785,49	0,00031
785,669	0,00031
785,848	0,00044
786,027	0,0005
786,206	0,00049
786,385	0,00036
786,564	0,00028
786,743	0,00025
786,922	0,0003
787,1	0,00031
787,279	0,00027
787,458	0,00026
787,637	0,0002
787,816	0,00016
787,995	0,00007
788,174	0,00002
788,352	0,00008
788,531	0,00011
788,71	0,00019
788,889	0,00014
789,067	0,0001
789,246	0,00008
789,425	0,00009
789,603	0,00002
789,782	-0,00004
789,961	-0,00005
790,139	0,00004
790,318	0,00004
790,496	0,00008
790,675	0,00021
790,853	0,00028
791,032	0,00034
791,211	0,0003
791,389	0,00028
791,568	0,00047
791,746	0,00059
791,924	0,00071
792,103	0,00066
792,281	0,00068
792,46	0,00062
792,638	0,00047
792,816	0,00043
792,995	0,00051
793,173	0,00054
793,351	0,00054
793,53	0,0005
793,708	0,00039
793,886	0,00041
794,064	0,00048
794,243	0,00053
794,421	0,0006
794,599	0,00061
794,777	0,00049
794,955	0,00037
795,133	0,0004
795,312	0,00039
795,49	0,00032
795,668	0,00041
795,846	0,0004
796,024	0,00039
796,202	0,00033
796,38	0,0002
796,558	0,00011
796,736	0,00012
796,914	0,00016
797,092	0,00008
797,27	0,00017
797,448	0,00012
797,626	0,00001
797,803	-0,00022
797,981	-0,00032
798,159	-0,00037
798,337	-0,00033
798,515	-0,0003
798,693	-0,00017
798,87	-0,00018
799,048	-0,00013
799,226	-0,00015
799,404	-0,00014
799,581	-0,00003
799,759	0,00005
799,937	-0,00011
800,114	-0,00009
800,292	-0,00014
800,469	-0,00003
800,647	-0,00009
800,825	-0,00004
801,002	-0,00016
801,18	-0,00024
801,357	-0,00016
801,535	-0,00024
801,712	-0,00031
801,89	-0,00014
802,067	-0,00006
802,245	0
802,422	0,00001
802,6	-0,00004
802,777	-0,00006
802,954	0,00006
803,132	0,0001
803,309	0,0001
803,486	0,00009
803,664	0,00032
803,841	0,0004
804,018	0,00034
804,195	0,00031
804,373	0,00018
804,55	0,00022
804,727	0,00023
804,904	0,00029
805,081	0,00035
805,259	0,00025
805,436	0,0001
805,613	-0,00001
805,79	-0,00003
805,967	-0,00003
806,144	0,00006
806,321	0,00008
806,498	0,00022
806,675	0,00013
806,852	0
807,029	-0,00008
807,206	-0,00012
807,383	0,00012
807,56	0,00003
807,737	-0,00002
807,914	-0,00006
808,091	-0,00004
808,268	0,00011
808,444	-0,00001
808,621	0,00011
808,798	0,00007
808,975	0,00022
809,152	0,00019
809,328	0,00014
809,505	0,00016
809,682	0,00021
809,858	0,00014
810,035	0,00003
810,212	-0,00018
810,388	-0,00001
810,565	0,00012
810,742	0,00012
810,918	0,00004
811,095	0,00004
811,271	0
811,448	0,00005
811,625	0,00001
811,801	0,00008
811,978	0,00021
812,154	0,00029
812,33	0,00004
812,507	-0
812,683	0,00013
812,86	0,00021
813,036	0,00038
813,212	0,00039
813,389	0,00042
813,565	0,00038
813,741	0,00043
813,918	0,00042
814,094	0,00055
814,27	0,00053
814,447	0,00045
814,623	0,00035
814,799	0,00031
814,975	0,0003
815,151	0,0003
815,328	0,00026
815,504	0,00023
815,68	0,00027
815,856	0,00016
816,032	0,00016
816,208	0,00016
816,384	0,00019
816,56	0,00038
816,736	0,00028
816,912	0,00024
817,088	0,0002
817,264	0,00025
817,44	0,00021
817,616	0,00012
817,792	0,00009
817,968	-0,00002
818,144	0,00009
818,32	0,00003
818,495	-0,00017
818,671	-0,00013
818,847	-0,00028
819,023	-0,00023
819,199	-0,00016
819,374	0,00006
819,55	0,00003
819,726	0,00009
819,902	0,00011
820,077	0,00011
820,253	0,0001
820,429	0,00013
820,604	0,00028
820,78	0,00046
820,956	0,00046
821,131	0,00031
821,307	0,00024
821,482	0,00028
821,658	0,00039
821,833	0,00022
822,009	0,00013
822,184	0,00022
822,36	0,00027
822,535	0,0001
822,711	0,00003
822,886	-0
823,061	-0,00014
823,237	-0,00011
823,412	-0,00012
823,587	-0,00027
823,763	-0,00021
823,938	-0,00018
824,113	-0,00022
824,289	-0,0002
824,464	-0,00004
824,639	0,00007
824,814	-0,00001
824,99	0,00007
825,165	0,00002
825,34	0,00008
825,515	0,00017
825,69	0,0002
825,865	0,00031
826,04	0,00032
826,215	0,0005
826,39	0,00056
826,566	0,00062
826,741	0,00088
826,916	0,00109
827,091	0,00097
827,265	0,00092
827,44	0,0009
827,615	0,00099
827,79	0,00076
827,965	0,00059
828,14	0,00049
828,315	0,00038
828,49	0,00026
828,665	0,00018
828,839	-0,00001
829,014	0,00002
829,189	-0,00014
829,364	-0,00013
829,538	-0,00007
829,713	-0,00009
829,888	0,0001
830,063	-0,00007
830,237	-0,00023
830,412	-0,00015
830,587	-0,00009
830,761	0,00001
830,936	0,00005
831,11	0,00012
831,285	0,00001
831,459	-0,00007
831,634	-0,00007
831,809	-0,00009
831,983	-0,00011
832,157	0,00002
832,332	-0,00011
832,506	-0,0003
832,681	-0,00043
832,855	-0,00034
833,03	-0,00027
833,204	-0,00014
833,378	-0,00017
833,553	-0,00009
833,727	0,00001
833,901	0,0002
834,076	0,00032
834,25	0,0004
834,424	0,00052
834,598	0,00084
834,773	0,00078
834,947	0,00087
835,121	0,00067
835,295	0,00073
835,469	0,00079
835,643	0,00048
835,817	0,00037
835,991	0,0001
836,166	0,00001
836,34	-0
836,514	-0,00025
836,688	-0,00017
836,862	-0,00025
837,036	-0,00024
837,21	-0,00016
837,384	-0,00026
837,557	-0,00013
837,731	0,00005
837,905	0,00007
838,079	-0,00004
838,253	0,00004
838,427	0,00007
838,601	-0,00005
838,774	-0,00025
838,948	-0,00021
839,122	-0,00029
839,296	-0,00012
839,469	-0,00003
839,643	-0,00024
839,817	-0,00039
839,991	-0,00041
840,164	-0,00061
840,338	-0,00074
840,512	-0,00059
840,685	-0,00042
840,859	-0,00051
841,032	-0,00062
841,206	-0,00075
841,379	-0,00083
841,553	-0,0008
841,726	-0,00054
841,9	-0,00038
842,073	-0,00028
842,247	-0,0002
842,42	-0,00041
842,594	-0,00012
842,767	0,00003
842,94	0,00023
843,114	0,00038
843,287	0,00053
843,46	0,00049
843,634	0,0003
843,807	0,00039
843,98	0,00041
844,154	0,00039
844,327	0,00046
844,5	0,00025
844,673	0,00046
844,846	0,00035
845,02	0,00021
845,193	-0,00015
845,366	-0,00015
845,539	0,00007
845,712	-0,00009
845,885	-0,00032
846,058	-0,00031
846,231	-0,00033
846,404	-0,00055
846,577	-0,00089
846,75	-0,00078
846,923	-0,00067
847,096	-0,00063
847,269	-0,00055
847,442	-0,00067
847,615	-0,00052
847,788	-0,00037
847,961	-0,00035
848,133	-0,0003
848,306	-0,00021
848,479	-0,00002
848,652	-0,00017
848,825	-0,00017
848,997	-0,00004
849,17	-0,00014
849,343	-0,00011
849,515	-0,00024
849,688	-0,0003
849,861	-0,00028
850,033	-0,00018
850,206	-0,00009
850,379	-0,00018
850,551	-0,00003
850,724	-0,00013
850,896	-0,00024
851,069	-0,0001
851,241	-0,0001
851,414	0,00001
851,586	0,00012
851,759	0,00023
851,931	0,00015
852,104	0,00002
852,276	0,00006
852,449	-0,00002
852,621	-0,00015
852,793	-0,00017
852,966	-0,00023
853,138	0,00003
853,31	-0,00005
853,483	-0,00004
853,655	-0,00032
853,827	-0,00045
853,999	-0,00045
854,172	-0,00043
854,344	-0,0005
854,516	-0,00026
854,688	-0,00005
854,86	-0,00005
855,032	-0,00028
855,204	-0,00038
855,377	-0,00055
855,549	-0,00041
855,721	-0,0004
855,893	-0,00022
856,065	-0,00045
856,237	-0,00045
856,409	-0,00049
856,581	-0,00056
856,753	-0,00039
856,924	-0,00028
857,096	-0,00013
857,268	0,00006
857,44	0,00012
857,612	0,00027
857,784	0,00013
857,956	0,00041
858,127	0,00034
858,299	0,00017
858,471	0,00005
858,643	-0,00005
858,814	-0,00015
858,986	-0,00025
859,158	-0,00036
859,33	-0,00035
859,501	-0,00047
859,673	-0,00049
859,844	-0,00047
860,016	-0,00036
860,188	-0,00017
860,359	-0,00004
860,531	-0,00002
860,702	-0,00011
860,874	-0,00021
861,045	-0,00003
861,217	-0,00008
861,388	-0,00003
861,56	0,00005
861,731	-0,00019
861,902	-0,0003
862,074	-0,00019
862,245	-0,00002
862,417	-0,00015
862,588	-0,00015
862,759	0,00002
862,931	-0,00023
863,102	-0,00031
863,273	-0,00034
863,444	-0,00039
863,616	-0,00018
863,787	-0,00008
863,958	-0,00035
864,129	-0,00062
864,3	-0,00075
864,471	-0,00086
864,642	-0,00082
864,814	-0,00099
864,985	-0,00106
865,156	-0,00123
865,327	-0,00118
865,498	-0,00093
865,669	-0,00105
865,84	-0,00084
866,011	-0,00064
866,182	-0,00056
866,353	-0,00044
866,523	-0,00061
866,694	-0,00031
866,865	-0,00016
867,036	0,00003
867,207	-0,00021
867,378	-0,00043
867,549	-0,00048
867,719	-0,00072
867,89	-0,00092
868,061	-0,00085
868,232	-0,00093
868,402	-0,001
868,573	-0,00103
868,744	-0,0007
868,914	-0,00087
869,085	-0,00096
869,256	-0,00101
869,426	-0,00107
869,597	-0,00097
869,767	-0,0009
869,938	-0,00113
870,108	-0,00093
870,279	-0,00091
870,449	-0,00104
870,62	-0,00158
870,79	-0,0015
870,961	-0,00109
871,131	-0,00105
871,302	-0,00061
871,472	-0,00049
871,642	-0,00043
871,813	-0,00029
871,983	-0,00051
872,153	-0,00037
872,324	-0,00034
872,494	-0,00018
872,664	-0,0002
872,835	0,00019
873,005	0,00009
873,175	-0,00005
873,345	0
873,515	-0,00013
873,685	-0,00035
873,856	0,00011
874,026	0,00023
874,196	0,00053
874,366	0,00053
874,536	0,00037
874,706	-0,00008
874,876	-0,0003
875,046	-0,00054
875,216	-0,00057
875,386	-0,00023
875,556	0,00025
875,726	-0,00021
875,896	-0,00052
876,066	-0,00082
876,236	-0,00105
876,405	-0,00081
876,575	-0,00092
876,745	-0,00072
876,915	-0,00034
877,085	-0,00017
877,254	-0,00029
877,424	-0,00041
877,594	-0,00029
877,764	-0,00005
877,933	0,00014
878,103	0,00008
878,273	0,00046
878,442	0,00052
878,612	0,00063
878,781	0,00045
878,951	0,00024
879,121	0,00004
879,29	-0,00003
879,46	-0,00015
879,629	0,00001
879,799	0,00002
879,968	0,00061
880,138	0,00053
880,307	0,0005
880,476	0,00063
880,646	0,00038
880,815	0,00034
880,985	0,0003
881,154	0,00027
881,323	0,00039
881,493	0,00021
881,662	-0,00001
881,831	-0,00027
882	-0,00057
882,17	-0,00034
882,339	-0,00043
882,508	-0,00035
882,677	-0
882,846	0,00045
883,016	0,00037
883,185	0,00046
883,354	0,00052
883,523	0,00058
883,692	0,00054
883,861	0,00056
884,03	0,00015
884,199	-0,00002
884,368	0,00045
884,537	0,00005
884,706	-0,00028
884,875	-0,00021
885,044	-0,00014
885,213	0,00011
885,382	-0,00001
885,55	-0,00009
885,719	-0,00023
885,888	-0,00016
886,057	-0,00049
886,226	-0,00079
886,395	-0,0008
886,563	-0,00079
886,732	-0,00071
886,901	-0,00076
887,069	-0,00102
887,238	-0,00057
887,407	-0,00035
887,575	-0,00016
887,744	0,00007
887,913	0,00009
888,081	-0,00022
888,25	0,00006
888,418	-0,00015
888,587	-0,0004
888,755	-0,00058
888,924	-0,00064
889,092	-0,00093
889,261	-0,00112
889,429	-0,00117
889,598	-0,00119
889,766	-0,00069
889,935	-0,00031
890,103	-0,00064
890,271	-0,00069
890,44	-0,0007
890,608	-0,00087
890,776	-0,00061
890,944	-0,00054
891,113	-0,00029
891,281	-0,00042
891,449	-0,00057
891,617	-0,00114
891,786	-0,00122
891,954	-0,00157
892,122	-0,00099
892,29	-0,00063
892,458	-0,00051
892,626	-0,00057
892,794	-0,00066
892,962	-0,00084
893,13	-0,00074
893,298	-0,00056
893,466	0,00016
