Channel              :,CH1
Frequency            :,1.762kHz
Period               :,0.568ms
PK-PK                :,117.2mV
Probe attenuation    :,1X
Voltage per ADC value:,0.122070mV
Time interval        :,2.00000us

index,CH1_Voltage(mV)
1,37.109375
2,37.109375
3,37.109375
4,37.109375
5,37.109375
6,35.156250
7,35.156250
8,35.156250
9,33.203125
10,31.250000
11,31.250000
12,31.250000
13,29.296875
14,27.343750
15,27.343750
16,27.343750
17,25.390625
18,25.390625
19,23.437500
20,23.437500
21,21.484375
22,19.531250
23,19.531250
24,17.578125
25,17.578125
26,15.625000
27,15.625000
28,13.671875
29,11.718750
30,9.765625
31,9.765625
32,9.765625
33,7.812500
34,5.859375
35,5.859375
36,3.906250
37,3.906250
38,1.953125
39,0.000000
40,0.000000
41,-1.953125
42,-3.906250
43,-5.859375
44,-5.859375
45,-5.859375
46,-7.812500
47,-9.765625
48,-11.718750
49,-11.718750
50,-13.671875
51,-13.671875
52,-15.625000
53,-15.625000
54,-19.531250
55,-17.578125
56,-19.531250
57,-21.484375
58,-21.484375
59,-23.437500
60,-25.390625
61,-25.390625
62,-27.343750
63,-29.296875
64,-29.296875
65,-29.296875
66,-31.250000
67,-33.203125
68,-35.156250
69,-35.156250
70,-35.156250
71,-37.109375
72,-39.062500
73,-39.062500
74,-39.062500
75,-41.015625
76,-41.015625
77,-42.968750
78,-42.968750
79,-44.921875
80,-46.875000
81,-46.875000
82,-46.875000
83,-48.828125
84,-48.828125
85,-50.781250
86,-50.781250
87,-50.781250
88,-52.734375
89,-52.734375
90,-52.734375
91,-54.687500
92,-54.687500
93,-56.640625
94,-56.640625
95,-56.640625
96,-56.640625
97,-56.640625
98,-58.593750
99,-58.593750
100,-58.593750
101,-58.593750
102,-60.546875
103,-60.546875
104,-60.546875
105,-60.546875
106,-60.546875
107,-60.546875
108,-60.546875
109,-60.546875
110,-62.500000
111,-60.546875
112,-64.453125
113,-62.500000
114,-62.500000
115,-60.546875
116,-60.546875
117,-62.500000
118,-60.546875
119,-60.546875
120,-60.546875
121,-60.546875
122,-60.546875
123,-60.546875
124,-58.593750
125,-58.593750
126,-60.546875
127,-58.593750
128,-58.593750
129,-58.593750
130,-56.640625
131,-56.640625
132,-56.640625
133,-54.687500
134,-54.687500
135,-54.687500
136,-54.687500
137,-54.687500
138,-52.734375
139,-52.734375
140,-50.781250
141,-50.781250
142,-50.781250
143,-48.828125
144,-48.828125
145,-48.828125
146,-46.875000
147,-46.875000
148,-46.875000
149,-44.921875
150,-42.968750
151,-44.921875
152,-41.015625
153,-41.015625
154,-41.015625
155,-39.062500
156,-37.109375
157,-37.109375
158,-37.109375
159,-35.156250
160,-33.203125
161,-31.250000
162,-31.250000
163,-31.250000
164,-29.296875
165,-27.343750
166,-27.343750
167,-25.390625
168,-23.437500
169,-23.437500
170,-21.484375
171,-21.484375
172,-19.531250
173,-19.531250
174,-17.578125
175,-15.625000
176,-15.625000
177,-13.671875
178,-11.718750
179,-11.718750
180,-9.765625
181,-9.765625
182,-7.812500
183,-5.859375
184,-3.906250
185,-3.906250
186,-3.906250
187,0.000000
188,0.000000
189,1.953125
190,1.953125
191,3.906250
192,3.906250
193,5.859375
194,7.812500
195,7.812500
196,9.765625
197,11.718750
198,11.718750
199,11.718750
200,13.671875
201,15.625000
202,15.625000
203,17.578125
204,19.531250
205,19.531250
206,19.531250
207,21.484375
208,23.437500
209,23.437500
210,25.390625
211,25.390625
212,25.390625
213,27.343750
214,29.296875
215,29.296875
216,31.250000
217,31.250000
218,31.250000
219,33.203125
220,35.156250
221,35.156250
222,35.156250
223,37.109375
224,37.109375
225,37.109375
226,37.109375
227,39.062500
228,39.062500
229,41.015625
230,41.015625
231,41.015625
232,41.015625
233,42.968750
234,42.968750
235,44.921875
236,42.968750
237,44.921875
238,44.921875
239,44.921875
240,46.875000
241,46.875000
242,46.875000
243,46.875000
244,48.828125
245,48.828125
246,48.828125
247,48.828125
248,48.828125
249,48.828125
250,48.828125
251,48.828125
252,48.828125
253,50.781250
254,50.781250
255,50.781250
256,48.828125
257,50.781250
258,48.828125
259,48.828125
260,50.781250
261,48.828125
262,48.828125
263,48.828125
264,48.828125
265,48.828125
266,48.828125
267,48.828125
268,46.875000
269,46.875000
270,46.875000
271,46.875000
272,46.875000
273,44.921875
274,44.921875
275,44.921875
276,44.921875
277,44.921875
278,42.968750
279,42.968750
280,42.968750
281,41.015625
282,41.015625
283,41.015625
284,39.062500
285,39.062500
286,37.109375
287,37.109375
288,37.109375
289,35.156250
290,35.156250
291,35.156250
292,33.203125
293,33.203125
294,31.250000
295,31.250000
296,31.250000
297,27.343750
298,29.296875
299,27.343750
300,25.390625
301,25.390625
302,25.390625
303,23.437500
304,21.484375
305,21.484375
306,21.484375
307,17.578125
308,17.578125
309,17.578125
310,15.625000
311,13.671875
312,13.671875
313,11.718750
314,11.718750
315,9.765625
316,9.765625
317,7.812500
318,7.812500
319,5.859375
320,3.906250
321,1.953125
322,1.953125
323,0.000000
324,0.000000
325,-1.953125
326,-3.906250
327,-3.906250
328,-5.859375
329,-5.859375
330,-7.812500
331,-9.765625
332,-9.765625
333,-11.718750
334,-13.671875
335,-13.671875
336,-15.625000
337,-17.578125
338,-17.578125
339,-19.531250
340,-21.484375
341,-21.484375
342,-23.437500
343,-23.437500
344,-27.343750
345,-27.343750
346,-27.343750
347,-29.296875
348,-31.250000
349,-31.250000
350,-33.203125
351,-33.203125
352,-35.156250
353,-35.156250
354,-37.109375
355,-39.062500
356,-39.062500
357,-39.062500
358,-41.015625
359,-41.015625
360,-42.968750
361,-42.968750
362,-44.921875
363,-46.875000
364,-46.875000
365,-46.875000
366,-46.875000
367,-48.828125
368,-48.828125
369,-50.781250
370,-52.734375
371,-50.781250
372,-52.734375
373,-52.734375
374,-54.687500
375,-54.687500
376,-54.687500
377,-56.640625
378,-56.640625
379,-56.640625
380,-56.640625
381,-58.593750
382,-58.593750
383,-58.593750
384,-58.593750
385,-58.593750
386,-60.546875
387,-60.546875
388,-60.546875
389,-60.546875
390,-60.546875
391,-60.546875
392,-62.500000
393,-60.546875
394,-62.500000
395,-62.500000
396,-62.500000
397,-62.500000
398,-62.500000
399,-62.500000
400,-60.546875
401,-62.500000
402,-60.546875
403,-62.500000
404,-62.500000
405,-62.500000
406,-62.500000
407,-60.546875
408,-60.546875
409,-60.546875
410,-60.546875
411,-58.593750
412,-58.593750
413,-58.593750
414,-58.593750
415,-58.593750
416,-56.640625
417,-56.640625
418,-56.640625
419,-56.640625
420,-56.640625
421,-54.687500
422,-54.687500
423,-52.734375
424,-52.734375
425,-50.781250
426,-50.781250
427,-48.828125
428,-48.828125
429,-48.828125
430,-46.875000
431,-46.875000
432,-46.875000
433,-44.921875
434,-42.968750
435,-42.968750
436,-41.015625
437,-41.015625
438,-39.062500
439,-39.062500
440,-37.109375
441,-37.109375
442,-35.156250
443,-35.156250
444,-33.203125
445,-33.203125
446,-31.250000
447,-31.250000
448,-29.296875
449,-27.343750
450,-27.343750
451,-25.390625
452,-25.390625
453,-23.437500
454,-21.484375
455,-19.531250
456,-19.531250
457,-17.578125
458,-17.578125
459,-15.625000
460,-13.671875
461,-13.671875
462,-11.718750
463,-9.765625
464,-9.765625
465,-9.765625
466,-7.812500
467,-5.859375
468,-3.906250
469,-3.906250
470,-1.953125
471,-1.953125
472,0.000000
473,3.906250
474,1.953125
475,3.906250
476,3.906250
477,5.859375
478,7.812500
479,7.812500
480,9.765625
481,9.765625
482,11.718750
483,11.718750
484,13.671875
485,15.625000
486,15.625000
487,17.578125
488,19.531250
489,19.531250
490,19.531250
491,21.484375
492,23.437500
493,23.437500
494,25.390625
495,25.390625
496,27.343750
497,27.343750
498,29.296875
499,29.296875
500,31.250000
501,31.250000
502,33.203125
503,33.203125
504,33.203125
505,35.156250
506,35.156250
507,37.109375
508,41.015625
509,39.062500
510,39.062500
511,39.062500
512,41.015625
513,41.015625
514,41.015625
515,42.968750
516,42.968750
517,42.968750
518,42.968750
519,44.921875
520,44.921875
521,44.921875
522,44.921875
523,46.875000
524,46.875000
525,46.875000
526,46.875000
527,48.828125
528,48.828125
529,48.828125
530,48.828125
531,48.828125
532,48.828125
533,48.828125
534,48.828125
535,48.828125
536,50.781250
537,48.828125
538,48.828125
539,50.781250
540,48.828125
541,48.828125
542,48.828125
543,48.828125
544,48.828125
545,48.828125
546,48.828125
547,48.828125
548,48.828125
549,48.828125
550,48.828125
551,46.875000
552,46.875000
553,46.875000
554,46.875000
555,46.875000
556,46.875000
557,46.875000
558,44.921875
559,44.921875
560,44.921875
561,42.968750
562,42.968750
563,42.968750
564,42.968750
565,41.015625
566,41.015625
567,41.015625
568,39.062500
569,39.062500
570,39.062500
571,37.109375
572,37.109375
573,37.109375
574,35.156250
575,35.156250
576,35.156250
577,33.203125
578,31.250000
579,31.250000
580,31.250000
581,29.296875
582,29.296875
583,27.343750
584,27.343750
585,25.390625
586,25.390625
587,23.437500
588,23.437500
589,21.484375
590,21.484375
591,19.531250
592,17.578125
593,17.578125
594,15.625000
595,13.671875
596,13.671875
597,13.671875
598,11.718750
599,9.765625
600,9.765625
601,7.812500
602,5.859375
603,5.859375
604,3.906250
605,3.906250
606,1.953125
607,0.000000
608,-1.953125
609,-1.953125
610,-3.906250
611,-3.906250
612,-5.859375
613,-5.859375
614,-7.812500
615,-9.765625
616,-9.765625
617,-11.718750
618,-13.671875
619,-13.671875
620,-15.625000
621,-15.625000
622,-17.578125
623,-19.531250
624,-19.531250
625,-23.437500
626,-21.484375
627,-23.437500
628,-25.390625
629,-27.343750
630,-27.343750
631,-29.296875
632,-29.296875
633,-31.250000
634,-33.203125
635,-33.203125
636,-35.156250
637,-35.156250
638,-37.109375
639,-37.109375
640,-37.109375
641,-39.062500
642,-39.062500
643,-41.015625
644,-41.015625
645,-42.968750
646,-42.968750
647,-44.921875
648,-44.921875
649,-46.875000
650,-46.875000
651,-48.828125
652,-48.828125
653,-48.828125
654,-50.781250
655,-50.781250
656,-52.734375
657,-52.734375
658,-52.734375
659,-52.734375
660,-54.687500
661,-54.687500
662,-56.640625
663,-56.640625
664,-56.640625
665,-56.640625
666,-58.593750
667,-58.593750
668,-58.593750
669,-58.593750
670,-60.546875
671,-60.546875
672,-60.546875
673,-58.593750
674,-60.546875
675,-60.546875
676,-60.546875
677,-62.500000
678,-60.546875
679,-60.546875
680,-60.546875
681,-62.500000
682,-62.500000
683,-60.546875
684,-62.500000
685,-62.500000
686,-60.546875
687,-60.546875
688,-60.546875
689,-60.546875
690,-60.546875
691,-60.546875
692,-60.546875
693,-60.546875
694,-58.593750
695,-58.593750
696,-60.546875
697,-58.593750
698,-56.640625
699,-58.593750
700,-56.640625
701,-56.640625
702,-54.687500
703,-54.687500
704,-54.687500
705,-54.687500
706,-52.734375
707,-52.734375
708,-52.734375
709,-50.781250
710,-50.781250
711,-48.828125
712,-48.828125
713,-46.875000
714,-46.875000
715,-46.875000
716,-44.921875
717,-44.921875
718,-42.968750
719,-42.968750
720,-41.015625
721,-41.015625
722,-39.062500
723,-39.062500
724,-39.062500
725,-37.109375
726,-33.203125
727,-35.156250
728,-33.203125
729,-33.203125
730,-31.250000
731,-29.296875
732,-29.296875
733,-27.343750
734,-25.390625
735,-25.390625
736,-25.390625
737,-23.437500
738,-21.484375
739,-19.531250
740,-19.531250
741,-17.578125
742,-17.578125
743,-15.625000
744,-15.625000
745,-13.671875
746,-11.718750
747,-11.718750
748,-9.765625
749,-9.765625
750,-7.812500
751,-5.859375
752,-5.859375
753,-3.906250
754,-1.953125
755,-1.953125
756,0.000000
757,0.000000
758,1.953125
759,3.906250
760,3.906250
761,5.859375
762,7.812500
763,7.812500
764,9.765625
765,9.765625
766,11.718750
767,11.718750
768,13.671875
769,15.625000
770,17.578125
771,17.578125
772,19.531250
773,19.531250
774,21.484375
775,21.484375
776,23.437500
777,23.437500
778,25.390625
779,25.390625
780,25.390625
781,27.343750
782,27.343750
783,29.296875
784,31.250000
785,31.250000
786,33.203125
787,33.203125
788,35.156250
789,35.156250
790,35.156250
791,37.109375
792,37.109375
793,39.062500
794,37.109375
795,39.062500
796,41.015625
797,41.015625
798,41.015625
799,41.015625
800,42.968750
801,42.968750
802,42.968750
803,44.921875
804,44.921875
805,44.921875
806,44.921875
807,44.921875
808,46.875000
809,46.875000
810,46.875000
811,46.875000
812,46.875000
813,48.828125
814,46.875000
815,48.828125
816,48.828125
817,48.828125
818,48.828125
819,48.828125
820,48.828125
821,48.828125
822,48.828125
823,50.781250
824,50.781250
825,48.828125
826,48.828125
827,50.781250
828,48.828125
829,48.828125
830,50.781250
831,48.828125
832,48.828125
833,48.828125
834,48.828125
835,48.828125
836,48.828125
837,48.828125
838,46.875000
839,46.875000
840,46.875000
841,46.875000
842,44.921875
843,44.921875
844,44.921875
845,44.921875
846,44.921875
847,42.968750
848,42.968750
849,42.968750
850,41.015625
851,41.015625
852,41.015625
853,39.062500
854,39.062500
855,37.109375
856,37.109375
857,37.109375
858,35.156250
859,35.156250
860,33.203125
861,33.203125
862,31.250000
863,31.250000
864,31.250000
865,29.296875
866,29.296875
867,27.343750
868,27.343750
869,25.390625
870,25.390625
871,23.437500
872,21.484375
873,21.484375
874,21.484375
875,19.531250
876,17.578125
877,19.531250
878,15.625000
879,15.625000
880,13.671875
881,11.718750
882,11.718750
883,11.718750
884,9.765625
885,7.812500
886,5.859375
887,5.859375
888,3.906250
889,-1.953125
890,1.953125
891,0.000000
892,0.000000
893,-1.953125
894,-3.906250
895,-3.906250
896,-5.859375
897,-5.859375
898,-7.812500
899,-9.765625
900,-9.765625
901,-11.718750
902,-11.718750
903,-13.671875
904,-15.625000
905,-15.625000
906,-17.578125
907,-19.531250
908,-19.531250
909,-21.484375
910,-23.437500
911,-23.437500
912,-25.390625
913,-25.390625
914,-27.343750
915,-27.343750
916,-29.296875
917,-31.250000
918,-31.250000
919,-33.203125
920,-33.203125
921,-35.156250
922,-35.156250
923,-37.109375
924,-37.109375
925,-39.062500
926,-41.015625
927,-41.015625
928,-42.968750
929,-44.921875
930,-44.921875
931,-44.921875
932,-46.875000
933,-46.875000
934,-46.875000
935,-48.828125
936,-48.828125
937,-50.781250
938,-50.781250
939,-50.781250
940,-52.734375
941,-52.734375
942,-54.687500
943,-54.687500
944,-54.687500
945,-54.687500
946,-56.640625
947,-56.640625
948,-56.640625
949,-56.640625
950,-58.593750
951,-58.593750
952,-58.593750
953,-58.593750
954,-56.640625
955,-60.546875
956,-60.546875
957,-60.546875
958,-60.546875
959,-60.546875
960,-60.546875
961,-60.546875
962,-62.500000
963,-62.500000
964,-60.546875
965,-62.500000
966,-60.546875
967,-60.546875
968,-60.546875
969,-60.546875
970,-60.546875
971,-60.546875
972,-60.546875
973,-60.546875
974,-60.546875
975,-60.546875
976,-60.546875
977,-60.546875
978,-58.593750
979,-58.593750
980,-58.593750
981,-58.593750
982,-58.593750
983,-56.640625
984,-56.640625
985,-56.640625
986,-56.640625
987,-54.687500
988,-54.687500
989,-52.734375
990,-52.734375
991,-52.734375
992,-52.734375
993,-50.781250
994,-50.781250
995,-50.781250
996,-48.828125
997,-48.828125
998,-46.875000
999,-46.875000
1000,-44.921875
1001,-42.968750
1002,-44.921875
1003,-42.968750
1004,-42.968750
1005,-41.015625
1006,-39.062500
1007,-39.062500
1008,-39.062500
1009,-37.109375
1010,-35.156250
1011,-35.156250
1012,-35.156250
1013,-33.203125
1014,-31.250000
1015,-31.250000
1016,-29.296875
1017,-27.343750
1018,-27.343750
1019,-25.390625
1020,-25.390625
1021,-23.437500
1022,-21.484375
1023,-21.484375
1024,-19.531250
1025,-17.578125
1026,-17.578125
1027,-15.625000
1028,-15.625000
1029,-13.671875
1030,-11.718750
1031,-11.718750
1032,-9.765625
1033,-9.765625
1034,-7.812500
1035,-5.859375
1036,-5.859375
1037,-3.906250
1038,-1.953125
1039,-1.953125
1040,0.000000
1041,1.953125
1042,1.953125
1043,3.906250
1044,3.906250
1045,5.859375
1046,7.812500
1047,7.812500
1048,9.765625
1049,9.765625
1050,11.718750
1051,11.718750
1052,13.671875
1053,15.625000
1054,15.625000
1055,17.578125
1056,17.578125
1057,19.531250
1058,19.531250
1059,21.484375
1060,23.437500
1061,23.437500
1062,25.390625
1063,25.390625
1064,29.296875
1065,27.343750
1066,29.296875
1067,29.296875
1068,29.296875
1069,31.250000
1070,31.250000
1071,33.203125
1072,33.203125
1073,35.156250
1074,35.156250
1075,37.109375
1076,37.109375
1077,37.109375
1078,39.062500
1079,39.062500
1080,39.062500
1081,41.015625
1082,41.015625
1083,41.015625
1084,42.968750
1085,42.968750
1086,42.968750
1087,44.921875
1088,44.921875
1089,44.921875
1090,44.921875
1091,44.921875
1092,46.875000
1093,46.875000
1094,46.875000
1095,46.875000
1096,48.828125
1097,48.828125
1098,48.828125
1099,48.828125
1100,48.828125
1101,48.828125
1102,48.828125
1103,48.828125
1104,48.828125
1105,50.781250
1106,48.828125
1107,50.781250
1108,48.828125
1109,50.781250
1110,48.828125
1111,48.828125
1112,48.828125
1113,48.828125
1114,48.828125
1115,48.828125
1116,48.828125
1117,46.875000
1118,48.828125
1119,48.828125
1120,46.875000
1121,46.875000
1122,46.875000
1123,44.921875
1124,46.875000
1125,46.875000
1126,44.921875
1127,44.921875
1128,44.921875
1129,42.968750
1130,42.968750
1131,42.968750
1132,42.968750
1133,41.015625
1134,41.015625
1135,41.015625
1136,39.062500
1137,39.062500
1138,37.109375
1139,37.109375
1140,37.109375
1141,35.156250
1142,35.156250
1143,35.156250
1144,33.203125
1145,33.203125
1146,33.203125
1147,31.250000
1148,31.250000
1149,29.296875
1150,27.343750
1151,27.343750
1152,27.343750
1153,25.390625
1154,25.390625
1155,23.437500
1156,19.531250
1157,21.484375
1158,21.484375
1159,19.531250
1160,17.578125
1161,17.578125
1162,15.625000
1163,15.625000
1164,13.671875
1165,13.671875
1166,11.718750
1167,11.718750
1168,9.765625
1169,7.812500
1170,7.812500
1171,5.859375
1172,3.906250
1173,3.906250
1174,1.953125
1175,0.000000
1176,0.000000
1177,-3.906250
1178,-3.906250
1179,-3.906250
1180,-5.859375
1181,-5.859375
1182,-7.812500
1183,-9.765625
1184,-9.765625
1185,-11.718750
1186,-13.671875
1187,-13.671875
1188,-15.625000
1189,-17.578125
1190,-17.578125
1191,-19.531250
1192,-19.531250
1193,-21.484375
1194,-23.437500
1195,-23.437500
1196,-25.390625
1197,-25.390625
1198,-27.343750
1199,-29.296875
1200,-29.296875
1201,-31.250000
1202,-31.250000
1203,-33.203125
1204,-35.156250
1205,-35.156250
1206,-37.109375
1207,-37.109375
1208,-39.062500
1209,-37.109375
1210,-41.015625
1211,-41.015625
1212,-42.968750
1213,-42.968750
1214,-42.968750
1215,-44.921875
1216,-44.921875
1217,-46.875000
1218,-46.875000
1219,-48.828125
1220,-48.828125
1221,-48.828125
1222,-50.781250
1223,-50.781250
1224,-52.734375
1225,-52.734375
1226,-52.734375
1227,-54.687500
1228,-54.687500
1229,-54.687500
1230,-54.687500
1231,-56.640625
1232,-56.640625
1233,-56.640625
1234,-58.593750
1235,-58.593750
1236,-58.593750
1237,-58.593750
1238,-58.593750
1239,-60.546875
1240,-60.546875
1241,-60.546875
1242,-60.546875
1243,-62.500000
1244,-60.546875
1245,-60.546875
1246,-62.500000
1247,-62.500000
1248,-60.546875
1249,-62.500000
1250,-62.500000
1251,-62.500000
1252,-62.500000
1253,-60.546875
1254,-62.500000
1255,-62.500000
1256,-62.500000
1257,-60.546875
1258,-60.546875
1259,-60.546875
1260,-60.546875
1261,-60.546875
1262,-60.546875
1263,-58.593750
1264,-58.593750
1265,-58.593750
1266,-58.593750
1267,-56.640625
1268,-56.640625
1269,-56.640625
1270,-56.640625
1271,-54.687500
1272,-54.687500
1273,-54.687500
1274,-54.687500
1275,-52.734375
1276,-52.734375
1277,-50.781250
1278,-50.781250
1279,-50.781250
1280,-48.828125
1281,-48.828125
1282,-46.875000
1283,-46.875000
1284,-44.921875
1285,-44.921875
1286,-42.968750
1287,-42.968750
1288,-42.968750
1289,-41.015625
1290,-39.062500
1291,-39.062500
1292,-37.109375
1293,-37.109375
1294,-35.156250
1295,-35.156250
1296,-33.203125
1297,-31.250000
1298,-31.250000
1299,-31.250000
1300,-29.296875
1301,-27.343750
1302,-27.343750
1303,-27.343750
1304,-25.390625
1305,-23.437500
1306,-23.437500
1307,-21.484375
1308,-19.531250
1309,-19.531250
1310,-17.578125
1311,-17.578125
1312,-15.625000
1313,-13.671875
1314,-13.671875
1315,-11.718750
1316,-9.765625
1317,-9.765625
1318,-7.812500
1319,-5.859375
1320,-5.859375
1321,-3.906250
1322,-3.906250
1323,-1.953125
1324,0.000000
1325,0.000000
1326,1.953125
1327,1.953125
1328,3.906250
1329,5.859375
1330,5.859375
1331,7.812500
1332,5.859375
1333,9.765625
1334,11.718750
1335,13.671875
1336,13.671875
1337,13.671875
1338,15.625000
1339,17.578125
1340,17.578125
1341,19.531250
1342,21.484375
1343,21.484375
1344,21.484375
1345,23.437500
1346,25.390625
1347,25.390625
1348,27.343750
1349,27.343750
1350,29.296875
1351,31.250000
1352,29.296875
1353,31.250000
1354,33.203125
1355,33.203125
1356,33.203125
1357,35.156250
1358,35.156250
1359,37.109375
1360,37.109375
1361,39.062500
1362,39.062500
1363,39.062500
1364,41.015625
1365,41.015625
1366,41.015625
1367,42.968750
1368,42.968750
1369,42.968750
1370,42.968750
1371,44.921875
1372,44.921875
1373,44.921875
1374,44.921875
1375,44.921875
1376,46.875000
1377,46.875000
1378,46.875000
1379,46.875000
1380,46.875000
1381,46.875000
1382,48.828125
1383,48.828125
1384,48.828125
1385,48.828125
1386,48.828125
1387,48.828125
1388,48.828125
1389,48.828125
1390,48.828125
1391,48.828125
1392,48.828125
1393,48.828125
1394,48.828125
1395,48.828125
1396,48.828125
1397,48.828125
1398,48.828125
1399,48.828125
1400,48.828125
1401,48.828125
1402,48.828125
1403,48.828125
1404,48.828125
1405,46.875000
1406,46.875000
1407,46.875000
1408,46.875000
1409,46.875000
1410,44.921875
1411,44.921875
1412,44.921875
1413,44.921875
1414,44.921875
1415,42.968750
1416,42.968750
1417,42.968750
1418,42.968750
1419,41.015625
1420,39.062500
1421,39.062500
1422,39.062500
1423,39.062500
1424,37.109375
1425,37.109375
1426,35.156250
1427,35.156250
1428,35.156250
1429,35.156250
1430,33.203125
1431,31.250000
1432,31.250000
1433,29.296875
1434,29.296875
1435,27.343750
1436,27.343750
1437,25.390625
1438,25.390625
1439,23.437500
1440,21.484375
1441,21.484375
1442,21.484375
1443,19.531250
1444,17.578125
1445,17.578125
1446,15.625000
1447,15.625000
1448,13.671875
1449,13.671875
1450,11.718750
1451,9.765625
1452,9.765625
1453,7.812500
1454,7.812500
1455,5.859375
1456,3.906250
1457,3.906250
1458,1.953125
1459,1.953125
1460,0.000000
1461,-1.953125
1462,-1.953125
1463,-3.906250
1464,-3.906250
1465,-5.859375
1466,-5.859375
1467,-7.812500
1468,-9.765625
1469,-11.718750
1470,-13.671875
1471,-13.671875
1472,-15.625000
1473,-15.625000
1474,-17.578125
1475,-19.531250
1476,-19.531250
1477,-21.484375
1478,-21.484375
1479,-23.437500
1480,-23.437500
1481,-25.390625
1482,-27.343750
1483,-27.343750
1484,-27.343750
1485,-29.296875
1486,-31.250000
1487,-33.203125
1488,-33.203125
1489,-33.203125
1490,-35.156250
1491,-37.109375
1492,-39.062500
1493,-39.062500
1494,-41.015625
1495,-41.015625
1496,-41.015625
1497,-41.015625
1498,-42.968750
1499,-44.921875
1500,-44.921875
1501,-46.875000
1502,-46.875000
1503,-48.828125
1504,-48.828125
1505,-50.781250
1506,-50.781250
1507,-50.781250
1508,-52.734375
1509,-52.734375
1510,-52.734375
1511,-54.687500
1512,-54.687500
1513,-54.687500
1514,-54.687500
1515,-56.640625
1516,-56.640625
1517,-58.593750
1518,-58.593750
1519,-58.593750
1520,-58.593750
1521,-58.593750
1522,-60.546875
1523,-60.546875
1524,-60.546875
1525,-60.546875
1526,-60.546875
1527,-62.500000
1528,-60.546875
1529,-60.546875
1530,-60.546875
1531,-62.500000
1532,-60.546875
1533,-60.546875
1534,-60.546875
1535,-60.546875
1536,-60.546875
1537,-60.546875
1538,-62.500000
1539,-60.546875
1540,-60.546875
1541,-60.546875
1542,-60.546875
1543,-60.546875
1544,-60.546875
1545,-60.546875
1546,-60.546875
1547,-60.546875
1548,-58.593750
1549,-58.593750
1550,-58.593750
1551,-56.640625
1552,-56.640625
1553,-56.640625
1554,-56.640625
1555,-54.687500
1556,-54.687500
1557,-54.687500
1558,-52.734375
1559,-52.734375
1560,-52.734375
1561,-50.781250
1562,-50.781250
1563,-48.828125
1564,-48.828125
1565,-48.828125
1566,-48.828125
1567,-46.875000
1568,-46.875000
1569,-44.921875
1570,-44.921875
1571,-42.968750
1572,-42.968750
1573,-41.015625
1574,-41.015625
1575,-39.062500
1576,-39.062500
1577,-37.109375
1578,-37.109375
1579,-35.156250
1580,-35.156250
1581,-33.203125
1582,-33.203125
1583,-31.250000
1584,-29.296875
1585,-29.296875
1586,-27.343750
1587,-25.390625
1588,-25.390625
1589,-23.437500
1590,-21.484375
1591,-21.484375
1592,-19.531250
1593,-19.531250
1594,-17.578125
1595,-15.625000
1596,-15.625000
1597,-13.671875
1598,-11.718750
1599,-11.718750
1600,-9.765625
1601,-7.812500
1602,-7.812500
1603,-5.859375
1604,-5.859375
1605,-3.906250
1606,-1.953125
1607,-1.953125
1608,0.000000
1609,0.000000
1610,1.953125
1611,1.953125
1612,3.906250
1613,5.859375
1614,7.812500
1615,7.812500
1616,7.812500
1617,9.765625
1618,11.718750
1619,13.671875
1620,13.671875
1621,15.625000
1622,15.625000
1623,17.578125
1624,19.531250
1625,19.531250
1626,19.531250
1627,21.484375
1628,23.437500
1629,23.437500
1630,25.390625
1631,25.390625
1632,25.390625
1633,27.343750
1634,27.343750
1635,29.296875
1636,31.250000
1637,31.250000
1638,31.250000
1639,33.203125
1640,33.203125
1641,33.203125
1642,35.156250
1643,35.156250
1644,37.109375
1645,39.062500
1646,39.062500
1647,44.921875
1648,39.062500
1649,41.015625
1650,41.015625
1651,41.015625
1652,42.968750
1653,42.968750
1654,42.968750
1655,44.921875
1656,44.921875
1657,44.921875
1658,44.921875
1659,44.921875
1660,46.875000
1661,46.875000
1662,46.875000
1663,46.875000
1664,48.828125
1665,46.875000
1666,48.828125
1667,48.828125
1668,48.828125
1669,48.828125
1670,48.828125
1671,48.828125
1672,48.828125
1673,48.828125
1674,48.828125
1675,48.828125
1676,48.828125
1677,50.781250
1678,48.828125
1679,48.828125
1680,48.828125
1681,48.828125
1682,50.781250
1683,50.781250
1684,48.828125
1685,48.828125
1686,48.828125
1687,48.828125
1688,46.875000
1689,46.875000
1690,46.875000
1691,46.875000
1692,46.875000
1693,46.875000
1694,46.875000
1695,44.921875
1696,44.921875
1697,42.968750
1698,42.968750
1699,42.968750
1700,42.968750
1701,42.968750
1702,41.015625
1703,41.015625
1704,41.015625
1705,39.062500
1706,39.062500
1707,37.109375
1708,37.109375
1709,37.109375
1710,35.156250
1711,35.156250
1712,33.203125
1713,33.203125
1714,33.203125
1715,31.250000
1716,29.296875
1717,29.296875
1718,29.296875
1719,27.343750
1720,27.343750
1721,25.390625
1722,25.390625
1723,23.437500
1724,23.437500
1725,21.484375
1726,19.531250
1727,19.531250
1728,19.531250
1729,17.578125
1730,15.625000
1731,15.625000
1732,13.671875
1733,11.718750
1734,11.718750
1735,11.718750
1736,9.765625
1737,7.812500
1738,7.812500
1739,5.859375
1740,5.859375
1741,3.906250
1742,1.953125
1743,1.953125
1744,0.000000
1745,0.000000
1746,-1.953125
1747,-3.906250
1748,-3.906250
1749,-5.859375
1750,-7.812500
1751,-7.812500
1752,-9.765625
1753,-11.718750
1754,-11.718750
1755,-13.671875
1756,-15.625000
1757,-15.625000
1758,-17.578125
1759,-19.531250
1760,-19.531250
1761,-21.484375
1762,-21.484375
1763,-23.437500
1764,-25.390625
1765,-25.390625
1766,-27.343750
1767,-27.343750
1768,-29.296875
1769,-29.296875
1770,-31.250000
1771,-33.203125
1772,-33.203125
1773,-35.156250
1774,-35.156250
1775,-37.109375
1776,-37.109375
1777,-39.062500
1778,-41.015625
1779,-41.015625
1780,-41.015625
1781,-42.968750
1782,-42.968750
1783,-44.921875
1784,-44.921875
1785,-46.875000
1786,-46.875000
1787,-48.828125
1788,-48.828125
1789,-50.781250
1790,-50.781250
1791,-50.781250
1792,-50.781250
1793,-52.734375
1794,-52.734375
1795,-54.687500
1796,-54.687500
1797,-54.687500
1798,-54.687500
1799,-56.640625
1800,-56.640625
1801,-56.640625
1802,-56.640625
1803,-58.593750
1804,-58.593750
1805,-58.593750
1806,-58.593750
1807,-58.593750
1808,-60.546875
1809,-60.546875
1810,-60.546875
1811,-60.546875
1812,-60.546875
1813,-60.546875
1814,-60.546875
1815,-60.546875
1816,-60.546875
1817,-60.546875
1818,-62.500000
1819,-62.500000
1820,-60.546875
1821,-62.500000
1822,-60.546875
1823,-60.546875
1824,-60.546875
1825,-60.546875
1826,-60.546875
1827,-60.546875
1828,-60.546875
1829,-60.546875
1830,-60.546875
1831,-60.546875
1832,-58.593750
1833,-58.593750
1834,-58.593750
1835,-56.640625
1836,-58.593750
1837,-56.640625
1838,-56.640625
1839,-54.687500
1840,-54.687500
1841,-54.687500
1842,-54.687500
1843,-52.734375
1844,-52.734375
1845,-52.734375
1846,-50.781250
1847,-48.828125
1848,-48.828125
1849,-48.828125
1850,-48.828125
1851,-46.875000
1852,-46.875000
1853,-44.921875
1854,-44.921875
1855,-42.968750
1856,-41.015625
1857,-41.015625
1858,-41.015625
1859,-35.156250
1860,-37.109375
1861,-37.109375
1862,-37.109375
1863,-35.156250
1864,-33.203125
1865,-33.203125
1866,-31.250000
1867,-31.250000
1868,-29.296875
1869,-27.343750
1870,-27.343750
1871,-25.390625
1872,-25.390625
1873,-23.437500
1874,-23.437500
1875,-19.531250
1876,-19.531250
1877,-19.531250
1878,-17.578125
1879,-17.578125
1880,-15.625000
1881,-13.671875
1882,-13.671875
1883,-11.718750
1884,-9.765625
1885,-9.765625
1886,-7.812500
1887,-5.859375
1888,-5.859375
1889,-3.906250
1890,-1.953125
1891,-1.953125
1892,0.000000
1893,3.906250
1894,0.000000
1895,3.906250
1896,3.906250
1897,5.859375
1898,5.859375
1899,7.812500
1900,7.812500
1901,9.765625
1902,9.765625
1903,11.718750
1904,13.671875
1905,13.671875
1906,15.625000
1907,17.578125
1908,17.578125
1909,17.578125
1910,19.531250
1911,21.484375
1912,21.484375
1913,23.437500
1914,23.437500
1915,25.390625
1916,25.390625
1917,27.343750
1918,27.343750
1919,29.296875
1920,31.250000
1921,31.250000
1922,31.250000
1923,33.203125
1924,33.203125
1925,35.156250
1926,37.109375
1927,37.109375
1928,37.109375
1929,37.109375
1930,39.062500
1931,39.062500
1932,39.062500
1933,41.015625
1934,41.015625
1935,41.015625
1936,42.968750
1937,42.968750
1938,42.968750
1939,42.968750
1940,44.921875
1941,44.921875
1942,44.921875
1943,46.875000
1944,46.875000
1945,46.875000
1946,46.875000
1947,46.875000
1948,46.875000
1949,48.828125
1950,48.828125
1951,48.828125
1952,48.828125
1953,48.828125
1954,48.828125
1955,48.828125
1956,48.828125
1957,50.781250
1958,50.781250
1959,48.828125
1960,48.828125
1961,48.828125
1962,48.828125
1963,48.828125
1964,50.781250
1965,48.828125
1966,48.828125
1967,48.828125
1968,48.828125
1969,48.828125
1970,48.828125
1971,48.828125
1972,46.875000
1973,46.875000
1974,46.875000
1975,46.875000
1976,44.921875
1977,44.921875
1978,44.921875
1979,44.921875
1980,44.921875
1981,44.921875
1982,44.921875
1983,42.968750
1984,42.968750
1985,42.968750
1986,41.015625
1987,41.015625
1988,41.015625
1989,39.062500
1990,39.062500
1991,39.062500
1992,39.062500
1993,37.109375
1994,35.156250
1995,35.156250
1996,35.156250
1997,33.203125
1998,33.203125
1999,31.250000
2000,33.203125
2001,29.296875
2002,29.296875
2003,27.343750
2004,27.343750
2005,25.390625
2006,25.390625
2007,25.390625
2008,23.437500
2009,21.484375
2010,21.484375
2011,19.531250
2012,19.531250
2013,17.578125
2014,15.625000
2015,15.625000
2016,13.671875
2017,13.671875
2018,11.718750
2019,11.718750
2020,9.765625
2021,7.812500
2022,5.859375
2023,5.859375
2024,5.859375
2025,3.906250
2026,1.953125
2027,1.953125
2028,0.000000
2029,-1.953125
2030,-1.953125
2031,-3.906250
2032,-5.859375
2033,-5.859375
2034,-7.812500
2035,-9.765625
2036,-9.765625
2037,-11.718750
2038,-11.718750
2039,-13.671875
2040,-15.625000
2041,-17.578125
2042,-17.578125
2043,-17.578125
2044,-17.578125
2045,-19.531250
2046,-23.437500
2047,-23.437500
2048,-25.390625
2049,-25.390625
2050,-27.343750
2051,-27.343750
2052,-29.296875
2053,-29.296875
2054,-31.250000
2055,-31.250000
2056,-33.203125
2057,-35.156250
2058,-35.156250
2059,-37.109375
2060,-37.109375
2061,-39.062500
2062,-39.062500
2063,-41.015625
2064,-41.015625
2065,-42.968750
2066,-42.968750
2067,-44.921875
2068,-44.921875
2069,-44.921875
2070,-48.828125
2071,-46.875000
2072,-48.828125
2073,-48.828125
2074,-50.781250
2075,-50.781250
2076,-50.781250
2077,-52.734375
2078,-54.687500
2079,-52.734375
2080,-54.687500
2081,-54.687500
2082,-54.687500
2083,-56.640625
2084,-56.640625
2085,-58.593750
2086,-58.593750
2087,-58.593750
2088,-58.593750
2089,-58.593750
2090,-60.546875
2091,-60.546875
2092,-60.546875
2093,-60.546875
2094,-60.546875
2095,-60.546875
2096,-62.500000
2097,-60.546875
2098,-60.546875
2099,-62.500000
2100,-62.500000
2101,-58.593750
2102,-62.500000
2103,-62.500000
2104,-62.500000
2105,-62.500000
2106,-62.500000
2107,-62.500000
2108,-60.546875
2109,-60.546875
2110,-60.546875
2111,-60.546875
2112,-60.546875
2113,-60.546875
2114,-58.593750
2115,-58.593750
2116,-58.593750
2117,-58.593750
2118,-58.593750
2119,-58.593750
2120,-56.640625
2121,-56.640625
2122,-56.640625
2123,-54.687500
2124,-54.687500
2125,-54.687500
2126,-54.687500
2127,-54.687500
2128,-52.734375
2129,-50.781250
2130,-50.781250
2131,-50.781250
2132,-48.828125
2133,-52.734375
2134,-46.875000
2135,-46.875000
2136,-46.875000
2137,-44.921875
2138,-42.968750
2139,-42.968750
2140,-42.968750
2141,-41.015625
2142,-41.015625
2143,-39.062500
2144,-39.062500
2145,-37.109375
2146,-37.109375
2147,-35.156250
2148,-35.156250
2149,-33.203125
2150,-33.203125
2151,-31.250000
2152,-31.250000
2153,-29.296875
2154,-27.343750
2155,-27.343750
2156,-25.390625
2157,-25.390625
2158,-23.437500
2159,-21.484375
2160,-19.531250
2161,-19.531250
2162,-19.531250
2163,-17.578125
2164,-15.625000
2165,-13.671875
2166,-13.671875
2167,-11.718750
2168,-11.718750
2169,-9.765625
2170,-7.812500
2171,-7.812500
2172,-3.906250
2173,-3.906250
2174,-3.906250
2175,-1.953125
2176,-1.953125
2177,0.000000
2178,1.953125
2179,1.953125
2180,3.906250
2181,5.859375
2182,5.859375
2183,7.812500
2184,9.765625
2185,9.765625
2186,11.718750
2187,11.718750
2188,13.671875
2189,15.625000
2190,15.625000
2191,17.578125
2192,17.578125
2193,19.531250
2194,19.531250
2195,21.484375
2196,21.484375
2197,23.437500
2198,25.390625
2199,25.390625
2200,25.390625
2201,27.343750
2202,27.343750
2203,29.296875
2204,29.296875
2205,31.250000
2206,33.203125
2207,33.203125
2208,33.203125
2209,35.156250
2210,35.156250
2211,37.109375
2212,37.109375
2213,37.109375
2214,39.062500
2215,39.062500
2216,39.062500
2217,41.015625
2218,41.015625
2219,41.015625
2220,41.015625
2221,42.968750
2222,42.968750
2223,42.968750
2224,44.921875
2225,44.921875
2226,44.921875
2227,44.921875
2228,44.921875
2229,46.875000
2230,46.875000
2231,46.875000
2232,46.875000
2233,46.875000
2234,46.875000
2235,48.828125
2236,48.828125
2237,48.828125
2238,48.828125
2239,48.828125
2240,48.828125
2241,48.828125
2242,48.828125
2243,48.828125
2244,48.828125
2245,50.781250
2246,44.921875
2247,48.828125
2248,48.828125
2249,48.828125
2250,50.781250
2251,48.828125
2252,48.828125
2253,48.828125
2254,48.828125
2255,48.828125
2256,46.875000
2257,48.828125
2258,46.875000
2259,46.875000
2260,46.875000
2261,46.875000
2262,46.875000
2263,44.921875
2264,44.921875
2265,42.968750
2266,42.968750
2267,42.968750
2268,42.968750
2269,41.015625
2270,41.015625
2271,41.015625
2272,39.062500
2273,39.062500
2274,39.062500
2275,39.062500
2276,37.109375
2277,37.109375
2278,35.156250
2279,35.156250
2280,35.156250
2281,33.203125
2282,33.203125
2283,31.250000
2284,31.250000
2285,29.296875
2286,29.296875
2287,27.343750
2288,27.343750
2289,27.343750
2290,25.390625
2291,23.437500
2292,23.437500
2293,23.437500
2294,21.484375
2295,19.531250
2296,17.578125
2297,17.578125
2298,15.625000
2299,15.625000
2300,13.671875
2301,13.671875
2302,11.718750
2303,11.718750
2304,9.765625
2305,7.812500
2306,7.812500
2307,5.859375
2308,5.859375
2309,3.906250
2310,1.953125
2311,1.953125
2312,1.953125
2313,-1.953125
2314,-1.953125
2315,-3.906250
2316,-3.906250
2317,-5.859375
2318,-7.812500
2319,-7.812500
2320,-9.765625
2321,-9.765625
2322,-11.718750
2323,-13.671875
2324,-13.671875
2325,-15.625000
2326,-17.578125
2327,-19.531250
2328,-19.531250
2329,-21.484375
2330,-21.484375
2331,-23.437500
2332,-25.390625
2333,-25.390625
2334,-27.343750
2335,-27.343750
2336,-29.296875
2337,-29.296875
2338,-29.296875
2339,-33.203125
2340,-33.203125
2341,-35.156250
2342,-35.156250
2343,-37.109375
2344,-39.062500
2345,-39.062500
2346,-39.062500
2347,-41.015625
2348,-41.015625
2349,-42.968750
2350,-42.968750
2351,-44.921875
2352,-44.921875
2353,-46.875000
2354,-46.875000
2355,-48.828125
2356,-48.828125
2357,-48.828125
2358,-50.781250
2359,-52.734375
2360,-50.781250
2361,-52.734375
2362,-52.734375
2363,-52.734375
2364,-54.687500
2365,-54.687500
2366,-56.640625
2367,-56.640625
2368,-56.640625
2369,-58.593750
2370,-58.593750
2371,-58.593750
2372,-58.593750
2373,-62.500000
2374,-58.593750
2375,-60.546875
2376,-58.593750
2377,-58.593750
2378,-60.546875
2379,-60.546875
2380,-60.546875
2381,-60.546875
2382,-60.546875
2383,-60.546875
2384,-60.546875
2385,-60.546875
2386,-60.546875
2387,-62.500000
2388,-60.546875
2389,-60.546875
2390,-60.546875
2391,-60.546875
2392,-60.546875
2393,-60.546875
2394,-60.546875
2395,-60.546875
2396,-60.546875
2397,-60.546875
2398,-60.546875
2399,-58.593750
2400,-58.593750
2401,-58.593750
2402,-58.593750
2403,-58.593750
2404,-56.640625
2405,-56.640625
2406,-56.640625
2407,-56.640625
2408,-56.640625
2409,-54.687500
2410,-52.734375
2411,-52.734375
2412,-52.734375
2413,-52.734375
2414,-50.781250
2415,-48.828125
2416,-48.828125
2417,-48.828125
2418,-48.828125
2419,-46.875000
2420,-44.921875
2421,-44.921875
2422,-44.921875
2423,-42.968750
2424,-42.968750
2425,-41.015625
2426,-41.015625
2427,-39.062500
2428,-39.062500
2429,-37.109375
2430,-37.109375
2431,-35.156250
2432,-35.156250
2433,-33.203125
2434,-33.203125
2435,-31.250000
2436,-29.296875
2437,-29.296875
2438,-27.343750
2439,-27.343750
2440,-25.390625
2441,-23.437500
2442,-23.437500
2443,-21.484375
2444,-21.484375
2445,-19.531250
2446,-17.578125
2447,-13.671875
2448,-15.625000
2449,-13.671875
2450,-13.671875
2451,-11.718750
2452,-11.718750
2453,-7.812500
2454,-7.812500
2455,-5.859375
2456,-5.859375
2457,-3.906250
2458,-1.953125
2459,-1.953125
2460,0.000000
2461,0.000000
2462,1.953125
2463,3.906250
2464,3.906250
2465,5.859375
2466,5.859375
2467,7.812500
2468,9.765625
2469,9.765625
2470,11.718750
2471,11.718750
2472,13.671875
2473,13.671875
2474,15.625000
2475,15.625000
2476,15.625000
2477,17.578125
2478,19.531250
2479,19.531250
2480,25.390625
2481,23.437500
2482,25.390625
2483,25.390625
2484,25.390625
2485,27.343750
2486,27.343750
2487,29.296875
2488,29.296875
2489,31.250000
2490,31.250000
2491,31.250000
2492,33.203125
2493,35.156250
2494,35.156250
2495,37.109375
2496,37.109375
2497,37.109375
2498,39.062500
2499,39.062500
2500,39.062500
2501,41.015625
2502,41.015625
2503,41.015625
2504,42.968750
2505,42.968750
2506,44.921875
2507,44.921875
2508,44.921875
2509,44.921875
2510,44.921875
2511,46.875000
2512,46.875000
2513,46.875000
2514,46.875000
2515,46.875000
2516,48.828125
2517,48.828125
2518,48.828125
2519,48.828125
2520,48.828125
2521,48.828125
2522,48.828125
2523,48.828125
2524,48.828125
2525,46.875000
2526,48.828125
2527,48.828125
2528,48.828125
2529,50.781250
2530,50.781250
2531,50.781250
2532,48.828125
2533,48.828125
2534,48.828125
2535,48.828125
2536,48.828125
2537,48.828125
2538,48.828125
2539,48.828125
2540,48.828125
2541,46.875000
2542,46.875000
2543,46.875000
2544,46.875000
2545,46.875000
2546,44.921875
2547,44.921875
2548,44.921875
2549,44.921875
2550,42.968750
2551,42.968750
2552,42.968750
2553,42.968750
2554,42.968750
2555,42.968750
2556,41.015625
2557,39.062500
2558,39.062500
2559,39.062500
2560,37.109375
2561,37.109375
2562,37.109375
2563,35.156250
2564,33.203125
2565,35.156250
2566,33.203125
2567,33.203125
2568,31.250000
2569,29.296875
2570,29.296875
2571,29.296875
2572,27.343750
2573,27.343750
2574,25.390625
2575,25.390625
2576,23.437500
2577,21.484375
2578,21.484375
2579,19.531250
2580,19.531250
2581,17.578125
2582,17.578125
2583,15.625000
2584,13.671875
2585,13.671875
2586,13.671875
2587,11.718750
2588,9.765625
2589,7.812500
2590,7.812500
2591,7.812500
2592,5.859375
2593,3.906250
2594,3.906250
2595,1.953125
2596,0.000000
2597,0.000000
2598,-1.953125
2599,-1.953125
2600,-3.906250
2601,-5.859375
2602,-5.859375
2603,-7.812500
2604,-9.765625
2605,-11.718750
2606,-11.718750
2607,-13.671875
2608,-13.671875
2609,-15.625000
2610,-15.625000
2611,-17.578125
2612,-19.531250
2613,-21.484375
2614,-21.484375
2615,-23.437500
2616,-23.437500
2617,-25.390625
2618,-25.390625
2619,-27.343750
2620,-29.296875
2621,-29.296875
2622,-31.250000
2623,-33.203125
2624,-33.203125
2625,-33.203125
2626,-35.156250
2627,-35.156250
2628,-37.109375
2629,-39.062500
2630,-39.062500
2631,-39.062500
2632,-41.015625
2633,-42.968750
2634,-42.968750
2635,-44.921875
2636,-44.921875
2637,-44.921875
2638,-46.875000
2639,-50.781250
2640,-48.828125
2641,-46.875000
2642,-50.781250
2643,-50.781250
2644,-50.781250
2645,-52.734375
2646,-52.734375
2647,-52.734375
2648,-54.687500
2649,-54.687500
2650,-56.640625
2651,-54.687500
2652,-56.640625
2653,-56.640625
2654,-56.640625
2655,-58.593750
2656,-58.593750
2657,-58.593750
2658,-58.593750
2659,-58.593750
2660,-58.593750
2661,-58.593750
2662,-58.593750
2663,-60.546875
2664,-60.546875
2665,-60.546875
2666,-64.453125
2667,-62.500000
2668,-60.546875
2669,-60.546875
2670,-62.500000
2671,-62.500000
2672,-60.546875
2673,-60.546875
2674,-62.500000
2675,-62.500000
2676,-62.500000
2677,-60.546875
2678,-60.546875
2679,-60.546875
2680,-60.546875
2681,-60.546875
2682,-60.546875
2683,-58.593750
2684,-60.546875
2685,-58.593750
2686,-58.593750
2687,-58.593750
2688,-58.593750
2689,-56.640625
2690,-56.640625
2691,-54.687500
2692,-54.687500
2693,-54.687500
2694,-54.687500
2695,-52.734375
2696,-52.734375
2697,-52.734375
2698,-50.781250
2699,-50.781250
2700,-48.828125
2701,-46.875000
2702,-48.828125
2703,-46.875000
2704,-46.875000
2705,-44.921875
2706,-42.968750
2707,-42.968750
2708,-42.968750
2709,-41.015625
2710,-41.015625
2711,-39.062500
2712,-39.062500
2713,-37.109375
2714,-37.109375
2715,-35.156250
2716,-33.203125
2717,-33.203125
2718,-33.203125
2719,-31.250000
2720,-29.296875
2721,-29.296875
2722,-27.343750
2723,-27.343750
2724,-23.437500
2725,-25.390625
2726,-23.437500
2727,-21.484375
2728,-21.484375
2729,-19.531250
2730,-17.578125
2731,-17.578125
2732,-15.625000
2733,-15.625000
2734,-13.671875
2735,-11.718750
2736,-11.718750
2737,-9.765625
2738,-9.765625
2739,-7.812500
2740,-5.859375
2741,-3.906250
2742,-3.906250
2743,-1.953125
2744,0.000000
2745,0.000000
2746,1.953125
2747,1.953125
2748,3.906250
2749,3.906250
2750,5.859375
2751,7.812500
2752,7.812500
2753,9.765625
2754,9.765625
2755,11.718750
2756,13.671875
2757,15.625000
2758,15.625000
2759,15.625000
2760,17.578125
2761,19.531250
2762,19.531250
2763,21.484375
2764,21.484375
2765,23.437500
2766,25.390625
2767,25.390625
2768,25.390625
2769,27.343750
2770,29.296875
2771,29.296875
2772,29.296875
2773,31.250000
2774,31.250000
2775,33.203125
2776,33.203125
2777,33.203125
2778,35.156250
2779,35.156250
2780,37.109375
2781,37.109375
2782,39.062500
2783,37.109375
2784,39.062500
2785,39.062500
2786,41.015625
2787,41.015625
2788,41.015625
2789,42.968750
2790,42.968750
2791,44.921875
2792,44.921875
2793,44.921875
2794,44.921875
2795,44.921875
2796,46.875000
2797,46.875000
2798,46.875000
2799,46.875000
2800,46.875000
2801,48.828125
2802,46.875000
2803,48.828125
2804,48.828125
2805,48.828125
2806,48.828125
2807,48.828125
2808,48.828125
2809,48.828125
2810,48.828125
2811,48.828125
2812,48.828125
2813,48.828125
2814,48.828125
2815,48.828125
2816,48.828125
2817,48.828125
2818,48.828125
2819,48.828125
2820,48.828125
2821,48.828125
2822,48.828125
2823,48.828125
2824,48.828125
2825,46.875000
2826,46.875000
2827,46.875000
2828,46.875000
2829,46.875000
2830,46.875000
2831,44.921875
2832,44.921875
2833,44.921875
2834,42.968750
2835,42.968750
2836,42.968750
2837,42.968750
2838,41.015625
2839,41.015625
2840,41.015625
2841,39.062500
2842,39.062500
2843,39.062500
2844,37.109375
2845,37.109375
2846,35.156250
2847,35.156250
2848,35.156250
2849,33.203125
2850,33.203125
2851,31.250000
2852,31.250000
2853,31.250000
2854,29.296875
2855,27.343750
2856,27.343750
2857,25.390625
2858,25.390625
2859,23.437500
2860,23.437500
2861,21.484375
2862,21.484375
2863,19.531250
2864,19.531250
2865,17.578125
2866,17.578125
2867,13.671875
2868,13.671875
2869,11.718750
2870,11.718750
2871,11.718750
2872,9.765625
2873,7.812500
2874,9.765625
2875,5.859375
2876,5.859375
2877,3.906250
2878,1.953125
2879,1.953125
2880,0.000000
2881,0.000000
2882,-1.953125
2883,-3.906250
2884,-3.906250
2885,-5.859375
2886,-7.812500
2887,-7.812500
2888,-9.765625
2889,-11.718750
2890,-11.718750
2891,-13.671875
2892,-13.671875
2893,-17.578125
2894,-17.578125
2895,-17.578125
2896,-19.531250
2897,-19.531250
2898,-21.484375
2899,-23.437500
2900,-23.437500
2901,-25.390625
2902,-25.390625
2903,-27.343750
2904,-29.296875
2905,-31.250000
2906,-29.296875
2907,-31.250000
2908,-35.156250
2909,-35.156250
2910,-35.156250
2911,-37.109375
2912,-37.109375
2913,-39.062500
2914,-39.062500
2915,-41.015625
2916,-41.015625
2917,-42.968750
2918,-42.968750
2919,-44.921875
2920,-44.921875
2921,-46.875000
2922,-46.875000
2923,-46.875000
2924,-48.828125
2925,-48.828125
2926,-50.781250
2927,-50.781250
2928,-50.781250
2929,-52.734375
2930,-52.734375
2931,-54.687500
2932,-54.687500
2933,-54.687500
2934,-56.640625
2935,-56.640625
2936,-56.640625
2937,-56.640625
2938,-58.593750
2939,-58.593750
2940,-58.593750
2941,-58.593750
2942,-58.593750
2943,-60.546875
2944,-60.546875
2945,-60.546875
2946,-60.546875
2947,-60.546875
2948,-60.546875
2949,-60.546875
2950,-62.500000
2951,-62.500000
2952,-62.500000
2953,-62.500000
2954,-62.500000
2955,-62.500000
2956,-62.500000
2957,-62.500000
2958,-62.500000
2959,-62.500000
2960,-60.546875
2961,-60.546875
2962,-60.546875
2963,-60.546875
2964,-60.546875
2965,-60.546875
2966,-58.593750
2967,-58.593750
2968,-58.593750
2969,-58.593750
2970,-58.593750
2971,-56.640625
2972,-58.593750
2973,-56.640625
2974,-56.640625
2975,-54.687500
2976,-54.687500
2977,-54.687500
2978,-54.687500
2979,-52.734375
2980,-52.734375
2981,-44.921875
2982,-50.781250
2983,-50.781250
2984,-50.781250
2985,-48.828125
2986,-48.828125
2987,-46.875000
2988,-46.875000
2989,-44.921875
2990,-44.921875
2991,-42.968750
2992,-42.968750
2993,-42.968750
2994,-41.015625
2995,-41.015625
2996,-39.062500
2997,-39.062500
2998,-37.109375
2999,-35.156250
3000,-35.156250
3001,-33.203125
3002,-33.203125
3003,-31.250000
3004,-31.250000
3005,-29.296875
3006,-27.343750
3007,-27.343750
3008,-25.390625
3009,-25.390625
3010,-23.437500
3011,-21.484375
3012,-21.484375
3013,-19.531250
3014,-17.578125
3015,-17.578125
3016,-15.625000
3017,-15.625000
3018,-13.671875
3019,-11.718750
3020,-9.765625
3021,-9.765625
3022,-7.812500
3023,-7.812500
3024,-5.859375
3025,-3.906250
3026,-3.906250
3027,-1.953125
3028,-1.953125
3029,0.000000
3030,1.953125
3031,1.953125
3032,3.906250
3033,5.859375
3034,5.859375
3035,5.859375
3036,7.812500
3037,9.765625
3038,9.765625
3039,11.718750
3040,13.671875
3041,13.671875
3042,15.625000
3043,15.625000
3044,17.578125
3045,19.531250
3046,19.531250
3047,21.484375
3048,21.484375
3049,23.437500
3050,23.437500
3051,25.390625
3052,25.390625
3053,27.343750
3054,27.343750
3055,29.296875
3056,29.296875
3057,29.296875
3058,31.250000
3059,29.296875
3060,33.203125
3061,35.156250
3062,33.203125
3063,35.156250
3064,37.109375
3065,37.109375
3066,37.109375
3067,39.062500
3068,39.062500
3069,39.062500
3070,41.015625
3071,41.015625
3072,41.015625
3073,42.968750
3074,42.968750
3075,42.968750
3076,42.968750
3077,44.921875
3078,44.921875
3079,44.921875
3080,46.875000
3081,46.875000
3082,46.875000
3083,46.875000
3084,46.875000
3085,48.828125
3086,48.828125
3087,48.828125
3088,48.828125
3089,48.828125
3090,48.828125
3091,48.828125
3092,48.828125
3093,48.828125
3094,48.828125
3095,48.828125
3096,48.828125
3097,50.781250
3098,50.781250
3099,48.828125
3100,48.828125
3101,48.828125
3102,48.828125
3103,48.828125
3104,48.828125
3105,48.828125
3106,48.828125
3107,48.828125
3108,48.828125
3109,46.875000
3110,46.875000
3111,46.875000
3112,46.875000
3113,44.921875
3114,44.921875
3115,44.921875
3116,44.921875
3117,44.921875
3118,44.921875
3119,42.968750
3120,42.968750
3121,42.968750
3122,41.015625
3123,41.015625
3124,41.015625
3125,39.062500
3126,39.062500
3127,39.062500
3128,37.109375
3129,37.109375
3130,37.109375
3131,35.156250
3132,35.156250
3133,33.203125
3134,33.203125
3135,31.250000
3136,29.296875
3137,29.296875
3138,29.296875
3139,29.296875
3140,27.343750
3141,27.343750
3142,25.390625
3143,25.390625
3144,23.437500
3145,23.437500
3146,21.484375
3147,21.484375
3148,19.531250
3149,17.578125
3150,17.578125
3151,15.625000
3152,15.625000
3153,13.671875
3154,13.671875
3155,11.718750
3156,9.765625
3157,9.765625
3158,7.812500
3159,7.812500
3160,5.859375
3161,3.906250
3162,3.906250
3163,1.953125
3164,0.000000
3165,1.953125
3166,0.000000
3167,-1.953125
3168,-3.906250
3169,-5.859375
3170,-7.812500
3171,-7.812500
3172,-7.812500
3173,-9.765625
3174,-11.718750
3175,-13.671875
3176,-13.671875
3177,-13.671875
3178,-17.578125
3179,-17.578125
3180,-19.531250
3181,-19.531250
3182,-21.484375
3183,-21.484375
3184,-23.437500
3185,-25.390625
3186,-27.343750
3187,-27.343750
3188,-27.343750
3189,-29.296875
3190,-31.250000
3191,-31.250000
3192,-33.203125
3193,-33.203125
3194,-35.156250
3195,-37.109375
3196,-37.109375
3197,-39.062500
3198,-39.062500
3199,-39.062500
3200,-41.015625
3201,-42.968750
3202,-44.921875
3203,-44.921875
3204,-42.968750
3205,-46.875000
3206,-46.875000
3207,-48.828125
3208,-48.828125
3209,-48.828125
3210,-48.828125
3211,-50.781250
3212,-50.781250
3213,-52.734375
3214,-52.734375
3215,-52.734375
3216,-54.687500
3217,-54.687500
3218,-54.687500
3219,-52.734375
3220,-54.687500
3221,-56.640625
3222,-56.640625
3223,-58.593750
3224,-58.593750
3225,-58.593750
3226,-58.593750
3227,-60.546875
3228,-58.593750
3229,-60.546875
3230,-60.546875
3231,-60.546875
3232,-60.546875
3233,-62.500000
3234,-60.546875
3235,-60.546875
3236,-60.546875
3237,-62.500000
3238,-60.546875
3239,-62.500000
3240,-60.546875
3241,-60.546875
3242,-60.546875
3243,-60.546875
3244,-60.546875
3245,-60.546875
3246,-60.546875
3247,-60.546875
3248,-58.593750
3249,-60.546875
3250,-60.546875
3251,-58.593750
3252,-56.640625
3253,-58.593750
3254,-60.546875
3255,-60.546875
3256,-56.640625
3257,-56.640625
3258,-56.640625
3259,-54.687500
3260,-54.687500
3261,-54.687500
3262,-54.687500
3263,-52.734375
3264,-52.734375
3265,-50.781250
3266,-50.781250
3267,-50.781250
3268,-50.781250
3269,-48.828125
3270,-48.828125
3271,-46.875000
3272,-46.875000
3273,-44.921875
3274,-44.921875
3275,-42.968750
3276,-42.968750
3277,-41.015625
3278,-41.015625
3279,-39.062500
3280,-39.062500
3281,-37.109375
3282,-37.109375
3283,-35.156250
3284,-35.156250
3285,-33.203125
3286,-31.250000
3287,-31.250000
3288,-29.296875
3289,-29.296875
3290,-27.343750
3291,-27.343750
3292,-25.390625
3293,-23.437500
3294,-23.437500
3295,-21.484375
3296,-19.531250
3297,-21.484375
3298,-19.531250
3299,-17.578125
3300,-15.625000
3301,-13.671875
3302,-13.671875
3303,-11.718750
3304,-9.765625
3305,-9.765625
3306,-7.812500
3307,-7.812500
3308,-5.859375
3309,-3.906250
3310,-3.906250
3311,-1.953125
3312,0.000000
3313,0.000000
3314,1.953125
3315,1.953125
3316,3.906250
3317,3.906250
3318,7.812500
3319,7.812500
3320,7.812500
3321,9.765625
3322,11.718750
3323,11.718750
3324,13.671875
3325,13.671875
3326,15.625000
3327,17.578125
3328,17.578125
3329,17.578125
3330,19.531250
3331,19.531250
3332,21.484375
3333,23.437500
3334,23.437500
3335,25.390625
3336,27.343750
3337,27.343750
3338,27.343750
3339,29.296875
3340,29.296875
3341,31.250000
3342,31.250000
3343,33.203125
3344,35.156250
3345,35.156250
3346,35.156250
3347,37.109375
3348,37.109375
3349,37.109375
3350,39.062500
3351,39.062500
3352,41.015625
3353,41.015625
3354,41.015625
3355,41.015625
3356,42.968750
3357,42.968750
3358,42.968750
3359,44.921875
3360,44.921875
3361,44.921875
3362,44.921875
3363,44.921875
3364,46.875000
3365,46.875000
3366,46.875000
3367,46.875000
3368,48.828125
3369,48.828125
3370,48.828125
3371,48.828125
3372,48.828125
3373,48.828125
3374,48.828125
3375,48.828125
3376,48.828125
3377,48.828125
3378,50.781250
3379,48.828125
3380,50.781250
3381,50.781250
3382,48.828125
3383,50.781250
3384,50.781250
3385,48.828125
3386,50.781250
3387,48.828125
3388,48.828125
3389,48.828125
3390,48.828125
3391,48.828125
3392,46.875000
3393,46.875000
3394,46.875000
3395,48.828125
3396,46.875000
3397,46.875000
3398,46.875000
3399,44.921875
3400,44.921875
3401,44.921875
3402,44.921875
3403,42.968750
3404,42.968750
3405,42.968750
3406,42.968750
3407,41.015625
3408,41.015625
3409,39.062500
3410,39.062500
3411,39.062500
3412,41.015625
3413,37.109375
3414,35.156250
3415,37.109375
3416,35.156250
3417,33.203125
3418,33.203125
3419,33.203125
3420,31.250000
3421,31.250000
3422,29.296875
3423,29.296875
3424,27.343750
3425,27.343750
3426,27.343750
3427,25.390625
3428,23.437500
3429,23.437500
3430,21.484375
3431,21.484375
3432,19.531250
3433,17.578125
3434,17.578125
3435,15.625000
3436,15.625000
3437,13.671875
3438,13.671875
3439,11.718750
3440,11.718750
3441,9.765625
3442,7.812500
3443,7.812500
3444,5.859375
3445,3.906250
3446,5.859375
3447,1.953125
3448,0.000000
3449,0.000000
3450,-1.953125
3451,-3.906250
3452,-3.906250
3453,-5.859375
3454,-5.859375
3455,-7.812500
3456,-9.765625
3457,-9.765625
3458,-11.718750
3459,-13.671875
3460,-15.625000
3461,-15.625000
3462,-15.625000
3463,-17.578125
3464,-17.578125
3465,-21.484375
3466,-21.484375
3467,-21.484375
3468,-23.437500
3469,-25.390625
3470,-25.390625
3471,-27.343750
3472,-29.296875
3473,-29.296875
3474,-31.250000
3475,-31.250000
3476,-33.203125
3477,-33.203125
3478,-35.156250
3479,-37.109375
3480,-37.109375
3481,-37.109375
3482,-39.062500
3483,-39.062500
3484,-41.015625
3485,-41.015625
3486,-42.968750
3487,-42.968750
3488,-44.921875
3489,-44.921875
3490,-46.875000
3491,-46.875000
3492,-48.828125
3493,-48.828125
3494,-50.781250
3495,-50.781250
3496,-50.781250
3497,-52.734375
3498,-52.734375
3499,-52.734375
3500,-54.687500
3501,-54.687500
3502,-54.687500
3503,-54.687500
3504,-56.640625
3505,-56.640625
3506,-56.640625
3507,-56.640625
3508,-58.593750
3509,-58.593750
3510,-58.593750
3511,-58.593750
3512,-60.546875
3513,-60.546875
3514,-60.546875
3515,-60.546875
3516,-60.546875
3517,-60.546875
3518,-60.546875
3519,-60.546875
3520,-60.546875
3521,-62.500000
3522,-62.500000
3523,-60.546875
3524,-62.500000
3525,-62.500000
3526,-60.546875
3527,-62.500000
3528,-60.546875
3529,-60.546875
3530,-62.500000
3531,-60.546875
3532,-60.546875
3533,-60.546875
3534,-60.546875
3535,-60.546875
3536,-58.593750
3537,-58.593750
3538,-58.593750
3539,-58.593750
3540,-58.593750
3541,-58.593750
3542,-56.640625
3543,-56.640625
3544,-56.640625
3545,-54.687500
3546,-54.687500
3547,-52.734375
3548,-52.734375
3549,-52.734375
3550,-50.781250
3551,-50.781250
3552,-48.828125
3553,-48.828125
3554,-48.828125
3555,-46.875000
3556,-46.875000
3557,-46.875000
3558,-42.968750
3559,-42.968750
3560,-42.968750
3561,-42.968750
3562,-41.015625
3563,-39.062500
3564,-39.062500
3565,-37.109375
3566,-37.109375
3567,-35.156250
3568,-35.156250
3569,-33.203125
3570,-33.203125
3571,-31.250000
3572,-31.250000
3573,-29.296875
3574,-27.343750
3575,-27.343750
3576,-25.390625
3577,-25.390625
3578,-23.437500
3579,-23.437500
3580,-21.484375
3581,-19.531250
3582,-19.531250
3583,-17.578125
3584,-15.625000
3585,-15.625000
3586,-15.625000
3587,-13.671875
3588,-11.718750
3589,-9.765625
3590,-9.765625
3591,-7.812500
3592,-5.859375
3593,-5.859375
3594,-3.906250
3595,-1.953125
3596,-1.953125
3597,0.000000
3598,1.953125
3599,1.953125
3600,3.906250
3601,3.906250
3602,5.859375
3603,7.812500
3604,7.812500
3605,9.765625
3606,9.765625
3607,11.718750
3608,13.671875
3609,13.671875
3610,15.625000
3611,15.625000
3612,17.578125
3613,17.578125
3614,19.531250
3615,19.531250
3616,21.484375
3617,23.437500
3618,23.437500
3619,25.390625
3620,25.390625
3621,27.343750
3622,27.343750
3623,29.296875
3624,29.296875
3625,29.296875
3626,31.250000
3627,31.250000
3628,33.203125
3629,33.203125
3630,35.156250
3631,35.156250
3632,35.156250
3633,37.109375
3634,37.109375
3635,37.109375
3636,39.062500
3637,39.062500
3638,41.015625
3639,41.015625
3640,41.015625
3641,42.968750
3642,42.968750
3643,42.968750
3644,42.968750
3645,42.968750
3646,44.921875
3647,44.921875
3648,44.921875
3649,44.921875
3650,44.921875
3651,46.875000
3652,46.875000
3653,46.875000
3654,46.875000
3655,46.875000
3656,48.828125
3657,48.828125
3658,48.828125
3659,48.828125
3660,48.828125
3661,48.828125
3662,48.828125
3663,48.828125
3664,48.828125
3665,48.828125
3666,48.828125
3667,48.828125
3668,48.828125
3669,48.828125
3670,48.828125
3671,48.828125
3672,48.828125
3673,48.828125
3674,48.828125
3675,48.828125
3676,48.828125
3677,48.828125
3678,46.875000
3679,46.875000
3680,44.921875
3681,46.875000
3682,46.875000
3683,44.921875
3684,44.921875
3685,46.875000
3686,44.921875
3687,42.968750
3688,42.968750
3689,41.015625
3690,41.015625
3691,41.015625
3692,41.015625
3693,39.062500
3694,41.015625
3695,39.062500
3696,37.109375
3697,37.109375
3698,37.109375
3699,35.156250
3700,35.156250
3701,33.203125
3702,33.203125
3703,31.250000
3704,31.250000
3705,31.250000
3706,29.296875
3707,27.343750
3708,27.343750
3709,25.390625
3710,25.390625
3711,23.437500
3712,23.437500
3713,21.484375
3714,21.484375
3715,21.484375
3716,19.531250
3717,17.578125
3718,17.578125
3719,15.625000
3720,15.625000
3721,13.671875
3722,11.718750
3723,9.765625
3724,9.765625
3725,9.765625
3726,7.812500
3727,5.859375
3728,5.859375
3729,3.906250
3730,3.906250
3731,1.953125
3732,0.000000
3733,0.000000
3734,-1.953125
3735,-1.953125
3736,-3.906250
3737,-5.859375
3738,-5.859375
3739,-7.812500
3740,-7.812500
3741,-9.765625
3742,-11.718750
3743,-13.671875
3744,-13.671875
3745,-15.625000
3746,-15.625000
3747,-17.578125
3748,-19.531250
3749,-19.531250
3750,-21.484375
3751,-21.484375
3752,-23.437500
3753,-25.390625
3754,-27.343750
3755,-27.343750
3756,-27.343750
3757,-29.296875
3758,-31.250000
3759,-31.250000
3760,-33.203125
3761,-33.203125
3762,-35.156250
3763,-35.156250
3764,-35.156250
3765,-39.062500
3766,-39.062500
3767,-41.015625
3768,-41.015625
3769,-41.015625
3770,-42.968750
3771,-44.921875
3772,-44.921875
3773,-48.828125
3774,-46.875000
3775,-46.875000
3776,-48.828125
3777,-50.781250
3778,-50.781250
3779,-50.781250
3780,-52.734375
3781,-52.734375
3782,-52.734375
3783,-54.687500
3784,-54.687500
3785,-54.687500
3786,-56.640625
3787,-56.640625
3788,-56.640625
3789,-56.640625
3790,-56.640625
3791,-58.593750
3792,-58.593750
3793,-58.593750
3794,-58.593750
3795,-58.593750
3796,-60.546875
3797,-60.546875
3798,-60.546875
3799,-60.546875
3800,-60.546875
3801,-60.546875
3802,-60.546875
3803,-62.500000
3804,-60.546875
3805,-60.546875
3806,-60.546875
3807,-62.500000
3808,-60.546875
3809,-60.546875
3810,-60.546875
3811,-60.546875
3812,-62.500000
3813,-60.546875
3814,-60.546875
3815,-60.546875
3816,-60.546875
3817,-60.546875
3818,-58.593750
3819,-58.593750
3820,-58.593750
3821,-58.593750
3822,-58.593750
3823,-58.593750
3824,-56.640625
3825,-56.640625
3826,-54.687500
3827,-56.640625
3828,-54.687500
3829,-54.687500
3830,-54.687500
3831,-54.687500
3832,-52.734375
3833,-52.734375
3834,-50.781250
3835,-50.781250
3836,-50.781250
3837,-48.828125
3838,-48.828125
3839,-46.875000
3840,-46.875000
3841,-46.875000
3842,-44.921875
3843,-44.921875
3844,-42.968750
3845,-42.968750
3846,-41.015625
3847,-41.015625
3848,-39.062500
3849,-37.109375
3850,-37.109375
3851,-37.109375
3852,-35.156250
3853,-33.203125
3854,-33.203125
3855,-33.203125
3856,-31.250000
3857,-29.296875
3858,-27.343750
3859,-27.343750
3860,-25.390625
3861,-25.390625
3862,-23.437500
3863,-21.484375
3864,-21.484375
3865,-19.531250
3866,-19.531250
3867,-17.578125
3868,-15.625000
3869,-15.625000
3870,-13.671875
3871,-13.671875
3872,-11.718750
3873,-9.765625
3874,-9.765625
3875,-7.812500
3876,-5.859375
3877,-3.906250
3878,-3.906250
3879,-3.906250
3880,0.000000
3881,0.000000
3882,0.000000
3883,1.953125
3884,3.906250
3885,5.859375
3886,5.859375
3887,7.812500
3888,7.812500
3889,9.765625
3890,11.718750
3891,11.718750
3892,13.671875
3893,13.671875
3894,13.671875
3895,15.625000
3896,17.578125
3897,17.578125
3898,19.531250
3899,19.531250
3900,21.484375
3901,23.437500
3902,23.437500
3903,23.437500
3904,25.390625
3905,27.343750
3906,27.343750
3907,27.343750
3908,29.296875
3909,31.250000
3910,31.250000
3911,31.250000
3912,33.203125
3913,33.203125
3914,35.156250
3915,35.156250
3916,35.156250
3917,37.109375
3918,37.109375
3919,39.062500
3920,39.062500
3921,39.062500
3922,41.015625
3923,41.015625
3924,41.015625
3925,42.968750
3926,42.968750
3927,42.968750
3928,44.921875
3929,44.921875
3930,46.875000
3931,46.875000
3932,44.921875
3933,46.875000
3934,46.875000
3935,48.828125
3936,46.875000
3937,48.828125
3938,48.828125
3939,48.828125
3940,48.828125
3941,48.828125
3942,50.781250
3943,48.828125
3944,48.828125
3945,48.828125
3946,48.828125
3947,50.781250
3948,50.781250
3949,50.781250
3950,46.875000
3951,48.828125
3952,50.781250
3953,50.781250
3954,48.828125
3955,48.828125
3956,48.828125
3957,48.828125
3958,50.781250
3959,48.828125
3960,48.828125
3961,46.875000
3962,48.828125
3963,46.875000
3964,46.875000
3965,46.875000
3966,46.875000
3967,44.921875
3968,46.875000
3969,44.921875
3970,42.968750
3971,44.921875
3972,42.968750
3973,42.968750
3974,41.015625
3975,41.015625
3976,41.015625
3977,41.015625
3978,39.062500
3979,42.968750
3980,37.109375
3981,37.109375
3982,37.109375
3983,35.156250
3984,35.156250
3985,33.203125
3986,33.203125
3987,33.203125
3988,31.250000
3989,31.250000
3990,29.296875
3991,29.296875
3992,27.343750
3993,27.343750
3994,25.390625
3995,25.390625
3996,23.437500
3997,23.437500
3998,23.437500
3999,21.484375
4000,19.531250
4001,17.578125
4002,17.578125
4003,17.578125
4004,15.625000
4005,15.625000
4006,13.671875
4007,11.718750
4008,11.718750
4009,9.765625
4010,7.812500
4011,7.812500
4012,5.859375
4013,3.906250
4014,3.906250
4015,1.953125
4016,0.000000
4017,0.000000
4018,0.000000
4019,-1.953125
4020,-3.906250
4021,-5.859375
4022,-5.859375
4023,-7.812500
4024,-9.765625
4025,-9.765625
4026,-9.765625
4027,-11.718750
4028,-13.671875
4029,-13.671875
4030,-15.625000
4031,-17.578125
4032,-17.578125
4033,-19.531250
4034,-21.484375
4035,-21.484375
4036,-19.531250
4037,-23.437500
4038,-27.343750
4039,-27.343750
4040,-27.343750
4041,-31.250000
4042,-31.250000
4043,-31.250000
4044,-31.250000
4045,-33.203125
4046,-35.156250
4047,-35.156250
4048,-37.109375
4049,-37.109375
4050,-39.062500
4051,-39.062500
4052,-41.015625
4053,-41.015625
4054,-42.968750
4055,-42.968750
4056,-44.921875
4057,-44.921875
4058,-46.875000
4059,-46.875000
4060,-48.828125
4061,-48.828125
4062,-50.781250
4063,-50.781250
4064,-50.781250
4065,-50.781250
4066,-52.734375
4067,-52.734375
4068,-52.734375
4069,-54.687500
4070,-54.687500
4071,-54.687500
4072,-54.687500
4073,-56.640625
4074,-56.640625
4075,-56.640625
4076,-58.593750
4077,-58.593750
4078,-58.593750
4079,-58.593750
4080,-58.593750
4081,-60.546875
4082,-60.546875
4083,-60.546875
4084,-60.546875
4085,-60.546875
4086,-60.546875
4087,-60.546875
4088,-60.546875
4089,-60.546875
4090,-60.546875
4091,-60.546875
4092,-60.546875
4093,-60.546875
4094,-62.500000
4095,-60.546875
4096,-60.546875
4097,-60.546875
4098,-60.546875
4099,-60.546875
4100,-60.546875
4101,-60.546875
4102,-60.546875
4103,-58.593750
4104,-58.593750
4105,-58.593750
4106,-56.640625
4107,-58.593750
4108,-56.640625
4109,-56.640625
4110,-56.640625
4111,-54.687500
4112,-54.687500
4113,-54.687500
4114,-54.687500
4115,-52.734375
4116,-52.734375
4117,-52.734375
4118,-50.781250
4119,-50.781250
4120,-48.828125
4121,-48.828125
4122,-48.828125
4123,-46.875000
4124,-44.921875
4125,-44.921875
4126,-44.921875
4127,-42.968750
4128,-42.968750
4129,-41.015625
4130,-41.015625
4131,-39.062500
4132,-39.062500
4133,-37.109375
4134,-37.109375
4135,-35.156250
4136,-33.203125
4137,-35.156250
4138,-31.250000
4139,-31.250000
4140,-29.296875
4141,-29.296875
4142,-27.343750
4143,-27.343750
4144,-25.390625
4145,-23.437500
4146,-23.437500
4147,-21.484375
4148,-19.531250
4149,-19.531250
4150,-19.531250
4151,-17.578125
4152,-17.578125
4153,-13.671875
4154,-13.671875
4155,-11.718750
4156,-13.671875
4157,-9.765625
4158,-9.765625
4159,-7.812500
4160,-5.859375
4161,-5.859375
4162,-3.906250
4163,-3.906250
4164,-1.953125
4165,0.000000
4166,0.000000
4167,1.953125
4168,1.953125
4169,5.859375
4170,5.859375
4171,7.812500
4172,7.812500
4173,9.765625
4174,9.765625
4175,11.718750
4176,13.671875
4177,13.671875
4178,15.625000
4179,17.578125
4180,17.578125
4181,19.531250
4182,19.531250
4183,21.484375
4184,21.484375
4185,23.437500
4186,23.437500
4187,25.390625
4188,25.390625
4189,27.343750
4190,27.343750
4191,29.296875
4192,29.296875
4193,31.250000
4194,31.250000
4195,31.250000
4196,33.203125
4197,33.203125
4198,35.156250
4199,35.156250
4200,37.109375
4201,37.109375
4202,39.062500
4203,39.062500
4204,39.062500
4205,39.062500
4206,42.968750
4207,41.015625
4208,41.015625
4209,42.968750
4210,42.968750
4211,42.968750
4212,44.921875
4213,44.921875
4214,44.921875
4215,46.875000
4216,44.921875
4217,46.875000
4218,46.875000
4219,46.875000
4220,46.875000
4221,48.828125
4222,46.875000
4223,48.828125
4224,48.828125
4225,48.828125
4226,48.828125
4227,48.828125
4228,48.828125
4229,50.781250
4230,48.828125
4231,48.828125
4232,48.828125
4233,50.781250
4234,48.828125
4235,50.781250
4236,48.828125
4237,48.828125
4238,48.828125
4239,48.828125
4240,48.828125
4241,48.828125
4242,48.828125
4243,48.828125
4244,48.828125
4245,48.828125
4246,46.875000
4247,46.875000
4248,46.875000
4249,46.875000
4250,44.921875
4251,44.921875
4252,44.921875
4253,44.921875
4254,44.921875
4255,42.968750
4256,42.968750
4257,42.968750
4258,42.968750
4259,41.015625
4260,41.015625
4261,41.015625
4262,39.062500
4263,39.062500
4264,39.062500
4265,37.109375
4266,37.109375
4267,35.156250
4268,35.156250
4269,35.156250
4270,33.203125
4271,33.203125
4272,31.250000
4273,29.296875
4274,29.296875
4275,29.296875
4276,27.343750
4277,27.343750
4278,25.390625
4279,25.390625
4280,23.437500
4281,23.437500
4282,21.484375
4283,21.484375
4284,19.531250
4285,19.531250
4286,17.578125
4287,17.578125
4288,15.625000
4289,13.671875
4290,13.671875
4291,11.718750
4292,11.718750
4293,9.765625
4294,7.812500
4295,5.859375
4296,5.859375
4297,3.906250
4298,3.906250
4299,3.906250
4300,0.000000
4301,0.000000
4302,-1.953125
4303,-3.906250
4304,-3.906250
4305,-5.859375
4306,-7.812500
4307,-7.812500
4308,-7.812500
4309,-9.765625
4310,-11.718750
4311,-11.718750
4312,-13.671875
4313,-13.671875
4314,-15.625000
4315,-17.578125
4316,-17.578125
4317,-19.531250
4318,-19.531250
4319,-21.484375
4320,-23.437500
4321,-25.390625
4322,-25.390625
4323,-25.390625
4324,-27.343750
4325,-29.296875
4326,-29.296875
4327,-31.250000
4328,-33.203125
4329,-33.203125
4330,-35.156250
4331,-35.156250
4332,-37.109375
4333,-37.109375
4334,-39.062500
4335,-41.015625
4336,-41.015625
4337,-41.015625
4338,-42.968750
4339,-42.968750
4340,-44.921875
4341,-44.921875
4342,-44.921875
4343,-46.875000
4344,-48.828125
4345,-48.828125
4346,-50.781250
4347,-50.781250
4348,-50.781250
4349,-52.734375
4350,-52.734375
4351,-54.687500
4352,-54.687500
4353,-54.687500
4354,-54.687500
4355,-56.640625
4356,-56.640625
4357,-56.640625
4358,-56.640625
4359,-58.593750
4360,-60.546875
4361,-58.593750
4362,-58.593750
4363,-58.593750
4364,-58.593750
4365,-60.546875
4366,-60.546875
4367,-60.546875
4368,-60.546875
4369,-60.546875
4370,-62.500000
4371,-62.500000
4372,-62.500000
4373,-62.500000
4374,-62.500000
4375,-62.500000
4376,-62.500000
4377,-62.500000
4378,-62.500000
4379,-62.500000
4380,-62.500000
4381,-60.546875
4382,-58.593750
4383,-60.546875
4384,-60.546875
4385,-60.546875
4386,-60.546875
4387,-66.406250
4388,-58.593750
4389,-58.593750
4390,-58.593750
4391,-58.593750
4392,-56.640625
4393,-56.640625
4394,-56.640625
4395,-56.640625
4396,-54.687500
4397,-54.687500
4398,-54.687500
4399,-52.734375
4400,-52.734375
4401,-52.734375
4402,-52.734375
4403,-50.781250
4404,-50.781250
4405,-50.781250
4406,-48.828125
4407,-48.828125
4408,-46.875000
4409,-44.921875
4410,-44.921875
4411,-44.921875
4412,-42.968750
4413,-42.968750
4414,-41.015625
4415,-41.015625
4416,-39.062500
4417,-39.062500
4418,-37.109375
4419,-37.109375
4420,-35.156250
4421,-35.156250
4422,-33.203125
4423,-31.250000
4424,-31.250000
4425,-29.296875
4426,-29.296875
4427,-27.343750
4428,-27.343750
4429,-25.390625
4430,-23.437500
4431,-23.437500
4432,-23.437500
4433,-21.484375
4434,-19.531250
4435,-17.578125
4436,-17.578125
4437,-15.625000
4438,-15.625000
4439,-13.671875
4440,-11.718750
4441,-11.718750
4442,-9.765625
4443,-7.812500
4444,-5.859375
4445,-5.859375
4446,-3.906250
4447,-3.906250
4448,-1.953125
4449,0.000000
4450,1.953125
4451,1.953125
4452,3.906250
4453,3.906250
4454,5.859375
4455,5.859375
4456,7.812500
4457,7.812500
4458,9.765625
4459,11.718750
4460,11.718750
4461,13.671875
4462,13.671875
4463,15.625000
4464,17.578125
4465,17.578125
4466,19.531250
4467,19.531250
4468,21.484375
4469,21.484375
4470,23.437500
4471,25.390625
4472,25.390625
4473,27.343750
4474,27.343750
4475,27.343750
4476,29.296875
4477,29.296875
4478,29.296875
4479,31.250000
4480,33.203125
4481,33.203125
4482,33.203125
4483,35.156250
4484,35.156250
4485,37.109375
4486,37.109375
4487,39.062500
4488,39.062500
4489,39.062500
4490,39.062500
4491,41.015625
4492,41.015625
4493,41.015625
4494,41.015625
4495,42.968750
4496,42.968750
4497,44.921875
4498,44.921875
4499,44.921875
4500,44.921875
4501,46.875000
4502,46.875000
4503,46.875000
4504,46.875000
4505,46.875000
4506,48.828125
4507,48.828125
4508,48.828125
4509,48.828125
4510,48.828125
4511,48.828125
4512,48.828125
4513,48.828125
4514,48.828125
4515,48.828125
4516,48.828125
4517,48.828125
4518,50.781250
4519,52.734375
4520,48.828125
4521,48.828125
4522,48.828125
4523,48.828125
4524,48.828125
4525,48.828125
4526,48.828125
4527,48.828125
4528,48.828125
4529,48.828125
4530,46.875000
4531,46.875000
4532,46.875000
4533,46.875000
4534,46.875000
4535,44.921875
4536,44.921875
4537,44.921875
4538,44.921875
4539,42.968750
4540,44.921875
4541,42.968750
4542,41.015625
4543,41.015625
4544,41.015625
4545,41.015625
4546,39.062500
4547,39.062500
4548,39.062500
4549,37.109375
4550,37.109375
4551,35.156250
4552,35.156250
4553,33.203125
4554,33.203125
4555,33.203125
4556,31.250000
4557,31.250000
4558,29.296875
4559,29.296875
4560,27.343750
4561,27.343750
4562,25.390625
4563,25.390625
4564,23.437500
4565,23.437500
4566,21.484375
4567,21.484375
4568,19.531250
4569,17.578125
4570,17.578125
4571,17.578125
4572,15.625000
4573,13.671875
4574,13.671875
4575,11.718750
4576,11.718750
4577,9.765625
4578,7.812500
4579,7.812500
4580,5.859375
4581,5.859375
4582,3.906250
4583,1.953125
4584,1.953125
4585,0.000000
4586,0.000000
4587,-1.953125
4588,-3.906250
4589,-3.906250
4590,-5.859375
4591,-5.859375
4592,-9.765625
4593,-9.765625
4594,-11.718750
4595,-11.718750
4596,-13.671875
4597,-15.625000
4598,-15.625000
4599,-17.578125
4600,-19.531250
4601,-19.531250
4602,-21.484375
4603,-19.531250
4604,-23.437500
4605,-25.390625
4606,-25.390625
4607,-27.343750
4608,-29.296875
4609,-29.296875
4610,-31.250000
4611,-31.250000
4612,-33.203125
4613,-33.203125
4614,-35.156250
4615,-35.156250
4616,-37.109375
4617,-39.062500
4618,-39.062500
4619,-41.015625
4620,-41.015625
4621,-41.015625
4622,-42.968750
4623,-44.921875
4624,-44.921875
4625,-44.921875
4626,-46.875000
4627,-46.875000
4628,-48.828125
4629,-48.828125
4630,-50.781250
4631,-50.781250
4632,-50.781250
4633,-54.687500
4634,-52.734375
4635,-52.734375
4636,-54.687500
4637,-54.687500
4638,-54.687500
4639,-54.687500
4640,-56.640625
4641,-56.640625
4642,-56.640625
4643,-56.640625
4644,-58.593750
4645,-58.593750
4646,-58.593750
4647,-58.593750
4648,-60.546875
4649,-60.546875
4650,-58.593750
4651,-60.546875
4652,-60.546875
4653,-60.546875
4654,-64.453125
4655,-62.500000
4656,-60.546875
4657,-62.500000
4658,-62.500000
4659,-60.546875
4660,-62.500000
4661,-62.500000
4662,-60.546875
4663,-62.500000
4664,-62.500000
4665,-60.546875
4666,-60.546875
4667,-60.546875
4668,-60.546875
4669,-60.546875
4670,-60.546875
4671,-58.593750
4672,-58.593750
4673,-58.593750
4674,-58.593750
4675,-58.593750
4676,-58.593750
4677,-54.687500
4678,-56.640625
4679,-56.640625
4680,-54.687500
4681,-54.687500
4682,-54.687500
4683,-52.734375
4684,-52.734375
4685,-52.734375
4686,-50.781250
4687,-50.781250
4688,-50.781250
4689,-48.828125
4690,-48.828125
4691,-44.921875
4692,-46.875000
4693,-44.921875
4694,-44.921875
4695,-44.921875
4696,-42.968750
4697,-42.968750
4698,-41.015625
4699,-41.015625
4700,-39.062500
4701,-39.062500
4702,-37.109375
4703,-35.156250
4704,-35.156250
4705,-33.203125
4706,-33.203125
4707,-31.250000
4708,-31.250000
4709,-29.296875
4710,-29.296875
4711,-27.343750
4712,-27.343750
4713,-23.437500
4714,-23.437500
4715,-21.484375
4716,-21.484375
4717,-19.531250
4718,-19.531250
4719,-17.578125
4720,-15.625000
4721,-15.625000
4722,-13.671875
4723,-11.718750
4724,-11.718750
4725,-9.765625
4726,-9.765625
4727,-7.812500
4728,-7.812500
4729,-3.906250
4730,-3.906250
4731,-3.906250
4732,-3.906250
4733,-1.953125
4734,0.000000
4735,1.953125
4736,3.906250
4737,3.906250
4738,5.859375
4739,5.859375
4740,7.812500
4741,9.765625
4742,9.765625
4743,11.718750
4744,13.671875
4745,13.671875
4746,15.625000
4747,15.625000
4748,13.671875
4749,17.578125
4750,19.531250
4751,19.531250
4752,19.531250
4753,21.484375
4754,23.437500
4755,25.390625
4756,25.390625
4757,27.343750
4758,27.343750
4759,29.296875
4760,29.296875
4761,29.296875
4762,33.203125
4763,31.250000
4764,33.203125
4765,33.203125
4766,33.203125
4767,35.156250
4768,37.109375
4769,37.109375
4770,39.062500
4771,37.109375
4772,39.062500
4773,41.015625
4774,41.015625
4775,41.015625
4776,41.015625
4777,42.968750
4778,42.968750
4779,42.968750
4780,44.921875
4781,44.921875
4782,44.921875
4783,46.875000
4784,46.875000
4785,46.875000
4786,46.875000
4787,46.875000
4788,48.828125
4789,48.828125
4790,48.828125
4791,46.875000
4792,48.828125
4793,48.828125
4794,48.828125
4795,48.828125
4796,48.828125
4797,50.781250
4798,50.781250
4799,48.828125
4800,48.828125
4801,48.828125
4802,48.828125
4803,50.781250
4804,48.828125
4805,48.828125
4806,48.828125
4807,48.828125
4808,48.828125
4809,50.781250
4810,48.828125
4811,48.828125
4812,48.828125
4813,48.828125
4814,46.875000
4815,46.875000
4816,46.875000
4817,46.875000
4818,46.875000
4819,46.875000
4820,44.921875
4821,44.921875
4822,44.921875
4823,44.921875
4824,42.968750
4825,42.968750
4826,42.968750
4827,41.015625
4828,41.015625
4829,39.062500
4830,39.062500
4831,39.062500
4832,39.062500
4833,39.062500
4834,37.109375
4835,35.156250
4836,35.156250
4837,35.156250
4838,33.203125
4839,33.203125
4840,31.250000
4841,31.250000
4842,29.296875
4843,29.296875
4844,27.343750
4845,27.343750
4846,27.343750
4847,25.390625
4848,25.390625
4849,23.437500
4850,21.484375
4851,21.484375
4852,21.484375
4853,19.531250
4854,17.578125
4855,17.578125
4856,15.625000
4857,15.625000
4858,13.671875
4859,11.718750
4860,11.718750
4861,7.812500
4862,9.765625
4863,7.812500
4864,5.859375
4865,5.859375
4866,3.906250
4867,3.906250
4868,1.953125
4869,0.000000
4870,0.000000
4871,-1.953125
4872,-3.906250
4873,-3.906250
4874,-5.859375
4875,-7.812500
4876,-7.812500
4877,-9.765625
4878,-9.765625
4879,-11.718750
4880,-13.671875
4881,-15.625000
4882,-15.625000
4883,-15.625000
4884,-17.578125
4885,-19.531250
4886,-19.531250
4887,-21.484375
4888,-23.437500
4889,-23.437500
4890,-25.390625
4891,-27.343750
4892,-27.343750
4893,-29.296875
4894,-29.296875
4895,-29.296875
4896,-31.250000
4897,-33.203125
4898,-33.203125
4899,-35.156250
4900,-35.156250
4901,-37.109375
4902,-39.062500
4903,-39.062500
4904,-41.015625
4905,-41.015625
4906,-42.968750
4907,-42.968750
4908,-44.921875
4909,-44.921875
4910,-46.875000
4911,-46.875000
4912,-46.875000
4913,-48.828125
4914,-48.828125
4915,-48.828125
4916,-50.781250
4917,-50.781250
4918,-50.781250
4919,-52.734375
4920,-52.734375
4921,-54.687500
4922,-54.687500
4923,-54.687500
4924,-54.687500
4925,-56.640625
4926,-56.640625
4927,-58.593750
4928,-58.593750
4929,-58.593750
4930,-58.593750
4931,-58.593750
4932,-60.546875
4933,-60.546875
4934,-60.546875
4935,-60.546875
4936,-60.546875
4937,-60.546875
4938,-60.546875
4939,-60.546875
4940,-62.500000
4941,-60.546875
4942,-60.546875
4943,-60.546875
4944,-60.546875
4945,-62.500000
4946,-60.546875
4947,-60.546875
4948,-60.546875
4949,-60.546875
4950,-60.546875
4951,-60.546875
4952,-60.546875
4953,-60.546875
4954,-58.593750
4955,-58.593750
4956,-58.593750
4957,-58.593750
4958,-58.593750
4959,-58.593750
4960,-56.640625
4961,-56.640625
4962,-56.640625
4963,-56.640625
4964,-54.687500
4965,-54.687500
4966,-54.687500
4967,-54.687500
4968,-52.734375
4969,-50.781250
4970,-50.781250
4971,-50.781250
4972,-50.781250
4973,-48.828125
4974,-48.828125
4975,-46.875000
4976,-46.875000
4977,-46.875000
4978,-42.968750
4979,-42.968750
4980,-42.968750
4981,-42.968750
4982,-41.015625
4983,-39.062500
4984,-39.062500
4985,-37.109375
4986,-37.109375
4987,-37.109375
4988,-35.156250
4989,-35.156250
4990,-33.203125
4991,-31.250000
4992,-31.250000
4993,-29.296875
4994,-29.296875
4995,-25.390625
4996,-25.390625
4997,-25.390625
4998,-23.437500
4999,-23.437500
5000,-21.484375
5001,-21.484375
5002,-17.578125
5003,-17.578125
5004,-15.625000
5005,-15.625000
5006,-13.671875
5007,-13.671875
5008,-11.718750
5009,-11.718750
5010,-9.765625
5011,-7.812500
5012,-7.812500
5013,-5.859375
5014,-3.906250
5015,-3.906250
5016,-1.953125
5017,0.000000
5018,0.000000
5019,1.953125
5020,1.953125
5021,3.906250
5022,5.859375
5023,5.859375
5024,7.812500
5025,9.765625
5026,9.765625
5027,11.718750
5028,11.718750
5029,13.671875
5030,15.625000
5031,15.625000
5032,17.578125
5033,17.578125
5034,19.531250
5035,19.531250
5036,21.484375
5037,21.484375
5038,23.437500
5039,23.437500
5040,25.390625
5041,27.343750
5042,27.343750
5043,27.343750
5044,29.296875
5045,29.296875
5046,31.250000
5047,31.250000
5048,33.203125
5049,33.203125
5050,35.156250
5051,35.156250
5052,35.156250
5053,35.156250
5054,37.109375
5055,39.062500
5056,39.062500
5057,39.062500
5058,39.062500
5059,41.015625
5060,41.015625
5061,42.968750
5062,42.968750
5063,42.968750
5064,44.921875
5065,44.921875
5066,44.921875
5067,44.921875
5068,44.921875
5069,44.921875
5070,46.875000
5071,46.875000
5072,46.875000
5073,46.875000
5074,48.828125
5075,48.828125
5076,48.828125
5077,48.828125
5078,48.828125
5079,48.828125
5080,48.828125
5081,48.828125
5082,48.828125
5083,48.828125
5084,48.828125
5085,48.828125
5086,50.781250
5087,48.828125
5088,48.828125
5089,48.828125
5090,48.828125
5091,48.828125
5092,48.828125
5093,48.828125
5094,48.828125
5095,48.828125
5096,48.828125
5097,48.828125
5098,48.828125
5099,46.875000
5100,46.875000
5101,46.875000
5102,44.921875
5103,44.921875
5104,44.921875
5105,44.921875
5106,42.968750
5107,44.921875
5108,44.921875
5109,42.968750
5110,42.968750
5111,41.015625
5112,41.015625
5113,41.015625
5114,39.062500
5115,39.062500
5116,39.062500
5117,37.109375
5118,37.109375
5119,35.156250
5120,35.156250
5121,33.203125
5122,33.203125
5123,33.203125
5124,31.250000
5125,31.250000
5126,29.296875
5127,29.296875
5128,27.343750
5129,27.343750
5130,27.343750
5131,25.390625
5132,23.437500
5133,23.437500
5134,21.484375
5135,21.484375
5136,19.531250
5137,19.531250
5138,17.578125
5139,15.625000
5140,15.625000
5141,13.671875
5142,13.671875
5143,11.718750
5144,11.718750
5145,9.765625
5146,7.812500
5147,7.812500
5148,5.859375
5149,3.906250
5150,3.906250
5151,3.906250
5152,1.953125
5153,0.000000
5154,0.000000
5155,-1.953125
5156,-3.906250
5157,-5.859375
5158,-5.859375
5159,-5.859375
5160,-7.812500
5161,-9.765625
5162,-9.765625
5163,-11.718750
5164,-13.671875
5165,-13.671875
5166,-15.625000
5167,-17.578125
5168,-17.578125
5169,-19.531250
5170,-21.484375
5171,-21.484375
5172,-23.437500
5173,-23.437500
5174,-25.390625
5175,-27.343750
5176,-27.343750
5177,-27.343750
5178,-29.296875
5179,-33.203125
5180,-33.203125
5181,-33.203125
5182,-35.156250
5183,-35.156250
5184,-37.109375
5185,-37.109375
5186,-39.062500
5187,-39.062500
5188,-41.015625
5189,-41.015625
5190,-42.968750
5191,-44.921875
5192,-44.921875
5193,-44.921875
5194,-46.875000
5195,-46.875000
5196,-48.828125
5197,-48.828125
5198,-48.828125
5199,-50.781250
5200,-52.734375
5201,-52.734375
5202,-52.734375
5203,-52.734375
5204,-54.687500
5205,-54.687500
5206,-56.640625
5207,-56.640625
5208,-56.640625
5209,-56.640625
5210,-58.593750
5211,-58.593750
5212,-58.593750
5213,-58.593750
5214,-58.593750
5215,-58.593750
5216,-60.546875
5217,-60.546875
5218,-60.546875
5219,-60.546875
5220,-60.546875
5221,-62.500000
5222,-60.546875
5223,-62.500000
5224,-60.546875
5225,-62.500000
5226,-62.500000
5227,-62.500000
5228,-60.546875
5229,-60.546875
5230,-62.500000
5231,-60.546875
5232,-60.546875
5233,-60.546875
5234,-60.546875
5235,-60.546875
5236,-60.546875
5237,-60.546875
5238,-60.546875
5239,-60.546875
5240,-60.546875
5241,-58.593750
5242,-58.593750
5243,-58.593750
5244,-58.593750
5245,-58.593750
5246,-56.640625
5247,-56.640625
5248,-54.687500
5249,-54.687500
5250,-54.687500
5251,-54.687500
5252,-52.734375
5253,-52.734375
5254,-50.781250
5255,-50.781250
5256,-50.781250
5257,-50.781250
5258,-48.828125
5259,-48.828125
5260,-46.875000
5261,-46.875000
5262,-44.921875
5263,-44.921875
5264,-42.968750
5265,-42.968750
5266,-41.015625
5267,-41.015625
5268,-39.062500
5269,-39.062500
5270,-37.109375
5271,-37.109375
5272,-35.156250
5273,-35.156250
5274,-33.203125
5275,-33.203125
5276,-31.250000
5277,-29.296875
5278,-29.296875
5279,-27.343750
5280,-27.343750
5281,-25.390625
5282,-25.390625
5283,-23.437500
5284,-21.484375
5285,-21.484375
5286,-19.531250
5287,-17.578125
5288,-17.578125
5289,-15.625000
5290,-13.671875
5291,-13.671875
5292,-11.718750
5293,-11.718750
5294,-9.765625
5295,-7.812500
5296,-7.812500
5297,-5.859375
5298,-3.906250
5299,-3.906250
5300,-1.953125
5301,-1.953125
5302,0.000000
5303,1.953125
5304,1.953125
5305,3.906250
5306,5.859375
5307,5.859375
5308,7.812500
5309,7.812500
5310,9.765625
5311,11.718750
5312,11.718750
5313,13.671875
5314,13.671875
5315,15.625000
5316,15.625000
5317,17.578125
5318,17.578125
5319,19.531250
5320,21.484375
5321,21.484375
5322,23.437500
5323,23.437500
5324,25.390625
5325,25.390625
5326,27.343750
5327,27.343750
5328,29.296875
5329,29.296875
5330,29.296875
5331,31.250000
5332,33.203125
5333,33.203125
5334,33.203125
5335,35.156250
5336,35.156250
5337,37.109375
5338,37.109375
5339,37.109375
5340,39.062500
5341,39.062500
5342,39.062500
5343,39.062500
5344,41.015625
5345,41.015625
5346,42.968750
5347,42.968750
5348,41.015625
5349,44.921875
5350,44.921875
5351,44.921875
5352,44.921875
5353,46.875000
5354,46.875000
5355,46.875000
5356,46.875000
5357,46.875000
5358,48.828125
5359,48.828125
5360,48.828125
5361,48.828125
5362,48.828125
5363,48.828125
5364,48.828125
5365,48.828125
5366,48.828125
5367,48.828125
5368,48.828125
5369,50.781250
5370,48.828125
5371,48.828125
5372,48.828125
5373,48.828125
5374,48.828125
5375,48.828125
5376,48.828125
5377,48.828125
5378,48.828125
5379,48.828125
5380,48.828125
5381,48.828125
5382,48.828125
5383,46.875000
5384,46.875000
5385,46.875000
5386,46.875000
5387,44.921875
5388,44.921875
5389,44.921875
5390,44.921875
5391,42.968750
5392,42.968750
5393,42.968750
5394,41.015625
5395,41.015625
5396,41.015625
5397,41.015625
5398,39.062500
5399,39.062500
5400,37.109375
5401,37.109375
5402,37.109375
5403,35.156250
5404,35.156250
5405,35.156250
5406,33.203125
5407,33.203125
5408,31.250000
5409,31.250000
5410,29.296875
5411,29.296875
5412,29.296875
5413,27.343750
5414,27.343750
5415,25.390625
5416,25.390625
5417,23.437500
5418,23.437500
5419,21.484375
5420,21.484375
5421,19.531250
5422,17.578125
5423,17.578125
5424,15.625000
5425,15.625000
5426,13.671875
5427,13.671875
5428,11.718750
5429,9.765625
5430,9.765625
5431,7.812500
5432,5.859375
5433,5.859375
5434,3.906250
5435,3.906250
5436,1.953125
5437,0.000000
5438,0.000000
5439,-1.953125
5440,-1.953125
5441,-3.906250
5442,-5.859375
5443,-7.812500
5444,-7.812500
5445,-9.765625
5446,-11.718750
5447,-11.718750
5448,-11.718750
5449,-15.625000
5450,-15.625000
5451,-17.578125
5452,-19.531250
5453,-19.531250
5454,-21.484375
5455,-21.484375
5456,-23.437500
5457,-23.437500
5458,-25.390625
5459,-27.343750
5460,-27.343750
5461,-29.296875
5462,-29.296875
5463,-31.250000
5464,-31.250000
5465,-33.203125
5466,-35.156250
5467,-35.156250
5468,-37.109375
5469,-37.109375
5470,-37.109375
5471,-39.062500
5472,-41.015625
5473,-41.015625
5474,-41.015625
5475,-42.968750
5476,-44.921875
5477,-44.921875
5478,-46.875000
5479,-46.875000
5480,-46.875000
5481,-46.875000
5482,-48.828125
5483,-50.781250
5484,-50.781250
5485,-50.781250
5486,-50.781250
5487,-52.734375
5488,-52.734375
5489,-54.687500
5490,-54.687500
5491,-56.640625
5492,-54.687500
5493,-56.640625
5494,-56.640625
5495,-56.640625
5496,-54.687500
5497,-58.593750
5498,-58.593750
5499,-58.593750
5500,-60.546875
5501,-60.546875
5502,-60.546875
5503,-60.546875
5504,-58.593750
5505,-60.546875
5506,-60.546875
5507,-62.500000
5508,-60.546875
5509,-60.546875
5510,-60.546875
5511,-60.546875
5512,-60.546875
5513,-62.500000
5514,-62.500000
5515,-62.500000
5516,-60.546875
5517,-60.546875
5518,-60.546875
5519,-60.546875
5520,-58.593750
5521,-60.546875
5522,-60.546875
5523,-60.546875
5524,-58.593750
5525,-60.546875
5526,-58.593750
5527,-58.593750
5528,-56.640625
5529,-56.640625
5530,-56.640625
5531,-56.640625
5532,-54.687500
5533,-54.687500
5534,-54.687500
5535,-52.734375
5536,-52.734375
5537,-52.734375
5538,-50.781250
5539,-50.781250
5540,-48.828125
5541,-48.828125
5542,-50.781250
5543,-46.875000
5544,-46.875000
5545,-46.875000
5546,-44.921875
5547,-44.921875
5548,-42.968750
5549,-42.968750
5550,-41.015625
5551,-41.015625
5552,-39.062500
5553,-37.109375
5554,-37.109375
5555,-35.156250
5556,-35.156250
5557,-35.156250
5558,-33.203125
5559,-31.250000
5560,-31.250000
5561,-29.296875
5562,-29.296875
5563,-27.343750
5564,-25.390625
5565,-25.390625
5566,-25.390625
5567,-23.437500
5568,-21.484375
5569,-19.531250
5570,-19.531250
5571,-17.578125
5572,-19.531250
5573,-15.625000
5574,-13.671875
5575,-13.671875
5576,-11.718750
5577,-11.718750
5578,-9.765625
5579,-7.812500
5580,-7.812500
5581,-7.812500
5582,-5.859375
5583,-3.906250
5584,-3.906250
5585,0.000000
5586,0.000000
5587,1.953125
5588,3.906250
5589,3.906250
5590,5.859375
5591,5.859375
5592,7.812500
5593,9.765625
5594,9.765625
5595,9.765625
5596,9.765625
5597,13.671875
5598,15.625000
5599,15.625000
5600,15.625000
5601,17.578125
5602,19.531250
5603,19.531250
5604,21.484375
5605,21.484375
5606,23.437500
5607,23.437500
5608,25.390625
5609,25.390625
5610,27.343750
5611,29.296875
5612,29.296875
5613,31.250000
5614,31.250000
5615,31.250000
5616,33.203125
5617,33.203125
5618,35.156250
5619,35.156250
5620,35.156250
5621,37.109375
5622,37.109375
5623,37.109375
5624,39.062500
5625,39.062500
5626,41.015625
5627,41.015625
5628,41.015625
5629,42.968750
5630,42.968750
5631,42.968750
5632,42.968750
5633,44.921875
5634,44.921875
5635,44.921875
5636,44.921875
5637,46.875000
5638,46.875000
5639,46.875000
5640,46.875000
5641,46.875000
5642,48.828125
5643,48.828125
5644,48.828125
5645,48.828125
5646,48.828125
5647,48.828125
5648,48.828125
5649,48.828125
5650,50.781250
5651,48.828125
5652,48.828125
5653,50.781250
5654,48.828125
5655,48.828125
5656,50.781250
5657,48.828125
5658,50.781250
5659,48.828125
5660,48.828125
5661,48.828125
5662,48.828125
5663,48.828125
5664,48.828125
5665,46.875000
5666,46.875000
5667,46.875000
5668,46.875000
5669,46.875000
5670,46.875000
5671,46.875000
5672,44.921875
5673,44.921875
5674,46.875000
5675,44.921875
5676,44.921875
5677,42.968750
5678,42.968750
5679,42.968750
5680,41.015625
5681,41.015625
5682,39.062500
5683,39.062500
5684,39.062500
5685,37.109375
5686,37.109375
5687,37.109375
5688,35.156250
5689,35.156250
5690,33.203125
5691,33.203125
5692,33.203125
5693,31.250000
5694,31.250000
5695,29.296875
5696,29.296875
5697,27.343750
5698,27.343750
5699,25.390625
5700,25.390625
5701,23.437500
5702,21.484375
5703,21.484375
5704,21.484375
5705,19.531250
5706,17.578125
5707,17.578125
5708,15.625000
5709,15.625000
5710,13.671875
5711,11.718750
5712,11.718750
5713,9.765625
5714,9.765625
5715,7.812500
5716,7.812500
5717,5.859375
5718,3.906250
5719,3.906250
5720,1.953125
5721,0.000000
5722,0.000000
5723,-1.953125
5724,-1.953125
5725,-3.906250
5726,-5.859375
5727,-7.812500
5728,-7.812500
5729,-9.765625
5730,-9.765625
5731,-11.718750
5732,-13.671875
5733,-13.671875
5734,-15.625000
5735,-17.578125
5736,-17.578125
5737,-19.531250
5738,-19.531250
5739,-21.484375
5740,-23.437500
5741,-23.437500
5742,-25.390625
5743,-25.390625
5744,-27.343750
5745,-27.343750
5746,-29.296875
5747,-31.250000
5748,-31.250000
5749,-33.203125
5750,-33.203125
5751,-35.156250
5752,-35.156250
5753,-37.109375
5754,-39.062500
5755,-39.062500
5756,-41.015625
5757,-41.015625
5758,-41.015625
5759,-42.968750
5760,-42.968750
5761,-44.921875
5762,-44.921875
5763,-46.875000
5764,-48.828125
5765,-48.828125
5766,-48.828125
5767,-50.781250
5768,-50.781250
5769,-50.781250
5770,-52.734375
5771,-52.734375
5772,-54.687500
5773,-54.687500
5774,-54.687500
5775,-54.687500
5776,-56.640625
5777,-56.640625
5778,-56.640625
5779,-56.640625
5780,-56.640625
5781,-62.500000
5782,-58.593750
5783,-60.546875
5784,-60.546875
5785,-60.546875
5786,-60.546875
5787,-60.546875
5788,-60.546875
5789,-60.546875
5790,-60.546875
5791,-62.500000
5792,-60.546875
5793,-60.546875
5794,-60.546875
5795,-62.500000
5796,-60.546875
5797,-62.500000
5798,-62.500000
5799,-62.500000
5800,-60.546875
5801,-60.546875
5802,-58.593750
5803,-60.546875
5804,-60.546875
5805,-60.546875
5806,-58.593750
5807,-58.593750
5808,-58.593750
5809,-58.593750
5810,-58.593750
5811,-56.640625
5812,-56.640625
5813,-56.640625
5814,-56.640625
5815,-56.640625
5816,-56.640625
5817,-54.687500
5818,-54.687500
5819,-52.734375
5820,-52.734375
5821,-52.734375
5822,-52.734375
5823,-50.781250
5824,-50.781250
5825,-48.828125
5826,-48.828125
5827,-48.828125
5828,-46.875000
5829,-46.875000
5830,-46.875000
5831,-42.968750
5832,-42.968750
5833,-42.968750
5834,-42.968750
5835,-41.015625
5836,-39.062500
5837,-39.062500
5838,-37.109375
5839,-37.109375
5840,-35.156250
5841,-33.203125
5842,-33.203125
5843,-33.203125
5844,-31.250000
5845,-29.296875
5846,-29.296875
5847,-27.343750
5848,-27.343750
5849,-25.390625
5850,-25.390625
5851,-23.437500
5852,-21.484375
5853,-21.484375
5854,-19.531250
5855,-19.531250
5856,-17.578125
5857,-15.625000
5858,-15.625000
5859,-13.671875
5860,-13.671875
5861,-11.718750
5862,-9.765625
5863,-7.812500
5864,-7.812500
5865,-5.859375
5866,-5.859375
5867,-3.906250
5868,-1.953125
5869,-1.953125
5870,0.000000
5871,0.000000
5872,3.906250
5873,3.906250
5874,5.859375
5875,5.859375
5876,5.859375
5877,7.812500
5878,9.765625
5879,11.718750
5880,11.718750
5881,13.671875
5882,13.671875
5883,15.625000
5884,15.625000
5885,17.578125
5886,19.531250
5887,19.531250
5888,21.484375
5889,21.484375
5890,21.484375
5891,23.437500
5892,25.390625
5893,27.343750
5894,27.343750
5895,27.343750
5896,29.296875
5897,29.296875
5898,31.250000
5899,31.250000
5900,31.250000
5901,33.203125
5902,33.203125
5903,35.156250
5904,37.109375
5905,37.109375
5906,37.109375
5907,37.109375
5908,37.109375
5909,39.062500
5910,39.062500
5911,41.015625
5912,41.015625
5913,41.015625
5914,42.968750
5915,42.968750
5916,42.968750
5917,42.968750
5918,44.921875
5919,44.921875
5920,44.921875
5921,44.921875
5922,44.921875
5923,46.875000
5924,46.875000
5925,46.875000
5926,48.828125
5927,46.875000
5928,46.875000
5929,48.828125
5930,48.828125
5931,48.828125
5932,48.828125
5933,48.828125
5934,48.828125
5935,48.828125
5936,50.781250
5937,48.828125
5938,48.828125
5939,50.781250
5940,46.875000
5941,48.828125
5942,48.828125
5943,48.828125
5944,48.828125
5945,48.828125
5946,48.828125
5947,48.828125
5948,48.828125
5949,48.828125
5950,46.875000
5951,46.875000
5952,46.875000
5953,46.875000
5954,46.875000
5955,46.875000
5956,44.921875
5957,44.921875
5958,44.921875
5959,42.968750
5960,44.921875
5961,42.968750
5962,42.968750
5963,41.015625
5964,41.015625
5965,41.015625
5966,39.062500
5967,39.062500
5968,39.062500
5969,37.109375
5970,37.109375
5971,37.109375
5972,35.156250
5973,33.203125
5974,33.203125
5975,33.203125
5976,31.250000
5977,31.250000
5978,29.296875
5979,29.296875
5980,29.296875
5981,29.296875
5982,25.390625
5983,25.390625
5984,23.437500
5985,23.437500
5986,27.343750
5987,21.484375
5988,19.531250
5989,19.531250
5990,17.578125
5991,17.578125
5992,15.625000
5993,15.625000
5994,13.671875
5995,11.718750
5996,11.718750
5997,9.765625
5998,9.765625
5999,7.812500
6000,5.859375
6001,5.859375
6002,3.906250
6003,3.906250
6004,1.953125
6005,0.000000
6006,-1.953125
6007,-1.953125
6008,-1.953125
6009,-3.906250
6010,-5.859375
6011,-5.859375
6012,-7.812500
6013,-9.765625
6014,-9.765625
6015,-11.718750
6016,-13.671875
6017,-13.671875
6018,-13.671875
6019,-17.578125
6020,-17.578125
6021,-19.531250
6022,-19.531250
6023,-21.484375
6024,-21.484375
6025,-23.437500
6026,-25.390625
6027,-25.390625
6028,-27.343750
6029,-29.296875
6030,-29.296875
6031,-31.250000
6032,-33.203125
6033,-33.203125
6034,-33.203125
6035,-37.109375
6036,-37.109375
6037,-37.109375
6038,-39.062500
6039,-39.062500
6040,-41.015625
6041,-41.015625
6042,-42.968750
6043,-42.968750
6044,-41.015625
6045,-44.921875
6046,-46.875000
6047,-46.875000
6048,-48.828125
6049,-48.828125
6050,-48.828125
6051,-50.781250
6052,-52.734375
6053,-50.781250
6054,-50.781250
6055,-52.734375
6056,-54.687500
6057,-54.687500
6058,-54.687500
6059,-56.640625
6060,-56.640625
6061,-56.640625
6062,-58.593750
6063,-58.593750
6064,-58.593750
6065,-58.593750
6066,-58.593750
6067,-58.593750
6068,-60.546875
6069,-60.546875
6070,-60.546875
6071,-60.546875
6072,-58.593750
6073,-60.546875
6074,-60.546875
6075,-60.546875
6076,-60.546875
6077,-60.546875
6078,-62.500000
6079,-58.593750
6080,-62.500000
6081,-62.500000
6082,-62.500000
6083,-62.500000
6084,-62.500000
6085,-60.546875
6086,-60.546875
6087,-62.500000
6088,-60.546875
6089,-60.546875
6090,-60.546875
6091,-60.546875
6092,-58.593750
6093,-58.593750
6094,-58.593750
6095,-58.593750
6096,-56.640625
6097,-56.640625
6098,-56.640625
6099,-56.640625
6100,-56.640625
6101,-54.687500
6102,-54.687500
6103,-54.687500
6104,-52.734375
6105,-52.734375
6106,-52.734375
6107,-50.781250
6108,-50.781250
6109,-50.781250
6110,-48.828125
6111,-48.828125
6112,-46.875000
6113,-46.875000
6114,-44.921875
6115,-44.921875
6116,-44.921875
6117,-42.968750
6118,-42.968750
6119,-41.015625
6120,-39.062500
6121,-39.062500
6122,-37.109375
6123,-33.203125
6124,-35.156250
6125,-35.156250
6126,-33.203125
6127,-33.203125
6128,-29.296875
6129,-31.250000
6130,-29.296875
6131,-29.296875
6132,-29.296875
6133,-25.390625
6134,-23.437500
6135,-23.437500
6136,-23.437500
6137,-21.484375
6138,-21.484375
6139,-17.578125
6140,-15.625000
6141,-15.625000
6142,-15.625000
6143,-13.671875
6144,-11.718750
6145,-11.718750
6146,-9.765625
6147,-7.812500
6148,-7.812500
6149,-5.859375
6150,-5.859375
6151,-3.906250
6152,-1.953125
6153,3.906250
6154,-1.953125
6155,-1.953125
6156,1.953125
6157,1.953125
6158,3.906250
6159,5.859375
6160,7.812500
6161,7.812500
6162,9.765625
6163,7.812500
6164,11.718750
6165,11.718750
6166,13.671875
6167,15.625000
6168,15.625000
6169,21.484375
6170,17.578125
6171,19.531250
6172,19.531250
6173,25.390625
6174,21.484375
6175,23.437500
6176,25.390625
6177,25.390625
6178,27.343750
6179,27.343750
6180,27.343750
6181,29.296875
6182,31.250000
6183,31.250000
6184,33.203125
6185,33.203125
6186,33.203125
6187,35.156250
6188,35.156250
6189,37.109375
6190,37.109375
6191,37.109375
6192,39.062500
6193,39.062500
6194,39.062500
6195,41.015625
6196,41.015625
6197,42.968750
6198,42.968750
6199,42.968750
6200,42.968750
6201,44.921875
6202,44.921875
6203,44.921875
6204,44.921875
6205,46.875000
6206,46.875000
6207,46.875000
6208,46.875000
6209,46.875000
6210,46.875000
6211,48.828125
6212,48.828125
6213,48.828125
6214,48.828125
6215,48.828125
6216,48.828125
6217,48.828125
6218,48.828125
6219,50.781250
6220,50.781250
6221,48.828125
6222,48.828125
6223,48.828125
6224,50.781250
6225,48.828125
6226,48.828125
6227,48.828125
6228,48.828125
6229,48.828125
6230,48.828125
6231,48.828125
6232,48.828125
6233,48.828125
6234,46.875000
6235,46.875000
6236,46.875000
6237,46.875000
6238,44.921875
6239,44.921875
6240,44.921875
6241,44.921875
6242,44.921875
6243,44.921875
6244,42.968750
6245,42.968750
6246,41.015625
6247,41.015625
6248,41.015625
6249,41.015625
6250,41.015625
6251,39.062500
6252,39.062500
6253,39.062500
6254,37.109375
6255,37.109375
6256,35.156250
6257,35.156250
6258,33.203125
6259,33.203125
6260,33.203125
6261,31.250000
6262,29.296875
6263,29.296875
6264,29.296875
6265,27.343750
6266,27.343750
6267,25.390625
6268,25.390625
6269,23.437500
6270,23.437500
6271,21.484375
6272,21.484375
6273,19.531250
6274,17.578125
6275,17.578125
6276,17.578125
6277,15.625000
6278,13.671875
6279,11.718750
6280,11.718750
6281,9.765625
6282,9.765625
6283,7.812500
6284,7.812500
6285,3.906250
6286,3.906250
6287,3.906250
6288,1.953125
6289,0.000000
6290,0.000000
6291,-1.953125
6292,-1.953125
6293,-3.906250
6294,-5.859375
6295,-7.812500
6296,-7.812500
6297,-9.765625
6298,-11.718750
6299,-11.718750
6300,-13.671875
6301,-13.671875
6302,-13.671875
6303,-17.578125
6304,-17.578125
6305,-19.531250
6306,-19.531250
6307,-21.484375
6308,-21.484375
6309,-23.437500
6310,-23.437500
6311,-25.390625
6312,-27.343750
6313,-27.343750
6314,-29.296875
6315,-29.296875
6316,-31.250000
6317,-33.203125
6318,-33.203125
6319,-35.156250
6320,-39.062500
6321,-37.109375
6322,-39.062500
6323,-39.062500
6324,-39.062500
6325,-41.015625
6326,-41.015625
6327,-42.968750
6328,-42.968750
6329,-44.921875
6330,-44.921875
6331,-46.875000
6332,-46.875000
6333,-48.828125
6334,-48.828125
6335,-48.828125
6336,-50.781250
6337,-48.828125
6338,-52.734375
6339,-52.734375
6340,-52.734375
6341,-52.734375
6342,-54.687500
6343,-54.687500
6344,-54.687500
6345,-56.640625
6346,-56.640625
6347,-58.593750
6348,-56.640625
6349,-58.593750
6350,-58.593750
6351,-58.593750
6352,-60.546875
6353,-58.593750
6354,-58.593750
6355,-60.546875
6356,-60.546875
6357,-60.546875
6358,-60.546875
6359,-60.546875
6360,-60.546875
6361,-60.546875
6362,-62.500000
6363,-60.546875
6364,-62.500000
6365,-62.500000
6366,-60.546875
6367,-60.546875
6368,-62.500000
6369,-60.546875
6370,-60.546875
6371,-60.546875
6372,-60.546875
6373,-60.546875
6374,-60.546875
6375,-60.546875
6376,-58.593750
6377,-58.593750
6378,-58.593750
6379,-58.593750
6380,-56.640625
6381,-56.640625
6382,-56.640625
6383,-56.640625
6384,-56.640625
6385,-54.687500
6386,-54.687500
6387,-52.734375
6388,-54.687500
6389,-52.734375
6390,-52.734375
6391,-50.781250
6392,-50.781250
6393,-50.781250
6394,-48.828125
6395,-48.828125
6396,-46.875000
6397,-46.875000
6398,-44.921875
6399,-44.921875
6400,-42.968750
6401,-42.968750
6402,-41.015625
6403,-41.015625
6404,-39.062500
6405,-37.109375
6406,-37.109375
6407,-37.109375
6408,-35.156250
6409,-35.156250
6410,-33.203125
6411,-31.250000
6412,-31.250000
6413,-31.250000
6414,-29.296875
6415,-27.343750
6416,-27.343750
6417,-25.390625
6418,-25.390625
6419,-23.437500
6420,-21.484375
6421,-21.484375
6422,-19.531250
6423,-17.578125
6424,-17.578125
6425,-15.625000
6426,-15.625000
6427,-13.671875
6428,-13.671875
6429,-11.718750
6430,-9.765625
6431,-7.812500
6432,-7.812500
6433,-5.859375
6434,-3.906250
6435,-3.906250
6436,-1.953125
6437,-1.953125
6438,0.000000
6439,1.953125
6440,1.953125
6441,3.906250
6442,3.906250
6443,5.859375
6444,7.812500
6445,7.812500
6446,9.765625
6447,9.765625
6448,11.718750
6449,13.671875
6450,13.671875
6451,15.625000
6452,15.625000
6453,17.578125
6454,19.531250
6455,19.531250
6456,21.484375
6457,21.484375
6458,23.437500
6459,23.437500
6460,25.390625
6461,27.343750
6462,27.343750
6463,29.296875
6464,29.296875
6465,29.296875
6466,31.250000
6467,31.250000
6468,33.203125
6469,33.203125
6470,35.156250
6471,35.156250
6472,35.156250
6473,37.109375
6474,37.109375
6475,39.062500
6476,39.062500
6477,39.062500
6478,41.015625
6479,41.015625
6480,41.015625
6481,41.015625
6482,41.015625
6483,42.968750
6484,44.921875
6485,44.921875
6486,44.921875
6487,44.921875
6488,44.921875
6489,46.875000
6490,46.875000
6491,46.875000
6492,46.875000
6493,46.875000
6494,46.875000
6495,48.828125
6496,48.828125
6497,48.828125
6498,48.828125
6499,48.828125
6500,48.828125
6501,48.828125
6502,48.828125
6503,48.828125
6504,48.828125
6505,50.781250
6506,48.828125
6507,50.781250
6508,50.781250
6509,48.828125
6510,48.828125
6511,48.828125
6512,50.781250
6513,48.828125
6514,48.828125
6515,48.828125
6516,48.828125
6517,48.828125
6518,48.828125
6519,46.875000
6520,46.875000
6521,46.875000
6522,46.875000
6523,46.875000
6524,44.921875
6525,46.875000
6526,44.921875
6527,44.921875
6528,42.968750
6529,42.968750
6530,42.968750
6531,42.968750
6532,41.015625
6533,39.062500
6534,41.015625
6535,39.062500
6536,39.062500
6537,37.109375
6538,37.109375
6539,37.109375
6540,37.109375
6541,35.156250
6542,35.156250
6543,33.203125
6544,33.203125
6545,31.250000
6546,31.250000
6547,29.296875
6548,29.296875
6549,27.343750
6550,27.343750
6551,25.390625
6552,25.390625
6553,23.437500
6554,21.484375
6555,21.484375
6556,21.484375
6557,19.531250
6558,17.578125
6559,17.578125
6560,17.578125
6561,15.625000
6562,13.671875
6563,13.671875
6564,11.718750
6565,11.718750
6566,9.765625
6567,7.812500
6568,7.812500
6569,5.859375
6570,3.906250
6571,3.906250
6572,1.953125
6573,1.953125
6574,0.000000
6575,-1.953125
6576,-1.953125
6577,-3.906250
6578,-5.859375
6579,-7.812500
6580,-7.812500
6581,-9.765625
6582,-9.765625
6583,-11.718750
6584,-11.718750
6585,-13.671875
6586,-15.625000
6587,-15.625000
6588,-17.578125
6589,-19.531250
6590,-19.531250
6591,-21.484375
6592,-21.484375
6593,-23.437500
6594,-25.390625
6595,-25.390625
6596,-27.343750
6597,-27.343750
6598,-29.296875
6599,-31.250000
6600,-31.250000
6601,-33.203125
6602,-33.203125
6603,-35.156250
6604,-35.156250
6605,-37.109375
6606,-37.109375
6607,-39.062500
6608,-41.015625
6609,-41.015625
6610,-41.015625
6611,-42.968750
6612,-42.968750
6613,-44.921875
6614,-44.921875
6615,-46.875000
6616,-46.875000
6617,-48.828125
6618,-48.828125
6619,-48.828125
6620,-50.781250
6621,-50.781250
6622,-52.734375
6623,-52.734375
6624,-52.734375
6625,-52.734375
6626,-54.687500
6627,-54.687500
6628,-56.640625
6629,-56.640625
6630,-56.640625
6631,-56.640625
6632,-56.640625
6633,-58.593750
6634,-58.593750
6635,-58.593750
6636,-58.593750
6637,-60.546875
6638,-60.546875
6639,-60.546875
6640,-60.546875
6641,-60.546875
6642,-60.546875
6643,-60.546875
6644,-60.546875
6645,-60.546875
6646,-60.546875
6647,-60.546875
6648,-60.546875
6649,-60.546875
6650,-60.546875
6651,-60.546875
6652,-62.500000
6653,-60.546875
6654,-60.546875
6655,-60.546875
6656,-60.546875
6657,-60.546875
6658,-60.546875
6659,-58.593750
6660,-58.593750
6661,-58.593750
6662,-58.593750
6663,-58.593750
6664,-56.640625
6665,-56.640625
6666,-56.640625
6667,-56.640625
6668,-54.687500
6669,-54.687500
6670,-54.687500
6671,-54.687500
6672,-54.687500
6673,-50.781250
6674,-52.734375
6675,-52.734375
6676,-50.781250
6677,-48.828125
6678,-48.828125
6679,-48.828125
6680,-46.875000
6681,-46.875000
6682,-44.921875
6683,-44.921875
6684,-42.968750
6685,-42.968750
6686,-42.968750
6687,-41.015625
6688,-39.062500
6689,-37.109375
6690,-39.062500
6691,-37.109375
6692,-37.109375
6693,-35.156250
6694,-33.203125
6695,-31.250000
6696,-31.250000
6697,-31.250000
6698,-29.296875
6699,-29.296875
6700,-27.343750
6701,-25.390625
6702,-25.390625
6703,-23.437500
6704,-21.484375
6705,-21.484375
6706,-19.531250
6707,-17.578125
6708,-17.578125
6709,-13.671875
6710,-15.625000
6711,-13.671875
6712,-11.718750
6713,-11.718750
6714,-9.765625
6715,-9.765625
6716,-7.812500
6717,-5.859375
6718,-5.859375
6719,-3.906250
6720,-1.953125
6721,-1.953125
6722,0.000000
6723,0.000000
6724,1.953125
6725,3.906250
6726,3.906250
6727,5.859375
6728,7.812500
6729,7.812500
6730,9.765625
6731,9.765625
6732,11.718750
6733,13.671875
6734,13.671875
6735,15.625000
6736,15.625000
6737,17.578125
6738,17.578125
6739,19.531250
6740,19.531250
6741,21.484375
6742,23.437500
6743,23.437500
6744,25.390625
6745,25.390625
6746,27.343750
6747,27.343750
6748,27.343750
6749,29.296875
6750,31.250000
6751,31.250000
6752,31.250000
6753,33.203125
6754,33.203125
6755,35.156250
6756,35.156250
6757,35.156250
6758,35.156250
6759,39.062500
6760,39.062500
6761,39.062500
6762,39.062500
6763,41.015625
6764,41.015625
6765,41.015625
6766,42.968750
6767,42.968750
6768,42.968750
6769,42.968750
6770,44.921875
6771,44.921875
6772,44.921875
6773,46.875000
6774,46.875000
6775,46.875000
6776,46.875000
6777,46.875000
6778,48.828125
6779,48.828125
6780,48.828125
6781,48.828125
6782,48.828125
6783,48.828125
6784,50.781250
6785,48.828125
6786,50.781250
6787,48.828125
6788,50.781250
6789,48.828125
6790,48.828125
6791,50.781250
6792,48.828125
6793,48.828125
6794,48.828125
6795,48.828125
6796,48.828125
6797,48.828125
6798,48.828125
6799,48.828125
6800,48.828125
6801,48.828125
6802,46.875000
6803,46.875000
6804,46.875000
6805,46.875000
6806,46.875000
6807,44.921875
6808,44.921875
6809,44.921875
6810,44.921875
6811,42.968750
6812,44.921875
6813,42.968750
6814,42.968750
6815,41.015625
6816,41.015625
6817,41.015625
6818,39.062500
6819,39.062500
6820,39.062500
6821,37.109375
6822,37.109375
6823,37.109375
6824,35.156250
6825,35.156250
6826,33.203125
6827,33.203125
6828,33.203125
6829,31.250000
6830,31.250000
6831,29.296875
6832,29.296875
6833,29.296875
6834,27.343750
6835,25.390625
6836,25.390625
6837,23.437500
6838,23.437500
6839,21.484375
6840,21.484375
6841,19.531250
6842,19.531250
6843,17.578125
6844,13.671875
6845,15.625000
6846,13.671875
6847,13.671875
6848,11.718750
6849,11.718750
6850,9.765625
6851,7.812500
6852,7.812500
6853,5.859375
6854,5.859375
6855,3.906250
6856,1.953125
6857,1.953125
6858,0.000000
6859,-1.953125
6860,-1.953125
6861,-3.906250
6862,-3.906250
6863,-5.859375
6864,-7.812500
6865,-7.812500
6866,-9.765625
6867,-11.718750
6868,-11.718750
6869,-13.671875
6870,-15.625000
6871,-15.625000
6872,-17.578125
6873,-17.578125
6874,-19.531250
6875,-21.484375
6876,-23.437500
6877,-23.437500
6878,-23.437500
6879,-25.390625
6880,-27.343750
6881,-27.343750
6882,-29.296875
6883,-31.250000
6884,-31.250000
6885,-31.250000
6886,-33.203125
6887,-35.156250
6888,-35.156250
6889,-37.109375
6890,-37.109375
6891,-39.062500
6892,-41.015625
6893,-39.062500
6894,-41.015625
6895,-42.968750
6896,-42.968750
6897,-44.921875
6898,-44.921875
6899,-46.875000
6900,-46.875000
6901,-48.828125
6902,-48.828125
6903,-48.828125
6904,-50.781250
6905,-50.781250
6906,-52.734375
6907,-52.734375
6908,-52.734375
6909,-54.687500
6910,-54.687500
6911,-54.687500
6912,-56.640625
6913,-56.640625
6914,-56.640625
6915,-52.734375
6916,-58.593750
6917,-58.593750
6918,-58.593750
6919,-58.593750
6920,-60.546875
6921,-60.546875
6922,-60.546875
6923,-60.546875
6924,-60.546875
6925,-60.546875
6926,-60.546875
6927,-60.546875
6928,-62.500000
6929,-60.546875
6930,-62.500000
6931,-60.546875
6932,-58.593750
6933,-60.546875
6934,-62.500000
6935,-60.546875
6936,-62.500000
6937,-62.500000
6938,-62.500000
6939,-60.546875
6940,-60.546875
6941,-60.546875
6942,-60.546875
6943,-60.546875
6944,-58.593750
6945,-58.593750
6946,-58.593750
6947,-58.593750
6948,-58.593750
6949,-58.593750
6950,-56.640625
6951,-56.640625
6952,-56.640625
6953,-54.687500
6954,-54.687500
6955,-54.687500
6956,-52.734375
6957,-52.734375
6958,-52.734375
6959,-50.781250
6960,-50.781250
6961,-50.781250
6962,-48.828125
6963,-48.828125
6964,-46.875000
6965,-46.875000
6966,-44.921875
6967,-44.921875
6968,-44.921875
6969,-42.968750
6970,-42.968750
6971,-41.015625
6972,-41.015625
6973,-39.062500
6974,-39.062500
6975,-37.109375
6976,-37.109375
6977,-35.156250
6978,-33.203125
6979,-33.203125
6980,-31.250000
6981,-29.296875
6982,-29.296875
6983,-29.296875
6984,-27.343750
6985,-25.390625
6986,-25.390625
6987,-23.437500
6988,-21.484375
6989,-21.484375
6990,-21.484375
6991,-21.484375
6992,-17.578125
6993,-15.625000
6994,-15.625000
6995,-13.671875
6996,-13.671875
6997,-11.718750
6998,-11.718750
6999,-9.765625
7000,-7.812500
7001,-7.812500
7002,-5.859375
7003,-3.906250
7004,-1.953125
7005,-1.953125
7006,0.000000
7007,0.000000
7008,1.953125
7009,3.906250
7010,3.906250
7011,5.859375
7012,5.859375
7013,7.812500
7014,9.765625
7015,9.765625
7016,11.718750
7017,13.671875
7018,13.671875
7019,13.671875
7020,15.625000
7021,17.578125
7022,17.578125
7023,19.531250
7024,19.531250
7025,21.484375
7026,23.437500
7027,23.437500
7028,23.437500
7029,25.390625
7030,27.343750
7031,27.343750
7032,27.343750
7033,29.296875
7034,29.296875
7035,31.250000
7036,31.250000
7037,33.203125
7038,33.203125
7039,35.156250
7040,33.203125
7041,37.109375
7042,37.109375
7043,39.062500
7044,39.062500
7045,39.062500
7046,41.015625
7047,41.015625
7048,41.015625
7049,41.015625
7050,42.968750
7051,42.968750
7052,42.968750
7053,42.968750
7054,44.921875
7055,44.921875
7056,44.921875
7057,44.921875
7058,46.875000
7059,46.875000
7060,46.875000
7061,46.875000
7062,46.875000
7063,48.828125
7064,48.828125
7065,48.828125
7066,48.828125
7067,48.828125
7068,48.828125
7069,48.828125
7070,48.828125
7071,48.828125
7072,48.828125
7073,48.828125
7074,48.828125
7075,50.781250
7076,48.828125
7077,48.828125
7078,48.828125
7079,48.828125
7080,48.828125
7081,48.828125
7082,48.828125
7083,48.828125
7084,48.828125
7085,48.828125
7086,46.875000
7087,48.828125
7088,46.875000
7089,46.875000
7090,46.875000
7091,46.875000
7092,44.921875
7093,44.921875
7094,44.921875
7095,44.921875
7096,44.921875
7097,42.968750
7098,42.968750
7099,41.015625
7100,41.015625
7101,41.015625
7102,41.015625
7103,39.062500
7104,39.062500
7105,39.062500
7106,37.109375
7107,37.109375
7108,35.156250
7109,35.156250
7110,35.156250
7111,33.203125
7112,33.203125
7113,31.250000
7114,31.250000
7115,29.296875
7116,29.296875
7117,29.296875
7118,27.343750
7119,25.390625
7120,25.390625
7121,23.437500
7122,23.437500
7123,21.484375
7124,21.484375
7125,19.531250
7126,17.578125
7127,17.578125
7128,17.578125
7129,15.625000
7130,13.671875
7131,13.671875
7132,11.718750
7133,11.718750
7134,9.765625
7135,7.812500
7136,7.812500
7137,5.859375
7138,3.906250
7139,3.906250
7140,3.906250
7141,0.000000
7142,0.000000
7143,-1.953125
7144,-1.953125
7145,-3.906250
7146,-5.859375
7147,-5.859375
7148,-7.812500
7149,-7.812500
7150,-9.765625
7151,-11.718750
7152,-11.718750
7153,-13.671875
7154,-15.625000
7155,-15.625000
7156,-15.625000
7157,-17.578125
7158,-19.531250
7159,-21.484375
7160,-21.484375
7161,-21.484375
7162,-23.437500
7163,-25.390625
7164,-25.390625
7165,-27.343750
7166,-27.343750
7167,-29.296875
7168,-31.250000
7169,-33.203125
7170,-33.203125
7171,-35.156250
7172,-35.156250
7173,-37.109375
7174,-37.109375
7175,-39.062500
7176,-39.062500
7177,-41.015625
7178,-41.015625
7179,-42.968750
7180,-42.968750
7181,-44.921875
7182,-44.921875
7183,-46.875000
7184,-46.875000
7185,-46.875000
7186,-48.828125
7187,-50.781250
7188,-50.781250
7189,-50.781250
7190,-50.781250
7191,-52.734375
7192,-52.734375
7193,-54.687500
7194,-52.734375
7195,-54.687500
7196,-54.687500
7197,-56.640625
7198,-56.640625
7199,-56.640625
7200,-58.593750
7201,-58.593750
7202,-58.593750
7203,-58.593750
7204,-60.546875
7205,-58.593750
7206,-60.546875
7207,-60.546875
7208,-60.546875
7209,-60.546875
7210,-62.500000
7211,-60.546875
7212,-62.500000
7213,-60.546875
7214,-60.546875
7215,-60.546875
7216,-62.500000
7217,-60.546875
7218,-62.500000
7219,-60.546875
7220,-60.546875
7221,-60.546875
7222,-60.546875
7223,-60.546875
7224,-60.546875
7225,-60.546875
7226,-60.546875
7227,-58.593750
7228,-58.593750
7229,-58.593750
7230,-56.640625
7231,-58.593750
7232,-58.593750
7233,-56.640625
7234,-56.640625
7235,-56.640625
7236,-56.640625
7237,-54.687500
7238,-54.687500
7239,-52.734375
7240,-52.734375
7241,-52.734375
7242,-52.734375
7243,-50.781250
7244,-50.781250
7245,-48.828125
7246,-48.828125
7247,-48.828125
7248,-46.875000
7249,-46.875000
7250,-44.921875
7251,-44.921875
7252,-42.968750
7253,-42.968750
7254,-42.968750
7255,-41.015625
7256,-41.015625
7257,-39.062500
7258,-37.109375
7259,-37.109375
7260,-35.156250
7261,-35.156250
7262,-35.156250
7263,-33.203125
7264,-31.250000
7265,-29.296875
7266,-29.296875
7267,-29.296875
7268,-27.343750
7269,-25.390625
7270,-25.390625
7271,-23.437500
7272,-23.437500
7273,-21.484375
7274,-19.531250
7275,-19.531250
7276,-17.578125
7277,-17.578125
7278,-15.625000
7279,-13.671875
7280,-13.671875
7281,-11.718750
7282,-9.765625
7283,-9.765625
7284,-7.812500
7285,-5.859375
7286,-5.859375
7287,-3.906250
7288,-1.953125
7289,-1.953125
7290,-1.953125
7291,0.000000
7292,1.953125
7293,3.906250
7294,3.906250
7295,5.859375
7296,7.812500
7297,7.812500
7298,9.765625
7299,9.765625
7300,11.718750
7301,13.671875
7302,13.671875
7303,13.671875
7304,15.625000
7305,17.578125
7306,17.578125
7307,19.531250
7308,19.531250
7309,21.484375
7310,23.437500
7311,23.437500
7312,25.390625
7313,25.390625
7314,27.343750
7315,27.343750
7316,27.343750
7317,29.296875
7318,31.250000
7319,31.250000
7320,31.250000
7321,33.203125
7322,33.203125
7323,35.156250
7324,35.156250
7325,37.109375
7326,37.109375
7327,37.109375
7328,37.109375
7329,39.062500
7330,39.062500
7331,41.015625
7332,41.015625
7333,41.015625
7334,41.015625
7335,42.968750
7336,42.968750
7337,44.921875
7338,44.921875
7339,44.921875
7340,44.921875
7341,44.921875
7342,46.875000
7343,46.875000
7344,46.875000
7345,46.875000
7346,46.875000
7347,48.828125
7348,48.828125
7349,48.828125
7350,48.828125
7351,48.828125
7352,48.828125
7353,48.828125
7354,48.828125
7355,50.781250
7356,48.828125
7357,48.828125
7358,50.781250
7359,48.828125
7360,48.828125
7361,48.828125
7362,50.781250
7363,48.828125
7364,48.828125
7365,48.828125
7366,48.828125
7367,48.828125
7368,48.828125
7369,48.828125
7370,50.781250
7371,48.828125
7372,46.875000
7373,46.875000
7374,46.875000
7375,46.875000
7376,44.921875
7377,44.921875
7378,44.921875
7379,44.921875
7380,44.921875
7381,42.968750
7382,42.968750
7383,42.968750
7384,41.015625
7385,41.015625
7386,41.015625
7387,39.062500
7388,39.062500
7389,39.062500
7390,37.109375
7391,33.203125
7392,37.109375
7393,35.156250
7394,35.156250
7395,33.203125
7396,33.203125
7397,31.250000
7398,31.250000
7399,29.296875
7400,29.296875
7401,27.343750
7402,27.343750
7403,25.390625
7404,25.390625
7405,23.437500
7406,23.437500
7407,21.484375
7408,21.484375
7409,19.531250
7410,19.531250
7411,17.578125
7412,17.578125
7413,15.625000
7414,13.671875
7415,13.671875
7416,11.718750
7417,11.718750
7418,9.765625
7419,7.812500
7420,7.812500
7421,5.859375
7422,5.859375
7423,3.906250
7424,1.953125
7425,1.953125
7426,0.000000
7427,0.000000
7428,-1.953125
7429,-3.906250
7430,-3.906250
7431,-5.859375
7432,-7.812500
7433,-7.812500
7434,-9.765625
7435,-9.765625
7436,-11.718750
7437,-13.671875
7438,-13.671875
7439,-15.625000
7440,-17.578125
7441,-17.578125
7442,-19.531250
7443,-19.531250
7444,-21.484375
7445,-23.437500
7446,-25.390625
7447,-25.390625
7448,-27.343750
7449,-27.343750
7450,-29.296875
7451,-29.296875
7452,-31.250000
7453,-31.250000
7454,-33.203125
7455,-33.203125
7456,-35.156250
7457,-37.109375
7458,-39.062500
7459,-39.062500
7460,-39.062500
7461,-41.015625
7462,-41.015625
7463,-42.968750
7464,-42.968750
7465,-44.921875
7466,-44.921875
7467,-44.921875
7468,-46.875000
7469,-46.875000
7470,-48.828125
7471,-48.828125
7472,-50.781250
7473,-50.781250
7474,-50.781250
7475,-52.734375
7476,-52.734375
7477,-52.734375
7478,-54.687500
7479,-54.687500
7480,-54.687500
7481,-56.640625
7482,-56.640625
7483,-56.640625
7484,-56.640625
7485,-58.593750
7486,-58.593750
7487,-58.593750
7488,-58.593750
7489,-58.593750
7490,-58.593750
7491,-60.546875
7492,-60.546875
7493,-60.546875
7494,-60.546875
7495,-60.546875
7496,-62.500000
7497,-60.546875
7498,-60.546875
7499,-60.546875
7500,-62.500000
7501,-60.546875
7502,-60.546875
7503,-60.546875
7504,-60.546875
7505,-60.546875
7506,-60.546875
7507,-60.546875
7508,-60.546875
7509,-60.546875
7510,-60.546875
7511,-60.546875
7512,-60.546875
7513,-58.593750
7514,-58.593750
7515,-58.593750
7516,-58.593750
7517,-56.640625
7518,-56.640625
7519,-56.640625
7520,-56.640625
7521,-54.687500
7522,-54.687500
7523,-54.687500
7524,-54.687500
7525,-52.734375
7526,-52.734375
7527,-52.734375
7528,-50.781250
7529,-50.781250
7530,-48.828125
7531,-48.828125
7532,-46.875000
7533,-46.875000
7534,-46.875000
7535,-44.921875
7536,-44.921875
7537,-42.968750
7538,-42.968750
7539,-41.015625
7540,-41.015625
7541,-39.062500
7542,-39.062500
7543,-37.109375
7544,-37.109375
7545,-35.156250
7546,-33.203125
7547,-33.203125
7548,-31.250000
7549,-31.250000
7550,-29.296875
7551,-29.296875
7552,-27.343750
7553,-25.390625
7554,-25.390625
7555,-23.437500
7556,-23.437500
7557,-21.484375
7558,-19.531250
7559,-19.531250
7560,-17.578125
7561,-17.578125
7562,-15.625000
7563,-13.671875
7564,-13.671875
7565,-11.718750
7566,-9.765625
7567,-7.812500
7568,-7.812500
7569,-5.859375
7570,-5.859375
7571,-3.906250
7572,-3.906250
7573,-1.953125
7574,0.000000
7575,0.000000
7576,1.953125
7577,3.906250
7578,3.906250
7579,5.859375
7580,5.859375
7581,7.812500
7582,9.765625
7583,9.765625
7584,11.718750
7585,11.718750
7586,13.671875
7587,13.671875
7588,15.625000
7589,15.625000
7590,17.578125
7591,19.531250
7592,19.531250
7593,21.484375
7594,21.484375
7595,23.437500
7596,23.437500
7597,25.390625
7598,25.390625
7599,27.343750
7600,27.343750
7601,29.296875
7602,29.296875
7603,31.250000
7604,33.203125
7605,33.203125
7606,33.203125
7607,35.156250
7608,35.156250
7609,35.156250
7610,37.109375
7611,37.109375
7612,39.062500
7613,39.062500
7614,39.062500
7615,41.015625
7616,41.015625
7617,41.015625
7618,42.968750
7619,42.968750
7620,42.968750
7621,42.968750
7622,44.921875
7623,44.921875
7624,46.875000
7625,44.921875
7626,46.875000
7627,46.875000
7628,46.875000
7629,46.875000
7630,48.828125
7631,48.828125
7632,48.828125
7633,48.828125
7634,48.828125
7635,48.828125
7636,48.828125
7637,48.828125
7638,48.828125
7639,50.781250
7640,50.781250
7641,50.781250
7642,50.781250
7643,48.828125
7644,48.828125
7645,50.781250
7646,48.828125
7647,50.781250
7648,48.828125
7649,48.828125
7650,48.828125
7651,48.828125
7652,48.828125
7653,46.875000
7654,48.828125
7655,46.875000
7656,46.875000
7657,46.875000
7658,46.875000
7659,46.875000
7660,44.921875
7661,44.921875
7662,44.921875
7663,44.921875
7664,42.968750
7665,42.968750
7666,42.968750
7667,42.968750
7668,41.015625
7669,41.015625
7670,41.015625
7671,39.062500
7672,39.062500
7673,39.062500
7674,37.109375
7675,37.109375
7676,35.156250
7677,35.156250
7678,35.156250
7679,33.203125
7680,33.203125
7681,31.250000
7682,31.250000
7683,29.296875
7684,29.296875
7685,27.343750
7686,27.343750
7687,25.390625
7688,25.390625
7689,25.390625
7690,23.437500
7691,21.484375
7692,21.484375
7693,19.531250
7694,19.531250
7695,21.484375
7696,17.578125
7697,15.625000
7698,13.671875
7699,13.671875
7700,11.718750
7701,11.718750
7702,9.765625
7703,7.812500
7704,7.812500
7705,5.859375
7706,5.859375
7707,3.906250
7708,1.953125
7709,0.000000
7710,0.000000
7711,-1.953125
7712,-1.953125
7713,-3.906250
7714,-3.906250
7715,-5.859375
7716,-7.812500
7717,-9.765625
7718,-9.765625
7719,-11.718750
7720,-11.718750
7721,-13.671875
7722,-15.625000
7723,-15.625000
7724,-17.578125
7725,-17.578125
7726,-19.531250
7727,-21.484375
7728,-21.484375
7729,-25.390625
7730,-25.390625
7731,-25.390625
7732,-27.343750
7733,-27.343750
7734,-29.296875
7735,-29.296875
7736,-31.250000
7737,-33.203125
7738,-33.203125
7739,-35.156250
7740,-33.203125
7741,-37.109375
7742,-37.109375
7743,-39.062500
7744,-41.015625
7745,-41.015625
7746,-41.015625
7747,-42.968750
7748,-44.921875
7749,-44.921875
7750,-44.921875
7751,-46.875000
7752,-46.875000
7753,-46.875000
7754,-48.828125
7755,-48.828125
7756,-50.781250
7757,-50.781250
7758,-52.734375
7759,-52.734375
7760,-52.734375
7761,-54.687500
7762,-54.687500
7763,-54.687500
7764,-54.687500
7765,-56.640625
7766,-56.640625
7767,-56.640625
7768,-56.640625
7769,-58.593750
7770,-58.593750
7771,-58.593750
7772,-58.593750
7773,-60.546875
7774,-60.546875
7775,-60.546875
7776,-60.546875
7777,-60.546875
7778,-60.546875
7779,-62.500000
7780,-62.500000
7781,-60.546875
7782,-62.500000
7783,-62.500000
7784,-62.500000
7785,-60.546875
7786,-62.500000
7787,-62.500000
7788,-60.546875
7789,-60.546875
7790,-62.500000
7791,-60.546875
7792,-62.500000
7793,-60.546875
7794,-60.546875
7795,-60.546875
7796,-60.546875
7797,-60.546875
7798,-58.593750
7799,-58.593750
7800,-58.593750
7801,-56.640625
7802,-56.640625
7803,-56.640625
7804,-56.640625
7805,-54.687500
7806,-54.687500
7807,-54.687500
7808,-52.734375
7809,-54.687500
7810,-52.734375
7811,-50.781250
7812,-50.781250
7813,-50.781250
7814,-48.828125
7815,-48.828125
7816,-46.875000
7817,-46.875000
7818,-44.921875
7819,-44.921875
7820,-44.921875
7821,-42.968750
7822,-41.015625
7823,-41.015625
7824,-41.015625
7825,-39.062500
7826,-39.062500
7827,-37.109375
7828,-37.109375
7829,-35.156250
7830,-35.156250
7831,-33.203125
7832,-31.250000
7833,-31.250000
7834,-29.296875
7835,-29.296875
7836,-29.296875
7837,-25.390625
7838,-25.390625
7839,-23.437500
7840,-23.437500
7841,-21.484375
7842,-21.484375
7843,-19.531250
7844,-17.578125
7845,-17.578125
7846,-15.625000
7847,-13.671875
7848,-13.671875
7849,-11.718750
7850,-11.718750
7851,-9.765625
7852,-7.812500
7853,-7.812500
7854,-5.859375
7855,-3.906250
7856,-3.906250
7857,-1.953125
7858,-1.953125
7859,-1.953125
7860,1.953125
7861,1.953125
7862,3.906250
7863,3.906250
7864,5.859375
7865,7.812500
7866,7.812500
7867,9.765625
7868,11.718750
7869,11.718750
7870,13.671875
7871,13.671875
7872,15.625000
7873,17.578125
7874,17.578125
7875,19.531250
7876,19.531250
7877,21.484375
7878,21.484375
7879,23.437500
7880,23.437500
7881,27.343750
7882,25.390625
7883,27.343750
7884,27.343750
7885,29.296875
7886,31.250000
7887,31.250000
7888,31.250000
7889,33.203125
7890,33.203125
7891,35.156250
7892,35.156250
7893,35.156250
7894,37.109375
7895,37.109375
7896,39.062500
7897,39.062500
7898,39.062500
7899,39.062500
7900,41.015625
7901,42.968750
7902,41.015625
7903,42.968750
7904,42.968750
7905,44.921875
7906,44.921875
7907,44.921875
7908,44.921875
7909,44.921875
7910,44.921875
7911,46.875000
7912,46.875000
7913,46.875000
7914,46.875000
7915,46.875000
7916,46.875000
7917,48.828125
7918,48.828125
7919,48.828125
7920,48.828125
7921,48.828125
7922,48.828125
7923,48.828125
7924,48.828125
7925,48.828125
7926,48.828125
7927,48.828125
7928,48.828125
7929,48.828125
7930,48.828125
7931,48.828125
7932,48.828125
7933,48.828125
7934,48.828125
7935,48.828125
7936,48.828125
7937,48.828125
7938,48.828125
7939,46.875000
7940,46.875000
7941,48.828125
7942,46.875000
7943,46.875000
7944,46.875000
7945,44.921875
7946,42.968750
7947,44.921875
7948,42.968750
7949,42.968750
7950,42.968750
7951,42.968750
7952,42.968750
7953,41.015625
7954,41.015625
7955,39.062500
7956,39.062500
7957,39.062500
7958,37.109375
7959,37.109375
7960,37.109375
7961,35.156250
7962,33.203125
7963,35.156250
7964,33.203125
7965,31.250000
7966,31.250000
7967,31.250000
7968,29.296875
7969,27.343750
7970,27.343750
7971,27.343750
7972,25.390625
7973,23.437500
7974,23.437500
7975,21.484375
7976,21.484375
7977,19.531250
7978,19.531250
7979,17.578125
7980,15.625000
7981,15.625000
7982,13.671875
7983,13.671875
7984,11.718750
7985,11.718750
7986,9.765625
7987,7.812500
7988,7.812500
7989,5.859375
7990,5.859375
7991,3.906250
7992,1.953125
7993,1.953125
7994,0.000000
7995,-1.953125
7996,-1.953125
7997,-3.906250
7998,-3.906250
7999,-5.859375
8000,-7.812500
8001,-7.812500
8002,-9.765625
8003,-11.718750
8004,-11.718750
8005,-13.671875
8006,-13.671875
8007,-15.625000
8008,-15.625000
8009,-17.578125
8010,-19.531250
8011,-19.531250
8012,-21.484375
8013,-23.437500
8014,-23.437500
8015,-25.390625
8016,-25.390625
8017,-27.343750
8018,-27.343750
8019,-29.296875
8020,-31.250000
8021,-31.250000
8022,-33.203125
8023,-33.203125
8024,-35.156250
8025,-37.109375
8026,-37.109375
8027,-39.062500
8028,-39.062500
8029,-41.015625
8030,-41.015625
8031,-41.015625
8032,-44.921875
8033,-44.921875
8034,-44.921875
8035,-44.921875
8036,-46.875000
8037,-46.875000
8038,-44.921875
8039,-48.828125
8040,-50.781250
8041,-48.828125
8042,-52.734375
8043,-52.734375
8044,-52.734375
8045,-52.734375
8046,-54.687500
8047,-54.687500
8048,-56.640625
8049,-56.640625
8050,-56.640625
8051,-56.640625
8052,-58.593750
8053,-56.640625
8054,-58.593750
8055,-58.593750
8056,-60.546875
8057,-58.593750
8058,-60.546875
8059,-60.546875
8060,-58.593750
8061,-62.500000
8062,-60.546875
8063,-60.546875
8064,-60.546875
8065,-60.546875
8066,-60.546875
8067,-60.546875
8068,-60.546875
8069,-60.546875
8070,-60.546875
8071,-60.546875
8072,-60.546875
8073,-60.546875
8074,-60.546875
8075,-60.546875
8076,-60.546875
8077,-60.546875
8078,-60.546875
8079,-60.546875
8080,-58.593750
8081,-58.593750
8082,-58.593750
8083,-58.593750
8084,-56.640625
8085,-56.640625
8086,-56.640625
8087,-56.640625
8088,-56.640625
8089,-54.687500
8090,-52.734375
8091,-54.687500
8092,-52.734375
8093,-52.734375
8094,-52.734375
8095,-50.781250
8096,-50.781250
8097,-50.781250
8098,-48.828125
8099,-48.828125
8100,-48.828125
8101,-46.875000
8102,-46.875000
8103,-44.921875
8104,-44.921875
8105,-42.968750
8106,-42.968750
8107,-42.968750
8108,-41.015625
8109,-39.062500
8110,-39.062500
8111,-37.109375
8112,-37.109375
8113,-35.156250
8114,-35.156250
8115,-33.203125
8116,-31.250000
8117,-31.250000
8118,-29.296875
8119,-29.296875
8120,-27.343750
8121,-27.343750
8122,-25.390625
8123,-23.437500
8124,-23.437500
8125,-21.484375
8126,-21.484375
8127,-19.531250
8128,-17.578125
8129,-17.578125
8130,-15.625000
8131,-13.671875
8132,-13.671875
8133,-11.718750
8134,-11.718750
8135,-9.765625
8136,-7.812500
8137,-7.812500
8138,-5.859375
8139,-3.906250
8140,-3.906250
8141,-1.953125
8142,0.000000
8143,0.000000
8144,1.953125
8145,1.953125
8146,3.906250
8147,5.859375
8148,5.859375
8149,7.812500
8150,9.765625
8151,9.765625
8152,11.718750
8153,13.671875
8154,13.671875
8155,13.671875
8156,15.625000
8157,17.578125
8158,17.578125
8159,19.531250
8160,19.531250
8161,21.484375
8162,21.484375
8163,23.437500
8164,23.437500
8165,25.390625
8166,25.390625
8167,27.343750
8168,29.296875
8169,29.296875
8170,29.296875
8171,31.250000
8172,31.250000
8173,33.203125
8174,33.203125
8175,33.203125
8176,35.156250
8177,35.156250
8178,37.109375
8179,37.109375
8180,39.062500
8181,39.062500
8182,39.062500
8183,41.015625
8184,41.015625
8185,41.015625
8186,42.968750
8187,42.968750
8188,42.968750
8189,42.968750
8190,44.921875
8191,44.921875
8192,44.921875
8193,44.921875
8194,46.875000
8195,46.875000
8196,48.828125
8197,48.828125
8198,48.828125
8199,48.828125
8200,48.828125
8201,48.828125
8202,48.828125
8203,48.828125
8204,48.828125
8205,48.828125
8206,50.781250
8207,50.781250
8208,50.781250
8209,48.828125
8210,50.781250
8211,50.781250
8212,50.781250
8213,50.781250
8214,50.781250
8215,50.781250
8216,48.828125
8217,48.828125
8218,48.828125
8219,48.828125
8220,48.828125
8221,48.828125
8222,48.828125
8223,48.828125
8224,46.875000
8225,46.875000
8226,46.875000
8227,46.875000
8228,46.875000
8229,44.921875
8230,46.875000
8231,44.921875
8232,42.968750
8233,42.968750
8234,42.968750
8235,39.062500
8236,41.015625
8237,41.015625
8238,41.015625
8239,39.062500
8240,39.062500
8241,39.062500
8242,39.062500
8243,37.109375
8244,37.109375
8245,35.156250
8246,35.156250
8247,33.203125
8248,33.203125
8249,31.250000
8250,31.250000
8251,31.250000
8252,29.296875
8253,29.296875
8254,27.343750
8255,27.343750
8256,25.390625
8257,25.390625
8258,23.437500
8259,23.437500
8260,21.484375
8261,21.484375
8262,19.531250
8263,19.531250
8264,17.578125
8265,15.625000
8266,15.625000
8267,13.671875
8268,13.671875
8269,11.718750
8270,9.765625
8271,9.765625
8272,7.812500
8273,5.859375
8274,5.859375
8275,3.906250
8276,1.953125
8277,1.953125
8278,1.953125
8279,0.000000
8280,-1.953125
8281,-3.906250
8282,-3.906250
8283,-5.859375
8284,-5.859375
8285,-7.812500
8286,-9.765625
8287,-9.765625
8288,-11.718750
8289,-11.718750
8290,-13.671875
8291,-15.625000
8292,-15.625000
8293,-17.578125
8294,-19.531250
8295,-19.531250
8296,-21.484375
8297,-23.437500
8298,-23.437500
8299,-27.343750
8300,-27.343750
8301,-27.343750
8302,-29.296875
8303,-29.296875
8304,-35.156250
8305,-31.250000
8306,-33.203125
8307,-33.203125
8308,-35.156250
8309,-37.109375
8310,-37.109375
8311,-39.062500
8312,-39.062500
8313,-39.062500
8314,-41.015625
8315,-42.968750
8316,-42.968750
8317,-44.921875
8318,-44.921875
8319,-44.921875
8320,-46.875000
8321,-46.875000
8322,-46.875000
8323,-48.828125
8324,-48.828125
8325,-50.781250
8326,-50.781250
8327,-50.781250
8328,-52.734375
8329,-52.734375
8330,-52.734375
8331,-54.687500
8332,-54.687500
8333,-56.640625
8334,-56.640625
8335,-56.640625
8336,-56.640625
8337,-58.593750
8338,-58.593750
8339,-58.593750
8340,-58.593750
8341,-58.593750
8342,-58.593750
8343,-60.546875
8344,-60.546875
8345,-60.546875
8346,-60.546875
8347,-60.546875
8348,-62.500000
8349,-60.546875
8350,-60.546875
8351,-62.500000
8352,-62.500000
8353,-62.500000
8354,-60.546875
8355,-60.546875
8356,-62.500000
8357,-60.546875
8358,-60.546875
8359,-60.546875
8360,-60.546875
8361,-60.546875
8362,-60.546875
8363,-60.546875
8364,-60.546875
8365,-58.593750
8366,-58.593750
8367,-58.593750
8368,-58.593750
8369,-56.640625
8370,-56.640625
8371,-56.640625
8372,-56.640625
8373,-56.640625
8374,-54.687500
8375,-54.687500
8376,-54.687500
8377,-52.734375
8378,-52.734375
8379,-52.734375
8380,-50.781250
8381,-50.781250
8382,-48.828125
8383,-48.828125
8384,-48.828125
8385,-46.875000
8386,-44.921875
8387,-44.921875
8388,-44.921875
8389,-42.968750
8390,-42.968750
8391,-41.015625
8392,-41.015625
8393,-39.062500
8394,-39.062500
8395,-37.109375
8396,-37.109375
8397,-35.156250
8398,-33.203125
8399,-33.203125
8400,-31.250000
8401,-31.250000
8402,-35.156250
8403,-29.296875
8404,-27.343750
8405,-27.343750
8406,-25.390625
8407,-23.437500
8408,-23.437500
8409,-21.484375
8410,-19.531250
8411,-19.531250
8412,-17.578125
8413,-17.578125
8414,-15.625000
8415,-15.625000
8416,-13.671875
8417,-11.718750
8418,-9.765625
8419,-9.765625
8420,-7.812500
8421,-7.812500
8422,-5.859375
8423,-5.859375
8424,-3.906250
8425,-1.953125
8426,0.000000
8427,0.000000
8428,0.000000
8429,1.953125
8430,1.953125
8431,3.906250
8432,5.859375
8433,7.812500
8434,7.812500
8435,9.765625
8436,11.718750
8437,11.718750
8438,11.718750
8439,13.671875
8440,15.625000
8441,15.625000
8442,17.578125
8443,19.531250
8444,19.531250
8445,19.531250
8446,21.484375
8447,23.437500
8448,23.437500
8449,25.390625
8450,25.390625
8451,27.343750
8452,29.296875
8453,29.296875
8454,29.296875
8455,31.250000
8456,31.250000
8457,33.203125
8458,33.203125
8459,33.203125
8460,35.156250
8461,35.156250
8462,37.109375
8463,37.109375
8464,37.109375
8465,39.062500
8466,39.062500
8467,39.062500
8468,41.015625
8469,41.015625
8470,41.015625
8471,42.968750
8472,42.968750
8473,42.968750
8474,44.921875
8475,44.921875
8476,44.921875
8477,44.921875
8478,44.921875
8479,46.875000
8480,46.875000
8481,46.875000
8482,46.875000
8483,46.875000
8484,48.828125
8485,48.828125
8486,48.828125
8487,48.828125
8488,48.828125
8489,48.828125
8490,48.828125
8491,48.828125
8492,48.828125
8493,48.828125
8494,48.828125
8495,48.828125
8496,48.828125
8497,48.828125
8498,48.828125
8499,48.828125
8500,48.828125
8501,48.828125
8502,48.828125
8503,48.828125
8504,48.828125
8505,48.828125
8506,46.875000
8507,46.875000
8508,46.875000
8509,46.875000
8510,46.875000
8511,44.921875
8512,44.921875
8513,44.921875
8514,44.921875
8515,44.921875
8516,42.968750
8517,42.968750
8518,42.968750
8519,42.968750
8520,41.015625
8521,41.015625
8522,42.968750
8523,39.062500
8524,39.062500
8525,39.062500
8526,37.109375
8527,37.109375
8528,37.109375
8529,35.156250
8530,35.156250
8531,33.203125
8532,33.203125
8533,31.250000
8534,31.250000
8535,29.296875
8536,29.296875
8537,29.296875
8538,27.343750
8539,27.343750
8540,25.390625
8541,25.390625
8542,21.484375
8543,21.484375
8544,21.484375
8545,19.531250
8546,19.531250
8547,17.578125
8548,17.578125
8549,15.625000
8550,13.671875
8551,13.671875
8552,11.718750
8553,11.718750
8554,9.765625
8555,9.765625
8556,7.812500
8557,5.859375
8558,5.859375
8559,3.906250
8560,3.906250
8561,1.953125
8562,0.000000
8563,0.000000
8564,-1.953125
8565,-3.906250
8566,-3.906250
8567,-5.859375
8568,-7.812500
8569,-7.812500
8570,-9.765625
8571,-11.718750
8572,-11.718750
8573,-13.671875
8574,-13.671875
8575,-15.625000
8576,-17.578125
8577,-17.578125
8578,-19.531250
8579,-19.531250
8580,-21.484375
8581,-23.437500
8582,-23.437500
8583,-25.390625
8584,-25.390625
8585,-27.343750
8586,-29.296875
8587,-29.296875
8588,-31.250000
8589,-31.250000
8590,-33.203125
8591,-35.156250
8592,-35.156250
8593,-37.109375
8594,-37.109375
8595,-37.109375
8596,-39.062500
8597,-41.015625
8598,-41.015625
8599,-42.968750
8600,-44.921875
8601,-44.921875
8602,-44.921875
8603,-44.921875
8604,-46.875000
8605,-46.875000
8606,-48.828125
8607,-50.781250
8608,-50.781250
8609,-50.781250
8610,-50.781250
8611,-52.734375
8612,-52.734375
8613,-52.734375
8614,-54.687500
8615,-54.687500
8616,-54.687500
8617,-56.640625
8618,-56.640625
8619,-58.593750
8620,-56.640625
8621,-58.593750
8622,-58.593750
8623,-58.593750
8624,-58.593750
8625,-60.546875
8626,-60.546875
8627,-60.546875
8628,-60.546875
8629,-60.546875
8630,-60.546875
8631,-60.546875
8632,-62.500000
8633,-60.546875
8634,-62.500000
8635,-62.500000
8636,-60.546875
8637,-60.546875
8638,-60.546875
8639,-60.546875
8640,-60.546875
8641,-62.500000
8642,-60.546875
8643,-62.500000
8644,-60.546875
8645,-60.546875
8646,-58.593750
8647,-60.546875
8648,-60.546875
8649,-60.546875
8650,-56.640625
8651,-58.593750
8652,-58.593750
8653,-58.593750
8654,-56.640625
8655,-56.640625
8656,-56.640625
8657,-56.640625
8658,-54.687500
8659,-54.687500
8660,-54.687500
8661,-52.734375
8662,-52.734375
8663,-52.734375
8664,-50.781250
8665,-50.781250
8666,-48.828125
8667,-48.828125
8668,-46.875000
8669,-46.875000
8670,-44.921875
8671,-44.921875
8672,-44.921875
8673,-42.968750
8674,-42.968750
8675,-41.015625
8676,-41.015625
8677,-39.062500
8678,-39.062500
8679,-39.062500
8680,-37.109375
8681,-35.156250
8682,-35.156250
8683,-35.156250
8684,-31.250000
8685,-31.250000
8686,-31.250000
8687,-29.296875
8688,-27.343750
8689,-27.343750
8690,-25.390625
8691,-23.437500
8692,-23.437500
8693,-23.437500
8694,-21.484375
8695,-23.437500
8696,-19.531250
8697,-17.578125
8698,-15.625000
8699,-15.625000
8700,-13.671875
8701,-11.718750
8702,-11.718750
8703,-9.765625
8704,-7.812500
8705,-7.812500
8706,-5.859375
8707,-3.906250
8708,-3.906250
8709,-1.953125
8710,-1.953125
8711,1.953125
8712,1.953125
8713,1.953125
8714,3.906250
8715,5.859375
8716,5.859375
8717,5.859375
8718,7.812500
8719,9.765625
8720,9.765625
8721,11.718750
8722,13.671875
8723,13.671875
8724,15.625000
8725,15.625000
8726,17.578125
8727,17.578125
8728,19.531250
8729,21.484375
8730,21.484375
8731,23.437500
8732,23.437500
8733,25.390625
8734,25.390625
8735,27.343750
8736,27.343750
8737,29.296875
8738,29.296875
8739,31.250000
8740,33.203125
8741,31.250000
8742,33.203125
8743,35.156250
8744,35.156250
8745,35.156250
8746,37.109375
8747,37.109375
8748,37.109375
8749,39.062500
8750,39.062500
8751,41.015625
8752,41.015625
8753,41.015625
8754,41.015625
8755,41.015625
8756,42.968750
8757,42.968750
8758,42.968750
8759,44.921875
8760,44.921875
8761,44.921875
8762,46.875000
8763,46.875000
8764,46.875000
8765,46.875000
8766,46.875000
8767,46.875000
8768,48.828125
8769,48.828125
8770,48.828125
8771,48.828125
8772,48.828125
8773,48.828125
8774,48.828125
8775,48.828125
8776,48.828125
8777,50.781250
8778,48.828125
8779,50.781250
8780,50.781250
8781,48.828125
8782,48.828125
8783,48.828125
8784,50.781250
8785,48.828125
8786,50.781250
8787,48.828125
8788,48.828125
8789,48.828125
8790,48.828125
8791,48.828125
8792,46.875000
8793,46.875000
8794,46.875000
8795,46.875000
8796,46.875000
8797,44.921875
8798,46.875000
8799,44.921875
8800,44.921875
8801,42.968750
8802,42.968750
8803,42.968750
8804,41.015625
8805,41.015625
8806,41.015625
8807,41.015625
8808,39.062500
8809,39.062500
8810,37.109375
8811,37.109375
8812,37.109375
8813,35.156250
8814,35.156250
8815,33.203125
8816,33.203125
8817,33.203125
8818,31.250000
8819,31.250000
8820,29.296875
8821,29.296875
8822,27.343750
8823,27.343750
8824,25.390625
8825,25.390625
8826,23.437500
8827,23.437500
8828,21.484375
8829,21.484375
8830,19.531250
8831,19.531250
8832,17.578125
8833,15.625000
8834,15.625000
8835,13.671875
8836,13.671875
8837,11.718750
8838,9.765625
8839,9.765625
8840,7.812500
8841,7.812500
8842,3.906250
8843,3.906250
8844,3.906250
8845,1.953125
8846,1.953125
8847,0.000000
8848,-1.953125
8849,-1.953125
8850,-3.906250
8851,-5.859375
8852,-5.859375
8853,-7.812500
8854,-9.765625
8855,-9.765625
8856,-9.765625
8857,-13.671875
8858,-11.718750
8859,-13.671875
8860,-15.625000
8861,-17.578125
8862,-17.578125
8863,-19.531250
8864,-21.484375
8865,-21.484375
8866,-23.437500
8867,-23.437500
8868,-25.390625
8869,-27.343750
8870,-29.296875
8871,-29.296875
8872,-29.296875
8873,-31.250000
8874,-33.203125
8875,-33.203125
8876,-33.203125
8877,-35.156250
8878,-37.109375
8879,-37.109375
8880,-39.062500
8881,-41.015625
8882,-39.062500
8883,-42.968750
8884,-42.968750
8885,-42.968750
8886,-44.921875
8887,-46.875000
8888,-46.875000
8889,-46.875000
8890,-48.828125
8891,-48.828125
8892,-48.828125
8893,-50.781250
8894,-50.781250
8895,-50.781250
8896,-52.734375
8897,-54.687500
8898,-52.734375
8899,-54.687500
8900,-54.687500
8901,-54.687500
8902,-56.640625
8903,-56.640625
8904,-56.640625
8905,-56.640625
8906,-58.593750
8907,-58.593750
8908,-58.593750
8909,-58.593750
8910,-58.593750
8911,-58.593750
8912,-60.546875
8913,-60.546875
8914,-60.546875
8915,-60.546875
8916,-60.546875
8917,-60.546875
8918,-60.546875
8919,-62.500000
8920,-62.500000
8921,-60.546875
8922,-60.546875
8923,-60.546875
8924,-60.546875
8925,-60.546875
8926,-60.546875
8927,-60.546875
8928,-60.546875
8929,-58.593750
8930,-60.546875
8931,-60.546875
8932,-58.593750
8933,-58.593750
8934,-58.593750
8935,-58.593750
8936,-58.593750
8937,-58.593750
8938,-56.640625
8939,-56.640625
8940,-56.640625
8941,-56.640625
8942,-54.687500
8943,-52.734375
8944,-52.734375
8945,-52.734375
8946,-52.734375
8947,-50.781250
8948,-50.781250
8949,-50.781250
8950,-48.828125
8951,-48.828125
8952,-48.828125
8953,-46.875000
8954,-44.921875
8955,-44.921875
8956,-42.968750
8957,-42.968750
8958,-41.015625
8959,-41.015625
8960,-41.015625
8961,-39.062500
8962,-39.062500
8963,-37.109375
8964,-37.109375
8965,-35.156250
8966,-35.156250
8967,-33.203125
8968,-31.250000
8969,-31.250000
8970,-29.296875
8971,-29.296875
8972,-25.390625
8973,-27.343750
8974,-25.390625
8975,-23.437500
8976,-23.437500
8977,-23.437500
8978,-19.531250
8979,-19.531250
8980,-19.531250
8981,-17.578125
8982,-15.625000
8983,-13.671875
8984,-13.671875
8985,-11.718750
8986,-9.765625
8987,-9.765625
8988,-7.812500
8989,-7.812500
8990,-5.859375
8991,-3.906250
8992,-3.906250
8993,-1.953125
8994,0.000000
8995,0.000000
8996,0.000000
8997,1.953125
8998,3.906250
8999,5.859375
9000,5.859375
9001,7.812500
9002,9.765625
9003,9.765625
9004,11.718750
9005,11.718750
9006,13.671875
9007,13.671875
9008,15.625000
9009,15.625000
9010,17.578125
9011,19.531250
9012,19.531250
9013,21.484375
9014,21.484375
9015,23.437500
9016,23.437500
9017,25.390625
9018,25.390625
9019,27.343750
9020,27.343750
9021,29.296875
9022,29.296875
9023,31.250000
9024,31.250000
9025,33.203125
9026,33.203125
9027,35.156250
9028,35.156250
9029,35.156250
9030,37.109375
9031,37.109375
9032,37.109375
9033,39.062500
9034,39.062500
9035,41.015625
9036,41.015625
9037,41.015625
9038,42.968750
9039,42.968750
9040,39.062500
9041,42.968750
9042,44.921875
9043,44.921875
9044,44.921875
9045,44.921875
9046,46.875000
9047,46.875000
9048,46.875000
9049,46.875000
9050,48.828125
9051,48.828125
9052,48.828125
9053,48.828125
9054,48.828125
9055,48.828125
9056,48.828125
9057,48.828125
9058,48.828125
9059,50.781250
9060,50.781250
9061,48.828125
9062,48.828125
9063,50.781250
9064,48.828125
9065,48.828125
9066,50.781250
9067,48.828125
9068,48.828125
9069,48.828125
9070,48.828125
9071,48.828125
9072,48.828125
9073,48.828125
9074,48.828125
9075,46.875000
9076,46.875000
9077,46.875000
9078,46.875000
9079,46.875000
9080,46.875000
9081,44.921875
9082,44.921875
9083,44.921875
9084,42.968750
9085,42.968750
9086,42.968750
9087,42.968750
9088,41.015625
9089,41.015625
9090,41.015625
9091,41.015625
9092,39.062500
9093,39.062500
9094,37.109375
9095,37.109375
9096,37.109375
9097,35.156250
9098,35.156250
9099,33.203125
9100,33.203125
9101,33.203125
9102,31.250000
9103,31.250000
9104,31.250000
9105,27.343750
9106,27.343750
9107,27.343750
9108,27.343750
9109,25.390625
9110,23.437500
9111,23.437500
9112,21.484375
9113,21.484375
9114,19.531250
9115,17.578125
9116,17.578125
9117,17.578125
9118,15.625000
9119,13.671875
9120,13.671875
9121,11.718750
9122,9.765625
9123,9.765625
9124,7.812500
9125,7.812500
9126,5.859375
9127,5.859375
9128,3.906250
9129,3.906250
9130,1.953125
9131,0.000000
9132,-1.953125
9133,-3.906250
9134,-3.906250
9135,-5.859375
9136,-5.859375
9137,-7.812500
9138,-9.765625
9139,-9.765625
9140,-11.718750
9141,-13.671875
9142,-13.671875
9143,-15.625000
9144,-15.625000
9145,-17.578125
9146,-21.484375
9147,-19.531250
9148,-21.484375
9149,-21.484375
9150,-23.437500
9151,-25.390625
9152,-25.390625
9153,-27.343750
9154,-27.343750
9155,-29.296875
9156,-31.250000
9157,-31.250000
9158,-33.203125
9159,-33.203125
9160,-35.156250
9161,-35.156250
9162,-37.109375
9163,-39.062500
9164,-39.062500
9165,-39.062500
9166,-41.015625
9167,-41.015625
9168,-42.968750
9169,-44.921875
9170,-44.921875
9171,-44.921875
9172,-44.921875
9173,-46.875000
9174,-48.828125
9175,-48.828125
9176,-48.828125
9177,-50.781250
9178,-50.781250
9179,-50.781250
9180,-52.734375
9181,-52.734375
9182,-54.687500
9183,-54.687500
9184,-54.687500
9185,-56.640625
9186,-56.640625
9187,-56.640625
9188,-58.593750
9189,-58.593750
9190,-58.593750
9191,-58.593750
9192,-58.593750
9193,-58.593750
9194,-60.546875
9195,-60.546875
9196,-60.546875
9197,-60.546875
9198,-60.546875
9199,-62.500000
9200,-60.546875
9201,-60.546875
9202,-60.546875
9203,-60.546875
9204,-62.500000
9205,-62.500000
9206,-60.546875
9207,-60.546875
9208,-60.546875
9209,-60.546875
9210,-62.500000
9211,-60.546875
9212,-60.546875
9213,-60.546875
9214,-60.546875
9215,-60.546875
9216,-60.546875
9217,-58.593750
9218,-58.593750
9219,-58.593750
9220,-58.593750
9221,-58.593750
9222,-56.640625
9223,-56.640625
9224,-56.640625
9225,-54.687500
9226,-56.640625
9227,-54.687500
9228,-52.734375
9229,-52.734375
9230,-52.734375
9231,-52.734375
9232,-50.781250
9233,-50.781250
9234,-48.828125
9235,-48.828125
9236,-48.828125
9237,-46.875000
9238,-46.875000
9239,-44.921875
9240,-44.921875
9241,-44.921875
9242,-42.968750
9243,-42.968750
9244,-41.015625
9245,-39.062500
9246,-39.062500
9247,-39.062500
9248,-37.109375
9249,-35.156250
9250,-35.156250
9251,-33.203125
9252,-33.203125
9253,-31.250000
9254,-31.250000
9255,-29.296875
9256,-27.343750
9257,-27.343750
9258,-25.390625
9259,-25.390625
9260,-23.437500
9261,-23.437500
9262,-21.484375
9263,-19.531250
9264,-19.531250
9265,-17.578125
9266,-17.578125
9267,-9.765625
9268,-13.671875
9269,-13.671875
9270,-11.718750
9271,-11.718750
9272,-9.765625
9273,-7.812500
9274,-7.812500
9275,-5.859375
9276,-5.859375
9277,-1.953125
9278,-1.953125
9279,0.000000
9280,0.000000
9281,1.953125
9282,1.953125
9283,3.906250
9284,5.859375
9285,5.859375
9286,7.812500
9287,7.812500
9288,11.718750
9289,11.718750
9290,13.671875
9291,13.671875
9292,13.671875
9293,15.625000
9294,17.578125
9295,17.578125
9296,19.531250
9297,19.531250
9298,21.484375
9299,23.437500
9300,23.437500
9301,25.390625
9302,25.390625
9303,25.390625
9304,27.343750
9305,29.296875
9306,29.296875
9307,31.250000
9308,31.250000
9309,31.250000
9310,33.203125
9311,35.156250
9312,35.156250
9313,35.156250
9314,37.109375
9315,37.109375
9316,39.062500
9317,39.062500
9318,39.062500
9319,39.062500
9320,39.062500
9321,41.015625
9322,41.015625
9323,42.968750
9324,42.968750
9325,42.968750
9326,42.968750
9327,44.921875
9328,44.921875
9329,44.921875
9330,46.875000
9331,44.921875
9332,44.921875
9333,46.875000
9334,46.875000
9335,46.875000
9336,46.875000
9337,48.828125
9338,48.828125
9339,48.828125
9340,48.828125
9341,48.828125
9342,48.828125
9343,48.828125
9344,48.828125
9345,48.828125
9346,48.828125
9347,48.828125
9348,48.828125
9349,48.828125
9350,48.828125
9351,48.828125
9352,48.828125
9353,48.828125
9354,48.828125
9355,48.828125
9356,48.828125
9357,46.875000
9358,48.828125
9359,48.828125
9360,46.875000
9361,46.875000
9362,46.875000
9363,44.921875
9364,46.875000
9365,44.921875
9366,44.921875
9367,44.921875
9368,42.968750
9369,44.921875
9370,42.968750
9371,42.968750
9372,41.015625
9373,41.015625
9374,41.015625
9375,39.062500
9376,39.062500
9377,39.062500
9378,37.109375
9379,37.109375
9380,37.109375
9381,35.156250
9382,35.156250
9383,33.203125
9384,33.203125
9385,31.250000
9386,31.250000
9387,31.250000
9388,29.296875
9389,27.343750
9390,27.343750
9391,27.343750
9392,25.390625
9393,25.390625
9394,23.437500
9395,23.437500
9396,21.484375
9397,21.484375
9398,19.531250
9399,17.578125
9400,17.578125
9401,15.625000
9402,15.625000
9403,13.671875
9404,11.718750
9405,11.718750
9406,9.765625
9407,9.765625
9408,7.812500
9409,7.812500
9410,5.859375
9411,3.906250
9412,3.906250
9413,1.953125
9414,1.953125
9415,0.000000
9416,-1.953125
9417,-3.906250
9418,-3.906250
9419,-5.859375
9420,-5.859375
9421,-7.812500
9422,-7.812500
9423,-9.765625
9424,-11.718750
9425,-13.671875
9426,-13.671875
9427,-13.671875
9428,-15.625000
9429,-17.578125
9430,-19.531250
9431,-19.531250
9432,-21.484375
9433,-21.484375
9434,-23.437500
9435,-25.390625
9436,-25.390625
9437,-27.343750
9438,-27.343750
9439,-29.296875
9440,-29.296875
9441,-31.250000
9442,-31.250000
9443,-33.203125
9444,-33.203125
9445,-35.156250
9446,-37.109375
9447,-37.109375
9448,-39.062500
9449,-39.062500
9450,-41.015625
9451,-42.968750
9452,-42.968750
9453,-42.968750
9454,-44.921875
9455,-46.875000
9456,-46.875000
9457,-48.828125
9458,-48.828125
9459,-48.828125
9460,-50.781250
9461,-50.781250
9462,-50.781250
9463,-52.734375
9464,-52.734375
9465,-52.734375
9466,-54.687500
9467,-54.687500
9468,-54.687500
9469,-56.640625
9470,-56.640625
9471,-56.640625
9472,-58.593750
9473,-58.593750
9474,-58.593750
9475,-58.593750
9476,-58.593750
9477,-58.593750
9478,-60.546875
9479,-60.546875
9480,-60.546875
9481,-60.546875
9482,-60.546875
9483,-58.593750
9484,-60.546875
9485,-60.546875
9486,-60.546875
9487,-62.500000
9488,-60.546875
9489,-60.546875
9490,-60.546875
9491,-60.546875
9492,-62.500000
9493,-60.546875
9494,-60.546875
9495,-60.546875
9496,-60.546875
9497,-60.546875
9498,-60.546875
9499,-60.546875
9500,-60.546875
9501,-58.593750
9502,-58.593750
9503,-58.593750
9504,-58.593750
9505,-58.593750
9506,-56.640625
9507,-56.640625
9508,-56.640625
9509,-54.687500
9510,-54.687500
9511,-54.687500
9512,-54.687500
9513,-52.734375
9514,-52.734375
9515,-52.734375
9516,-50.781250
9517,-50.781250
9518,-48.828125
9519,-48.828125
9520,-48.828125
9521,-46.875000
9522,-46.875000
9523,-44.921875
9524,-44.921875
9525,-44.921875
9526,-44.921875
9527,-41.015625
9528,-41.015625
9529,-41.015625
9530,-39.062500
9531,-39.062500
9532,-37.109375
9533,-37.109375
9534,-35.156250
9535,-33.203125
9536,-33.203125
9537,-31.250000
9538,-31.250000
9539,-29.296875
9540,-29.296875
9541,-27.343750
9542,-25.390625
9543,-23.437500
9544,-23.437500
9545,-21.484375
9546,-21.484375
9547,-19.531250
9548,-17.578125
9549,-17.578125
9550,-15.625000
9551,-15.625000
9552,-13.671875
9553,-11.718750
9554,-11.718750
9555,-9.765625
9556,-9.765625
9557,-7.812500
9558,-5.859375
9559,-5.859375
9560,-3.906250
9561,-1.953125
9562,0.000000
9563,0.000000
9564,1.953125
9565,1.953125
9566,3.906250
9567,3.906250
9568,5.859375
9569,7.812500
9570,7.812500
9571,9.765625
9572,9.765625
9573,11.718750
9574,11.718750
9575,13.671875
9576,13.671875
9577,15.625000
9578,17.578125
9579,17.578125
9580,19.531250
9581,19.531250
9582,21.484375
9583,23.437500
9584,23.437500
9585,25.390625
9586,25.390625
9587,27.343750
9588,27.343750
9589,29.296875
9590,29.296875
9591,29.296875
9592,31.250000
9593,31.250000
9594,33.203125
9595,33.203125
9596,35.156250
9597,35.156250
9598,37.109375
9599,37.109375
9600,39.062500
9601,39.062500
9602,39.062500
9603,39.062500
9604,41.015625
9605,37.109375
9606,41.015625
9607,41.015625
9608,42.968750
9609,42.968750
9610,44.921875
9611,44.921875
9612,44.921875
9613,44.921875
9614,46.875000
9615,46.875000
9616,46.875000
9617,46.875000
9618,46.875000
9619,46.875000
9620,48.828125
9621,48.828125
9622,48.828125
9623,48.828125
9624,48.828125
9625,48.828125
9626,48.828125
9627,50.781250
9628,50.781250
9629,50.781250
9630,50.781250
9631,50.781250
9632,50.781250
9633,50.781250
9634,50.781250
9635,50.781250
9636,48.828125
9637,48.828125
9638,48.828125
9639,48.828125
9640,48.828125
9641,48.828125
9642,48.828125
9643,48.828125
9644,48.828125
9645,48.828125
9646,46.875000
9647,46.875000
9648,46.875000
9649,44.921875
9650,44.921875
9651,44.921875
9652,44.921875
9653,42.968750
9654,44.921875
9655,42.968750
9656,41.015625
9657,41.015625
9658,41.015625
9659,41.015625
9660,39.062500
9661,39.062500
9662,39.062500
9663,37.109375
9664,37.109375
9665,37.109375
9666,35.156250
9667,35.156250
9668,33.203125
9669,31.250000
9670,31.250000
9671,31.250000
9672,31.250000
9673,29.296875
9674,27.343750
9675,27.343750
9676,25.390625
9677,25.390625
9678,23.437500
9679,23.437500
9680,21.484375
9681,21.484375
9682,19.531250
9683,19.531250
9684,17.578125
9685,17.578125
9686,15.625000
9687,15.625000
9688,13.671875
9689,11.718750
9690,11.718750
9691,9.765625
9692,7.812500
9693,7.812500
9694,7.812500
9695,3.906250
9696,3.906250
9697,3.906250
9698,1.953125
9699,-1.953125
9700,0.000000
9701,-3.906250
9702,-1.953125
9703,-5.859375
9704,-5.859375
9705,-5.859375
9706,-7.812500
9707,-9.765625
9708,-11.718750
9709,-11.718750
9710,-13.671875
9711,-13.671875
9712,-15.625000
9713,-15.625000
9714,-17.578125
9715,-19.531250
9716,-19.531250
9717,-21.484375
9718,-23.437500
9719,-23.437500
9720,-25.390625
9721,-25.390625
9722,-27.343750
9723,-29.296875
9724,-29.296875
9725,-31.250000
9726,-31.250000
9727,-35.156250
9728,-35.156250
9729,-37.109375
9730,-37.109375
9731,-37.109375
9732,-37.109375
9733,-41.015625
9734,-41.015625
9735,-41.015625
9736,-42.968750
9737,-42.968750
9738,-44.921875
9739,-44.921875
9740,-46.875000
9741,-46.875000
9742,-46.875000
9743,-48.828125
9744,-48.828125
9745,-50.781250
9746,-50.781250
9747,-50.781250
9748,-50.781250
9749,-52.734375
9750,-52.734375
9751,-54.687500
9752,-54.687500
9753,-54.687500
9754,-54.687500
9755,-56.640625
9756,-56.640625
9757,-56.640625
9758,-56.640625
9759,-58.593750
9760,-58.593750
9761,-58.593750
9762,-58.593750
9763,-58.593750
9764,-60.546875
9765,-60.546875
9766,-60.546875
9767,-60.546875
9768,-60.546875
9769,-60.546875
9770,-60.546875
9771,-60.546875
9772,-60.546875
9773,-60.546875
9774,-62.500000
9775,-60.546875
9776,-60.546875
9777,-60.546875
9778,-60.546875
9779,-60.546875
9780,-60.546875
9781,-60.546875
9782,-60.546875
9783,-58.593750
9784,-58.593750
9785,-60.546875
9786,-58.593750
9787,-58.593750
9788,-58.593750
9789,-56.640625
9790,-56.640625
9791,-56.640625
9792,-56.640625
9793,-54.687500
9794,-54.687500
9795,-54.687500
9796,-54.687500
9797,-52.734375
9798,-52.734375
9799,-52.734375
9800,-50.781250
9801,-50.781250
9802,-48.828125
9803,-48.828125
9804,-48.828125
9805,-46.875000
9806,-46.875000
9807,-44.921875
9808,-44.921875
9809,-42.968750
9810,-42.968750
9811,-42.968750
9812,-39.062500
9813,-39.062500
9814,-39.062500
9815,-39.062500
9816,-37.109375
9817,-35.156250
9818,-35.156250
9819,-33.203125
9820,-33.203125
9821,-31.250000
9822,-31.250000
9823,-29.296875
9824,-27.343750
9825,-27.343750
9826,-25.390625
9827,-25.390625
9828,-23.437500
9829,-21.484375
9830,-21.484375
9831,-19.531250
9832,-19.531250
9833,-17.578125
9834,-15.625000
9835,-15.625000
9836,-13.671875
9837,-13.671875
9838,-11.718750
9839,-9.765625
9840,-7.812500
9841,-7.812500
9842,-7.812500
9843,-5.859375
9844,-3.906250
9845,-3.906250
9846,-1.953125
9847,0.000000
9848,0.000000
9849,1.953125
9850,1.953125
9851,3.906250
9852,5.859375
9853,5.859375
9854,7.812500
9855,7.812500
9856,9.765625
9857,11.718750
9858,11.718750
9859,13.671875
9860,15.625000
9861,15.625000
9862,17.578125
9863,17.578125
9864,19.531250
9865,19.531250
9866,21.484375
9867,23.437500
9868,23.437500
9869,23.437500
9870,25.390625
9871,25.390625
9872,27.343750
9873,29.296875
9874,29.296875
9875,29.296875
9876,31.250000
9877,31.250000
9878,33.203125
9879,33.203125
9880,35.156250
9881,35.156250
9882,37.109375
9883,37.109375
9884,39.062500
9885,37.109375
9886,39.062500
9887,41.015625
9888,41.015625
9889,41.015625
9890,42.968750
9891,42.968750
9892,42.968750
9893,42.968750
9894,42.968750
9895,44.921875
9896,44.921875
9897,44.921875
9898,44.921875
9899,44.921875
9900,46.875000
9901,46.875000
9902,46.875000
9903,48.828125
9904,48.828125
9905,48.828125
9906,48.828125
9907,48.828125
9908,48.828125
9909,48.828125
9910,48.828125
9911,48.828125
9912,48.828125
9913,48.828125
9914,48.828125
9915,48.828125
9916,48.828125
9917,46.875000
9918,48.828125
9919,48.828125
9920,48.828125
9921,48.828125
9922,48.828125
9923,48.828125
9924,48.828125
9925,48.828125
9926,48.828125
9927,46.875000
9928,46.875000
9929,46.875000
9930,46.875000
9931,46.875000
9932,46.875000
9933,44.921875
9934,46.875000
9935,44.921875
9936,44.921875
9937,42.968750
9938,42.968750
9939,42.968750
9940,42.968750
9941,42.968750
9942,41.015625
9943,41.015625
9944,39.062500
9945,39.062500
9946,39.062500
9947,37.109375
9948,37.109375
9949,37.109375
9950,35.156250
9951,35.156250
9952,33.203125
9953,33.203125
9954,31.250000
9955,31.250000
9956,29.296875
9957,29.296875
9958,29.296875
9959,27.343750
9960,25.390625
9961,25.390625
9962,23.437500
9963,23.437500
9964,21.484375
9965,21.484375
9966,19.531250
9967,19.531250
9968,17.578125
9969,15.625000
9970,15.625000
9971,13.671875
9972,13.671875
9973,11.718750
9974,9.765625
9975,9.765625
9976,7.812500
9977,9.765625
9978,5.859375
9979,5.859375
9980,3.906250
9981,1.953125
9982,0.000000
9983,0.000000
9984,-1.953125
9985,-1.953125
9986,-3.906250
9987,-5.859375
9988,-7.812500
9989,-7.812500
9990,-9.765625
9991,-9.765625
9992,-11.718750
9993,-13.671875
9994,-13.671875
9995,-15.625000
9996,-15.625000
9997,-17.578125
9998,-17.578125
9999,-19.531250
10000,-21.484375
