Channel              :,CH1
Frequency            :,1.762kHz
Period               :,0.568ms
PK-PK                :,44.92mV
Probe attenuation    :,1X
Voltage per ADC value:,0.122070mV
Time interval        :,2.00000us

index,CH1_Voltage(mV)
1,9.765625
2,9.765625
3,11.718750
4,11.718750
5,11.718750
6,11.718750
7,11.718750
8,11.718750
9,11.718750
10,11.718750
11,11.718750
12,11.718750
13,11.718750
14,11.718750
15,11.718750
16,9.765625
17,11.718750
18,11.718750
19,11.718750
20,11.718750
21,11.718750
22,11.718750
23,11.718750
24,11.718750
25,11.718750
26,11.718750
27,11.718750
28,11.718750
29,11.718750
30,11.718750
31,11.718750
32,11.718750
33,11.718750
34,9.765625
35,9.765625
36,9.765625
37,9.765625
38,11.718750
39,9.765625
40,9.765625
41,9.765625
42,9.765625
43,9.765625
44,9.765625
45,9.765625
46,9.765625
47,7.812500
48,7.812500
49,7.812500
50,7.812500
51,7.812500
52,7.812500
53,5.859375
54,7.812500
55,7.812500
56,5.859375
57,5.859375
58,5.859375
59,5.859375
60,5.859375
61,5.859375
62,5.859375
63,5.859375
64,3.906250
65,3.906250
66,3.906250
67,3.906250
68,3.906250
69,3.906250
70,1.953125
71,3.906250
72,1.953125
73,1.953125
74,1.953125
75,1.953125
76,0.000000
77,0.000000
78,0.000000
79,0.000000
80,-1.953125
81,0.000000
82,-3.906250
83,-1.953125
84,-1.953125
85,-1.953125
86,-1.953125
87,-3.906250
88,-3.906250
89,-3.906250
90,-3.906250
91,-3.906250
92,-5.859375
93,-5.859375
94,-5.859375
95,-5.859375
96,-7.812500
97,-5.859375
98,-7.812500
99,-7.812500
100,-7.812500
101,-7.812500
102,-7.812500
103,-9.765625
104,-9.765625
105,-9.765625
106,-9.765625
107,-11.718750
108,-11.718750
109,-11.718750
110,-11.718750
111,-13.671875
112,-13.671875
113,-11.718750
114,-13.671875
115,-13.671875
116,-13.671875
117,-13.671875
118,-13.671875
119,-15.625000
120,-15.625000
121,-15.625000
122,-15.625000
123,-15.625000
124,-15.625000
125,-15.625000
126,-17.578125
127,-17.578125
128,-17.578125
129,-17.578125
130,-17.578125
131,-17.578125
132,-17.578125
133,-17.578125
134,-17.578125
135,-17.578125
136,-17.578125
137,-19.531250
138,-19.531250
139,-19.531250
140,-19.531250
141,-19.531250
142,-19.531250
143,-19.531250
144,-21.484375
145,-19.531250
146,-19.531250
147,-19.531250
148,-21.484375
149,-21.484375
150,-21.484375
151,-21.484375
152,-21.484375
153,-21.484375
154,-21.484375
155,-21.484375
156,-21.484375
157,-21.484375
158,-21.484375
159,-21.484375
160,-21.484375
161,-21.484375
162,-21.484375
163,-21.484375
164,-21.484375
165,-21.484375
166,-21.484375
167,-21.484375
168,-21.484375
169,-21.484375
170,-21.484375
171,-21.484375
172,-21.484375
173,-21.484375
174,-21.484375
175,-21.484375
176,-21.484375
177,-19.531250
178,-19.531250
179,-21.484375
180,-19.531250
181,-19.531250
182,-19.531250
183,-21.484375
184,-19.531250
185,-19.531250
186,-19.531250
187,-19.531250
188,-19.531250
189,-19.531250
190,-19.531250
191,-19.531250
192,-17.578125
193,-17.578125
194,-17.578125
195,-17.578125
196,-17.578125
197,-17.578125
198,-15.625000
199,-15.625000
200,-15.625000
201,-15.625000
202,-15.625000
203,-15.625000
204,-13.671875
205,-13.671875
206,-13.671875
207,-13.671875
208,-13.671875
209,-13.671875
210,-13.671875
211,-11.718750
212,-11.718750
213,-11.718750
214,-11.718750
215,-9.765625
216,-11.718750
217,-9.765625
218,-9.765625
219,-9.765625
220,-9.765625
221,-7.812500
222,-9.765625
223,-7.812500
224,-7.812500
225,-7.812500
226,-7.812500
227,-5.859375
228,-5.859375
229,-5.859375
230,-5.859375
231,-5.859375
232,-5.859375
233,-3.906250
234,-3.906250
235,-3.906250
236,-3.906250
237,-3.906250
238,-3.906250
239,-1.953125
240,-1.953125
241,-1.953125
242,-1.953125
243,-1.953125
244,-1.953125
245,0.000000
246,0.000000
247,1.953125
248,0.000000
249,0.000000
250,1.953125
251,0.000000
252,3.906250
253,1.953125
254,1.953125
255,1.953125
256,3.906250
257,3.906250
258,3.906250
259,3.906250
260,3.906250
261,3.906250
262,5.859375
263,5.859375
264,5.859375
265,5.859375
266,5.859375
267,5.859375
268,7.812500
269,7.812500
270,7.812500
271,7.812500
272,7.812500
273,7.812500
274,7.812500
275,7.812500
276,7.812500
277,7.812500
278,9.765625
279,9.765625
280,9.765625
281,9.765625
282,9.765625
283,9.765625
284,9.765625
285,9.765625
286,9.765625
287,11.718750
288,9.765625
289,9.765625
290,9.765625
291,9.765625
292,11.718750
293,11.718750
294,9.765625
295,11.718750
296,11.718750
297,9.765625
298,11.718750
299,9.765625
300,11.718750
301,11.718750
302,11.718750
303,11.718750
304,9.765625
305,11.718750
306,11.718750
307,11.718750
308,9.765625
309,11.718750
310,11.718750
311,11.718750
312,11.718750
313,7.812500
314,11.718750
315,9.765625
316,9.765625
317,11.718750
318,9.765625
319,9.765625
320,9.765625
321,9.765625
322,9.765625
323,9.765625
324,9.765625
325,9.765625
326,9.765625
327,9.765625
328,9.765625
329,9.765625
330,9.765625
331,9.765625
332,9.765625
333,7.812500
334,9.765625
335,7.812500
336,7.812500
337,7.812500
338,7.812500
339,5.859375
340,7.812500
341,7.812500
342,5.859375
343,5.859375
344,5.859375
345,5.859375
346,5.859375
347,5.859375
348,3.906250
349,5.859375
350,3.906250
351,0.000000
352,3.906250
353,3.906250
354,1.953125
355,3.906250
356,1.953125
357,1.953125
358,1.953125
359,0.000000
360,0.000000
361,0.000000
362,-1.953125
363,0.000000
364,0.000000
365,-1.953125
366,-1.953125
367,-1.953125
368,-1.953125
369,-3.906250
370,-1.953125
371,-3.906250
372,-3.906250
373,-3.906250
374,-3.906250
375,-5.859375
376,-5.859375
377,-5.859375
378,-11.718750
379,-5.859375
380,-5.859375
381,-7.812500
382,-5.859375
383,-7.812500
384,-7.812500
385,-7.812500
386,-7.812500
387,-9.765625
388,-9.765625
389,-7.812500
390,-9.765625
391,-9.765625
392,-9.765625
393,-11.718750
394,-11.718750
395,-11.718750
396,-11.718750
397,-11.718750
398,-11.718750
399,-13.671875
400,-13.671875
401,-11.718750
402,-13.671875
403,-13.671875
404,-13.671875
405,-15.625000
406,-13.671875
407,-13.671875
408,-15.625000
409,-15.625000
410,-15.625000
411,-15.625000
412,-17.578125
413,-17.578125
414,-17.578125
415,-17.578125
416,-17.578125
417,-17.578125
418,-19.531250
419,-17.578125
420,-17.578125
421,-19.531250
422,-19.531250
423,-19.531250
424,-19.531250
425,-19.531250
426,-19.531250
427,-19.531250
428,-21.484375
429,-19.531250
430,-19.531250
431,-19.531250
432,-21.484375
433,-19.531250
434,-21.484375
435,-21.484375
436,-21.484375
437,-21.484375
438,-21.484375
439,-21.484375
440,-21.484375
441,-21.484375
442,-21.484375
443,-21.484375
444,-21.484375
445,-21.484375
446,-21.484375
447,-21.484375
448,-21.484375
449,-21.484375
450,-21.484375
451,-21.484375
452,-21.484375
453,-21.484375
454,-21.484375
455,-19.531250
456,-21.484375
457,-19.531250
458,-19.531250
459,-19.531250
460,-19.531250
461,-19.531250
462,-19.531250
463,-19.531250
464,-19.531250
465,-19.531250
466,-19.531250
467,-19.531250
468,-19.531250
469,-17.578125
470,-17.578125
471,-17.578125
472,-17.578125
473,-17.578125
474,-17.578125
475,-17.578125
476,-17.578125
477,-17.578125
478,-15.625000
479,-15.625000
480,-15.625000
481,-15.625000
482,-15.625000
483,-15.625000
484,-15.625000
485,-15.625000
486,-15.625000
487,-15.625000
488,-13.671875
489,-13.671875
490,-13.671875
491,-13.671875
492,-13.671875
493,-13.671875
494,-13.671875
495,-11.718750
496,-11.718750
497,-11.718750
498,-11.718750
499,-11.718750
500,-9.765625
501,-9.765625
502,-9.765625
503,-9.765625
504,-7.812500
505,-7.812500
506,-9.765625
507,-7.812500
508,-7.812500
509,-7.812500
510,-1.953125
511,-5.859375
512,-5.859375
513,-5.859375
514,-5.859375
515,-3.906250
516,-5.859375
517,-3.906250
518,-3.906250
519,-1.953125
520,-3.906250
521,-3.906250
522,-1.953125
523,-1.953125
524,-1.953125
525,-1.953125
526,-1.953125
527,-1.953125
528,0.000000
529,0.000000
530,0.000000
531,0.000000
532,1.953125
533,0.000000
534,1.953125
535,1.953125
536,1.953125
537,1.953125
538,3.906250
539,1.953125
540,3.906250
541,3.906250
542,3.906250
543,3.906250
544,3.906250
545,3.906250
546,5.859375
547,5.859375
548,5.859375
549,5.859375
550,5.859375
551,5.859375
552,5.859375
553,7.812500
554,7.812500
555,7.812500
556,7.812500
557,7.812500
558,7.812500
559,7.812500
560,7.812500
561,7.812500
562,9.765625
563,9.765625
564,9.765625
565,9.765625
566,9.765625
567,9.765625
568,9.765625
569,9.765625
570,9.765625
571,9.765625
572,11.718750
573,9.765625
574,11.718750
575,11.718750
576,7.812500
577,11.718750
578,11.718750
579,11.718750
580,11.718750
581,9.765625
582,11.718750
583,11.718750
584,11.718750
585,11.718750
586,11.718750
587,11.718750
588,9.765625
589,11.718750
590,11.718750
591,11.718750
592,11.718750
593,11.718750
594,11.718750
595,11.718750
596,11.718750
597,11.718750
598,11.718750
599,11.718750
600,11.718750
601,11.718750
602,11.718750
603,11.718750
604,9.765625
605,9.765625
606,11.718750
607,9.765625
608,9.765625
609,9.765625
610,9.765625
611,9.765625
612,9.765625
613,9.765625
614,9.765625
615,9.765625
616,7.812500
617,7.812500
618,7.812500
619,7.812500
620,7.812500
621,7.812500
622,7.812500
623,5.859375
624,5.859375
625,7.812500
626,7.812500
627,5.859375
628,5.859375
629,5.859375
630,3.906250
631,3.906250
632,3.906250
633,3.906250
634,3.906250
635,3.906250
636,3.906250
637,1.953125
638,1.953125
639,1.953125
640,1.953125
641,1.953125
642,1.953125
643,1.953125
644,0.000000
645,0.000000
646,0.000000
647,0.000000
648,-1.953125
649,0.000000
650,0.000000
651,-1.953125
652,-1.953125
653,-1.953125
654,-3.906250
655,-3.906250
656,-3.906250
657,-3.906250
658,-3.906250
659,-3.906250
660,-5.859375
661,-3.906250
662,-5.859375
663,-5.859375
664,-5.859375
665,-7.812500
666,-5.859375
667,-7.812500
668,-7.812500
669,-7.812500
670,-9.765625
671,-9.765625
672,-9.765625
673,-9.765625
674,-9.765625
675,-11.718750
676,-9.765625
677,-11.718750
678,-11.718750
679,-11.718750
680,-11.718750
681,-11.718750
682,-13.671875
683,-11.718750
684,-13.671875
685,-13.671875
686,-13.671875
687,-15.625000
688,-19.531250
689,-15.625000
690,-15.625000
691,-15.625000
692,-15.625000
693,-17.578125
694,-17.578125
695,-17.578125
696,-17.578125
697,-17.578125
698,-17.578125
699,-17.578125
700,-17.578125
701,-17.578125
702,-19.531250
703,-19.531250
704,-19.531250
705,-19.531250
706,-19.531250
707,-19.531250
708,-19.531250
709,-19.531250
710,-19.531250
711,-19.531250
712,-21.484375
713,-19.531250
714,-19.531250
715,-19.531250
716,-21.484375
717,-21.484375
718,-21.484375
719,-21.484375
720,-21.484375
721,-21.484375
722,-21.484375
723,-21.484375
724,-21.484375
725,-21.484375
726,-21.484375
727,-21.484375
728,-21.484375
729,-21.484375
730,-21.484375
731,-21.484375
732,-21.484375
733,-21.484375
734,-21.484375
735,-21.484375
736,-21.484375
737,-21.484375
738,-21.484375
739,-21.484375
740,-21.484375
741,-21.484375
742,-17.578125
743,-21.484375
744,-19.531250
745,-21.484375
746,-21.484375
747,-21.484375
748,-19.531250
749,-19.531250
750,-19.531250
751,-19.531250
752,-19.531250
753,-19.531250
754,-19.531250
755,-19.531250
756,-19.531250
757,-19.531250
758,-21.484375
759,-17.578125
760,-17.578125
761,-19.531250
762,-17.578125
763,-17.578125
764,-17.578125
765,-17.578125
766,-17.578125
767,-15.625000
768,-15.625000
769,-15.625000
770,-15.625000
771,-15.625000
772,-15.625000
773,-15.625000
774,-13.671875
775,-13.671875
776,-13.671875
777,-13.671875
778,-13.671875
779,-11.718750
780,-11.718750
781,-11.718750
782,-11.718750
783,-11.718750
784,-9.765625
785,-11.718750
786,-9.765625
787,-9.765625
788,-9.765625
789,-7.812500
790,-7.812500
791,-7.812500
792,-7.812500
793,-9.765625
794,-7.812500
795,-5.859375
796,-5.859375
797,-5.859375
798,-5.859375
799,-5.859375
800,-3.906250
801,-3.906250
802,-3.906250
803,-3.906250
804,-3.906250
805,-3.906250
806,-1.953125
807,-1.953125
808,-1.953125
809,-1.953125
810,-1.953125
811,-1.953125
812,0.000000
813,0.000000
814,0.000000
815,0.000000
816,1.953125
817,0.000000
818,1.953125
819,1.953125
820,1.953125
821,1.953125
822,1.953125
823,3.906250
824,3.906250
825,3.906250
826,3.906250
827,3.906250
828,3.906250
829,3.906250
830,3.906250
831,5.859375
832,5.859375
833,5.859375
834,5.859375
835,5.859375
836,7.812500
837,7.812500
838,5.859375
839,7.812500
840,7.812500
841,7.812500
842,7.812500
843,7.812500
844,7.812500
845,9.765625
846,7.812500
847,9.765625
848,9.765625
849,9.765625
850,9.765625
851,9.765625
852,9.765625
853,9.765625
854,11.718750
855,9.765625
856,9.765625
857,9.765625
858,11.718750
859,11.718750
860,11.718750
861,11.718750
862,11.718750
863,11.718750
864,11.718750
865,11.718750
866,11.718750
867,13.671875
868,11.718750
869,11.718750
870,11.718750
871,11.718750
872,11.718750
873,11.718750
874,11.718750
875,11.718750
876,11.718750
877,11.718750
878,11.718750
879,11.718750
880,11.718750
881,11.718750
882,9.765625
883,11.718750
884,9.765625
885,11.718750
886,11.718750
887,9.765625
888,9.765625
889,11.718750
890,9.765625
891,9.765625
892,9.765625
893,9.765625
894,9.765625
895,9.765625
896,9.765625
897,9.765625
898,7.812500
899,9.765625
900,7.812500
901,7.812500
902,7.812500
903,7.812500
904,7.812500
905,7.812500
906,7.812500
907,7.812500
908,5.859375
909,5.859375
910,5.859375
911,5.859375
912,5.859375
913,5.859375
914,5.859375
915,5.859375
916,3.906250
917,3.906250
918,3.906250
919,3.906250
920,3.906250
921,1.953125
922,3.906250
923,1.953125
924,1.953125
925,1.953125
926,1.953125
927,1.953125
928,1.953125
929,0.000000
930,0.000000
931,0.000000
932,0.000000
933,0.000000
934,0.000000
935,-1.953125
936,-1.953125
937,-1.953125
938,-1.953125
939,-1.953125
940,-1.953125
941,-3.906250
942,-3.906250
943,-5.859375
944,-5.859375
945,-5.859375
946,-3.906250
947,-5.859375
948,-5.859375
949,-7.812500
950,-7.812500
951,-7.812500
952,-7.812500
953,-7.812500
954,-7.812500
955,-9.765625
956,-9.765625
957,-9.765625
958,-9.765625
959,-9.765625
960,-11.718750
961,-11.718750
962,-11.718750
963,-11.718750
964,-11.718750
965,-11.718750
966,-13.671875
967,-13.671875
968,-13.671875
969,-13.671875
970,-13.671875
971,-13.671875
972,-13.671875
973,-15.625000
974,-15.625000
975,-15.625000
976,-15.625000
977,-15.625000
978,-15.625000
979,-15.625000
980,-17.578125
981,-17.578125
982,-15.625000
983,-17.578125
984,-17.578125
985,-17.578125
986,-17.578125
987,-17.578125
988,-17.578125
989,-17.578125
990,-19.531250
991,-19.531250
992,-19.531250
993,-19.531250
994,-19.531250
995,-19.531250
996,-19.531250
997,-19.531250
998,-19.531250
999,-19.531250
1000,-19.531250
1001,-19.531250
1002,-21.484375
1003,-21.484375
1004,-21.484375
1005,-19.531250
1006,-21.484375
1007,-23.437500
1008,-21.484375
1009,-21.484375
1010,-21.484375
1011,-21.484375
1012,-21.484375
1013,-21.484375
1014,-19.531250
1015,-21.484375
1016,-21.484375
1017,-21.484375
1018,-21.484375
1019,-21.484375
1020,-21.484375
1021,-21.484375
1022,-21.484375
1023,-21.484375
1024,-21.484375
1025,-21.484375
1026,-19.531250
1027,-21.484375
1028,-21.484375
1029,-19.531250
1030,-19.531250
1031,-19.531250
1032,-21.484375
1033,-19.531250
1034,-19.531250
1035,-19.531250
1036,-19.531250
1037,-19.531250
1038,-19.531250
1039,-17.578125
1040,-19.531250
1041,-17.578125
1042,-17.578125
1043,-17.578125
1044,-17.578125
1045,-15.625000
1046,-17.578125
1047,-17.578125
1048,-15.625000
1049,-15.625000
1050,-15.625000
1051,-15.625000
1052,-15.625000
1053,-15.625000
1054,-15.625000
1055,-13.671875
1056,-13.671875
1057,-13.671875
1058,-15.625000
1059,-13.671875
1060,-13.671875
1061,-13.671875
1062,-11.718750
1063,-11.718750
1064,-11.718750
1065,-11.718750
1066,-11.718750
1067,-9.765625
1068,-11.718750
1069,-9.765625
1070,-9.765625
1071,-9.765625
1072,-9.765625
1073,-9.765625
1074,-9.765625
1075,-7.812500
1076,-7.812500
1077,-7.812500
1078,-7.812500
1079,-7.812500
1080,-7.812500
1081,-7.812500
1082,-5.859375
1083,-5.859375
1084,-3.906250
1085,-5.859375
1086,-5.859375
1087,-3.906250
1088,-3.906250
1089,-3.906250
1090,-1.953125
1091,-1.953125
1092,-3.906250
1093,-1.953125
1094,-1.953125
1095,-1.953125
1096,0.000000
1097,0.000000
1098,0.000000
1099,0.000000
1100,0.000000
1101,0.000000
1102,1.953125
1103,1.953125
1104,1.953125
1105,1.953125
1106,1.953125
1107,1.953125
1108,3.906250
1109,3.906250
1110,3.906250
1111,3.906250
1112,3.906250
1113,3.906250
1114,5.859375
1115,3.906250
1116,5.859375
1117,5.859375
1118,5.859375
1119,5.859375
1120,5.859375
1121,7.812500
1122,7.812500
1123,5.859375
1124,7.812500
1125,7.812500
1126,7.812500
1127,7.812500
1128,7.812500
1129,9.765625
1130,7.812500
1131,9.765625
1132,9.765625
1133,7.812500
1134,9.765625
1135,9.765625
1136,9.765625
1137,9.765625
1138,9.765625
1139,9.765625
1140,9.765625
1141,11.718750
1142,9.765625
1143,11.718750
1144,9.765625
1145,9.765625
1146,9.765625
1147,11.718750
1148,11.718750
1149,11.718750
1150,9.765625
1151,9.765625
1152,11.718750
1153,9.765625
1154,11.718750
1155,11.718750
1156,11.718750
1157,11.718750
1158,11.718750
1159,11.718750
1160,11.718750
1161,11.718750
1162,11.718750
1163,11.718750
1164,11.718750
1165,11.718750
1166,11.718750
1167,9.765625
1168,11.718750
1169,11.718750
1170,11.718750
1171,9.765625
1172,11.718750
1173,9.765625
1174,11.718750
1175,11.718750
1176,9.765625
1177,9.765625
1178,9.765625
1179,9.765625
1180,9.765625
1181,9.765625
1182,9.765625
1183,7.812500
1184,7.812500
1185,7.812500
1186,7.812500
1187,7.812500
1188,7.812500
1189,7.812500
1190,7.812500
1191,7.812500
1192,5.859375
1193,5.859375
1194,5.859375
1195,5.859375
1196,5.859375
1197,5.859375
1198,3.906250
1199,3.906250
1200,3.906250
1201,3.906250
1202,3.906250
1203,3.906250
1204,1.953125
1205,1.953125
1206,1.953125
1207,1.953125
1208,1.953125
1209,1.953125
1210,1.953125
1211,1.953125
1212,0.000000
1213,0.000000
1214,0.000000
1215,-1.953125
1216,0.000000
1217,-1.953125
1218,-1.953125
1219,-1.953125
1220,-1.953125
1221,-1.953125
1222,-1.953125
1223,-3.906250
1224,-3.906250
1225,-3.906250
1226,-5.859375
1227,-3.906250
1228,-3.906250
1229,-5.859375
1230,-5.859375
1231,-5.859375
1232,-7.812500
1233,-7.812500
1234,-7.812500
1235,-7.812500
1236,-7.812500
1237,-7.812500
1238,-9.765625
1239,-9.765625
1240,-9.765625
1241,-9.765625
1242,-9.765625
1243,-9.765625
1244,-11.718750
1245,-11.718750
1246,-11.718750
1247,-11.718750
1248,-11.718750
1249,-13.671875
1250,-11.718750
1251,-13.671875
1252,-11.718750
1253,-13.671875
1254,-13.671875
1255,-13.671875
1256,-15.625000
1257,-15.625000
1258,-15.625000
1259,-15.625000
1260,-15.625000
1261,-15.625000
1262,-17.578125
1263,-17.578125
1264,-17.578125
1265,-17.578125
1266,-17.578125
1267,-17.578125
1268,-19.531250
1269,-19.531250
1270,-19.531250
1271,-19.531250
1272,-19.531250
1273,-19.531250
1274,-19.531250
1275,-19.531250
1276,-19.531250
1277,-19.531250
1278,-19.531250
1279,-19.531250
1280,-21.484375
1281,-21.484375
1282,-19.531250
1283,-21.484375
1284,-21.484375
1285,-21.484375
1286,-21.484375
1287,-21.484375
1288,-21.484375
1289,-21.484375
1290,-21.484375
1291,-21.484375
1292,-21.484375
1293,-21.484375
1294,-21.484375
1295,-21.484375
1296,-21.484375
1297,-21.484375
1298,-21.484375
1299,-21.484375
1300,-21.484375
1301,-21.484375
1302,-21.484375
1303,-21.484375
1304,-21.484375
1305,-21.484375
1306,-21.484375
1307,-21.484375
1308,-21.484375
1309,-21.484375
1310,-21.484375
1311,-19.531250
1312,-19.531250
1313,-19.531250
1314,-19.531250
1315,-19.531250
1316,-19.531250
1317,-19.531250
1318,-21.484375
1319,-19.531250
1320,-19.531250
1321,-19.531250
1322,-19.531250
1323,-17.578125
1324,-17.578125
1325,-19.531250
1326,-17.578125
1327,-17.578125
1328,-17.578125
1329,-17.578125
1330,-17.578125
1331,-17.578125
1332,-15.625000
1333,-17.578125
1334,-15.625000
1335,-15.625000
1336,-17.578125
1337,-15.625000
1338,-15.625000
1339,-15.625000
1340,-15.625000
1341,-15.625000
1342,-13.671875
1343,-13.671875
1344,-13.671875
1345,-13.671875
1346,-13.671875
1347,-13.671875
1348,-11.718750
1349,-11.718750
1350,-11.718750
1351,-11.718750
1352,-11.718750
1353,-11.718750
1354,-9.765625
1355,-9.765625
1356,-9.765625
1357,-9.765625
1358,-7.812500
1359,-7.812500
1360,-7.812500
1361,-7.812500
1362,-7.812500
1363,-5.859375
1364,-7.812500
1365,-5.859375
1366,-5.859375
1367,-5.859375
1368,-3.906250
1369,-3.906250
1370,-3.906250
1371,-3.906250
1372,-1.953125
1373,-3.906250
1374,-3.906250
1375,-1.953125
1376,-1.953125
1377,-1.953125
1378,0.000000
1379,0.000000
1380,0.000000
1381,0.000000
1382,0.000000
1383,0.000000
1384,0.000000
1385,0.000000
1386,1.953125
1387,1.953125
1388,1.953125
1389,1.953125
1390,3.906250
1391,3.906250
1392,3.906250
1393,3.906250
1394,3.906250
1395,3.906250
1396,3.906250
1397,5.859375
1398,5.859375
1399,3.906250
1400,5.859375
1401,5.859375
1402,5.859375
1403,5.859375
1404,7.812500
1405,7.812500
1406,5.859375
1407,7.812500
1408,7.812500
1409,7.812500
1410,7.812500
1411,7.812500
1412,7.812500
1413,9.765625
1414,9.765625
1415,9.765625
1416,9.765625
1417,9.765625
1418,9.765625
1419,9.765625
1420,9.765625
1421,9.765625
1422,11.718750
1423,9.765625
1424,9.765625
1425,11.718750
1426,11.718750
1427,9.765625
1428,11.718750
1429,11.718750
1430,11.718750
1431,11.718750
1432,11.718750
1433,11.718750
1434,11.718750
1435,11.718750
1436,11.718750
1437,11.718750
1438,11.718750
1439,11.718750
1440,11.718750
1441,11.718750
1442,11.718750
1443,11.718750
1444,11.718750
1445,11.718750
1446,11.718750
1447,11.718750
1448,11.718750
1449,11.718750
1450,11.718750
1451,11.718750
1452,11.718750
1453,9.765625
1454,11.718750
1455,11.718750
1456,11.718750
1457,9.765625
1458,11.718750
1459,9.765625
1460,9.765625
1461,9.765625
1462,9.765625
1463,9.765625
1464,9.765625
1465,9.765625
1466,9.765625
1467,9.765625
1468,7.812500
1469,7.812500
1470,7.812500
1471,7.812500
1472,7.812500
1473,7.812500
1474,7.812500
1475,7.812500
1476,5.859375
1477,5.859375
1478,5.859375
1479,5.859375
1480,5.859375
1481,5.859375
1482,5.859375
1483,3.906250
1484,5.859375
1485,3.906250
1486,3.906250
1487,3.906250
1488,3.906250
1489,3.906250
1490,3.906250
1491,1.953125
1492,1.953125
1493,1.953125
1494,1.953125
1495,0.000000
1496,0.000000
1497,0.000000
1498,0.000000
1499,0.000000
1500,0.000000
1501,0.000000
1502,0.000000
1503,0.000000
1504,-1.953125
1505,-1.953125
1506,-1.953125
1507,-1.953125
1508,-1.953125
1509,-3.906250
1510,-3.906250
1511,-3.906250
1512,-3.906250
1513,-5.859375
1514,-5.859375
1515,-5.859375
1516,-5.859375
1517,-5.859375
1518,-5.859375
1519,-7.812500
1520,-7.812500
1521,-7.812500
1522,-7.812500
1523,-9.765625
1524,-9.765625
1525,-9.765625
1526,-11.718750
1527,-9.765625
1528,-11.718750
1529,-9.765625
1530,-11.718750
1531,-11.718750
1532,-11.718750
1533,-13.671875
1534,-11.718750
1535,-11.718750
1536,-13.671875
1537,-13.671875
1538,-13.671875
1539,-13.671875
1540,-13.671875
1541,-13.671875
1542,-15.625000
1543,-15.625000
1544,-15.625000
1545,-15.625000
1546,-15.625000
1547,-15.625000
1548,-15.625000
1549,-15.625000
1550,-17.578125
1551,-17.578125
1552,-17.578125
1553,-17.578125
1554,-17.578125
1555,-17.578125
1556,-19.531250
1557,-17.578125
1558,-19.531250
1559,-19.531250
1560,-19.531250
1561,-19.531250
1562,-19.531250
1563,-19.531250
1564,-19.531250
1565,-19.531250
1566,-19.531250
1567,-19.531250
1568,-19.531250
1569,-19.531250
1570,-21.484375
1571,-19.531250
1572,-19.531250
1573,-19.531250
1574,-23.437500
1575,-21.484375
1576,-21.484375
1577,-21.484375
1578,-21.484375
1579,-21.484375
1580,-23.437500
1581,-21.484375
1582,-21.484375
1583,-21.484375
1584,-21.484375
1585,-21.484375
1586,-21.484375
1587,-21.484375
1588,-21.484375
1589,-21.484375
1590,-21.484375
1591,-21.484375
1592,-21.484375
1593,-21.484375
1594,-21.484375
1595,-19.531250
1596,-21.484375
1597,-21.484375
1598,-21.484375
1599,-19.531250
1600,-19.531250
1601,-21.484375
1602,-19.531250
1603,-19.531250
1604,-19.531250
1605,-19.531250
1606,-19.531250
1607,-19.531250
1608,-19.531250
1609,-19.531250
1610,-17.578125
1611,-17.578125
1612,-17.578125
1613,-17.578125
1614,-17.578125
1615,-17.578125
1616,-17.578125
1617,-15.625000
1618,-15.625000
1619,-17.578125
1620,-15.625000
1621,-17.578125
1622,-15.625000
1623,-15.625000
1624,-15.625000
1625,-15.625000
1626,-9.765625
1627,-13.671875
1628,-13.671875
1629,-13.671875
1630,-13.671875
1631,-11.718750
1632,-11.718750
1633,-11.718750
1634,-11.718750
1635,-11.718750
1636,-9.765625
1637,-9.765625
1638,-9.765625
1639,-9.765625
1640,-9.765625
1641,-9.765625
1642,-9.765625
1643,-7.812500
1644,-7.812500
1645,-7.812500
1646,-7.812500
1647,-5.859375
1648,-5.859375
1649,-5.859375
1650,-5.859375
1651,-5.859375
1652,-5.859375
1653,-5.859375
1654,-5.859375
1655,-3.906250
1656,-3.906250
1657,-3.906250
1658,-1.953125
1659,-3.906250
1660,-1.953125
1661,-1.953125
1662,-1.953125
1663,-1.953125
1664,-1.953125
1665,0.000000
1666,0.000000
1667,0.000000
1668,0.000000
1669,0.000000
1670,1.953125
1671,1.953125
1672,1.953125
1673,1.953125
1674,1.953125
1675,1.953125
1676,1.953125
1677,3.906250
1678,3.906250
1679,3.906250
1680,3.906250
1681,3.906250
1682,5.859375
1683,5.859375
1684,5.859375
1685,5.859375
1686,5.859375
1687,5.859375
1688,5.859375
1689,5.859375
1690,7.812500
1691,5.859375
1692,7.812500
1693,7.812500
1694,7.812500
1695,7.812500
1696,7.812500
1697,7.812500
1698,9.765625
1699,9.765625
1700,9.765625
1701,9.765625
1702,9.765625
1703,9.765625
1704,9.765625
1705,9.765625
1706,9.765625
1707,9.765625
1708,9.765625
1709,11.718750
1710,9.765625
1711,11.718750
1712,11.718750
1713,9.765625
1714,11.718750
1715,11.718750
1716,11.718750
1717,11.718750
1718,11.718750
1719,11.718750
1720,11.718750
1721,11.718750
1722,11.718750
1723,7.812500
1724,11.718750
1725,11.718750
1726,11.718750
1727,11.718750
1728,9.765625
1729,9.765625
1730,11.718750
1731,11.718750
1732,11.718750
1733,9.765625
1734,11.718750
1735,9.765625
1736,9.765625
1737,9.765625
1738,9.765625
1739,11.718750
1740,9.765625
1741,9.765625
1742,9.765625
1743,9.765625
1744,9.765625
1745,9.765625
1746,9.765625
1747,9.765625
1748,9.765625
1749,9.765625
1750,7.812500
1751,9.765625
1752,9.765625
1753,7.812500
1754,7.812500
1755,7.812500
1756,7.812500
1757,7.812500
1758,7.812500
1759,5.859375
1760,7.812500
1761,7.812500
1762,5.859375
1763,5.859375
1764,5.859375
1765,5.859375
1766,5.859375
1767,5.859375
1768,3.906250
1769,1.953125
1770,3.906250
1771,3.906250
1772,3.906250
1773,3.906250
1774,1.953125
1775,1.953125
1776,1.953125
1777,1.953125
1778,1.953125
1779,0.000000
1780,1.953125
1781,0.000000
1782,0.000000
1783,0.000000
1784,0.000000
1785,0.000000
1786,-1.953125
1787,-1.953125
1788,-1.953125
1789,-1.953125
1790,-1.953125
1791,-3.906250
1792,-3.906250
1793,-3.906250
1794,-3.906250
1795,-5.859375
1796,-5.859375
1797,-5.859375
1798,-5.859375
1799,-5.859375
1800,-7.812500
1801,-5.859375
1802,-7.812500
1803,-7.812500
1804,-7.812500
1805,-9.765625
1806,-7.812500
1807,-9.765625
1808,-9.765625
1809,-9.765625
1810,-9.765625
1811,-9.765625
1812,-11.718750
1813,-11.718750
1814,-11.718750
1815,-11.718750
1816,-11.718750
1817,-11.718750
1818,-13.671875
1819,-13.671875
1820,-13.671875
1821,-13.671875
1822,-13.671875
1823,-15.625000
1824,-15.625000
1825,-13.671875
1826,-13.671875
1827,-15.625000
1828,-15.625000
1829,-15.625000
1830,-13.671875
1831,-17.578125
1832,-17.578125
1833,-17.578125
1834,-17.578125
1835,-17.578125
1836,-17.578125
1837,-19.531250
1838,-17.578125
1839,-17.578125
1840,-17.578125
1841,-19.531250
1842,-19.531250
1843,-19.531250
1844,-19.531250
1845,-19.531250
1846,-23.437500
1847,-19.531250
1848,-21.484375
1849,-19.531250
1850,-19.531250
1851,-21.484375
1852,-21.484375
1853,-21.484375
1854,-21.484375
1855,-21.484375
1856,-21.484375
1857,-21.484375
1858,-21.484375
1859,-21.484375
1860,-19.531250
1861,-21.484375
1862,-21.484375
1863,-21.484375
1864,-21.484375
1865,-21.484375
1866,-21.484375
1867,-21.484375
1868,-21.484375
1869,-21.484375
1870,-21.484375
1871,-21.484375
1872,-21.484375
1873,-21.484375
1874,-21.484375
1875,-21.484375
1876,-21.484375
1877,-21.484375
1878,-19.531250
1879,-21.484375
1880,-21.484375
1881,-19.531250
1882,-19.531250
1883,-19.531250
1884,-19.531250
1885,-19.531250
1886,-19.531250
1887,-19.531250
1888,-19.531250
1889,-19.531250
1890,-17.578125
1891,-19.531250
1892,-19.531250
1893,-17.578125
1894,-19.531250
1895,-17.578125
1896,-17.578125
1897,-17.578125
1898,-17.578125
1899,-17.578125
1900,-15.625000
1901,-15.625000
1902,-15.625000
1903,-15.625000
1904,-15.625000
1905,-13.671875
1906,-15.625000
1907,-15.625000
1908,-13.671875
1909,-13.671875
1910,-13.671875
1911,-13.671875
1912,-13.671875
1913,-13.671875
1914,-11.718750
1915,-11.718750
1916,-11.718750
1917,-11.718750
1918,-11.718750
1919,-11.718750
1920,-9.765625
1921,-9.765625
1922,-9.765625
1923,-9.765625
1924,-9.765625
1925,-9.765625
1926,-7.812500
1927,-7.812500
1928,-7.812500
1929,-7.812500
1930,-7.812500
1931,-7.812500
1932,-3.906250
1933,-5.859375
1934,-5.859375
1935,-5.859375
1936,-5.859375
1937,-5.859375
1938,-3.906250
1939,-3.906250
1940,-3.906250
1941,-3.906250
1942,-1.953125
1943,-1.953125
1944,-1.953125
1945,-1.953125
1946,-1.953125
1947,-1.953125
1948,0.000000
1949,0.000000
1950,0.000000
1951,0.000000
1952,0.000000
1953,1.953125
1954,1.953125
1955,1.953125
1956,1.953125
1957,3.906250
1958,3.906250
1959,3.906250
1960,3.906250
1961,3.906250
1962,3.906250
1963,3.906250
1964,3.906250
1965,5.859375
1966,5.859375
1967,5.859375
1968,5.859375
1969,3.906250
1970,5.859375
1971,7.812500
1972,5.859375
1973,7.812500
1974,5.859375
1975,7.812500
1976,7.812500
1977,7.812500
1978,7.812500
1979,7.812500
1980,7.812500
1981,7.812500
1982,7.812500
1983,9.765625
1984,9.765625
1985,9.765625
1986,9.765625
1987,9.765625
1988,9.765625
1989,9.765625
1990,9.765625
1991,9.765625
1992,9.765625
1993,9.765625
1994,11.718750
1995,11.718750
1996,9.765625
1997,11.718750
1998,11.718750
1999,11.718750
2000,11.718750
2001,11.718750
2002,11.718750
2003,11.718750
2004,11.718750
2005,11.718750
2006,11.718750
2007,11.718750
2008,11.718750
2009,11.718750
2010,11.718750
2011,9.765625
2012,11.718750
2013,11.718750
2014,11.718750
2015,11.718750
2016,11.718750
2017,11.718750
2018,11.718750
2019,11.718750
2020,11.718750
2021,11.718750
2022,11.718750
2023,11.718750
2024,11.718750
2025,11.718750
2026,11.718750
2027,11.718750
2028,11.718750
2029,9.765625
2030,9.765625
2031,9.765625
2032,9.765625
2033,9.765625
2034,9.765625
2035,9.765625
2036,7.812500
2037,9.765625
2038,9.765625
2039,7.812500
2040,7.812500
2041,7.812500
2042,7.812500
2043,7.812500
2044,5.859375
2045,7.812500
2046,5.859375
2047,5.859375
2048,5.859375
2049,5.859375
2050,3.906250
2051,5.859375
2052,5.859375
2053,3.906250
2054,3.906250
2055,3.906250
2056,3.906250
2057,3.906250
2058,1.953125
2059,3.906250
2060,1.953125
2061,1.953125
2062,1.953125
2063,1.953125
2064,1.953125
2065,0.000000
2066,0.000000
2067,0.000000
2068,0.000000
2069,-1.953125
2070,0.000000
2071,-1.953125
2072,-1.953125
2073,-1.953125
2074,-1.953125
2075,-3.906250
2076,-3.906250
2077,-3.906250
2078,-3.906250
2079,-3.906250
2080,-5.859375
2081,-5.859375
2082,-5.859375
2083,-5.859375
2084,-5.859375
2085,-5.859375
2086,-5.859375
2087,-7.812500
2088,-7.812500
2089,-7.812500
2090,-7.812500
2091,-7.812500
2092,-7.812500
2093,-9.765625
2094,-9.765625
2095,-9.765625
2096,-11.718750
2097,-11.718750
2098,-11.718750
2099,-11.718750
2100,-11.718750
2101,-11.718750
2102,-13.671875
2103,-13.671875
2104,-13.671875
2105,-13.671875
2106,-13.671875
2107,-13.671875
2108,-13.671875
2109,-15.625000
2110,-15.625000
2111,-15.625000
2112,-15.625000
2113,-15.625000
2114,-15.625000
2115,-15.625000
2116,-15.625000
2117,-17.578125
2118,-17.578125
2119,-17.578125
2120,-17.578125
2121,-17.578125
2122,-17.578125
2123,-17.578125
2124,-19.531250
2125,-19.531250
2126,-19.531250
2127,-19.531250
2128,-19.531250
2129,-19.531250
2130,-19.531250
2131,-19.531250
2132,-19.531250
2133,-19.531250
2134,-19.531250
2135,-19.531250
2136,-21.484375
2137,-19.531250
2138,-21.484375
2139,-19.531250
2140,-21.484375
2141,-21.484375
2142,-21.484375
2143,-21.484375
2144,-21.484375
2145,-21.484375
2146,-21.484375
2147,-21.484375
2148,-21.484375
2149,-21.484375
2150,-21.484375
2151,-21.484375
2152,-21.484375
2153,-21.484375
2154,-21.484375
2155,-19.531250
2156,-21.484375
2157,-21.484375
2158,-21.484375
2159,-21.484375
2160,-21.484375
2161,-21.484375
2162,-21.484375
2163,-21.484375
2164,-21.484375
2165,-21.484375
2166,-19.531250
2167,-19.531250
2168,-19.531250
2169,-19.531250
2170,-19.531250
2171,-19.531250
2172,-19.531250
2173,-19.531250
2174,-19.531250
2175,-19.531250
2176,-17.578125
2177,-17.578125
2178,-19.531250
2179,-17.578125
2180,-17.578125
2181,-17.578125
2182,-17.578125
2183,-17.578125
2184,-17.578125
2185,-17.578125
2186,-17.578125
2187,-15.625000
2188,-15.625000
2189,-15.625000
2190,-15.625000
2191,-15.625000
2192,-15.625000
2193,-15.625000
2194,-13.671875
2195,-13.671875
2196,-13.671875
2197,-13.671875
2198,-13.671875
2199,-13.671875
2200,-13.671875
2201,-11.718750
2202,-11.718750
2203,-11.718750
2204,-11.718750
2205,-11.718750
2206,-7.812500
2207,-9.765625
2208,-9.765625
2209,-9.765625
2210,-9.765625
2211,-7.812500
2212,-5.859375
2213,-7.812500
2214,-7.812500
2215,-5.859375
2216,-5.859375
2217,-5.859375
2218,-5.859375
2219,-5.859375
2220,-5.859375
2221,-5.859375
2222,-3.906250
2223,-3.906250
2224,-3.906250
2225,-3.906250
2226,-3.906250
2227,-1.953125
2228,-1.953125
2229,-1.953125
2230,-1.953125
2231,-1.953125
2232,-1.953125
2233,0.000000
2234,0.000000
2235,0.000000
2236,0.000000
2237,0.000000
2238,1.953125
2239,1.953125
2240,1.953125
2241,3.906250
2242,1.953125
2243,1.953125
2244,1.953125
2245,1.953125
2246,3.906250
2247,3.906250
2248,1.953125
2249,5.859375
2250,3.906250
2251,1.953125
2252,3.906250
2253,5.859375
2254,5.859375
2255,5.859375
2256,5.859375
2257,5.859375
2258,5.859375
2259,7.812500
2260,7.812500
2261,7.812500
2262,7.812500
2263,7.812500
2264,7.812500
2265,7.812500
2266,7.812500
2267,9.765625
2268,7.812500
2269,9.765625
2270,9.765625
2271,9.765625
2272,9.765625
2273,9.765625
2274,9.765625
2275,9.765625
2276,9.765625
2277,9.765625
2278,9.765625
2279,11.718750
2280,11.718750
2281,11.718750
2282,9.765625
2283,11.718750
2284,11.718750
2285,11.718750
2286,11.718750
2287,11.718750
2288,11.718750
2289,11.718750
2290,11.718750
2291,11.718750
2292,11.718750
2293,11.718750
2294,11.718750
2295,11.718750
2296,9.765625
2297,9.765625
2298,11.718750
2299,11.718750
2300,11.718750
2301,11.718750
2302,9.765625
2303,9.765625
2304,9.765625
2305,9.765625
2306,9.765625
2307,9.765625
2308,11.718750
2309,9.765625
2310,9.765625
2311,9.765625
2312,9.765625
2313,9.765625
2314,7.812500
2315,9.765625
2316,9.765625
2317,7.812500
2318,9.765625
2319,7.812500
2320,7.812500
2321,7.812500
2322,7.812500
2323,7.812500
2324,7.812500
2325,7.812500
2326,7.812500
2327,7.812500
2328,5.859375
2329,7.812500
2330,5.859375
2331,3.906250
2332,5.859375
2333,5.859375
2334,5.859375
2335,5.859375
2336,5.859375
2337,3.906250
2338,3.906250
2339,3.906250
2340,1.953125
2341,3.906250
2342,3.906250
2343,1.953125
2344,1.953125
2345,1.953125
2346,1.953125
2347,1.953125
2348,1.953125
2349,1.953125
2350,-1.953125
2351,0.000000
2352,0.000000
2353,-3.906250
2354,0.000000
2355,-1.953125
2356,-1.953125
2357,-1.953125
2358,-1.953125
2359,-3.906250
2360,-3.906250
2361,-3.906250
2362,-3.906250
2363,-3.906250
2364,-5.859375
2365,-5.859375
2366,-5.859375
2367,-5.859375
2368,-5.859375
2369,-5.859375
2370,-7.812500
2371,-7.812500
2372,-7.812500
2373,-7.812500
2374,-9.765625
2375,-9.765625
2376,-9.765625
2377,-9.765625
2378,-9.765625
2379,-9.765625
2380,-11.718750
2381,-11.718750
2382,-11.718750
2383,-11.718750
2384,-11.718750
2385,-11.718750
2386,-13.671875
2387,-13.671875
2388,-13.671875
2389,-13.671875
2390,-11.718750
2391,-11.718750
2392,-13.671875
2393,-13.671875
2394,-15.625000
2395,-13.671875
2396,-15.625000
2397,-15.625000
2398,-15.625000
2399,-17.578125
2400,-15.625000
2401,-17.578125
2402,-17.578125
2403,-17.578125
2404,-17.578125
2405,-17.578125
2406,-17.578125
2407,-17.578125
2408,-19.531250
2409,-17.578125
2410,-19.531250
2411,-19.531250
2412,-19.531250
2413,-19.531250
2414,-19.531250
2415,-19.531250
2416,-19.531250
2417,-19.531250
2418,-21.484375
2419,-17.578125
2420,-21.484375
2421,-21.484375
2422,-21.484375
2423,-19.531250
2424,-21.484375
2425,-21.484375
2426,-21.484375
2427,-21.484375
2428,-19.531250
2429,-21.484375
2430,-21.484375
2431,-23.437500
2432,-21.484375
2433,-21.484375
2434,-21.484375
2435,-21.484375
2436,-21.484375
2437,-21.484375
2438,-21.484375
2439,-21.484375
2440,-21.484375
2441,-21.484375
2442,-21.484375
2443,-21.484375
2444,-21.484375
2445,-19.531250
2446,-21.484375
2447,-21.484375
2448,-19.531250
2449,-19.531250
2450,-19.531250
2451,-19.531250
2452,-19.531250
2453,-19.531250
2454,-19.531250
2455,-19.531250
2456,-19.531250
2457,-19.531250
2458,-19.531250
2459,-19.531250
2460,-17.578125
2461,-19.531250
2462,-17.578125
2463,-17.578125
2464,-17.578125
2465,-15.625000
2466,-17.578125
2467,-15.625000
2468,-15.625000
2469,-17.578125
2470,-15.625000
2471,-15.625000
2472,-15.625000
2473,-15.625000
2474,-13.671875
2475,-13.671875
2476,-13.671875
2477,-13.671875
2478,-13.671875
2479,-13.671875
2480,-13.671875
2481,-11.718750
2482,-11.718750
2483,-11.718750
2484,-9.765625
2485,-11.718750
2486,-11.718750
2487,-9.765625
2488,-9.765625
2489,-9.765625
2490,-9.765625
2491,-9.765625
2492,-9.765625
2493,-9.765625
2494,-9.765625
2495,-7.812500
2496,-7.812500
2497,-7.812500
2498,-7.812500
2499,-3.906250
2500,-5.859375
2501,-5.859375
2502,-5.859375
2503,-5.859375
2504,-5.859375
2505,-5.859375
2506,-5.859375
2507,-3.906250
2508,-3.906250
2509,-3.906250
2510,-1.953125
2511,-1.953125
2512,-1.953125
2513,-1.953125
2514,-1.953125
2515,-1.953125
2516,-1.953125
2517,0.000000
2518,0.000000
2519,0.000000
2520,0.000000
2521,0.000000
2522,1.953125
2523,1.953125
2524,3.906250
2525,1.953125
2526,1.953125
2527,1.953125
2528,1.953125
2529,3.906250
2530,3.906250
2531,3.906250
2532,5.859375
2533,5.859375
2534,5.859375
2535,5.859375
2536,5.859375
2537,5.859375
2538,5.859375
2539,7.812500
2540,5.859375
2541,5.859375
2542,7.812500
2543,7.812500
2544,7.812500
2545,7.812500
2546,7.812500
2547,7.812500
2548,9.765625
2549,9.765625
2550,9.765625
2551,9.765625
2552,9.765625
2553,9.765625
2554,9.765625
2555,11.718750
2556,9.765625
2557,9.765625
2558,11.718750
2559,11.718750
2560,9.765625
2561,11.718750
2562,9.765625
2563,11.718750
2564,11.718750
2565,11.718750
2566,11.718750
2567,9.765625
2568,11.718750
2569,11.718750
2570,11.718750
2571,11.718750
2572,11.718750
2573,11.718750
2574,11.718750
2575,11.718750
2576,9.765625
2577,11.718750
2578,11.718750
2579,11.718750
2580,11.718750
2581,11.718750
2582,11.718750
2583,11.718750
2584,11.718750
2585,11.718750
2586,11.718750
2587,11.718750
2588,11.718750
2589,11.718750
2590,11.718750
2591,9.765625
2592,9.765625
2593,11.718750
2594,11.718750
2595,9.765625
2596,9.765625
2597,9.765625
2598,9.765625
2599,9.765625
2600,9.765625
2601,9.765625
2602,9.765625
2603,9.765625
2604,7.812500
2605,9.765625
2606,9.765625
2607,7.812500
2608,7.812500
2609,9.765625
2610,7.812500
2611,7.812500
2612,7.812500
2613,7.812500
2614,5.859375
2615,5.859375
2616,5.859375
2617,5.859375
2618,5.859375
2619,5.859375
2620,3.906250
2621,3.906250
2622,3.906250
2623,3.906250
2624,3.906250
2625,3.906250
2626,5.859375
2627,3.906250
2628,1.953125
2629,1.953125
2630,1.953125
2631,1.953125
2632,0.000000
2633,0.000000
2634,0.000000
2635,0.000000
2636,0.000000
2637,0.000000
2638,0.000000
2639,-1.953125
2640,-1.953125
2641,-1.953125
2642,-1.953125
2643,-1.953125
2644,-3.906250
2645,-3.906250
2646,-3.906250
2647,-3.906250
2648,-5.859375
2649,-5.859375
2650,-5.859375
2651,-5.859375
2652,-5.859375
2653,-7.812500
2654,-7.812500
2655,-7.812500
2656,-7.812500
2657,-7.812500
2658,-7.812500
2659,-9.765625
2660,-7.812500
2661,-9.765625
2662,-9.765625
2663,-9.765625
2664,-9.765625
2665,-11.718750
2666,-11.718750
2667,-11.718750
2668,-11.718750
2669,-11.718750
2670,-11.718750
2671,-13.671875
2672,-13.671875
2673,-13.671875
2674,-13.671875
2675,-13.671875
2676,-13.671875
2677,-15.625000
2678,-15.625000
2679,-15.625000
2680,-15.625000
2681,-15.625000
2682,-15.625000
2683,-15.625000
2684,-13.671875
2685,-17.578125
2686,-17.578125
2687,-17.578125
2688,-17.578125
2689,-19.531250
2690,-17.578125
2691,-17.578125
2692,-17.578125
2693,-19.531250
2694,-19.531250
2695,-19.531250
2696,-19.531250
2697,-19.531250
2698,-19.531250
2699,-19.531250
2700,-19.531250
2701,-21.484375
2702,-21.484375
2703,-21.484375
2704,-21.484375
2705,-21.484375
2706,-21.484375
2707,-21.484375
2708,-21.484375
2709,-21.484375
2710,-21.484375
2711,-21.484375
2712,-21.484375
2713,-17.578125
2714,-21.484375
2715,-21.484375
2716,-21.484375
2717,-21.484375
2718,-21.484375
2719,-21.484375
2720,-21.484375
2721,-21.484375
2722,-21.484375
2723,-21.484375
2724,-21.484375
2725,-21.484375
2726,-19.531250
2727,-21.484375
2728,-21.484375
2729,-21.484375
2730,-21.484375
2731,-21.484375
2732,-21.484375
2733,-19.531250
2734,-19.531250
2735,-19.531250
2736,-21.484375
2737,-19.531250
2738,-19.531250
2739,-19.531250
2740,-19.531250
2741,-19.531250
2742,-19.531250
2743,-19.531250
2744,-19.531250
2745,-19.531250
2746,-17.578125
2747,-17.578125
2748,-17.578125
2749,-17.578125
2750,-17.578125
2751,-17.578125
2752,-17.578125
2753,-17.578125
2754,-15.625000
2755,-15.625000
2756,-15.625000
2757,-15.625000
2758,-15.625000
2759,-15.625000
2760,-15.625000
2761,-13.671875
2762,-13.671875
2763,-13.671875
2764,-13.671875
2765,-13.671875
2766,-13.671875
2767,-11.718750
2768,-11.718750
2769,-13.671875
2770,-11.718750
2771,-11.718750
2772,-11.718750
2773,-11.718750
2774,-9.765625
2775,-9.765625
2776,-7.812500
2777,-13.671875
2778,-9.765625
2779,-7.812500
2780,-7.812500
2781,-7.812500
2782,-7.812500
2783,-7.812500
2784,-7.812500
2785,-5.859375
2786,-5.859375
2787,-5.859375
2788,-5.859375
2789,-5.859375
2790,-3.906250
2791,-3.906250
2792,-3.906250
2793,-3.906250
2794,-1.953125
2795,-1.953125
2796,-1.953125
2797,-1.953125
2798,-1.953125
2799,-1.953125
2800,0.000000
2801,0.000000
2802,0.000000
2803,0.000000
2804,0.000000
2805,1.953125
2806,0.000000
2807,1.953125
2808,1.953125
2809,1.953125
2810,1.953125
2811,3.906250
2812,3.906250
2813,3.906250
2814,1.953125
2815,3.906250
2816,3.906250
2817,5.859375
2818,3.906250
2819,5.859375
2820,5.859375
2821,5.859375
2822,5.859375
2823,5.859375
2824,5.859375
2825,5.859375
2826,5.859375
2827,7.812500
2828,7.812500
2829,7.812500
2830,7.812500
2831,7.812500
2832,7.812500
2833,7.812500
2834,7.812500
2835,9.765625
2836,9.765625
2837,7.812500
2838,7.812500
2839,9.765625
2840,9.765625
2841,9.765625
2842,9.765625
2843,9.765625
2844,9.765625
2845,11.718750
2846,9.765625
2847,11.718750
2848,11.718750
2849,9.765625
2850,9.765625
2851,11.718750
2852,11.718750
2853,11.718750
2854,9.765625
2855,11.718750
2856,11.718750
2857,11.718750
2858,11.718750
2859,11.718750
2860,11.718750
2861,11.718750
2862,11.718750
2863,11.718750
2864,11.718750
2865,11.718750
2866,11.718750
2867,11.718750
2868,11.718750
2869,11.718750
2870,9.765625
2871,11.718750
2872,11.718750
2873,11.718750
2874,11.718750
2875,11.718750
2876,9.765625
2877,9.765625
2878,11.718750
2879,9.765625
2880,9.765625
2881,9.765625
2882,9.765625
2883,9.765625
2884,7.812500
2885,9.765625
2886,7.812500
2887,9.765625
2888,7.812500
2889,9.765625
2890,7.812500
2891,7.812500
2892,7.812500
2893,7.812500
2894,7.812500
2895,5.859375
2896,5.859375
2897,5.859375
2898,5.859375
2899,5.859375
2900,5.859375
2901,5.859375
2902,5.859375
2903,5.859375
2904,3.906250
2905,5.859375
2906,3.906250
2907,3.906250
2908,3.906250
2909,3.906250
2910,1.953125
2911,3.906250
2912,1.953125
2913,1.953125
2914,1.953125
2915,1.953125
2916,1.953125
2917,1.953125
2918,0.000000
2919,0.000000
2920,0.000000
2921,0.000000
2922,-1.953125
2923,-1.953125
2924,-1.953125
2925,-1.953125
2926,-1.953125
2927,-1.953125
2928,-3.906250
2929,-3.906250
2930,-1.953125
2931,-3.906250
2932,-3.906250
2933,-3.906250
2934,-5.859375
2935,-5.859375
2936,-5.859375
2937,-5.859375
2938,-7.812500
2939,-5.859375
2940,-7.812500
2941,-9.765625
2942,-7.812500
2943,-7.812500
2944,-9.765625
2945,-9.765625
2946,-9.765625
2947,-9.765625
2948,-9.765625
2949,-9.765625
2950,-11.718750
2951,-9.765625
2952,-11.718750
2953,-11.718750
2954,-11.718750
2955,-13.671875
2956,-13.671875
2957,-13.671875
2958,-13.671875
2959,-15.625000
2960,-13.671875
2961,-13.671875
2962,-15.625000
2963,-15.625000
2964,-15.625000
2965,-15.625000
2966,-15.625000
2967,-15.625000
2968,-17.578125
2969,-15.625000
2970,-17.578125
2971,-17.578125
2972,-17.578125
2973,-17.578125
2974,-17.578125
2975,-17.578125
2976,-19.531250
2977,-17.578125
2978,-19.531250
2979,-19.531250
2980,-19.531250
2981,-19.531250
2982,-19.531250
2983,-19.531250
2984,-19.531250
2985,-19.531250
2986,-19.531250
2987,-19.531250
2988,-19.531250
2989,-21.484375
2990,-19.531250
2991,-19.531250
2992,-21.484375
2993,-21.484375
2994,-19.531250
2995,-21.484375
2996,-21.484375
2997,-21.484375
2998,-21.484375
2999,-21.484375
3000,-21.484375
3001,-21.484375
3002,-23.437500
3003,-21.484375
3004,-21.484375
3005,-21.484375
3006,-23.437500
3007,-21.484375
3008,-21.484375
3009,-23.437500
3010,-21.484375
3011,-21.484375
3012,-21.484375
3013,-21.484375
3014,-21.484375
3015,-21.484375
3016,-21.484375
3017,-21.484375
3018,-19.531250
3019,-21.484375
3020,-19.531250
3021,-19.531250
3022,-21.484375
3023,-19.531250
3024,-19.531250
3025,-19.531250
3026,-19.531250
3027,-19.531250
3028,-19.531250
3029,-19.531250
3030,-19.531250
3031,-17.578125
3032,-17.578125
3033,-17.578125
3034,-17.578125
3035,-17.578125
3036,-17.578125
3037,-17.578125
3038,-17.578125
3039,-15.625000
3040,-17.578125
3041,-15.625000
3042,-15.625000
3043,-15.625000
3044,-15.625000
3045,-13.671875
3046,-13.671875
3047,-13.671875
3048,-13.671875
3049,-11.718750
3050,-13.671875
3051,-11.718750
3052,-11.718750
3053,-11.718750
3054,-11.718750
3055,-11.718750
3056,-11.718750
3057,-9.765625
3058,-9.765625
3059,-9.765625
3060,-9.765625
3061,-9.765625
3062,-7.812500
3063,-7.812500
3064,-7.812500
3065,-7.812500
3066,-7.812500
3067,-7.812500
3068,-5.859375
3069,-5.859375
3070,-5.859375
3071,-5.859375
3072,-5.859375
3073,-5.859375
3074,-3.906250
3075,-3.906250
3076,-3.906250
3077,-3.906250
3078,-1.953125
3079,-3.906250
3080,-1.953125
3081,-1.953125
3082,-1.953125
3083,0.000000
3084,0.000000
3085,-1.953125
3086,0.000000
3087,0.000000
3088,0.000000
3089,0.000000
3090,0.000000
3091,0.000000
3092,1.953125
3093,1.953125
3094,1.953125
3095,3.906250
3096,5.859375
3097,3.906250
3098,3.906250
3099,3.906250
3100,3.906250
3101,3.906250
3102,3.906250
3103,5.859375
3104,5.859375
3105,5.859375
3106,5.859375
3107,5.859375
3108,7.812500
3109,7.812500
3110,5.859375
3111,7.812500
3112,7.812500
3113,7.812500
3114,9.765625
3115,7.812500
3116,7.812500
3117,9.765625
3118,9.765625
3119,9.765625
3120,9.765625
3121,9.765625
3122,9.765625
3123,9.765625
3124,9.765625
3125,9.765625
3126,9.765625
3127,9.765625
3128,9.765625
3129,11.718750
3130,11.718750
3131,9.765625
3132,9.765625
3133,11.718750
3134,9.765625
3135,11.718750
3136,9.765625
3137,9.765625
3138,11.718750
3139,9.765625
3140,11.718750
3141,11.718750
3142,11.718750
3143,11.718750
3144,9.765625
3145,11.718750
3146,11.718750
3147,11.718750
3148,11.718750
3149,11.718750
3150,11.718750
3151,11.718750
3152,11.718750
3153,11.718750
3154,11.718750
3155,9.765625
3156,11.718750
3157,11.718750
3158,9.765625
3159,9.765625
3160,11.718750
3161,9.765625
3162,9.765625
3163,9.765625
3164,9.765625
3165,9.765625
3166,9.765625
3167,9.765625
3168,9.765625
3169,9.765625
3170,9.765625
3171,7.812500
3172,9.765625
3173,9.765625
3174,5.859375
3175,7.812500
3176,7.812500
3177,5.859375
3178,7.812500
3179,5.859375
3180,7.812500
3181,5.859375
3182,5.859375
3183,5.859375
3184,5.859375
3185,5.859375
3186,5.859375
3187,5.859375
3188,5.859375
3189,3.906250
3190,3.906250
3191,3.906250
3192,3.906250
3193,3.906250
3194,3.906250
3195,3.906250
3196,1.953125
3197,1.953125
3198,1.953125
3199,1.953125
3200,0.000000
3201,0.000000
3202,0.000000
3203,0.000000
3204,0.000000
3205,-1.953125
3206,0.000000
3207,-1.953125
3208,1.953125
3209,-1.953125
3210,-1.953125
3211,-3.906250
3212,-3.906250
3213,-3.906250
3214,-3.906250
3215,-3.906250
3216,-5.859375
3217,-5.859375
3218,-5.859375
3219,-5.859375
3220,-5.859375
3221,-5.859375
3222,-7.812500
3223,-7.812500
3224,-7.812500
3225,-7.812500
3226,-9.765625
3227,-7.812500
3228,-9.765625
3229,-9.765625
3230,-9.765625
3231,-11.718750
3232,-9.765625
3233,-9.765625
3234,-11.718750
3235,-11.718750
3236,-11.718750
3237,-11.718750
3238,-11.718750
3239,-13.671875
3240,-13.671875
3241,-13.671875
3242,-13.671875
3243,-13.671875
3244,-13.671875
3245,-15.625000
3246,-15.625000
3247,-15.625000
3248,-15.625000
3249,-15.625000
3250,-17.578125
3251,-15.625000
3252,-17.578125
3253,-17.578125
3254,-15.625000
3255,-17.578125
3256,-17.578125
3257,-17.578125
3258,-17.578125
3259,-19.531250
3260,-19.531250
3261,-19.531250
3262,-19.531250
3263,-19.531250
3264,-19.531250
3265,-19.531250
3266,-19.531250
3267,-19.531250
3268,-19.531250
3269,-19.531250
3270,-19.531250
3271,-19.531250
3272,-21.484375
3273,-21.484375
3274,-21.484375
3275,-21.484375
3276,-21.484375
3277,-21.484375
3278,-21.484375
3279,-21.484375
3280,-21.484375
3281,-21.484375
3282,-21.484375
3283,-21.484375
3284,-21.484375
3285,-21.484375
3286,-21.484375
3287,-21.484375
3288,-21.484375
3289,-21.484375
3290,-21.484375
3291,-21.484375
3292,-21.484375
3293,-21.484375
3294,-21.484375
3295,-21.484375
3296,-21.484375
3297,-21.484375
3298,-21.484375
3299,-21.484375
3300,-19.531250
3301,-21.484375
3302,-21.484375
3303,-21.484375
3304,-19.531250
3305,-21.484375
3306,-19.531250
3307,-19.531250
3308,-19.531250
3309,-21.484375
3310,-19.531250
3311,-19.531250
3312,-19.531250
3313,-19.531250
3314,-19.531250
3315,-17.578125
3316,-17.578125
3317,-17.578125
3318,-17.578125
3319,-17.578125
3320,-17.578125
3321,-17.578125
3322,-15.625000
3323,-15.625000
3324,-15.625000
3325,-15.625000
3326,-15.625000
3327,-15.625000
3328,-15.625000
3329,-13.671875
3330,-15.625000
3331,-13.671875
3332,-13.671875
3333,-13.671875
3334,-13.671875
3335,-13.671875
3336,-11.718750
3337,-11.718750
3338,-11.718750
3339,-11.718750
3340,-9.765625
3341,-11.718750
3342,-9.765625
3343,-9.765625
3344,-9.765625
3345,-9.765625
3346,-7.812500
3347,-9.765625
3348,-9.765625
3349,-7.812500
3350,-7.812500
3351,-7.812500
3352,-7.812500
3353,-5.859375
3354,-5.859375
3355,-5.859375
3356,-5.859375
3357,-5.859375
3358,-3.906250
3359,-3.906250
3360,-3.906250
3361,-3.906250
3362,-3.906250
3363,-3.906250
3364,-1.953125
3365,-1.953125
3366,-1.953125
3367,0.000000
3368,0.000000
3369,-1.953125
3370,0.000000
3371,0.000000
3372,0.000000
3373,0.000000
3374,0.000000
3375,1.953125
3376,1.953125
3377,1.953125
3378,1.953125
3379,1.953125
3380,1.953125
3381,3.906250
3382,3.906250
3383,3.906250
3384,3.906250
3385,3.906250
3386,3.906250
3387,5.859375
3388,5.859375
3389,5.859375
3390,5.859375
3391,5.859375
3392,5.859375
3393,5.859375
3394,7.812500
3395,7.812500
3396,7.812500
3397,7.812500
3398,7.812500
3399,7.812500
3400,7.812500
3401,7.812500
3402,9.765625
3403,7.812500
3404,9.765625
3405,9.765625
3406,9.765625
3407,9.765625
3408,9.765625
3409,9.765625
3410,9.765625
3411,9.765625
3412,9.765625
3413,11.718750
3414,9.765625
3415,11.718750
3416,9.765625
3417,13.671875
3418,9.765625
3419,9.765625
3420,11.718750
3421,11.718750
3422,9.765625
3423,9.765625
3424,11.718750
3425,11.718750
3426,11.718750
3427,11.718750
3428,11.718750
3429,11.718750
3430,11.718750
3431,11.718750
3432,11.718750
3433,11.718750
3434,11.718750
3435,11.718750
3436,11.718750
3437,11.718750
3438,11.718750
3439,11.718750
3440,11.718750
3441,11.718750
3442,11.718750
3443,11.718750
3444,9.765625
3445,11.718750
3446,11.718750
3447,11.718750
3448,9.765625
3449,9.765625
3450,9.765625
3451,9.765625
3452,9.765625
3453,9.765625
3454,9.765625
3455,7.812500
3456,9.765625
3457,9.765625
3458,9.765625
3459,7.812500
3460,7.812500
3461,7.812500
3462,7.812500
3463,7.812500
3464,7.812500
3465,5.859375
3466,5.859375
3467,5.859375
3468,5.859375
3469,5.859375
3470,5.859375
3471,3.906250
3472,5.859375
3473,3.906250
3474,3.906250
3475,3.906250
3476,3.906250
3477,3.906250
3478,3.906250
3479,1.953125
3480,1.953125
3481,1.953125
3482,1.953125
3483,1.953125
3484,1.953125
3485,0.000000
3486,0.000000
3487,0.000000
3488,0.000000
3489,0.000000
3490,0.000000
3491,0.000000
3492,-1.953125
3493,-1.953125
3494,-1.953125
3495,-1.953125
3496,-3.906250
3497,-1.953125
3498,-3.906250
3499,-3.906250
3500,-3.906250
3501,-3.906250
3502,-3.906250
3503,-5.859375
3504,-5.859375
3505,-5.859375
3506,-7.812500
3507,-5.859375
3508,-7.812500
3509,-7.812500
3510,-7.812500
3511,-7.812500
3512,-7.812500
3513,-7.812500
3514,-9.765625
3515,-9.765625
3516,-9.765625
3517,-9.765625
3518,-11.718750
3519,-11.718750
3520,-11.718750
3521,-9.765625
3522,-11.718750
3523,-11.718750
3524,-13.671875
3525,-13.671875
3526,-13.671875
3527,-13.671875
3528,-13.671875
3529,-13.671875
3530,-15.625000
3531,-15.625000
3532,-15.625000
3533,-15.625000
3534,-15.625000
3535,-17.578125
3536,-15.625000
3537,-15.625000
3538,-15.625000
3539,-17.578125
3540,-17.578125
3541,-17.578125
3542,-17.578125
3543,-15.625000
3544,-17.578125
3545,-17.578125
3546,-19.531250
3547,-19.531250
3548,-19.531250
3549,-19.531250
3550,-19.531250
3551,-19.531250
3552,-19.531250
3553,-19.531250
3554,-21.484375
3555,-19.531250
3556,-19.531250
3557,-19.531250
3558,-21.484375
3559,-21.484375
3560,-21.484375
3561,-21.484375
3562,-21.484375
3563,-21.484375
3564,-21.484375
3565,-21.484375
3566,-21.484375
3567,-21.484375
3568,-21.484375
3569,-21.484375
3570,-21.484375
3571,-21.484375
3572,-21.484375
3573,-21.484375
3574,-19.531250
3575,-21.484375
3576,-21.484375
3577,-19.531250
3578,-21.484375
3579,-21.484375
3580,-19.531250
3581,-19.531250
3582,-19.531250
3583,-21.484375
3584,-21.484375
3585,-19.531250
3586,-19.531250
3587,-19.531250
3588,-21.484375
3589,-19.531250
3590,-19.531250
3591,-19.531250
3592,-19.531250
3593,-19.531250
3594,-19.531250
3595,-17.578125
3596,-19.531250
3597,-19.531250
3598,-19.531250
3599,-19.531250
3600,-17.578125
3601,-17.578125
3602,-17.578125
3603,-17.578125
3604,-15.625000
3605,-17.578125
3606,-17.578125
3607,-15.625000
3608,-17.578125
3609,-15.625000
3610,-15.625000
3611,-15.625000
3612,-15.625000
3613,-13.671875
3614,-15.625000
3615,-13.671875
3616,-13.671875
3617,-13.671875
3618,-13.671875
3619,-11.718750
3620,-11.718750
3621,-11.718750
3622,-11.718750
3623,-11.718750
3624,-11.718750
3625,-9.765625
3626,-9.765625
3627,-9.765625
3628,-9.765625
3629,-9.765625
3630,-9.765625
3631,-7.812500
3632,-9.765625
3633,-7.812500
3634,-7.812500
3635,-7.812500
3636,-5.859375
3637,-5.859375
3638,-5.859375
3639,-5.859375
3640,-5.859375
3641,-3.906250
3642,-3.906250
3643,-3.906250
3644,-3.906250
3645,-3.906250
3646,-1.953125
3647,-3.906250
3648,-1.953125
3649,-1.953125
3650,-1.953125
3651,-1.953125
3652,0.000000
3653,0.000000
3654,0.000000
3655,0.000000
3656,0.000000
3657,0.000000
3658,0.000000
3659,0.000000
3660,1.953125
3661,1.953125
3662,1.953125
3663,1.953125
3664,1.953125
3665,1.953125
3666,3.906250
3667,3.906250
3668,3.906250
3669,3.906250
3670,3.906250
3671,3.906250
3672,5.859375
3673,5.859375
3674,5.859375
3675,5.859375
3676,5.859375
3677,5.859375
3678,5.859375
3679,7.812500
3680,7.812500
3681,7.812500
3682,7.812500
3683,7.812500
3684,7.812500
3685,7.812500
3686,7.812500
3687,7.812500
3688,9.765625
3689,7.812500
3690,9.765625
3691,9.765625
3692,9.765625
3693,9.765625
3694,9.765625
3695,9.765625
3696,9.765625
3697,9.765625
3698,11.718750
3699,9.765625
3700,11.718750
3701,11.718750
3702,11.718750
3703,11.718750
3704,11.718750
3705,11.718750
3706,11.718750
3707,11.718750
3708,11.718750
3709,11.718750
3710,11.718750
3711,11.718750
3712,11.718750
3713,11.718750
3714,11.718750
3715,11.718750
3716,11.718750
3717,11.718750
3718,11.718750
3719,9.765625
3720,9.765625
3721,11.718750
3722,11.718750
3723,11.718750
3724,11.718750
3725,9.765625
3726,11.718750
3727,11.718750
3728,9.765625
3729,9.765625
3730,9.765625
3731,9.765625
3732,9.765625
3733,9.765625
3734,9.765625
3735,9.765625
3736,9.765625
3737,9.765625
3738,7.812500
3739,7.812500
3740,7.812500
3741,7.812500
3742,9.765625
3743,7.812500
3744,7.812500
3745,7.812500
3746,7.812500
3747,7.812500
3748,5.859375
3749,5.859375
3750,7.812500
3751,5.859375
3752,5.859375
3753,5.859375
3754,5.859375
3755,5.859375
3756,3.906250
3757,3.906250
3758,5.859375
3759,3.906250
3760,3.906250
3761,1.953125
3762,3.906250
3763,1.953125
3764,1.953125
3765,3.906250
3766,0.000000
3767,1.953125
3768,1.953125
3769,0.000000
3770,1.953125
3771,0.000000
3772,0.000000
3773,0.000000
3774,0.000000
3775,0.000000
3776,-1.953125
3777,-1.953125
3778,-3.906250
3779,-3.906250
3780,-1.953125
3781,-3.906250
3782,-3.906250
3783,-3.906250
3784,-3.906250
3785,-5.859375
3786,-5.859375
3787,-5.859375
3788,-5.859375
3789,-5.859375
3790,-5.859375
3791,-7.812500
3792,-7.812500
3793,-7.812500
3794,-9.765625
3795,-11.718750
3796,-9.765625
3797,-9.765625
3798,-11.718750
3799,-11.718750
3800,-11.718750
3801,-9.765625
3802,-11.718750
3803,-11.718750
3804,-13.671875
3805,-13.671875
3806,-13.671875
3807,-13.671875
3808,-11.718750
3809,-13.671875
3810,-13.671875
3811,-15.625000
3812,-13.671875
3813,-15.625000
3814,-15.625000
3815,-15.625000
3816,-17.578125
3817,-17.578125
3818,-15.625000
3819,-17.578125
3820,-17.578125
3821,-17.578125
3822,-17.578125
3823,-17.578125
3824,-17.578125
3825,-17.578125
3826,-19.531250
3827,-19.531250
3828,-17.578125
3829,-19.531250
3830,-19.531250
3831,-19.531250
3832,-19.531250
3833,-19.531250
3834,-19.531250
3835,-19.531250
3836,-19.531250
3837,-19.531250
3838,-19.531250
3839,-21.484375
3840,-19.531250
3841,-19.531250
3842,-21.484375
3843,-21.484375
3844,-19.531250
3845,-21.484375
3846,-21.484375
3847,-21.484375
3848,-21.484375
3849,-21.484375
3850,-21.484375
3851,-21.484375
3852,-21.484375
3853,-21.484375
3854,-21.484375
3855,-21.484375
3856,-21.484375
3857,-21.484375
3858,-21.484375
3859,-21.484375
3860,-23.437500
3861,-21.484375
3862,-21.484375
3863,-21.484375
3864,-21.484375
3865,-21.484375
3866,-21.484375
3867,-23.437500
3868,-21.484375
3869,-21.484375
3870,-21.484375
3871,-21.484375
3872,-21.484375
3873,-19.531250
3874,-21.484375
3875,-19.531250
3876,-19.531250
3877,-19.531250
3878,-19.531250
3879,-19.531250
3880,-19.531250
3881,-19.531250
3882,-17.578125
3883,-17.578125
3884,-17.578125
3885,-17.578125
3886,-17.578125
3887,-17.578125
3888,-17.578125
3889,-17.578125
3890,-15.625000
3891,-15.625000
3892,-15.625000
3893,-15.625000
3894,-15.625000
3895,-13.671875
3896,-15.625000
3897,-13.671875
3898,-13.671875
3899,-13.671875
3900,-13.671875
3901,-11.718750
3902,-13.671875
3903,-13.671875
3904,-11.718750
3905,-11.718750
3906,-11.718750
3907,-11.718750
3908,-11.718750
3909,-9.765625
3910,-9.765625
3911,-9.765625
3912,-9.765625
3913,-9.765625
3914,-7.812500
3915,-7.812500
3916,-7.812500
3917,-7.812500
3918,-7.812500
3919,-7.812500
3920,-7.812500
3921,-5.859375
3922,-5.859375
3923,-5.859375
3924,-5.859375
3925,-3.906250
3926,-3.906250
3927,-5.859375
3928,-3.906250
3929,-3.906250
3930,-3.906250
3931,-1.953125
3932,-3.906250
3933,-1.953125
3934,-1.953125
3935,0.000000
3936,-1.953125
3937,0.000000
3938,0.000000
3939,0.000000
3940,0.000000
3941,0.000000
3942,1.953125
3943,1.953125
3944,1.953125
3945,1.953125
3946,1.953125
3947,1.953125
3948,3.906250
3949,3.906250
3950,3.906250
3951,3.906250
3952,3.906250
3953,3.906250
3954,5.859375
3955,7.812500
3956,5.859375
3957,5.859375
3958,5.859375
3959,5.859375
3960,5.859375
3961,5.859375
3962,7.812500
3963,5.859375
3964,7.812500
3965,7.812500
3966,7.812500
3967,7.812500
3968,7.812500
3969,7.812500
3970,7.812500
3971,9.765625
3972,9.765625
3973,9.765625
3974,9.765625
3975,9.765625
3976,9.765625
3977,9.765625
3978,9.765625
3979,9.765625
3980,9.765625
3981,9.765625
3982,11.718750
3983,9.765625
3984,9.765625
3985,11.718750
3986,9.765625
3987,11.718750
3988,13.671875
3989,11.718750
3990,11.718750
3991,11.718750
3992,9.765625
3993,11.718750
3994,11.718750
3995,11.718750
3996,11.718750
3997,9.765625
3998,11.718750
3999,11.718750
4000,9.765625
4001,11.718750
4002,11.718750
4003,11.718750
4004,11.718750
4005,11.718750
4006,11.718750
4007,11.718750
4008,11.718750
4009,11.718750
4010,11.718750
4011,11.718750
4012,11.718750
4013,9.765625
4014,9.765625
4015,9.765625
4016,11.718750
4017,9.765625
4018,9.765625
4019,9.765625
4020,9.765625
4021,9.765625
4022,9.765625
4023,9.765625
4024,9.765625
4025,11.718750
4026,7.812500
4027,7.812500
4028,7.812500
4029,7.812500
4030,7.812500
4031,7.812500
4032,7.812500
4033,5.859375
4034,7.812500
4035,5.859375
4036,5.859375
4037,5.859375
4038,5.859375
4039,5.859375
4040,5.859375
4041,3.906250
4042,3.906250
4043,3.906250
4044,3.906250
4045,3.906250
4046,1.953125
4047,3.906250
4048,1.953125
4049,1.953125
4050,1.953125
4051,0.000000
4052,1.953125
4053,0.000000
4054,0.000000
4055,0.000000
4056,0.000000
4057,0.000000
4058,0.000000
4059,-1.953125
4060,-1.953125
4061,-1.953125
4062,-1.953125
4063,-3.906250
4064,-1.953125
4065,-3.906250
4066,-3.906250
4067,-3.906250
4068,-3.906250
4069,-5.859375
4070,-5.859375
4071,-5.859375
4072,-5.859375
4073,-7.812500
4074,-7.812500
4075,-9.765625
4076,-7.812500
4077,-7.812500
4078,-7.812500
4079,-7.812500
4080,-9.765625
4081,-7.812500
4082,-7.812500
4083,-9.765625
4084,-9.765625
4085,-9.765625
4086,-9.765625
4087,-9.765625
4088,-11.718750
4089,-11.718750
4090,-11.718750
4091,-11.718750
4092,-11.718750
4093,-13.671875
4094,-13.671875
4095,-13.671875
4096,-13.671875
4097,-13.671875
4098,-15.625000
4099,-13.671875
4100,-15.625000
4101,-15.625000
4102,-15.625000
4103,-15.625000
4104,-17.578125
4105,-15.625000
4106,-17.578125
4107,-17.578125
4108,-17.578125
4109,-17.578125
4110,-17.578125
4111,-17.578125
4112,-17.578125
4113,-19.531250
4114,-19.531250
4115,-19.531250
4116,-19.531250
4117,-19.531250
4118,-19.531250
4119,-19.531250
4120,-19.531250
4121,-21.484375
4122,-19.531250
4123,-19.531250
4124,-21.484375
4125,-21.484375
4126,-21.484375
4127,-21.484375
4128,-21.484375
4129,-21.484375
4130,-21.484375
4131,-21.484375
4132,-21.484375
4133,-17.578125
4134,-21.484375
4135,-21.484375
4136,-21.484375
4137,-21.484375
4138,-21.484375
4139,-21.484375
4140,-21.484375
4141,-21.484375
4142,-21.484375
4143,-21.484375
4144,-21.484375
4145,-21.484375
4146,-21.484375
4147,-21.484375
4148,-21.484375
4149,-21.484375
4150,-21.484375
4151,-19.531250
4152,-19.531250
4153,-19.531250
4154,-21.484375
4155,-19.531250
4156,-19.531250
4157,-19.531250
4158,-19.531250
4159,-19.531250
4160,-19.531250
4161,-19.531250
4162,-19.531250
4163,-19.531250
4164,-19.531250
4165,-17.578125
4166,-17.578125
4167,-19.531250
4168,-15.625000
4169,-17.578125
4170,-17.578125
4171,-17.578125
4172,-17.578125
4173,-17.578125
4174,-15.625000
4175,-17.578125
4176,-17.578125
4177,-15.625000
4178,-15.625000
4179,-15.625000
4180,-15.625000
4181,-15.625000
4182,-15.625000
4183,-13.671875
4184,-13.671875
4185,-13.671875
4186,-13.671875
4187,-13.671875
4188,-11.718750
4189,-11.718750
4190,-11.718750
4191,-11.718750
4192,-11.718750
4193,-9.765625
4194,-11.718750
4195,-11.718750
4196,-9.765625
4197,-9.765625
4198,-9.765625
4199,-9.765625
4200,-9.765625
4201,-7.812500
4202,-7.812500
4203,-7.812500
4204,-7.812500
4205,-7.812500
4206,-5.859375
4207,-5.859375
4208,-5.859375
4209,-5.859375
4210,-3.906250
4211,-3.906250
4212,-3.906250
4213,-3.906250
4214,-3.906250
4215,-1.953125
4216,-1.953125
4217,-1.953125
4218,-1.953125
4219,-1.953125
4220,-1.953125
4221,-1.953125
4222,0.000000
4223,0.000000
4224,0.000000
4225,0.000000
4226,0.000000
4227,0.000000
4228,1.953125
4229,1.953125
4230,1.953125
4231,1.953125
4232,1.953125
4233,1.953125
4234,3.906250
4235,3.906250
4236,3.906250
4237,3.906250
4238,3.906250
4239,3.906250
4240,5.859375
4241,5.859375
4242,5.859375
4243,5.859375
4244,5.859375
4245,5.859375
4246,5.859375
4247,5.859375
4248,7.812500
4249,7.812500
4250,7.812500
4251,7.812500
4252,7.812500
4253,7.812500
4254,7.812500
4255,7.812500
4256,7.812500
4257,9.765625
4258,9.765625
4259,9.765625
4260,9.765625
4261,7.812500
4262,9.765625
4263,9.765625
4264,9.765625
4265,9.765625
4266,13.671875
4267,11.718750
4268,11.718750
4269,11.718750
4270,9.765625
4271,11.718750
4272,11.718750
4273,11.718750
4274,11.718750
4275,11.718750
4276,11.718750
4277,11.718750
4278,11.718750
4279,11.718750
4280,11.718750
4281,11.718750
4282,11.718750
4283,11.718750
4284,11.718750
4285,11.718750
4286,9.765625
4287,11.718750
4288,11.718750
4289,11.718750
4290,9.765625
4291,9.765625
4292,9.765625
4293,11.718750
4294,9.765625
4295,11.718750
4296,11.718750
4297,9.765625
4298,11.718750
4299,9.765625
4300,9.765625
4301,9.765625
4302,9.765625
4303,9.765625
4304,9.765625
4305,9.765625
4306,9.765625
4307,7.812500
4308,9.765625
4309,7.812500
4310,7.812500
4311,7.812500
4312,7.812500
4313,7.812500
4314,7.812500
4315,5.859375
4316,5.859375
4317,5.859375
4318,5.859375
4319,5.859375
4320,3.906250
4321,5.859375
4322,5.859375
4323,3.906250
4324,3.906250
4325,3.906250
4326,5.859375
4327,3.906250
4328,3.906250
4329,1.953125
4330,3.906250
4331,1.953125
4332,1.953125
4333,1.953125
4334,1.953125
4335,1.953125
4336,0.000000
4337,0.000000
4338,0.000000
4339,0.000000
4340,0.000000
4341,-1.953125
4342,0.000000
4343,-1.953125
4344,-1.953125
4345,-1.953125
4346,-3.906250
4347,-1.953125
4348,-3.906250
4349,-3.906250
4350,-3.906250
4351,-5.859375
4352,-3.906250
4353,-3.906250
4354,-3.906250
4355,-5.859375
4356,-5.859375
4357,-5.859375
4358,-5.859375
4359,-5.859375
4360,-7.812500
4361,-7.812500
4362,-7.812500
4363,-7.812500
4364,-9.765625
4365,-9.765625
4366,-9.765625
4367,-9.765625
4368,-9.765625
4369,-11.718750
4370,-11.718750
4371,-11.718750
4372,-11.718750
4373,-11.718750
4374,-11.718750
4375,-13.671875
4376,-13.671875
4377,-13.671875
4378,-13.671875
4379,-13.671875
4380,-13.671875
4381,-15.625000
4382,-15.625000
4383,-15.625000
4384,-15.625000
4385,-15.625000
4386,-17.578125
4387,-15.625000
4388,-17.578125
4389,-17.578125
4390,-17.578125
4391,-17.578125
4392,-17.578125
4393,-17.578125
4394,-17.578125
4395,-19.531250
4396,-17.578125
4397,-19.531250
4398,-19.531250
4399,-19.531250
4400,-19.531250
4401,-19.531250
4402,-19.531250
4403,-19.531250
4404,-19.531250
4405,-19.531250
4406,-19.531250
4407,-21.484375
4408,-21.484375
4409,-19.531250
4410,-21.484375
4411,-21.484375
4412,-21.484375
4413,-21.484375
4414,-21.484375
4415,-21.484375
4416,-21.484375
4417,-21.484375
4418,-21.484375
4419,-21.484375
4420,-21.484375
4421,-21.484375
4422,-21.484375
4423,-21.484375
4424,-21.484375
4425,-21.484375
4426,-21.484375
4427,-21.484375
4428,-21.484375
4429,-21.484375
4430,-21.484375
4431,-21.484375
4432,-21.484375
4433,-21.484375
4434,-21.484375
4435,-21.484375
4436,-19.531250
4437,-19.531250
4438,-21.484375
4439,-21.484375
4440,-21.484375
4441,-19.531250
4442,-19.531250
4443,-19.531250
4444,-19.531250
4445,-19.531250
4446,-19.531250
4447,-19.531250
4448,-19.531250
4449,-19.531250
4450,-19.531250
4451,-17.578125
4452,-17.578125
4453,-17.578125
4454,-17.578125
4455,-17.578125
4456,-17.578125
4457,-17.578125
4458,-17.578125
4459,-17.578125
4460,-15.625000
4461,-15.625000
4462,-15.625000
4463,-15.625000
4464,-15.625000
4465,-13.671875
4466,-13.671875
4467,-13.671875
4468,-13.671875
4469,-13.671875
4470,-11.718750
4471,-11.718750
4472,-11.718750
4473,-11.718750
4474,-11.718750
4475,-11.718750
4476,-9.765625
4477,-11.718750
4478,-9.765625
4479,-9.765625
4480,-9.765625
4481,-9.765625
4482,-9.765625
4483,-9.765625
4484,-7.812500
4485,-7.812500
4486,-7.812500
4487,-7.812500
4488,-7.812500
4489,-5.859375
4490,-5.859375
4491,-5.859375
4492,-5.859375
4493,-5.859375
4494,-5.859375
4495,-3.906250
4496,-3.906250
4497,-3.906250
4498,-3.906250
4499,-3.906250
4500,-1.953125
4501,-1.953125
4502,-1.953125
4503,-1.953125
4504,-1.953125
4505,0.000000
4506,1.953125
4507,0.000000
4508,0.000000
4509,0.000000
4510,0.000000
4511,0.000000
4512,1.953125
4513,1.953125
4514,1.953125
4515,1.953125
4516,3.906250
4517,3.906250
4518,3.906250
4519,3.906250
4520,3.906250
4521,3.906250
4522,5.859375
4523,5.859375
4524,5.859375
4525,5.859375
4526,5.859375
4527,5.859375
4528,5.859375
4529,7.812500
4530,7.812500
4531,7.812500
4532,7.812500
4533,5.859375
4534,7.812500
4535,7.812500
4536,9.765625
4537,7.812500
4538,9.765625
4539,9.765625
4540,9.765625
4541,9.765625
4542,9.765625
4543,11.718750
4544,9.765625
4545,11.718750
4546,11.718750
4547,9.765625
4548,11.718750
4549,11.718750
4550,9.765625
4551,9.765625
4552,11.718750
4553,11.718750
4554,11.718750
4555,11.718750
4556,11.718750
4557,3.906250
4558,9.765625
4559,11.718750
4560,11.718750
4561,11.718750
4562,11.718750
4563,11.718750
4564,11.718750
4565,11.718750
4566,11.718750
4567,11.718750
4568,11.718750
4569,11.718750
4570,11.718750
4571,11.718750
4572,11.718750
4573,11.718750
4574,11.718750
4575,11.718750
4576,9.765625
4577,11.718750
4578,11.718750
4579,9.765625
4580,11.718750
4581,9.765625
4582,9.765625
4583,9.765625
4584,9.765625
4585,9.765625
4586,9.765625
4587,9.765625
4588,9.765625
4589,9.765625
4590,9.765625
4591,9.765625
4592,9.765625
4593,7.812500
4594,7.812500
4595,9.765625
4596,7.812500
4597,7.812500
4598,7.812500
4599,7.812500
4600,7.812500
4601,7.812500
4602,7.812500
4603,5.859375
4604,7.812500
4605,5.859375
4606,5.859375
4607,5.859375
4608,3.906250
4609,5.859375
4610,5.859375
4611,5.859375
4612,1.953125
4613,3.906250
4614,3.906250
4615,1.953125
4616,3.906250
4617,1.953125
4618,1.953125
4619,1.953125
4620,1.953125
4621,1.953125
4622,0.000000
4623,0.000000
4624,0.000000
4625,0.000000
4626,0.000000
4627,-1.953125
4628,-1.953125
4629,-1.953125
4630,-1.953125
4631,-1.953125
4632,-3.906250
4633,-3.906250
4634,-3.906250
4635,-3.906250
4636,-3.906250
4637,-3.906250
4638,-5.859375
4639,-5.859375
4640,-5.859375
4641,-5.859375
4642,-7.812500
4643,-5.859375
4644,-7.812500
4645,-7.812500
4646,-7.812500
4647,-9.765625
4648,-9.765625
4649,-7.812500
4650,-9.765625
4651,-9.765625
4652,-9.765625
4653,-11.718750
4654,-11.718750
4655,-9.765625
4656,-11.718750
4657,-11.718750
4658,-11.718750
4659,-11.718750
4660,-11.718750
4661,-13.671875
4662,-13.671875
4663,-13.671875
4664,-13.671875
4665,-13.671875
4666,-15.625000
4667,-15.625000
4668,-15.625000
4669,-15.625000
4670,-15.625000
4671,-15.625000
4672,-15.625000
4673,-15.625000
4674,-17.578125
4675,-17.578125
4676,-17.578125
4677,-17.578125
4678,-17.578125
4679,-17.578125
4680,-17.578125
4681,-17.578125
4682,-19.531250
4683,-19.531250
4684,-19.531250
4685,-19.531250
4686,-19.531250
4687,-19.531250
4688,-19.531250
4689,-21.484375
4690,-19.531250
4691,-21.484375
4692,-19.531250
4693,-21.484375
4694,-19.531250
4695,-19.531250
4696,-21.484375
4697,-21.484375
4698,-21.484375
4699,-21.484375
4700,-21.484375
4701,-21.484375
4702,-21.484375
4703,-21.484375
4704,-21.484375
4705,-21.484375
4706,-21.484375
4707,-21.484375
4708,-21.484375
4709,-21.484375
4710,-23.437500
4711,-21.484375
4712,-21.484375
4713,-21.484375
4714,-21.484375
4715,-21.484375
4716,-19.531250
4717,-21.484375
4718,-17.578125
4719,-21.484375
4720,-21.484375
4721,-19.531250
4722,-19.531250
4723,-21.484375
4724,-19.531250
4725,-19.531250
4726,-19.531250
4727,-19.531250
4728,-19.531250
4729,-19.531250
4730,-19.531250
4731,-19.531250
4732,-19.531250
4733,-17.578125
4734,-17.578125
4735,-17.578125
4736,-17.578125
4737,-17.578125
4738,-17.578125
4739,-17.578125
4740,-17.578125
4741,-15.625000
4742,-15.625000
4743,-17.578125
4744,-15.625000
4745,-15.625000
4746,-15.625000
4747,-15.625000
4748,-13.671875
4749,-15.625000
4750,-13.671875
4751,-13.671875
4752,-15.625000
4753,-13.671875
4754,-13.671875
4755,-11.718750
4756,-11.718750
4757,-15.625000
4758,-11.718750
4759,-11.718750
4760,-11.718750
4761,-11.718750
4762,-11.718750
4763,-9.765625
4764,-9.765625
4765,-9.765625
4766,-9.765625
4767,-9.765625
4768,-9.765625
4769,-9.765625
4770,-7.812500
4771,-7.812500
4772,-7.812500
4773,-5.859375
4774,-7.812500
4775,-5.859375
4776,-5.859375
4777,-5.859375
4778,-3.906250
4779,-3.906250
4780,-3.906250
4781,0.000000
4782,-3.906250
4783,-3.906250
4784,-1.953125
4785,-1.953125
4786,-1.953125
4787,-1.953125
4788,0.000000
4789,-1.953125
4790,0.000000
4791,0.000000
4792,0.000000
4793,0.000000
4794,1.953125
4795,3.906250
4796,1.953125
4797,1.953125
4798,1.953125
4799,1.953125
4800,1.953125
4801,3.906250
4802,3.906250
4803,3.906250
4804,3.906250
4805,3.906250
4806,3.906250
4807,3.906250
4808,5.859375
4809,5.859375
4810,5.859375
4811,5.859375
4812,5.859375
4813,5.859375
4814,7.812500
4815,5.859375
4816,5.859375
4817,5.859375
4818,7.812500
4819,7.812500
4820,7.812500
4821,7.812500
4822,9.765625
4823,7.812500
4824,9.765625
4825,7.812500
4826,9.765625
4827,7.812500
4828,7.812500
4829,9.765625
4830,9.765625
4831,9.765625
4832,9.765625
4833,9.765625
4834,9.765625
4835,11.718750
4836,11.718750
4837,9.765625
4838,9.765625
4839,9.765625
4840,9.765625
4841,11.718750
4842,11.718750
4843,9.765625
4844,11.718750
4845,11.718750
4846,11.718750
4847,11.718750
4848,13.671875
4849,11.718750
4850,11.718750
4851,11.718750
4852,11.718750
4853,11.718750
4854,11.718750
4855,11.718750
4856,11.718750
4857,11.718750
4858,11.718750
4859,11.718750
4860,11.718750
4861,11.718750
4862,11.718750
4863,9.765625
4864,11.718750
4865,9.765625
4866,9.765625
4867,9.765625
4868,9.765625
4869,9.765625
4870,9.765625
4871,9.765625
4872,9.765625
4873,9.765625
4874,9.765625
4875,9.765625
4876,9.765625
4877,9.765625
4878,7.812500
4879,9.765625
4880,7.812500
4881,7.812500
4882,7.812500
4883,7.812500
4884,5.859375
4885,7.812500
4886,7.812500
4887,5.859375
4888,7.812500
4889,5.859375
4890,3.906250
4891,5.859375
4892,3.906250
4893,3.906250
4894,3.906250
4895,3.906250
4896,3.906250
4897,3.906250
4898,1.953125
4899,1.953125
4900,1.953125
4901,1.953125
4902,1.953125
4903,1.953125
4904,1.953125
4905,0.000000
4906,1.953125
4907,0.000000
4908,0.000000
4909,0.000000
4910,0.000000
4911,0.000000
4912,-1.953125
4913,-1.953125
4914,-1.953125
4915,-1.953125
4916,-3.906250
4917,-3.906250
4918,-7.812500
4919,-3.906250
4920,-5.859375
4921,-5.859375
4922,-3.906250
4923,-5.859375
4924,-5.859375
4925,-5.859375
4926,-7.812500
4927,-5.859375
4928,-5.859375
4929,-7.812500
4930,-7.812500
4931,-7.812500
4932,-7.812500
4933,-9.765625
4934,-9.765625
4935,-9.765625
4936,-9.765625
4937,-9.765625
4938,-9.765625
4939,-11.718750
4940,-11.718750
4941,-11.718750
4942,-11.718750
4943,-11.718750
4944,-13.671875
4945,-13.671875
4946,-13.671875
4947,-13.671875
4948,-13.671875
4949,-13.671875
4950,-15.625000
4951,-15.625000
4952,-15.625000
4953,-15.625000
4954,-15.625000
4955,-17.578125
4956,-17.578125
4957,-17.578125
4958,-17.578125
4959,-17.578125
4960,-17.578125
4961,-19.531250
4962,-17.578125
4963,-17.578125
4964,-19.531250
4965,-19.531250
4966,-19.531250
4967,-19.531250
4968,-19.531250
4969,-19.531250
4970,-19.531250
4971,-19.531250
4972,-19.531250
4973,-19.531250
4974,-19.531250
4975,-19.531250
4976,-19.531250
4977,-21.484375
4978,-19.531250
4979,-19.531250
4980,-21.484375
4981,-21.484375
4982,-21.484375
4983,-21.484375
4984,-21.484375
4985,-21.484375
4986,-21.484375
4987,-19.531250
4988,-21.484375
4989,-21.484375
4990,-21.484375
4991,-21.484375
4992,-21.484375
4993,-21.484375
4994,-21.484375
4995,-21.484375
4996,-19.531250
4997,-21.484375
4998,-21.484375
4999,-21.484375
5000,-21.484375
5001,-21.484375
5002,-21.484375
5003,-21.484375
5004,-21.484375
5005,-19.531250
5006,-21.484375
5007,-19.531250
5008,-19.531250
5009,-19.531250
5010,-19.531250
5011,-19.531250
5012,-19.531250
5013,-19.531250
5014,-19.531250
5015,-19.531250
5016,-19.531250
5017,-19.531250
5018,-17.578125
5019,-17.578125
5020,-17.578125
5021,-17.578125
5022,-17.578125
5023,-17.578125
5024,-17.578125
5025,-17.578125
5026,-15.625000
5027,-17.578125
5028,-15.625000
5029,-15.625000
5030,-15.625000
5031,-15.625000
5032,-15.625000
5033,-13.671875
5034,-13.671875
5035,-13.671875
5036,-13.671875
5037,-11.718750
5038,-11.718750
5039,-11.718750
5040,-11.718750
5041,-13.671875
5042,-11.718750
5043,-11.718750
5044,-11.718750
5045,-9.765625
5046,-9.765625
5047,-9.765625
5048,-9.765625
5049,-7.812500
5050,-7.812500
5051,-7.812500
5052,-7.812500
5053,-7.812500
5054,-7.812500
5055,-7.812500
5056,-7.812500
5057,-5.859375
5058,-5.859375
5059,-5.859375
5060,-5.859375
5061,-3.906250
5062,-3.906250
5063,-3.906250
5064,-3.906250
5065,-3.906250
5066,-3.906250
5067,-3.906250
5068,-1.953125
5069,-1.953125
5070,-1.953125
5071,-1.953125
5072,0.000000
5073,0.000000
5074,0.000000
5075,0.000000
5076,0.000000
5077,0.000000
5078,1.953125
5079,0.000000
5080,1.953125
5081,1.953125
5082,1.953125
5083,1.953125
5084,1.953125
5085,3.906250
5086,3.906250
5087,1.953125
5088,3.906250
5089,3.906250
5090,3.906250
5091,5.859375
5092,5.859375
5093,5.859375
5094,5.859375
5095,5.859375
5096,5.859375
5097,5.859375
5098,5.859375
5099,7.812500
5100,7.812500
5101,7.812500
5102,7.812500
5103,7.812500
5104,7.812500
5105,7.812500
5106,9.765625
5107,9.765625
5108,7.812500
5109,9.765625
5110,9.765625
5111,9.765625
5112,9.765625
5113,9.765625
5114,7.812500
5115,9.765625
5116,9.765625
5117,11.718750
5118,9.765625
5119,11.718750
5120,11.718750
5121,11.718750
5122,11.718750
5123,11.718750
5124,11.718750
5125,11.718750
5126,11.718750
5127,11.718750
5128,11.718750
5129,11.718750
5130,11.718750
5131,11.718750
5132,11.718750
5133,11.718750
5134,11.718750
5135,11.718750
5136,11.718750
5137,11.718750
5138,11.718750
5139,11.718750
5140,11.718750
5141,11.718750
5142,11.718750
5143,11.718750
5144,11.718750
5145,11.718750
5146,11.718750
5147,11.718750
5148,9.765625
5149,9.765625
5150,9.765625
5151,11.718750
5152,9.765625
5153,11.718750
5154,9.765625
5155,9.765625
5156,9.765625
5157,9.765625
5158,9.765625
5159,7.812500
5160,7.812500
5161,7.812500
5162,7.812500
5163,7.812500
5164,7.812500
5165,7.812500
5166,7.812500
5167,7.812500
5168,5.859375
5169,7.812500
5170,5.859375
5171,5.859375
5172,5.859375
5173,5.859375
5174,5.859375
5175,5.859375
5176,5.859375
5177,3.906250
5178,5.859375
5179,3.906250
5180,3.906250
5181,3.906250
5182,3.906250
5183,1.953125
5184,1.953125
5185,1.953125
5186,1.953125
5187,1.953125
5188,1.953125
5189,1.953125
5190,0.000000
5191,0.000000
5192,0.000000
5193,0.000000
5194,0.000000
5195,0.000000
5196,0.000000
5197,-1.953125
5198,-1.953125
5199,-3.906250
5200,-3.906250
5201,-3.906250
5202,-3.906250
5203,-3.906250
5204,-3.906250
5205,-5.859375
5206,-5.859375
5207,-5.859375
5208,-5.859375
5209,-5.859375
5210,-5.859375
5211,-5.859375
5212,-7.812500
5213,-7.812500
5214,-7.812500
5215,-7.812500
5216,-7.812500
5217,-9.765625
5218,-9.765625
5219,-9.765625
5220,-9.765625
5221,-9.765625
5222,-11.718750
5223,-11.718750
5224,-11.718750
5225,-11.718750
5226,-11.718750
5227,-11.718750
5228,-11.718750
5229,-13.671875
5230,-13.671875
5231,-13.671875
5232,-13.671875
5233,-13.671875
5234,-13.671875
5235,-15.625000
5236,-15.625000
5237,-15.625000
5238,-15.625000
5239,-15.625000
5240,-17.578125
5241,-15.625000
5242,-17.578125
5243,-17.578125
5244,-17.578125
5245,-17.578125
5246,-17.578125
5247,-19.531250
5248,-17.578125
5249,-17.578125
5250,-19.531250
5251,-19.531250
5252,-19.531250
5253,-19.531250
5254,-19.531250
5255,-19.531250
5256,-19.531250
5257,-19.531250
5258,-19.531250
5259,-21.484375
5260,-19.531250
5261,-19.531250
5262,-21.484375
5263,-21.484375
5264,-21.484375
5265,-21.484375
5266,-19.531250
5267,-21.484375
5268,-21.484375
5269,-21.484375
5270,-21.484375
5271,-21.484375
5272,-21.484375
5273,-21.484375
5274,-21.484375
5275,-21.484375
5276,-21.484375
5277,-21.484375
5278,-21.484375
5279,-21.484375
5280,-21.484375
5281,-21.484375
5282,-21.484375
5283,-21.484375
5284,-21.484375
5285,-21.484375
5286,-21.484375
5287,-21.484375
5288,-21.484375
5289,-21.484375
5290,-21.484375
5291,-21.484375
5292,-19.531250
5293,-19.531250
5294,-21.484375
5295,-19.531250
5296,-19.531250
5297,-19.531250
5298,-19.531250
5299,-19.531250
5300,-19.531250
5301,-17.578125
5302,-19.531250
5303,-17.578125
5304,-19.531250
5305,-19.531250
5306,-17.578125
5307,-17.578125
5308,-17.578125
5309,-17.578125
5310,-17.578125
5311,-17.578125
5312,-15.625000
5313,-15.625000
5314,-15.625000
5315,-15.625000
5316,-15.625000
5317,-15.625000
5318,-13.671875
5319,-13.671875
5320,-13.671875
5321,-13.671875
5322,-13.671875
5323,-13.671875
5324,-11.718750
5325,-11.718750
5326,-11.718750
5327,-11.718750
5328,-11.718750
5329,-11.718750
5330,-9.765625
5331,-11.718750
5332,-9.765625
5333,-9.765625
5334,-9.765625
5335,-9.765625
5336,-9.765625
5337,-7.812500
5338,-7.812500
5339,-7.812500
5340,-7.812500
5341,-7.812500
5342,-5.859375
5343,-5.859375
5344,-5.859375
5345,-7.812500
5346,-5.859375
5347,-5.859375
5348,-3.906250
5349,-3.906250
5350,-3.906250
5351,-3.906250
5352,-3.906250
5353,-1.953125
5354,-1.953125
5355,-1.953125
5356,-1.953125
5357,-1.953125
5358,-1.953125
5359,0.000000
5360,-1.953125
5361,0.000000
5362,0.000000
5363,0.000000
5364,0.000000
5365,1.953125
5366,1.953125
5367,1.953125
5368,3.906250
5369,1.953125
5370,1.953125
5371,3.906250
5372,3.906250
5373,3.906250
5374,3.906250
5375,3.906250
5376,3.906250
5377,5.859375
5378,5.859375
5379,5.859375
5380,5.859375
5381,7.812500
5382,5.859375
5383,7.812500
5384,5.859375
5385,7.812500
5386,5.859375
5387,7.812500
5388,7.812500
5389,7.812500
5390,9.765625
5391,9.765625
5392,7.812500
5393,9.765625
5394,9.765625
5395,9.765625
5396,9.765625
5397,7.812500
5398,9.765625
5399,9.765625
5400,9.765625
5401,9.765625
5402,9.765625
5403,11.718750
5404,9.765625
5405,11.718750
5406,9.765625
5407,9.765625
5408,11.718750
5409,11.718750
5410,11.718750
5411,9.765625
5412,11.718750
5413,11.718750
5414,11.718750
5415,11.718750
5416,9.765625
5417,11.718750
5418,11.718750
5419,11.718750
5420,11.718750
5421,11.718750
5422,11.718750
5423,5.859375
5424,11.718750
5425,11.718750
5426,11.718750
5427,11.718750
5428,11.718750
5429,11.718750
5430,11.718750
5431,11.718750
5432,9.765625
5433,9.765625
5434,9.765625
5435,9.765625
5436,9.765625
5437,9.765625
5438,9.765625
5439,9.765625
5440,9.765625
5441,9.765625
5442,9.765625
5443,9.765625
5444,9.765625
5445,7.812500
5446,7.812500
5447,7.812500
5448,7.812500
5449,7.812500
5450,7.812500
5451,7.812500
5452,7.812500
5453,7.812500
5454,7.812500
5455,7.812500
5456,5.859375
5457,5.859375
5458,5.859375
5459,5.859375
5460,5.859375
5461,3.906250
5462,5.859375
5463,3.906250
5464,3.906250
5465,3.906250
5466,3.906250
5467,3.906250
5468,1.953125
5469,-1.953125
5470,1.953125
5471,1.953125
5472,1.953125
5473,0.000000
5474,0.000000
5475,0.000000
5476,0.000000
5477,0.000000
5478,0.000000
5479,-1.953125
5480,-1.953125
5481,-1.953125
5482,-1.953125
5483,-1.953125
5484,-3.906250
5485,-1.953125
5486,-3.906250
5487,-3.906250
5488,-5.859375
5489,-3.906250
5490,-3.906250
5491,-5.859375
5492,-5.859375
5493,-5.859375
5494,-5.859375
5495,-7.812500
5496,-5.859375
5497,-7.812500
5498,-7.812500
5499,-7.812500
5500,-7.812500
5501,-9.765625
5502,-9.765625
5503,-9.765625
5504,-9.765625
5505,-9.765625
5506,-11.718750
5507,-11.718750
5508,-11.718750
5509,-11.718750
5510,-13.671875
5511,-11.718750
5512,-11.718750
5513,-13.671875
5514,-13.671875
5515,-13.671875
5516,-13.671875
5517,-13.671875
5518,-13.671875
5519,-15.625000
5520,-15.625000
5521,-15.625000
5522,-15.625000
5523,-15.625000
5524,-15.625000
5525,-15.625000
5526,-17.578125
5527,-17.578125
5528,-17.578125
5529,-17.578125
5530,-17.578125
5531,-17.578125
5532,-17.578125
5533,-17.578125
5534,-19.531250
5535,-19.531250
5536,-19.531250
5537,-19.531250
5538,-19.531250
5539,-21.484375
5540,-19.531250
5541,-19.531250
5542,-19.531250
5543,-19.531250
5544,-21.484375
5545,-19.531250
5546,-19.531250
5547,-21.484375
5548,-21.484375
5549,-21.484375
5550,-21.484375
5551,-21.484375
5552,-21.484375
5553,-21.484375
5554,-21.484375
5555,-21.484375
5556,-21.484375
5557,-21.484375
5558,-21.484375
5559,-21.484375
5560,-21.484375
5561,-21.484375
5562,-21.484375
5563,-19.531250
5564,-21.484375
5565,-21.484375
5566,-21.484375
5567,-21.484375
5568,-21.484375
5569,-21.484375
5570,-21.484375
5571,-19.531250
5572,-19.531250
5573,-19.531250
5574,-19.531250
5575,-19.531250
5576,-19.531250
5577,-19.531250
5578,-19.531250
5579,-19.531250
5580,-19.531250
5581,-19.531250
5582,-19.531250
5583,-19.531250
5584,-19.531250
5585,-17.578125
5586,-17.578125
5587,-17.578125
5588,-17.578125
5589,-17.578125
5590,-17.578125
5591,-17.578125
5592,-15.625000
5593,-17.578125
5594,-15.625000
5595,-15.625000
5596,-15.625000
5597,-15.625000
5598,-15.625000
5599,-15.625000
5600,-15.625000
5601,-13.671875
5602,-13.671875
5603,-13.671875
5604,-13.671875
5605,-13.671875
5606,-13.671875
5607,-13.671875
5608,-13.671875
5609,-11.718750
5610,-11.718750
5611,-11.718750
5612,-11.718750
5613,-11.718750
5614,-11.718750
5615,-9.765625
5616,-9.765625
5617,-9.765625
5618,-9.765625
5619,-7.812500
5620,-7.812500
5621,-7.812500
5622,-7.812500
5623,-7.812500
5624,-7.812500
5625,-5.859375
5626,-5.859375
5627,-5.859375
5628,-5.859375
5629,-3.906250
5630,-3.906250
5631,-3.906250
5632,-3.906250
5633,-3.906250
5634,-3.906250
5635,-1.953125
5636,-1.953125
5637,-1.953125
5638,-1.953125
5639,-1.953125
5640,0.000000
5641,0.000000
5642,0.000000
5643,0.000000
5644,0.000000
5645,0.000000
5646,1.953125
5647,1.953125
5648,1.953125
5649,1.953125
5650,1.953125
5651,3.906250
5652,1.953125
5653,3.906250
5654,3.906250
5655,3.906250
5656,3.906250
5657,3.906250
5658,3.906250
5659,5.859375
5660,5.859375
5661,5.859375
5662,5.859375
5663,5.859375
5664,5.859375
5665,7.812500
5666,7.812500
5667,7.812500
5668,7.812500
5669,7.812500
5670,7.812500
5671,7.812500
5672,7.812500
5673,7.812500
5674,9.765625
5675,9.765625
5676,7.812500
5677,9.765625
5678,9.765625
5679,9.765625
5680,9.765625
5681,9.765625
5682,9.765625
5683,9.765625
5684,9.765625
5685,9.765625
5686,9.765625
5687,11.718750
5688,9.765625
5689,11.718750
5690,11.718750
5691,11.718750
5692,11.718750
5693,11.718750
5694,11.718750
5695,11.718750
5696,11.718750
5697,11.718750
5698,11.718750
5699,11.718750
5700,11.718750
5701,11.718750
5702,11.718750
5703,11.718750
5704,11.718750
5705,11.718750
5706,11.718750
5707,11.718750
5708,11.718750
5709,11.718750
5710,11.718750
5711,11.718750
5712,11.718750
5713,11.718750
5714,11.718750
5715,11.718750
5716,11.718750
5717,11.718750
5718,9.765625
5719,9.765625
5720,9.765625
5721,9.765625
5722,9.765625
5723,9.765625
5724,9.765625
5725,9.765625
5726,9.765625
5727,7.812500
5728,9.765625
5729,7.812500
5730,7.812500
5731,7.812500
5732,7.812500
5733,7.812500
5734,5.859375
5735,7.812500
5736,7.812500
5737,5.859375
5738,5.859375
5739,5.859375
5740,5.859375
5741,5.859375
5742,5.859375
5743,3.906250
5744,5.859375
5745,3.906250
5746,3.906250
5747,3.906250
5748,3.906250
5749,3.906250
5750,1.953125
5751,1.953125
5752,1.953125
5753,1.953125
5754,1.953125
5755,1.953125
5756,1.953125
5757,0.000000
5758,1.953125
5759,0.000000
5760,1.953125
5761,0.000000
5762,0.000000
5763,-1.953125
5764,-1.953125
5765,-1.953125
5766,-1.953125
5767,-1.953125
5768,-3.906250
5769,-1.953125
5770,-3.906250
5771,-3.906250
5772,-5.859375
5773,-3.906250
5774,-3.906250
5775,-5.859375
5776,-5.859375
5777,-5.859375
5778,-5.859375
5779,-5.859375
5780,-7.812500
5781,-9.765625
5782,-7.812500
5783,-7.812500
5784,-7.812500
5785,-9.765625
5786,-9.765625
5787,-9.765625
5788,-9.765625
5789,-9.765625
5790,-11.718750
5791,-11.718750
5792,-11.718750
5793,-11.718750
5794,-13.671875
5795,-11.718750
5796,-13.671875
5797,-13.671875
5798,-13.671875
5799,-13.671875
5800,-13.671875
5801,-15.625000
5802,-15.625000
5803,-15.625000
5804,-15.625000
5805,-15.625000
5806,-15.625000
5807,-15.625000
5808,-17.578125
5809,-17.578125
5810,-17.578125
5811,-17.578125
5812,-17.578125
5813,-17.578125
5814,-17.578125
5815,-17.578125
5816,-17.578125
5817,-19.531250
5818,-19.531250
5819,-19.531250
5820,-19.531250
5821,-19.531250
5822,-21.484375
5823,-19.531250
5824,-21.484375
5825,-19.531250
5826,-19.531250
5827,-21.484375
5828,-19.531250
5829,-21.484375
5830,-21.484375
5831,-21.484375
5832,-21.484375
5833,-21.484375
5834,-21.484375
5835,-19.531250
5836,-21.484375
5837,-21.484375
5838,-21.484375
5839,-21.484375
5840,-21.484375
5841,-19.531250
5842,-21.484375
5843,-21.484375
5844,-21.484375
5845,-21.484375
5846,-21.484375
5847,-21.484375
5848,-21.484375
5849,-21.484375
5850,-21.484375
5851,-21.484375
5852,-19.531250
5853,-21.484375
5854,-21.484375
5855,-21.484375
5856,-21.484375
5857,-21.484375
5858,-21.484375
5859,-19.531250
5860,-21.484375
5861,-21.484375
5862,-19.531250
5863,-21.484375
5864,-19.531250
5865,-19.531250
5866,-19.531250
5867,-19.531250
5868,-19.531250
5869,-19.531250
5870,-19.531250
5871,-19.531250
5872,-19.531250
5873,-17.578125
5874,-15.625000
5875,-17.578125
5876,-17.578125
5877,-17.578125
5878,-17.578125
5879,-15.625000
5880,-17.578125
5881,-15.625000
5882,-15.625000
5883,-15.625000
5884,-13.671875
5885,-15.625000
5886,-15.625000
5887,-13.671875
5888,-13.671875
5889,-15.625000
5890,-13.671875
5891,-13.671875
5892,-13.671875
5893,-11.718750
5894,-11.718750
5895,-11.718750
5896,-11.718750
5897,-11.718750
5898,-9.765625
5899,-9.765625
5900,-9.765625
5901,-9.765625
5902,-9.765625
5903,-7.812500
5904,-7.812500
5905,-7.812500
5906,-7.812500
5907,-7.812500
5908,-7.812500
5909,-7.812500
5910,-5.859375
5911,-5.859375
5912,-3.906250
5913,-5.859375
5914,-3.906250
5915,-5.859375
5916,-3.906250
5917,-3.906250
5918,-3.906250
5919,-3.906250
5920,-1.953125
5921,-1.953125
5922,-1.953125
5923,-1.953125
5924,-1.953125
5925,-1.953125
5926,-1.953125
5927,0.000000
5928,0.000000
5929,-1.953125
5930,0.000000
5931,1.953125
5932,1.953125
5933,0.000000
5934,1.953125
5935,1.953125
5936,1.953125
5937,3.906250
5938,3.906250
5939,3.906250
5940,3.906250
5941,3.906250
5942,3.906250
5943,3.906250
5944,5.859375
5945,5.859375
5946,1.953125
5947,5.859375
5948,5.859375
5949,7.812500
5950,5.859375
5951,5.859375
5952,5.859375
5953,7.812500
5954,7.812500
5955,7.812500
5956,7.812500
5957,7.812500
5958,7.812500
5959,9.765625
5960,7.812500
5961,9.765625
5962,9.765625
5963,7.812500
5964,9.765625
5965,13.671875
5966,9.765625
5967,9.765625
5968,9.765625
5969,11.718750
5970,9.765625
5971,9.765625
5972,11.718750
5973,11.718750
5974,11.718750
5975,11.718750
5976,11.718750
5977,11.718750
5978,11.718750
5979,11.718750
5980,11.718750
5981,11.718750
5982,11.718750
5983,11.718750
5984,11.718750
5985,11.718750
5986,11.718750
5987,11.718750
5988,11.718750
5989,11.718750
5990,11.718750
5991,11.718750
5992,11.718750
5993,11.718750
5994,11.718750
5995,11.718750
5996,11.718750
5997,11.718750
5998,9.765625
5999,11.718750
6000,9.765625
6001,11.718750
6002,11.718750
6003,9.765625
6004,9.765625
6005,9.765625
6006,9.765625
6007,9.765625
6008,9.765625
6009,9.765625
6010,9.765625
6011,9.765625
6012,9.765625
6013,9.765625
6014,9.765625
6015,9.765625
6016,7.812500
6017,7.812500
6018,7.812500
6019,7.812500
6020,7.812500
6021,7.812500
6022,7.812500
6023,7.812500
6024,5.859375
6025,5.859375
6026,5.859375
6027,5.859375
6028,7.812500
6029,5.859375
6030,5.859375
6031,5.859375
6032,3.906250
6033,3.906250
6034,3.906250
6035,3.906250
6036,3.906250
6037,1.953125
6038,1.953125
6039,1.953125
6040,1.953125
6041,1.953125
6042,1.953125
6043,0.000000
6044,0.000000
6045,0.000000
6046,0.000000
6047,0.000000
6048,0.000000
6049,-3.906250
6050,-1.953125
6051,-1.953125
6052,-1.953125
6053,-3.906250
6054,-3.906250
6055,-3.906250
6056,-3.906250
6057,-3.906250
6058,-3.906250
6059,-5.859375
6060,-5.859375
6061,-5.859375
6062,-5.859375
6063,-7.812500
6064,-7.812500
6065,-7.812500
6066,-7.812500
6067,-7.812500
6068,-7.812500
6069,-9.765625
6070,-9.765625
6071,-9.765625
6072,-9.765625
6073,-9.765625
6074,-11.718750
6075,-11.718750
6076,-11.718750
6077,-11.718750
6078,-11.718750
6079,-13.671875
6080,-7.812500
6081,-11.718750
6082,-17.578125
6083,-13.671875
6084,-13.671875
6085,-13.671875
6086,-13.671875
6087,-13.671875
6088,-15.625000
6089,-15.625000
6090,-11.718750
6091,-15.625000
6092,-15.625000
6093,-15.625000
6094,-15.625000
6095,-17.578125
6096,-17.578125
6097,-15.625000
6098,-17.578125
6099,-17.578125
6100,-17.578125
6101,-17.578125
6102,-19.531250
6103,-17.578125
6104,-19.531250
6105,-19.531250
6106,-19.531250
6107,-19.531250
6108,-19.531250
6109,-19.531250
6110,-19.531250
6111,-19.531250
6112,-19.531250
6113,-19.531250
6114,-21.484375
6115,-19.531250
6116,-21.484375
6117,-21.484375
6118,-21.484375
6119,-21.484375
6120,-21.484375
6121,-21.484375
6122,-21.484375
6123,-21.484375
6124,-21.484375
6125,-21.484375
6126,-21.484375
6127,-21.484375
6128,-21.484375
6129,-21.484375
6130,-21.484375
6131,-21.484375
6132,-21.484375
6133,-19.531250
6134,-21.484375
6135,-21.484375
6136,-21.484375
6137,-21.484375
6138,-21.484375
6139,-21.484375
6140,-19.531250
6141,-21.484375
6142,-21.484375
6143,-21.484375
6144,-19.531250
6145,-19.531250
6146,-19.531250
6147,-19.531250
6148,-19.531250
6149,-19.531250
6150,-19.531250
6151,-19.531250
6152,-17.578125
6153,-19.531250
6154,-17.578125
6155,-13.671875
6156,-17.578125
6157,-17.578125
6158,-17.578125
6159,-17.578125
6160,-17.578125
6161,-15.625000
6162,-15.625000
6163,-15.625000
6164,-15.625000
6165,-15.625000
6166,-15.625000
6167,-15.625000
6168,-15.625000
6169,-13.671875
6170,-13.671875
6171,-13.671875
6172,-13.671875
6173,-13.671875
6174,-13.671875
6175,-11.718750
6176,-13.671875
6177,-11.718750
6178,-11.718750
6179,-11.718750
6180,-11.718750
6181,-11.718750
6182,-11.718750
6183,-11.718750
6184,-9.765625
6185,-9.765625
6186,-9.765625
6187,-9.765625
6188,-7.812500
6189,-7.812500
6190,-7.812500
6191,-7.812500
6192,-7.812500
6193,-7.812500
6194,-7.812500
6195,-5.859375
6196,-5.859375
6197,-5.859375
6198,-5.859375
6199,-5.859375
6200,-3.906250
6201,-3.906250
6202,-3.906250
6203,-3.906250
6204,-3.906250
6205,-1.953125
6206,-1.953125
6207,-1.953125
6208,-1.953125
6209,1.953125
6210,0.000000
6211,0.000000
6212,0.000000
6213,0.000000
6214,1.953125
6215,1.953125
6216,1.953125
6217,1.953125
6218,1.953125
6219,1.953125
6220,1.953125
6221,3.906250
6222,3.906250
6223,3.906250
6224,3.906250
6225,3.906250
6226,3.906250
6227,5.859375
6228,5.859375
6229,5.859375
6230,5.859375
6231,5.859375
6232,5.859375
6233,5.859375
6234,7.812500
6235,7.812500
6236,7.812500
6237,7.812500
6238,7.812500
6239,7.812500
6240,7.812500
6241,7.812500
6242,7.812500
6243,7.812500
6244,9.765625
6245,9.765625
6246,9.765625
6247,9.765625
6248,11.718750
6249,9.765625
6250,9.765625
6251,9.765625
6252,9.765625
6253,9.765625
6254,9.765625
6255,11.718750
6256,11.718750
6257,9.765625
6258,9.765625
6259,9.765625
6260,11.718750
6261,11.718750
6262,9.765625
6263,11.718750
6264,11.718750
6265,9.765625
6266,11.718750
6267,11.718750
6268,11.718750
6269,11.718750
6270,11.718750
6271,13.671875
6272,11.718750
6273,11.718750
6274,11.718750
6275,11.718750
6276,11.718750
6277,9.765625
6278,11.718750
6279,11.718750
6280,13.671875
6281,11.718750
6282,9.765625
6283,9.765625
6284,9.765625
6285,11.718750
6286,11.718750
6287,9.765625
6288,11.718750
6289,9.765625
6290,9.765625
6291,9.765625
6292,9.765625
6293,9.765625
6294,9.765625
6295,9.765625
6296,9.765625
6297,9.765625
6298,7.812500
6299,9.765625
6300,7.812500
6301,7.812500
6302,7.812500
6303,7.812500
6304,7.812500
6305,7.812500
6306,5.859375
6307,5.859375
6308,5.859375
6309,5.859375
6310,5.859375
6311,5.859375
6312,3.906250
6313,3.906250
6314,3.906250
6315,5.859375
6316,3.906250
6317,3.906250
6318,1.953125
6319,3.906250
6320,1.953125
6321,3.906250
6322,1.953125
6323,1.953125
6324,1.953125
6325,0.000000
6326,0.000000
6327,0.000000
6328,0.000000
6329,-1.953125
6330,-1.953125
6331,0.000000
6332,0.000000
6333,-1.953125
6334,-1.953125
6335,-3.906250
6336,-3.906250
6337,-3.906250
6338,-3.906250
6339,-3.906250
6340,-3.906250
6341,-3.906250
6342,-5.859375
6343,-5.859375
6344,-5.859375
6345,-5.859375
6346,-5.859375
6347,-7.812500
6348,-7.812500
6349,-7.812500
6350,-7.812500
6351,-7.812500
6352,-9.765625
6353,-7.812500
6354,-7.812500
6355,-9.765625
6356,-9.765625
6357,-11.718750
6358,-11.718750
6359,-11.718750
6360,-11.718750
6361,-11.718750
6362,-11.718750
6363,-13.671875
6364,-13.671875
6365,-13.671875
6366,-13.671875
6367,-13.671875
6368,-13.671875
6369,-15.625000
6370,-13.671875
6371,-15.625000
6372,-15.625000
6373,-15.625000
6374,-15.625000
6375,-15.625000
6376,-17.578125
6377,-17.578125
6378,-17.578125
6379,-17.578125
6380,-17.578125
6381,-17.578125
6382,-17.578125
6383,-19.531250
6384,-19.531250
6385,-19.531250
6386,-19.531250
6387,-19.531250
6388,-19.531250
6389,-19.531250
6390,-19.531250
6391,-19.531250
6392,-19.531250
6393,-19.531250
6394,-21.484375
6395,-21.484375
6396,-19.531250
6397,-21.484375
6398,-19.531250
6399,-21.484375
6400,-21.484375
6401,-21.484375
6402,-21.484375
6403,-21.484375
6404,-21.484375
6405,-23.437500
6406,-21.484375
6407,-21.484375
6408,-21.484375
6409,-21.484375
6410,-21.484375
6411,-17.578125
6412,-21.484375
6413,-21.484375
6414,-21.484375
6415,-21.484375
6416,-21.484375
6417,-21.484375
6418,-21.484375
6419,-21.484375
6420,-21.484375
6421,-19.531250
6422,-19.531250
6423,-21.484375
6424,-21.484375
6425,-21.484375
6426,-19.531250
6427,-21.484375
6428,-19.531250
6429,-19.531250
6430,-19.531250
6431,-19.531250
6432,-19.531250
6433,-19.531250
6434,-19.531250
6435,-19.531250
6436,-17.578125
6437,-19.531250
6438,-17.578125
6439,-19.531250
6440,-19.531250
6441,-17.578125
6442,-17.578125
6443,-17.578125
6444,-17.578125
6445,-17.578125
6446,-17.578125
6447,-17.578125
6448,-15.625000
6449,-15.625000
6450,-15.625000
6451,-15.625000
6452,-15.625000
6453,-15.625000
6454,-15.625000
6455,-13.671875
6456,-13.671875
6457,-13.671875
6458,-13.671875
6459,-13.671875
6460,-13.671875
6461,-11.718750
6462,-11.718750
6463,-11.718750
6464,-11.718750
6465,-11.718750
6466,-9.765625
6467,-9.765625
6468,-9.765625
6469,-9.765625
6470,-7.812500
6471,-9.765625
6472,-7.812500
6473,-7.812500
6474,-7.812500
6475,-9.765625
6476,-5.859375
6477,-5.859375
6478,-5.859375
6479,-5.859375
6480,-5.859375
6481,-5.859375
6482,-5.859375
6483,-3.906250
6484,-3.906250
6485,-3.906250
6486,-3.906250
6487,-1.953125
6488,-3.906250
6489,-1.953125
6490,-1.953125
6491,-1.953125
6492,-1.953125
6493,-1.953125
6494,0.000000
6495,0.000000
6496,0.000000
6497,0.000000
6498,0.000000
6499,0.000000
6500,1.953125
6501,3.906250
6502,1.953125
6503,1.953125
6504,1.953125
6505,1.953125
6506,3.906250
6507,3.906250
6508,3.906250
6509,3.906250
6510,3.906250
6511,5.859375
6512,5.859375
6513,5.859375
6514,5.859375
6515,5.859375
6516,5.859375
6517,5.859375
6518,5.859375
6519,5.859375
6520,7.812500
6521,7.812500
6522,7.812500
6523,7.812500
6524,7.812500
6525,7.812500
6526,9.765625
6527,9.765625
6528,9.765625
6529,9.765625
6530,9.765625
6531,9.765625
6532,9.765625
6533,9.765625
6534,9.765625
6535,9.765625
6536,11.718750
6537,11.718750
6538,11.718750
6539,11.718750
6540,11.718750
6541,9.765625
6542,11.718750
6543,11.718750
6544,11.718750
6545,11.718750
6546,11.718750
6547,11.718750
6548,11.718750
6549,11.718750
6550,11.718750
6551,11.718750
6552,11.718750
6553,11.718750
6554,11.718750
6555,11.718750
6556,11.718750
6557,11.718750
6558,11.718750
6559,11.718750
6560,11.718750
6561,11.718750
6562,11.718750
6563,11.718750
6564,11.718750
6565,11.718750
6566,11.718750
6567,9.765625
6568,11.718750
6569,13.671875
6570,11.718750
6571,9.765625
6572,9.765625
6573,9.765625
6574,9.765625
6575,9.765625
6576,9.765625
6577,9.765625
6578,9.765625
6579,9.765625
6580,9.765625
6581,9.765625
6582,9.765625
6583,7.812500
6584,7.812500
6585,7.812500
6586,7.812500
6587,7.812500
6588,7.812500
6589,7.812500
6590,7.812500
6591,7.812500
6592,5.859375
6593,5.859375
6594,5.859375
6595,5.859375
6596,5.859375
6597,5.859375
6598,5.859375
6599,3.906250
6600,3.906250
6601,3.906250
6602,3.906250
6603,3.906250
6604,3.906250
6605,1.953125
6606,1.953125
6607,1.953125
6608,1.953125
6609,1.953125
6610,1.953125
6611,0.000000
6612,0.000000
6613,0.000000
6614,0.000000
6615,0.000000
6616,-1.953125
6617,-1.953125
6618,0.000000
6619,-1.953125
6620,-3.906250
6621,-1.953125
6622,-3.906250
6623,-3.906250
6624,-3.906250
6625,-3.906250
6626,-3.906250
6627,-5.859375
6628,-5.859375
6629,-5.859375
6630,-5.859375
6631,-5.859375
6632,-5.859375
6633,-7.812500
6634,-7.812500
6635,-7.812500
6636,-7.812500
6637,-7.812500
6638,-9.765625
6639,-13.671875
6640,-9.765625
6641,-9.765625
6642,-9.765625
6643,-11.718750
6644,-11.718750
6645,-11.718750
6646,-11.718750
6647,-11.718750
6648,-11.718750
6649,-13.671875
6650,-13.671875
6651,-13.671875
6652,-13.671875
6653,-13.671875
6654,-13.671875
6655,-9.765625
6656,-15.625000
6657,-15.625000
6658,-15.625000
6659,-15.625000
6660,-15.625000
6661,-15.625000
6662,-17.578125
6663,-15.625000
6664,-17.578125
6665,-17.578125
6666,-17.578125
6667,-17.578125
6668,-19.531250
6669,-17.578125
6670,-17.578125
6671,-17.578125
6672,-17.578125
6673,-19.531250
6674,-19.531250
6675,-19.531250
6676,-19.531250
6677,-19.531250
6678,-19.531250
6679,-19.531250
6680,-19.531250
6681,-19.531250
6682,-19.531250
6683,-21.484375
6684,-21.484375
6685,-19.531250
6686,-19.531250
6687,-19.531250
6688,-21.484375
6689,-21.484375
6690,-21.484375
6691,-21.484375
6692,-21.484375
6693,-21.484375
6694,-21.484375
6695,-21.484375
6696,-21.484375
6697,-21.484375
6698,-21.484375
6699,-21.484375
6700,-23.437500
6701,-21.484375
6702,-21.484375
6703,-21.484375
6704,-21.484375
6705,-21.484375
6706,-21.484375
6707,-19.531250
6708,-21.484375
6709,-21.484375
6710,-21.484375
6711,-19.531250
6712,-19.531250
6713,-19.531250
6714,-19.531250
6715,-19.531250
6716,-19.531250
6717,-19.531250
6718,-19.531250
6719,-19.531250
6720,-19.531250
6721,-17.578125
6722,-19.531250
6723,-19.531250
6724,-17.578125
6725,-17.578125
6726,-17.578125
6727,-17.578125
6728,-17.578125
6729,-15.625000
6730,-15.625000
6731,-15.625000
6732,-15.625000
6733,-15.625000
6734,-15.625000
6735,-15.625000
6736,-15.625000
6737,-15.625000
6738,-15.625000
6739,-13.671875
6740,-13.671875
6741,-13.671875
6742,-13.671875
6743,-13.671875
6744,-11.718750
6745,-11.718750
6746,-11.718750
6747,-11.718750
6748,-11.718750
6749,-11.718750
6750,-9.765625
6751,-9.765625
6752,-9.765625
6753,-9.765625
6754,-9.765625
6755,-9.765625
6756,-7.812500
6757,-7.812500
6758,-7.812500
6759,-7.812500
6760,-7.812500
6761,-7.812500
6762,-5.859375
6763,-5.859375
6764,-7.812500
6765,-5.859375
6766,-3.906250
6767,-5.859375
6768,-3.906250
6769,-3.906250
6770,-3.906250
6771,-3.906250
6772,-3.906250
6773,-3.906250
6774,-1.953125
6775,-1.953125
6776,0.000000
6777,-1.953125
6778,0.000000
6779,0.000000
6780,0.000000
6781,0.000000
6782,0.000000
6783,0.000000
6784,1.953125
6785,1.953125
6786,1.953125
6787,1.953125
6788,1.953125
6789,1.953125
6790,3.906250
6791,3.906250
6792,3.906250
6793,3.906250
6794,3.906250
6795,5.859375
6796,5.859375
6797,3.906250
6798,5.859375
6799,5.859375
6800,5.859375
6801,5.859375
6802,7.812500
6803,7.812500
6804,7.812500
6805,7.812500
6806,7.812500
6807,11.718750
6808,7.812500
6809,7.812500
6810,9.765625
6811,7.812500
6812,9.765625
6813,9.765625
6814,9.765625
6815,9.765625
6816,9.765625
6817,9.765625
6818,9.765625
6819,9.765625
6820,9.765625
6821,9.765625
6822,9.765625
6823,9.765625
6824,11.718750
6825,9.765625
6826,9.765625
6827,11.718750
6828,11.718750
6829,11.718750
6830,11.718750
6831,11.718750
6832,11.718750
6833,9.765625
6834,11.718750
6835,11.718750
6836,11.718750
6837,11.718750
6838,11.718750
6839,11.718750
6840,11.718750
6841,11.718750
6842,11.718750
6843,11.718750
6844,11.718750
6845,11.718750
6846,11.718750
6847,11.718750
6848,11.718750
6849,9.765625
6850,9.765625
6851,9.765625
6852,11.718750
6853,9.765625
6854,9.765625
6855,9.765625
6856,9.765625
6857,9.765625
6858,9.765625
6859,9.765625
6860,9.765625
6861,9.765625
6862,9.765625
6863,9.765625
6864,9.765625
6865,9.765625
6866,7.812500
6867,7.812500
6868,7.812500
6869,7.812500
6870,7.812500
6871,7.812500
6872,7.812500
6873,7.812500
6874,7.812500
6875,5.859375
6876,7.812500
6877,5.859375
6878,5.859375
6879,5.859375
6880,5.859375
6881,3.906250
6882,5.859375
6883,3.906250
6884,3.906250
6885,3.906250
6886,3.906250
6887,3.906250
6888,1.953125
6889,1.953125
6890,1.953125
6891,1.953125
6892,1.953125
6893,1.953125
6894,1.953125
6895,0.000000
6896,0.000000
6897,0.000000
6898,0.000000
6899,-1.953125
6900,-1.953125
6901,-1.953125
6902,-1.953125
6903,-1.953125
6904,-3.906250
6905,-3.906250
6906,-3.906250
6907,-5.859375
6908,-5.859375
6909,-3.906250
6910,-5.859375
6911,-5.859375
6912,-5.859375
6913,-5.859375
6914,-7.812500
6915,-7.812500
6916,-7.812500
6917,-7.812500
6918,-7.812500
6919,-7.812500
6920,-9.765625
6921,-9.765625
6922,-9.765625
6923,-9.765625
6924,-9.765625
6925,-9.765625
6926,-9.765625
6927,-11.718750
6928,-11.718750
6929,-11.718750
6930,-11.718750
6931,-11.718750
6932,-13.671875
6933,-13.671875
6934,-13.671875
6935,-13.671875
6936,-13.671875
6937,-13.671875
6938,-13.671875
6939,-13.671875
6940,-15.625000
6941,-15.625000
6942,-15.625000
6943,-15.625000
6944,-17.578125
6945,-15.625000
6946,-15.625000
6947,-17.578125
6948,-17.578125
6949,-17.578125
6950,-17.578125
6951,-17.578125
6952,-19.531250
6953,-19.531250
6954,-17.578125
6955,-19.531250
6956,-19.531250
6957,-19.531250
6958,-19.531250
6959,-19.531250
6960,-19.531250
6961,-19.531250
6962,-19.531250
6963,-21.484375
6964,-21.484375
6965,-19.531250
6966,-21.484375
6967,-21.484375
6968,-21.484375
6969,-21.484375
6970,-21.484375
6971,-21.484375
6972,-21.484375
6973,-21.484375
6974,-21.484375
6975,-21.484375
6976,-21.484375
6977,-21.484375
6978,-19.531250
6979,-19.531250
6980,-21.484375
6981,-21.484375
6982,-21.484375
6983,-21.484375
6984,-21.484375
6985,-21.484375
6986,-21.484375
6987,-21.484375
6988,-21.484375
6989,-21.484375
6990,-21.484375
6991,-19.531250
6992,-21.484375
6993,-19.531250
6994,-19.531250
6995,-19.531250
6996,-19.531250
6997,-19.531250
6998,-21.484375
6999,-21.484375
7000,-19.531250
7001,-19.531250
7002,-19.531250
7003,-19.531250
7004,-17.578125
7005,-19.531250
7006,-17.578125
7007,-17.578125
7008,-17.578125
7009,-17.578125
7010,-17.578125
7011,-15.625000
7012,-15.625000
7013,-15.625000
7014,-15.625000
7015,-17.578125
7016,-15.625000
7017,-15.625000
7018,-15.625000
7019,-15.625000
7020,-13.671875
7021,-13.671875
7022,-15.625000
7023,-13.671875
7024,-13.671875
7025,-13.671875
7026,-13.671875
7027,-13.671875
7028,-13.671875
7029,-11.718750
7030,-11.718750
7031,-11.718750
7032,-11.718750
7033,-9.765625
7034,-11.718750
7035,-9.765625
7036,-9.765625
7037,-9.765625
7038,-9.765625
7039,-7.812500
7040,-7.812500
7041,-7.812500
7042,-7.812500
7043,-7.812500
7044,-7.812500
7045,-5.859375
7046,-5.859375
7047,-5.859375
7048,-5.859375
7049,-5.859375
7050,-5.859375
7051,-3.906250
7052,-3.906250
7053,-3.906250
7054,-3.906250
7055,-1.953125
7056,-7.812500
7057,-1.953125
7058,-1.953125
7059,-1.953125
7060,-1.953125
7061,-1.953125
7062,0.000000
7063,0.000000
7064,0.000000
7065,0.000000
7066,0.000000
7067,1.953125
7068,1.953125
7069,1.953125
7070,1.953125
7071,1.953125
7072,3.906250
7073,3.906250
7074,3.906250
7075,3.906250
7076,3.906250
7077,5.859375
7078,5.859375
7079,3.906250
7080,3.906250
7081,5.859375
7082,5.859375
7083,7.812500
7084,5.859375
7085,5.859375
7086,7.812500
7087,7.812500
7088,7.812500
7089,5.859375
7090,7.812500
7091,7.812500
7092,7.812500
7093,7.812500
7094,7.812500
7095,9.765625
7096,9.765625
7097,9.765625
7098,9.765625
7099,9.765625
7100,9.765625
7101,9.765625
7102,9.765625
7103,7.812500
7104,9.765625
7105,9.765625
7106,9.765625
7107,11.718750
7108,11.718750
7109,11.718750
7110,11.718750
7111,11.718750
7112,11.718750
7113,11.718750
7114,11.718750
7115,11.718750
7116,11.718750
7117,11.718750
7118,11.718750
7119,11.718750
7120,11.718750
7121,11.718750
7122,11.718750
7123,11.718750
7124,11.718750
7125,11.718750
7126,11.718750
7127,11.718750
7128,11.718750
7129,11.718750
7130,11.718750
7131,11.718750
7132,11.718750
7133,11.718750
7134,11.718750
7135,11.718750
7136,11.718750
7137,11.718750
7138,11.718750
7139,11.718750
7140,11.718750
7141,11.718750
7142,9.765625
7143,9.765625
7144,11.718750
7145,9.765625
7146,9.765625
7147,9.765625
7148,9.765625
7149,9.765625
7150,9.765625
7151,9.765625
7152,7.812500
7153,7.812500
7154,7.812500
7155,7.812500
7156,3.906250
7157,5.859375
7158,7.812500
7159,5.859375
7160,5.859375
7161,5.859375
7162,5.859375
7163,5.859375
7164,5.859375
7165,5.859375
7166,3.906250
7167,5.859375
7168,3.906250
7169,3.906250
7170,3.906250
7171,3.906250
7172,3.906250
7173,1.953125
7174,1.953125
7175,1.953125
7176,1.953125
7177,0.000000
7178,1.953125
7179,1.953125
7180,0.000000
7181,0.000000
7182,0.000000
7183,0.000000
7184,0.000000
7185,-1.953125
7186,-1.953125
7187,-1.953125
7188,-1.953125
7189,-3.906250
7190,0.000000
7191,-3.906250
7192,-3.906250
7193,-3.906250
7194,-3.906250
7195,-5.859375
7196,-5.859375
7197,-5.859375
7198,-5.859375
7199,-5.859375
7200,-5.859375
7201,-7.812500
7202,-7.812500
7203,-7.812500
7204,-7.812500
7205,-7.812500
7206,-7.812500
7207,-7.812500
7208,-9.765625
7209,-9.765625
7210,-9.765625
7211,-11.718750
7212,-9.765625
7213,-11.718750
7214,-11.718750
7215,-11.718750
7216,-11.718750
7217,-11.718750
7218,-13.671875
7219,-13.671875
7220,-13.671875
7221,-13.671875
7222,-13.671875
7223,-13.671875
7224,-15.625000
7225,-15.625000
7226,-15.625000
7227,-15.625000
7228,-15.625000
7229,-17.578125
7230,-17.578125
7231,-17.578125
7232,-17.578125
7233,-17.578125
7234,-17.578125
7235,-17.578125
7236,-19.531250
7237,-17.578125
7238,-17.578125
7239,-19.531250
7240,-19.531250
7241,-19.531250
7242,-19.531250
7243,-19.531250
7244,-19.531250
7245,-19.531250
7246,-19.531250
7247,-19.531250
7248,-21.484375
7249,-15.625000
7250,-19.531250
7251,-19.531250
7252,-19.531250
7253,-19.531250
7254,-21.484375
7255,-21.484375
7256,-21.484375
7257,-21.484375
7258,-21.484375
7259,-19.531250
7260,-21.484375
7261,-21.484375
7262,-21.484375
7263,-21.484375
7264,-21.484375
7265,-21.484375
7266,-21.484375
7267,-21.484375
7268,-21.484375
7269,-21.484375
7270,-21.484375
7271,-21.484375
7272,-21.484375
7273,-21.484375
7274,-21.484375
7275,-21.484375
7276,-25.390625
7277,-19.531250
7278,-21.484375
7279,-19.531250
7280,-19.531250
7281,-19.531250
7282,-19.531250
7283,-19.531250
7284,-19.531250
7285,-19.531250
7286,-19.531250
7287,-19.531250
7288,-19.531250
7289,-19.531250
7290,-19.531250
7291,-19.531250
7292,-19.531250
7293,-19.531250
7294,-17.578125
7295,-17.578125
7296,-17.578125
7297,-17.578125
7298,-17.578125
7299,-15.625000
7300,-17.578125
7301,-15.625000
7302,-15.625000
7303,-15.625000
7304,-19.531250
7305,-15.625000
7306,-15.625000
7307,-15.625000
7308,-13.671875
7309,-13.671875
7310,-13.671875
7311,-13.671875
7312,-13.671875
7313,-13.671875
7314,-11.718750
7315,-11.718750
7316,-11.718750
7317,-11.718750
7318,-9.765625
7319,-9.765625
7320,-9.765625
7321,-9.765625
7322,-9.765625
7323,-7.812500
7324,-7.812500
7325,-7.812500
7326,-7.812500
7327,-7.812500
7328,-7.812500
7329,-7.812500
7330,-5.859375
7331,-5.859375
7332,-5.859375
7333,-5.859375
7334,-3.906250
7335,-3.906250
7336,-3.906250
7337,-3.906250
7338,-3.906250
7339,-3.906250
7340,-3.906250
7341,-3.906250
7342,-1.953125
7343,-1.953125
7344,-1.953125
7345,-1.953125
7346,-1.953125
7347,0.000000
7348,0.000000
7349,0.000000
7350,0.000000
7351,0.000000
7352,0.000000
7353,0.000000
7354,1.953125
7355,1.953125
7356,1.953125
7357,1.953125
7358,1.953125
7359,1.953125
7360,3.906250
7361,3.906250
7362,3.906250
7363,3.906250
7364,5.859375
7365,3.906250
7366,3.906250
7367,3.906250
7368,5.859375
7369,5.859375
7370,5.859375
7371,5.859375
7372,7.812500
7373,5.859375
7374,5.859375
7375,7.812500
7376,7.812500
7377,7.812500
7378,7.812500
7379,9.765625
7380,7.812500
7381,9.765625
7382,9.765625
7383,9.765625
7384,9.765625
7385,9.765625
7386,9.765625
7387,9.765625
7388,9.765625
7389,11.718750
7390,11.718750
7391,9.765625
7392,11.718750
7393,11.718750
7394,11.718750
7395,11.718750
7396,11.718750
7397,11.718750
7398,11.718750
7399,11.718750
7400,11.718750
7401,11.718750
7402,11.718750
7403,11.718750
7404,11.718750
7405,11.718750
7406,11.718750
7407,11.718750
7408,11.718750
7409,11.718750
7410,11.718750
7411,11.718750
7412,11.718750
7413,11.718750
7414,9.765625
7415,11.718750
7416,9.765625
7417,11.718750
7418,9.765625
7419,11.718750
7420,9.765625
7421,9.765625
7422,9.765625
7423,9.765625
7424,9.765625
7425,9.765625
7426,9.765625
7427,9.765625
7428,9.765625
7429,9.765625
7430,9.765625
7431,9.765625
7432,7.812500
7433,7.812500
7434,9.765625
7435,7.812500
7436,7.812500
7437,7.812500
7438,7.812500
7439,7.812500
7440,7.812500
7441,5.859375
7442,7.812500
7443,7.812500
7444,7.812500
7445,5.859375
7446,5.859375
7447,5.859375
7448,5.859375
7449,5.859375
7450,3.906250
7451,3.906250
7452,3.906250
7453,3.906250
7454,3.906250
7455,3.906250
7456,1.953125
7457,3.906250
7458,1.953125
7459,1.953125
7460,1.953125
7461,1.953125
7462,1.953125
7463,0.000000
7464,0.000000
7465,0.000000
7466,0.000000
7467,0.000000
7468,0.000000
7469,-1.953125
7470,-1.953125
7471,-1.953125
7472,-1.953125
7473,-1.953125
7474,-3.906250
7475,-7.812500
7476,-3.906250
7477,-3.906250
7478,-5.859375
7479,-5.859375
7480,-5.859375
7481,-5.859375
7482,-7.812500
7483,-7.812500
7484,-7.812500
7485,-7.812500
7486,-5.859375
7487,-7.812500
7488,-9.765625
7489,-7.812500
7490,-9.765625
7491,-9.765625
7492,-9.765625
7493,-11.718750
7494,-11.718750
7495,-11.718750
7496,-11.718750
7497,-11.718750
7498,-11.718750
7499,-11.718750
7500,-11.718750
7501,-13.671875
7502,-13.671875
7503,-13.671875
7504,-15.625000
7505,-13.671875
7506,-13.671875
7507,-13.671875
7508,-13.671875
7509,-15.625000
7510,-15.625000
7511,-15.625000
7512,-15.625000
7513,-15.625000
7514,-15.625000
7515,-17.578125
7516,-15.625000
7517,-17.578125
7518,-17.578125
7519,-17.578125
7520,-17.578125
7521,-17.578125
7522,-19.531250
7523,-17.578125
7524,-17.578125
7525,-19.531250
7526,-19.531250
7527,-19.531250
7528,-19.531250
7529,-19.531250
7530,-19.531250
7531,-19.531250
7532,-19.531250
7533,-19.531250
7534,-19.531250
7535,-19.531250
7536,-21.484375
7537,-21.484375
7538,-21.484375
7539,-21.484375
7540,-19.531250
7541,-21.484375
7542,-21.484375
7543,-19.531250
7544,-21.484375
7545,-21.484375
7546,-21.484375
7547,-21.484375
7548,-21.484375
7549,-21.484375
7550,-21.484375
7551,-21.484375
7552,-21.484375
7553,-21.484375
7554,-21.484375
7555,-21.484375
7556,-21.484375
7557,-21.484375
7558,-21.484375
7559,-21.484375
7560,-19.531250
7561,-19.531250
7562,-19.531250
7563,-19.531250
7564,-19.531250
7565,-19.531250
7566,-19.531250
7567,-19.531250
7568,-19.531250
7569,-19.531250
7570,-19.531250
7571,-19.531250
7572,-19.531250
7573,-19.531250
7574,-17.578125
7575,-17.578125
7576,-17.578125
7577,-17.578125
7578,-17.578125
7579,-15.625000
7580,-17.578125
7581,-15.625000
7582,-15.625000
7583,-15.625000
7584,-15.625000
7585,-15.625000
7586,-15.625000
7587,-15.625000
7588,-13.671875
7589,-9.765625
7590,-13.671875
7591,-13.671875
7592,-13.671875
7593,-13.671875
7594,-13.671875
7595,-11.718750
7596,-11.718750
7597,-11.718750
7598,-11.718750
7599,-11.718750
7600,-11.718750
7601,-13.671875
7602,-9.765625
7603,-9.765625
7604,-9.765625
7605,-9.765625
7606,-9.765625
7607,-9.765625
7608,-7.812500
7609,-7.812500
7610,-7.812500
7611,-7.812500
7612,-7.812500
7613,-5.859375
7614,-5.859375
7615,-5.859375
7616,-5.859375
7617,-5.859375
7618,-5.859375
7619,-5.859375
7620,-3.906250
7621,-3.906250
7622,-3.906250
7623,-1.953125
7624,-1.953125
7625,-1.953125
7626,-3.906250
7627,-1.953125
7628,-1.953125
7629,0.000000
7630,0.000000
7631,0.000000
7632,0.000000
7633,0.000000
7634,0.000000
7635,1.953125
7636,1.953125
7637,1.953125
7638,1.953125
7639,1.953125
7640,3.906250
7641,3.906250
7642,5.859375
7643,3.906250
7644,3.906250
7645,5.859375
7646,3.906250
7647,5.859375
7648,5.859375
7649,5.859375
7650,5.859375
7651,5.859375
7652,5.859375
7653,5.859375
7654,5.859375
7655,7.812500
7656,7.812500
7657,7.812500
7658,7.812500
7659,7.812500
7660,9.765625
7661,9.765625
7662,9.765625
7663,7.812500
7664,9.765625
7665,9.765625
7666,9.765625
7667,9.765625
7668,9.765625
7669,9.765625
7670,9.765625
7671,9.765625
7672,9.765625
7673,11.718750
7674,9.765625
7675,9.765625
7676,9.765625
7677,9.765625
7678,11.718750
7679,11.718750
7680,11.718750
7681,11.718750
7682,11.718750
7683,11.718750
7684,9.765625
7685,11.718750
7686,11.718750
7687,11.718750
7688,11.718750
7689,11.718750
7690,11.718750
7691,11.718750
7692,11.718750
7693,11.718750
7694,15.625000
7695,11.718750
7696,11.718750
7697,11.718750
7698,11.718750
7699,11.718750
7700,11.718750
7701,11.718750
7702,11.718750
7703,11.718750
7704,11.718750
7705,11.718750
7706,9.765625
7707,11.718750
7708,9.765625
7709,9.765625
7710,9.765625
7711,9.765625
7712,9.765625
7713,9.765625
7714,9.765625
7715,9.765625
7716,9.765625
7717,9.765625
7718,9.765625
7719,7.812500
7720,7.812500
7721,7.812500
7722,7.812500
7723,7.812500
7724,7.812500
7725,7.812500
7726,5.859375
7727,7.812500
7728,5.859375
7729,5.859375
7730,5.859375
7731,5.859375
7732,5.859375
7733,5.859375
7734,5.859375
7735,3.906250
7736,7.812500
7737,3.906250
7738,3.906250
7739,3.906250
7740,3.906250
7741,1.953125
7742,1.953125
7743,1.953125
7744,1.953125
7745,1.953125
7746,1.953125
7747,0.000000
7748,0.000000
7749,0.000000
7750,0.000000
7751,0.000000
7752,-1.953125
7753,-1.953125
7754,-1.953125
7755,-1.953125
7756,-1.953125
7757,-3.906250
7758,-1.953125
7759,-3.906250
7760,-3.906250
7761,-3.906250
7762,-5.859375
7763,-5.859375
7764,-5.859375
7765,-5.859375
7766,-5.859375
7767,-5.859375
7768,-5.859375
7769,-7.812500
7770,-7.812500
7771,-7.812500
7772,-7.812500
7773,-7.812500
7774,-9.765625
7775,-9.765625
7776,-9.765625
7777,-9.765625
7778,-9.765625
7779,-11.718750
7780,-9.765625
7781,-11.718750
7782,-11.718750
7783,-11.718750
7784,-11.718750
7785,-9.765625
7786,-13.671875
7787,-13.671875
7788,-13.671875
7789,-13.671875
7790,-13.671875
7791,-15.625000
7792,-15.625000
7793,-15.625000
7794,-15.625000
7795,-13.671875
7796,-15.625000
7797,-17.578125
7798,-15.625000
7799,-17.578125
7800,-17.578125
7801,-17.578125
7802,-15.625000
7803,-17.578125
7804,-17.578125
7805,-19.531250
7806,-19.531250
7807,-19.531250
7808,-19.531250
7809,-19.531250
7810,-19.531250
7811,-19.531250
7812,-19.531250
7813,-19.531250
7814,-19.531250
7815,-25.390625
7816,-21.484375
7817,-21.484375
7818,-25.390625
7819,-21.484375
7820,-21.484375
7821,-19.531250
7822,-21.484375
7823,-21.484375
7824,-21.484375
7825,-21.484375
7826,-21.484375
7827,-21.484375
7828,-21.484375
7829,-21.484375
7830,-21.484375
7831,-21.484375
7832,-21.484375
7833,-21.484375
7834,-23.437500
7835,-21.484375
7836,-19.531250
7837,-21.484375
7838,-21.484375
7839,-21.484375
7840,-21.484375
7841,-21.484375
7842,-19.531250
7843,-21.484375
7844,-21.484375
7845,-21.484375
7846,-19.531250
7847,-19.531250
7848,-21.484375
7849,-19.531250
7850,-21.484375
7851,-19.531250
7852,-19.531250
7853,-19.531250
7854,-19.531250
7855,-19.531250
7856,-19.531250
7857,-19.531250
7858,-19.531250
7859,-19.531250
7860,-17.578125
7861,-17.578125
7862,-19.531250
7863,-17.578125
7864,-17.578125
7865,-17.578125
7866,-17.578125
7867,-15.625000
7868,-15.625000
7869,-15.625000
7870,-15.625000
7871,-15.625000
7872,-15.625000
7873,-15.625000
7874,-15.625000
7875,-13.671875
7876,-13.671875
7877,-13.671875
7878,-13.671875
7879,-13.671875
7880,-13.671875
7881,-11.718750
7882,-11.718750
7883,-11.718750
7884,-11.718750
7885,-11.718750
7886,-9.765625
7887,-9.765625
7888,-9.765625
7889,-9.765625
7890,-9.765625
7891,-9.765625
7892,-7.812500
7893,-9.765625
7894,-7.812500
7895,-7.812500
7896,-7.812500
7897,-7.812500
7898,-7.812500
7899,-5.859375
7900,-5.859375
7901,-5.859375
7902,-5.859375
7903,-5.859375
7904,-3.906250
7905,-3.906250
7906,-3.906250
7907,-3.906250
7908,-3.906250
7909,-1.953125
7910,-1.953125
7911,-1.953125
7912,-1.953125
7913,-1.953125
7914,-1.953125
7915,0.000000
7916,0.000000
7917,1.953125
7918,1.953125
7919,0.000000
7920,0.000000
7921,1.953125
7922,1.953125
7923,1.953125
7924,1.953125
7925,1.953125
7926,1.953125
7927,1.953125
7928,3.906250
7929,3.906250
7930,3.906250
7931,3.906250
7932,3.906250
7933,5.859375
7934,3.906250
7935,5.859375
7936,5.859375
7937,5.859375
7938,5.859375
7939,5.859375
7940,5.859375
7941,7.812500
7942,7.812500
7943,7.812500
7944,7.812500
7945,7.812500
7946,7.812500
7947,7.812500
7948,9.765625
7949,9.765625
7950,9.765625
7951,9.765625
7952,7.812500
7953,9.765625
7954,9.765625
7955,9.765625
7956,9.765625
7957,9.765625
7958,9.765625
7959,9.765625
7960,9.765625
7961,9.765625
7962,5.859375
7963,11.718750
7964,11.718750
7965,11.718750
7966,9.765625
7967,11.718750
7968,11.718750
7969,11.718750
7970,11.718750
7971,11.718750
7972,11.718750
7973,11.718750
7974,11.718750
7975,11.718750
7976,11.718750
7977,11.718750
7978,11.718750
7979,11.718750
7980,11.718750
7981,11.718750
7982,11.718750
7983,11.718750
7984,11.718750
7985,11.718750
7986,11.718750
7987,9.765625
7988,11.718750
7989,11.718750
7990,11.718750
7991,11.718750
7992,9.765625
7993,9.765625
7994,9.765625
7995,9.765625
7996,9.765625
7997,9.765625
7998,9.765625
7999,9.765625
8000,9.765625
8001,7.812500
8002,9.765625
8003,7.812500
8004,9.765625
8005,7.812500
8006,7.812500
8007,7.812500
8008,7.812500
8009,7.812500
8010,7.812500
8011,5.859375
8012,5.859375
8013,5.859375
8014,5.859375
8015,5.859375
8016,5.859375
8017,5.859375
8018,3.906250
8019,3.906250
8020,3.906250
8021,3.906250
8022,3.906250
8023,3.906250
8024,3.906250
8025,1.953125
8026,1.953125
8027,1.953125
8028,1.953125
8029,1.953125
8030,1.953125
8031,0.000000
8032,0.000000
8033,0.000000
8034,0.000000
8035,0.000000
8036,-1.953125
8037,-1.953125
8038,-1.953125
8039,-1.953125
8040,-1.953125
8041,-1.953125
8042,-3.906250
8043,-3.906250
8044,-3.906250
8045,-3.906250
8046,-3.906250
8047,-5.859375
8048,-5.859375
8049,-5.859375
8050,-5.859375
8051,-5.859375
8052,-7.812500
8053,-7.812500
8054,-7.812500
8055,-7.812500
8056,-7.812500
8057,-9.765625
8058,-9.765625
8059,-9.765625
8060,-9.765625
8061,-9.765625
8062,-9.765625
8063,-7.812500
8064,-11.718750
8065,-11.718750
8066,-11.718750
8067,-11.718750
8068,-11.718750
8069,-13.671875
8070,-13.671875
8071,-13.671875
8072,-13.671875
8073,-13.671875
8074,-15.625000
8075,-13.671875
8076,-13.671875
8077,-15.625000
8078,-15.625000
8079,-15.625000
8080,-15.625000
8081,-15.625000
8082,-17.578125
8083,-15.625000
8084,-15.625000
8085,-17.578125
8086,-17.578125
8087,-19.531250
8088,-17.578125
8089,-17.578125
8090,-19.531250
8091,-17.578125
8092,-17.578125
8093,-17.578125
8094,-19.531250
8095,-19.531250
8096,-19.531250
8097,-19.531250
8098,-17.578125
8099,-19.531250
8100,-19.531250
8101,-19.531250
8102,-19.531250
8103,-19.531250
8104,-19.531250
8105,-19.531250
8106,-21.484375
8107,-19.531250
8108,-21.484375
8109,-19.531250
8110,-17.578125
8111,-19.531250
8112,-19.531250
8113,-21.484375
8114,-19.531250
8115,-21.484375
8116,-21.484375
8117,-21.484375
8118,-21.484375
8119,-21.484375
8120,-21.484375
8121,-19.531250
8122,-19.531250
8123,-21.484375
8124,-21.484375
8125,-21.484375
8126,-21.484375
8127,-21.484375
8128,-21.484375
8129,-19.531250
8130,-19.531250
8131,-21.484375
8132,-19.531250
8133,-19.531250
8134,-19.531250
8135,-19.531250
8136,-19.531250
8137,-19.531250
8138,-19.531250
8139,-19.531250
8140,-19.531250
8141,-19.531250
8142,-19.531250
8143,-19.531250
8144,-17.578125
8145,-17.578125
8146,-17.578125
8147,-17.578125
8148,-17.578125
8149,-17.578125
8150,-15.625000
8151,-15.625000
8152,-15.625000
8153,-15.625000
8154,-15.625000
8155,-15.625000
8156,-13.671875
8157,-13.671875
8158,-13.671875
8159,-13.671875
8160,-13.671875
8161,-13.671875
8162,-11.718750
8163,-11.718750
8164,-11.718750
8165,-11.718750
8166,-11.718750
8167,-11.718750
8168,-11.718750
8169,-9.765625
8170,-9.765625
8171,-9.765625
8172,-9.765625
8173,-9.765625
8174,-9.765625
8175,-9.765625
8176,-7.812500
8177,-7.812500
8178,-7.812500
8179,-7.812500
8180,-5.859375
8181,-5.859375
8182,-5.859375
8183,-5.859375
8184,-5.859375
8185,-3.906250
8186,-3.906250
8187,-5.859375
8188,-3.906250
8189,-3.906250
8190,-3.906250
8191,-3.906250
8192,-1.953125
8193,-1.953125
8194,-1.953125
8195,-1.953125
8196,-1.953125
8197,-1.953125
8198,0.000000
8199,-1.953125
8200,0.000000
8201,0.000000
8202,1.953125
8203,0.000000
8204,1.953125
8205,1.953125
8206,1.953125
8207,1.953125
8208,3.906250
8209,3.906250
8210,3.906250
8211,3.906250
8212,3.906250
8213,5.859375
8214,3.906250
8215,3.906250
8216,5.859375
8217,5.859375
8218,5.859375
8219,5.859375
8220,5.859375
8221,5.859375
8222,7.812500
8223,7.812500
8224,7.812500
8225,7.812500
8226,7.812500
8227,7.812500
8228,9.765625
8229,7.812500
8230,7.812500
8231,9.765625
8232,9.765625
8233,9.765625
8234,9.765625
8235,9.765625
8236,9.765625
8237,9.765625
8238,9.765625
8239,9.765625
8240,9.765625
8241,11.718750
8242,11.718750
8243,9.765625
8244,11.718750
8245,11.718750
8246,11.718750
8247,11.718750
8248,11.718750
8249,11.718750
8250,11.718750
8251,13.671875
8252,11.718750
8253,11.718750
8254,11.718750
8255,11.718750
8256,11.718750
8257,11.718750
8258,11.718750
8259,11.718750
8260,11.718750
8261,11.718750
8262,11.718750
8263,11.718750
8264,11.718750
8265,11.718750
8266,11.718750
8267,11.718750
8268,9.765625
8269,11.718750
8270,9.765625
8271,9.765625
8272,11.718750
8273,11.718750
8274,9.765625
8275,9.765625
8276,9.765625
8277,9.765625
8278,9.765625
8279,9.765625
8280,9.765625
8281,9.765625
8282,9.765625
8283,9.765625
8284,9.765625
8285,9.765625
8286,7.812500
8287,9.765625
8288,7.812500
8289,7.812500
8290,7.812500
8291,7.812500
8292,7.812500
8293,7.812500
8294,7.812500
8295,5.859375
8296,5.859375
8297,5.859375
8298,5.859375
8299,5.859375
8300,5.859375
8301,3.906250
8302,3.906250
8303,3.906250
8304,3.906250
8305,3.906250
8306,3.906250
8307,3.906250
8308,1.953125
8309,3.906250
8310,1.953125
8311,1.953125
8312,1.953125
8313,0.000000
8314,1.953125
8315,0.000000
8316,0.000000
8317,0.000000
8318,0.000000
8319,0.000000
8320,-1.953125
8321,-1.953125
8322,-1.953125
8323,-1.953125
8324,-1.953125
8325,-3.906250
8326,-3.906250
8327,-3.906250
8328,-3.906250
8329,-3.906250
8330,-3.906250
8331,-5.859375
8332,-5.859375
8333,-5.859375
8334,-5.859375
8335,-7.812500
8336,-7.812500
8337,-7.812500
8338,-7.812500
8339,-7.812500
8340,-7.812500
8341,-7.812500
8342,-9.765625
8343,-9.765625
8344,-9.765625
8345,-9.765625
8346,-9.765625
8347,-11.718750
8348,-11.718750
8349,-11.718750
8350,-11.718750
8351,-11.718750
8352,-11.718750
8353,-11.718750
8354,-13.671875
8355,-13.671875
8356,-13.671875
8357,-13.671875
8358,-13.671875
8359,-15.625000
8360,-13.671875
8361,-13.671875
8362,-15.625000
8363,-17.578125
8364,-15.625000
8365,-15.625000
8366,-15.625000
8367,-17.578125
8368,-15.625000
8369,-17.578125
8370,-17.578125
8371,-19.531250
8372,-17.578125
8373,-19.531250
8374,-19.531250
8375,-17.578125
8376,-19.531250
8377,-19.531250
8378,-19.531250
8379,-19.531250
8380,-19.531250
8381,-19.531250
8382,-19.531250
8383,-21.484375
8384,-19.531250
8385,-19.531250
8386,-21.484375
8387,-21.484375
8388,-21.484375
8389,-21.484375
8390,-21.484375
8391,-21.484375
8392,-21.484375
8393,-23.437500
8394,-21.484375
8395,-21.484375
8396,-21.484375
8397,-21.484375
8398,-21.484375
8399,-21.484375
8400,-21.484375
8401,-21.484375
8402,-21.484375
8403,-21.484375
8404,-21.484375
8405,-21.484375
8406,-21.484375
8407,-21.484375
8408,-23.437500
8409,-21.484375
8410,-21.484375
8411,-21.484375
8412,-21.484375
8413,-21.484375
8414,-19.531250
8415,-19.531250
8416,-21.484375
8417,-19.531250
8418,-19.531250
8419,-21.484375
8420,-19.531250
8421,-19.531250
8422,-19.531250
8423,-19.531250
8424,-19.531250
8425,-19.531250
8426,-17.578125
8427,-17.578125
8428,-19.531250
8429,-17.578125
8430,-17.578125
8431,-17.578125
8432,-17.578125
8433,-17.578125
8434,-17.578125
8435,-17.578125
8436,-15.625000
8437,-15.625000
8438,-15.625000
8439,-15.625000
8440,-15.625000
8441,-15.625000
8442,-13.671875
8443,-15.625000
8444,-13.671875
8445,-13.671875
8446,-13.671875
8447,-13.671875
8448,-13.671875
8449,-11.718750
8450,-11.718750
8451,-11.718750
8452,-11.718750
8453,-11.718750
8454,-11.718750
8455,-11.718750
8456,-9.765625
8457,-9.765625
8458,-9.765625
8459,-9.765625
8460,-9.765625
8461,-7.812500
8462,-7.812500
8463,-7.812500
8464,-7.812500
8465,-7.812500
8466,-7.812500
8467,-7.812500
8468,-5.859375
8469,-5.859375
8470,-5.859375
8471,-5.859375
8472,-3.906250
8473,-3.906250
8474,-3.906250
8475,-1.953125
8476,-3.906250
8477,-1.953125
8478,-1.953125
8479,-1.953125
8480,-1.953125
8481,-1.953125
8482,-1.953125
8483,0.000000
8484,0.000000
8485,0.000000
8486,0.000000
8487,1.953125
8488,0.000000
8489,1.953125
8490,1.953125
8491,1.953125
8492,1.953125
8493,3.906250
8494,1.953125
8495,3.906250
8496,3.906250
8497,3.906250
8498,3.906250
8499,3.906250
8500,5.859375
8501,5.859375
8502,5.859375
8503,5.859375
8504,5.859375
8505,5.859375
8506,5.859375
8507,7.812500
8508,7.812500
8509,7.812500
8510,7.812500
8511,7.812500
8512,7.812500
8513,7.812500
8514,7.812500
8515,7.812500
8516,7.812500
8517,7.812500
8518,9.765625
8519,9.765625
8520,9.765625
8521,9.765625
8522,7.812500
8523,9.765625
8524,9.765625
8525,9.765625
8526,9.765625
8527,11.718750
8528,9.765625
8529,9.765625
8530,11.718750
8531,11.718750
8532,11.718750
8533,11.718750
8534,11.718750
8535,11.718750
8536,11.718750
8537,11.718750
8538,11.718750
8539,11.718750
8540,11.718750
8541,11.718750
8542,11.718750
8543,11.718750
8544,11.718750
8545,11.718750
8546,11.718750
8547,11.718750
8548,11.718750
8549,11.718750
8550,11.718750
8551,11.718750
8552,11.718750
8553,11.718750
8554,11.718750
8555,11.718750
8556,11.718750
8557,11.718750
8558,9.765625
8559,9.765625
8560,9.765625
8561,11.718750
8562,11.718750
8563,9.765625
8564,9.765625
8565,9.765625
8566,9.765625
8567,9.765625
8568,9.765625
8569,9.765625
8570,9.765625
8571,7.812500
8572,9.765625
8573,7.812500
8574,7.812500
8575,7.812500
8576,7.812500
8577,5.859375
8578,7.812500
8579,7.812500
8580,5.859375
8581,5.859375
8582,5.859375
8583,5.859375
8584,5.859375
8585,5.859375
8586,5.859375
8587,3.906250
8588,3.906250
8589,3.906250
8590,3.906250
8591,3.906250
8592,3.906250
8593,1.953125
8594,1.953125
8595,1.953125
8596,1.953125
8597,1.953125
8598,1.953125
8599,1.953125
8600,-1.953125
8601,0.000000
8602,0.000000
8603,0.000000
8604,0.000000
8605,0.000000
8606,-1.953125
8607,-1.953125
8608,-1.953125
8609,-1.953125
8610,-3.906250
8611,-3.906250
8612,-3.906250
8613,-3.906250
8614,-3.906250
8615,-5.859375
8616,-3.906250
8617,-5.859375
8618,-5.859375
8619,-5.859375
8620,-5.859375
8621,-5.859375
8622,-7.812500
8623,-7.812500
8624,-7.812500
8625,-7.812500
8626,-7.812500
8627,-9.765625
8628,-9.765625
8629,-9.765625
8630,-9.765625
8631,-9.765625
8632,-11.718750
8633,-11.718750
8634,-11.718750
8635,-11.718750
8636,-11.718750
8637,-11.718750
8638,-13.671875
8639,-13.671875
8640,-11.718750
8641,-13.671875
8642,-13.671875
8643,-13.671875
8644,-13.671875
8645,-15.625000
8646,-15.625000
8647,-15.625000
8648,-15.625000
8649,-15.625000
8650,-15.625000
8651,-15.625000
8652,-17.578125
8653,-17.578125
8654,-17.578125
8655,-17.578125
8656,-17.578125
8657,-17.578125
8658,-17.578125
8659,-17.578125
8660,-19.531250
8661,-19.531250
8662,-19.531250
8663,-19.531250
8664,-19.531250
8665,-19.531250
8666,-19.531250
8667,-19.531250
8668,-19.531250
8669,-21.484375
8670,-19.531250
8671,-19.531250
8672,-21.484375
8673,-19.531250
8674,-19.531250
8675,-21.484375
8676,-21.484375
8677,-19.531250
8678,-19.531250
8679,-21.484375
8680,-21.484375
8681,-21.484375
8682,-21.484375
8683,-21.484375
8684,-21.484375
8685,-21.484375
8686,-21.484375
8687,-21.484375
8688,-21.484375
8689,-19.531250
8690,-21.484375
8691,-21.484375
8692,-19.531250
8693,-21.484375
8694,-19.531250
8695,-21.484375
8696,-19.531250
8697,-19.531250
8698,-19.531250
8699,-19.531250
8700,-19.531250
8701,-19.531250
8702,-19.531250
8703,-19.531250
8704,-19.531250
8705,-19.531250
8706,-19.531250
8707,-19.531250
8708,-19.531250
8709,-17.578125
8710,-19.531250
8711,-17.578125
8712,-19.531250
8713,-17.578125
8714,-17.578125
8715,-17.578125
8716,-17.578125
8717,-17.578125
8718,-15.625000
8719,-17.578125
8720,-15.625000
8721,-15.625000
8722,-15.625000
8723,-15.625000
8724,-15.625000
8725,-15.625000
8726,-15.625000
8727,-13.671875
8728,-13.671875
8729,-13.671875
8730,-13.671875
8731,-13.671875
8732,-11.718750
8733,-11.718750
8734,-11.718750
8735,-11.718750
8736,-13.671875
8737,-11.718750
8738,-9.765625
8739,-9.765625
8740,-9.765625
8741,-9.765625
8742,-9.765625
8743,-7.812500
8744,-9.765625
8745,-7.812500
8746,-7.812500
8747,-7.812500
8748,-5.859375
8749,-5.859375
8750,-5.859375
8751,-5.859375
8752,-5.859375
8753,-5.859375
8754,-3.906250
8755,-3.906250
8756,-3.906250
8757,-3.906250
8758,-3.906250
8759,-1.953125
8760,-3.906250
8761,-1.953125
8762,-1.953125
8763,-1.953125
8764,-1.953125
8765,-1.953125
8766,0.000000
8767,0.000000
8768,0.000000
8769,0.000000
8770,1.953125
8771,1.953125
8772,1.953125
8773,1.953125
8774,1.953125
8775,1.953125
8776,1.953125
8777,1.953125
8778,1.953125
8779,3.906250
8780,3.906250
8781,3.906250
8782,3.906250
8783,5.859375
8784,3.906250
8785,3.906250
8786,5.859375
8787,5.859375
8788,5.859375
8789,5.859375
8790,5.859375
8791,7.812500
8792,7.812500
8793,7.812500
8794,7.812500
8795,7.812500
8796,7.812500
8797,7.812500
8798,9.765625
8799,9.765625
8800,9.765625
8801,9.765625
8802,7.812500
8803,9.765625
8804,9.765625
8805,9.765625
8806,9.765625
8807,9.765625
8808,9.765625
8809,11.718750
8810,9.765625
8811,9.765625
8812,11.718750
8813,11.718750
8814,9.765625
8815,11.718750
8816,11.718750
8817,11.718750
8818,11.718750
8819,11.718750
8820,11.718750
8821,11.718750
8822,11.718750
8823,11.718750
8824,11.718750
8825,11.718750
8826,11.718750
8827,11.718750
8828,11.718750
8829,11.718750
8830,11.718750
8831,11.718750
8832,9.765625
8833,11.718750
8834,11.718750
8835,13.671875
8836,11.718750
8837,9.765625
8838,11.718750
8839,11.718750
8840,9.765625
8841,11.718750
8842,9.765625
8843,9.765625
8844,9.765625
8845,9.765625
8846,9.765625
8847,9.765625
8848,9.765625
8849,9.765625
8850,9.765625
8851,9.765625
8852,9.765625
8853,7.812500
8854,9.765625
8855,9.765625
8856,7.812500
8857,7.812500
8858,7.812500
8859,7.812500
8860,7.812500
8861,7.812500
8862,5.859375
8863,7.812500
8864,5.859375
8865,5.859375
8866,5.859375
8867,3.906250
8868,5.859375
8869,5.859375
8870,3.906250
8871,5.859375
8872,3.906250
8873,3.906250
8874,3.906250
8875,3.906250
8876,3.906250
8877,3.906250
8878,1.953125
8879,1.953125
8880,1.953125
8881,1.953125
8882,1.953125
8883,0.000000
8884,0.000000
8885,0.000000
8886,0.000000
8887,0.000000
8888,0.000000
8889,-1.953125
8890,-1.953125
8891,-1.953125
8892,-1.953125
8893,-1.953125
8894,-3.906250
8895,-3.906250
8896,-3.906250
8897,0.000000
8898,-3.906250
8899,-5.859375
8900,-5.859375
8901,-5.859375
8902,-7.812500
8903,-5.859375
8904,-5.859375
8905,-7.812500
8906,-7.812500
8907,-7.812500
8908,-7.812500
8909,-7.812500
8910,-9.765625
8911,-9.765625
8912,-11.718750
8913,-9.765625
8914,-11.718750
8915,-11.718750
8916,-11.718750
8917,-11.718750
8918,-11.718750
8919,-11.718750
8920,-11.718750
8921,-13.671875
8922,-13.671875
8923,-13.671875
8924,-13.671875
8925,-15.625000
8926,-13.671875
8927,-13.671875
8928,-13.671875
8929,-15.625000
8930,-15.625000
8931,-15.625000
8932,-15.625000
8933,-15.625000
8934,-15.625000
8935,-17.578125
8936,-17.578125
8937,-17.578125
8938,-17.578125
8939,-17.578125
8940,-17.578125
8941,-17.578125
8942,-19.531250
8943,-19.531250
8944,-19.531250
8945,-19.531250
8946,-19.531250
8947,-19.531250
8948,-19.531250
8949,-19.531250
8950,-19.531250
8951,-19.531250
8952,-19.531250
8953,-19.531250
8954,-19.531250
8955,-21.484375
8956,-19.531250
8957,-19.531250
8958,-19.531250
8959,-21.484375
8960,-21.484375
8961,-21.484375
8962,-21.484375
8963,-21.484375
8964,-21.484375
8965,-21.484375
8966,-21.484375
8967,-21.484375
8968,-21.484375
8969,-21.484375
8970,-21.484375
8971,-21.484375
8972,-21.484375
8973,-21.484375
8974,-21.484375
8975,-21.484375
8976,-21.484375
8977,-21.484375
8978,-21.484375
8979,-21.484375
8980,-21.484375
8981,-21.484375
8982,-19.531250
8983,-19.531250
8984,-21.484375
8985,-21.484375
8986,-19.531250
8987,-19.531250
8988,-19.531250
8989,-19.531250
8990,-19.531250
8991,-19.531250
8992,-19.531250
8993,-19.531250
8994,-19.531250
8995,-17.578125
8996,-17.578125
8997,-17.578125
8998,-17.578125
8999,-17.578125
9000,-17.578125
9001,-17.578125
9002,-15.625000
9003,-17.578125
9004,-15.625000
9005,-15.625000
9006,-15.625000
9007,-15.625000
9008,-15.625000
9009,-15.625000
9010,-15.625000
9011,-13.671875
9012,-13.671875
9013,-13.671875
9014,-13.671875
9015,-13.671875
9016,-13.671875
9017,-11.718750
9018,-11.718750
9019,-11.718750
9020,-11.718750
9021,-11.718750
9022,-9.765625
9023,-11.718750
9024,-9.765625
9025,-9.765625
9026,-9.765625
9027,-7.812500
9028,-9.765625
9029,-7.812500
9030,-7.812500
9031,-7.812500
9032,-7.812500
9033,-7.812500
9034,-7.812500
9035,-5.859375
9036,-5.859375
9037,-5.859375
9038,-3.906250
9039,-5.859375
9040,-3.906250
9041,-3.906250
9042,-3.906250
9043,-3.906250
9044,-3.906250
9045,-3.906250
9046,-1.953125
9047,-1.953125
9048,-1.953125
9049,-1.953125
9050,-1.953125
9051,0.000000
9052,0.000000
9053,0.000000
9054,0.000000
9055,1.953125
9056,0.000000
9057,1.953125
9058,1.953125
9059,1.953125
9060,3.906250
9061,3.906250
9062,3.906250
9063,3.906250
9064,3.906250
9065,3.906250
9066,5.859375
9067,3.906250
9068,5.859375
9069,5.859375
9070,5.859375
9071,5.859375
9072,5.859375
9073,5.859375
9074,7.812500
9075,7.812500
9076,5.859375
9077,7.812500
9078,7.812500
9079,7.812500
9080,7.812500
9081,5.859375
9082,9.765625
9083,9.765625
9084,7.812500
9085,9.765625
9086,9.765625
9087,9.765625
9088,9.765625
9089,9.765625
9090,9.765625
9091,9.765625
9092,11.718750
9093,9.765625
9094,11.718750
9095,9.765625
9096,11.718750
9097,9.765625
9098,11.718750
9099,13.671875
9100,11.718750
9101,11.718750
9102,11.718750
9103,11.718750
9104,9.765625
9105,11.718750
9106,11.718750
9107,11.718750
9108,11.718750
9109,11.718750
9110,11.718750
9111,11.718750
9112,11.718750
9113,11.718750
9114,11.718750
9115,11.718750
9116,11.718750
9117,11.718750
9118,11.718750
9119,11.718750
9120,11.718750
9121,11.718750
9122,11.718750
9123,11.718750
9124,11.718750
9125,11.718750
9126,11.718750
9127,11.718750
9128,9.765625
9129,9.765625
9130,9.765625
9131,9.765625
9132,9.765625
9133,11.718750
9134,9.765625
9135,9.765625
9136,9.765625
9137,9.765625
9138,9.765625
9139,9.765625
9140,7.812500
9141,7.812500
9142,9.765625
9143,7.812500
9144,7.812500
9145,7.812500
9146,7.812500
9147,7.812500
9148,7.812500
9149,5.859375
9150,5.859375
9151,5.859375
9152,5.859375
9153,5.859375
9154,5.859375
9155,5.859375
9156,3.906250
9157,5.859375
9158,3.906250
9159,3.906250
9160,3.906250
9161,3.906250
9162,1.953125
9163,1.953125
9164,1.953125
9165,1.953125
9166,1.953125
9167,1.953125
9168,0.000000
9169,0.000000
9170,0.000000
9171,0.000000
9172,0.000000
9173,-1.953125
9174,-1.953125
9175,0.000000
9176,-1.953125
9177,-1.953125
9178,-1.953125
9179,-3.906250
9180,-3.906250
9181,-3.906250
9182,-3.906250
9183,-3.906250
9184,-5.859375
9185,-5.859375
9186,-5.859375
9187,-5.859375
9188,-3.906250
9189,-5.859375
9190,-7.812500
9191,-5.859375
9192,-7.812500
9193,-7.812500
9194,-7.812500
9195,-9.765625
9196,-9.765625
9197,-9.765625
9198,-9.765625
9199,-9.765625
9200,-9.765625
9201,-9.765625
9202,-11.718750
9203,-11.718750
9204,-11.718750
9205,-13.671875
9206,-11.718750
9207,-13.671875
9208,-13.671875
9209,-13.671875
9210,-13.671875
9211,-13.671875
9212,-13.671875
9213,-15.625000
9214,-15.625000
9215,-15.625000
9216,-15.625000
9217,-15.625000
9218,-15.625000
9219,-17.578125
9220,-15.625000
9221,-17.578125
9222,-17.578125
9223,-17.578125
9224,-17.578125
9225,-17.578125
9226,-19.531250
9227,-21.484375
9228,-17.578125
9229,-19.531250
9230,-19.531250
9231,-19.531250
9232,-19.531250
9233,-19.531250
9234,-19.531250
9235,-19.531250
9236,-19.531250
9237,-19.531250
9238,-21.484375
9239,-21.484375
9240,-21.484375
9241,-21.484375
9242,-19.531250
9243,-21.484375
9244,-23.437500
9245,-21.484375
9246,-21.484375
9247,-21.484375
9248,-21.484375
9249,-21.484375
9250,-21.484375
9251,-21.484375
9252,-21.484375
9253,-21.484375
9254,-19.531250
9255,-21.484375
9256,-21.484375
9257,-21.484375
9258,-21.484375
9259,-21.484375
9260,-19.531250
9261,-19.531250
9262,-19.531250
9263,-19.531250
9264,-21.484375
9265,-19.531250
9266,-19.531250
9267,-19.531250
9268,-19.531250
9269,-21.484375
9270,-19.531250
9271,-19.531250
9272,-19.531250
9273,-19.531250
9274,-19.531250
9275,-19.531250
9276,-19.531250
9277,-19.531250
9278,-17.578125
9279,-17.578125
9280,-17.578125
9281,-17.578125
9282,-19.531250
9283,-17.578125
9284,-17.578125
9285,-17.578125
9286,-17.578125
9287,-17.578125
9288,-15.625000
9289,-15.625000
9290,-15.625000
9291,-15.625000
9292,-15.625000
9293,-15.625000
9294,-15.625000
9295,-13.671875
9296,-13.671875
9297,-13.671875
9298,-13.671875
9299,-13.671875
9300,-11.718750
9301,-11.718750
9302,-11.718750
9303,-11.718750
9304,-11.718750
9305,-11.718750
9306,-9.765625
9307,-11.718750
9308,-9.765625
9309,-9.765625
9310,-9.765625
9311,-9.765625
9312,-9.765625
9313,-7.812500
9314,-7.812500
9315,-7.812500
9316,-7.812500
9317,-5.859375
9318,-5.859375
9319,-5.859375
9320,-5.859375
9321,-5.859375
9322,-5.859375
9323,-3.906250
9324,-3.906250
9325,-3.906250
9326,-3.906250
9327,-3.906250
9328,-1.953125
9329,-3.906250
9330,-1.953125
9331,-1.953125
9332,-1.953125
9333,-1.953125
9334,0.000000
9335,0.000000
9336,0.000000
9337,0.000000
9338,0.000000
9339,0.000000
9340,1.953125
9341,1.953125
9342,1.953125
9343,1.953125
9344,1.953125
9345,1.953125
9346,3.906250
9347,3.906250
9348,3.906250
9349,3.906250
9350,3.906250
9351,3.906250
9352,5.859375
9353,5.859375
9354,5.859375
9355,5.859375
9356,5.859375
9357,5.859375
9358,5.859375
9359,7.812500
9360,5.859375
9361,7.812500
9362,7.812500
9363,5.859375
9364,7.812500
9365,7.812500
9366,7.812500
9367,7.812500
9368,7.812500
9369,9.765625
9370,9.765625
9371,9.765625
9372,9.765625
9373,9.765625
9374,9.765625
9375,9.765625
9376,9.765625
9377,7.812500
9378,11.718750
9379,9.765625
9380,9.765625
9381,9.765625
9382,9.765625
9383,9.765625
9384,11.718750
9385,11.718750
9386,11.718750
9387,11.718750
9388,11.718750
9389,11.718750
9390,11.718750
9391,9.765625
9392,11.718750
9393,11.718750
9394,11.718750
9395,11.718750
9396,11.718750
9397,11.718750
9398,11.718750
9399,11.718750
9400,11.718750
9401,11.718750
9402,11.718750
9403,11.718750
9404,11.718750
9405,11.718750
9406,11.718750
9407,11.718750
9408,11.718750
9409,11.718750
9410,11.718750
9411,11.718750
9412,11.718750
9413,9.765625
9414,9.765625
9415,9.765625
9416,9.765625
9417,9.765625
9418,9.765625
9419,9.765625
9420,9.765625
9421,9.765625
9422,9.765625
9423,7.812500
9424,7.812500
9425,7.812500
9426,7.812500
9427,9.765625
9428,7.812500
9429,7.812500
9430,7.812500
9431,5.859375
9432,5.859375
9433,5.859375
9434,5.859375
9435,9.765625
9436,5.859375
9437,5.859375
9438,3.906250
9439,3.906250
9440,3.906250
9441,3.906250
9442,3.906250
9443,3.906250
9444,1.953125
9445,1.953125
9446,1.953125
9447,1.953125
9448,1.953125
9449,0.000000
9450,1.953125
9451,1.953125
9452,0.000000
9453,0.000000
9454,0.000000
9455,0.000000
9456,0.000000
9457,-1.953125
9458,-1.953125
9459,-1.953125
9460,-3.906250
9461,-1.953125
9462,-1.953125
9463,-3.906250
9464,-3.906250
9465,-3.906250
9466,-3.906250
9467,-5.859375
9468,-5.859375
9469,-5.859375
9470,-5.859375
9471,-5.859375
9472,-5.859375
9473,-7.812500
9474,-7.812500
9475,-7.812500
9476,-7.812500
9477,-7.812500
9478,-7.812500
9479,-9.765625
9480,-9.765625
9481,-9.765625
9482,-13.671875
9483,-9.765625
9484,-11.718750
9485,-11.718750
9486,-11.718750
9487,-11.718750
9488,-11.718750
9489,-13.671875
9490,-13.671875
9491,-11.718750
9492,-13.671875
9493,-13.671875
9494,-13.671875
9495,-15.625000
9496,-15.625000
9497,-15.625000
9498,-15.625000
9499,-15.625000
9500,-15.625000
9501,-15.625000
9502,-17.578125
9503,-15.625000
9504,-17.578125
9505,-17.578125
9506,-17.578125
9507,-17.578125
9508,-17.578125
9509,-17.578125
9510,-17.578125
9511,-17.578125
9512,-19.531250
9513,-19.531250
9514,-19.531250
9515,-19.531250
9516,-21.484375
9517,-19.531250
9518,-19.531250
9519,-19.531250
9520,-19.531250
9521,-19.531250
9522,-19.531250
9523,-21.484375
9524,-19.531250
9525,-19.531250
9526,-19.531250
9527,-21.484375
9528,-21.484375
9529,-19.531250
9530,-19.531250
9531,-21.484375
9532,-21.484375
9533,-21.484375
9534,-21.484375
9535,-21.484375
9536,-21.484375
9537,-19.531250
9538,-21.484375
9539,-21.484375
9540,-21.484375
9541,-21.484375
9542,-21.484375
9543,-19.531250
9544,-21.484375
9545,-19.531250
9546,-21.484375
9547,-21.484375
9548,-19.531250
9549,-19.531250
9550,-19.531250
9551,-21.484375
9552,-19.531250
9553,-19.531250
9554,-19.531250
9555,-19.531250
9556,-19.531250
9557,-19.531250
9558,-19.531250
9559,-19.531250
9560,-19.531250
9561,-19.531250
9562,-17.578125
9563,-17.578125
9564,-17.578125
9565,-17.578125
9566,-17.578125
9567,-17.578125
9568,-17.578125
9569,-17.578125
9570,-15.625000
9571,-15.625000
9572,-15.625000
9573,-15.625000
9574,-15.625000
9575,-15.625000
9576,-13.671875
9577,-15.625000
9578,-15.625000
9579,-13.671875
9580,-13.671875
9581,-13.671875
9582,-13.671875
9583,-13.671875
9584,-13.671875
9585,-11.718750
9586,-11.718750
9587,-11.718750
9588,-11.718750
9589,-9.765625
9590,-9.765625
9591,-9.765625
9592,-9.765625
9593,-9.765625
9594,-7.812500
9595,-7.812500
9596,-7.812500
9597,-7.812500
9598,-7.812500
9599,-5.859375
9600,-5.859375
9601,-5.859375
9602,-5.859375
9603,-5.859375
9604,-5.859375
9605,-5.859375
9606,-3.906250
9607,-3.906250
9608,-3.906250
9609,-3.906250
9610,-3.906250
9611,-3.906250
9612,-1.953125
9613,-1.953125
9614,-1.953125
9615,-1.953125
9616,-1.953125
9617,-1.953125
9618,0.000000
9619,0.000000
9620,0.000000
9621,0.000000
9622,0.000000
9623,1.953125
9624,1.953125
9625,1.953125
9626,1.953125
9627,1.953125
9628,1.953125
9629,3.906250
9630,3.906250
9631,3.906250
9632,3.906250
9633,3.906250
9634,3.906250
9635,3.906250
9636,5.859375
9637,5.859375
9638,5.859375
9639,5.859375
9640,5.859375
9641,5.859375
9642,5.859375
9643,7.812500
9644,7.812500
9645,7.812500
9646,9.765625
9647,7.812500
9648,9.765625
9649,7.812500
9650,9.765625
9651,9.765625
9652,9.765625
9653,9.765625
9654,9.765625
9655,9.765625
9656,9.765625
9657,9.765625
9658,9.765625
9659,9.765625
9660,9.765625
9661,11.718750
9662,11.718750
9663,11.718750
9664,11.718750
9665,9.765625
9666,11.718750
9667,11.718750
9668,11.718750
9669,11.718750
9670,9.765625
9671,11.718750
9672,11.718750
9673,11.718750
9674,11.718750
9675,11.718750
9676,11.718750
9677,11.718750
9678,11.718750
9679,11.718750
9680,11.718750
9681,11.718750
9682,11.718750
9683,11.718750
9684,11.718750
9685,11.718750
9686,11.718750
9687,11.718750
9688,11.718750
9689,11.718750
9690,11.718750
9691,11.718750
9692,11.718750
9693,11.718750
9694,9.765625
9695,11.718750
9696,11.718750
9697,11.718750
9698,9.765625
9699,9.765625
9700,9.765625
9701,9.765625
9702,9.765625
9703,11.718750
9704,9.765625
9705,9.765625
9706,9.765625
9707,9.765625
9708,9.765625
9709,9.765625
9710,7.812500
9711,7.812500
9712,9.765625
9713,7.812500
9714,7.812500
9715,7.812500
9716,7.812500
9717,7.812500
9718,5.859375
9719,5.859375
9720,5.859375
9721,5.859375
9722,5.859375
9723,5.859375
9724,5.859375
9725,5.859375
9726,5.859375
9727,3.906250
9728,3.906250
9729,1.953125
9730,3.906250
9731,3.906250
9732,1.953125
9733,1.953125
9734,1.953125
9735,1.953125
9736,1.953125
9737,1.953125
9738,0.000000
9739,0.000000
9740,0.000000
9741,0.000000
9742,0.000000
9743,-1.953125
9744,-1.953125
9745,-1.953125
9746,-1.953125
9747,-3.906250
9748,-3.906250
9749,-3.906250
9750,-3.906250
9751,-3.906250
9752,-5.859375
9753,-5.859375
9754,-5.859375
9755,-5.859375
9756,-5.859375
9757,-5.859375
9758,-7.812500
9759,-7.812500
9760,-7.812500
9761,-7.812500
9762,-9.765625
9763,-9.765625
9764,-11.718750
9765,-9.765625
9766,-9.765625
9767,-9.765625
9768,-9.765625
9769,-9.765625
9770,-11.718750
9771,-11.718750
9772,-11.718750
9773,-11.718750
9774,-13.671875
9775,-13.671875
9776,-11.718750
9777,-13.671875
9778,-13.671875
9779,-13.671875
9780,-13.671875
9781,-15.625000
9782,-13.671875
9783,-15.625000
9784,-15.625000
9785,-15.625000
9786,-15.625000
9787,-15.625000
9788,-15.625000
9789,-15.625000
9790,-17.578125
9791,-17.578125
9792,-17.578125
9793,-17.578125
9794,-17.578125
9795,-17.578125
9796,-17.578125
9797,-17.578125
9798,-17.578125
9799,-19.531250
9800,-19.531250
9801,-19.531250
9802,-19.531250
9803,-21.484375
9804,-19.531250
9805,-19.531250
9806,-21.484375
9807,-19.531250
9808,-19.531250
9809,-21.484375
9810,-21.484375
9811,-21.484375
9812,-19.531250
9813,-21.484375
9814,-21.484375
9815,-21.484375
9816,-21.484375
9817,-21.484375
9818,-21.484375
9819,-21.484375
9820,-21.484375
9821,-21.484375
9822,-21.484375
9823,-21.484375
9824,-21.484375
9825,-21.484375
9826,-21.484375
9827,-21.484375
9828,-21.484375
9829,-21.484375
9830,-21.484375
9831,-21.484375
9832,-21.484375
9833,-21.484375
9834,-21.484375
9835,-19.531250
9836,-19.531250
9837,-21.484375
9838,-19.531250
9839,-19.531250
9840,-19.531250
9841,-19.531250
9842,-19.531250
9843,-19.531250
9844,-19.531250
9845,-17.578125
9846,-19.531250
9847,-19.531250
9848,-17.578125
9849,-17.578125
9850,-17.578125
9851,-17.578125
9852,-17.578125
9853,-17.578125
9854,-15.625000
9855,-15.625000
9856,-15.625000
9857,-15.625000
9858,-15.625000
9859,-15.625000
9860,-13.671875
9861,-15.625000
9862,-15.625000
9863,-13.671875
9864,-13.671875
9865,-13.671875
9866,-13.671875
9867,-13.671875
9868,-13.671875
9869,-11.718750
9870,-11.718750
9871,-11.718750
9872,-11.718750
9873,-9.765625
9874,-9.765625
9875,-11.718750
9876,-11.718750
9877,-9.765625
9878,-9.765625
9879,-9.765625
9880,-7.812500
9881,-9.765625
9882,-7.812500
9883,-7.812500
9884,-5.859375
9885,-7.812500
9886,-7.812500
9887,-5.859375
9888,-5.859375
9889,-5.859375
9890,-5.859375
9891,-5.859375
9892,-3.906250
9893,-3.906250
9894,-3.906250
9895,-3.906250
9896,-3.906250
9897,-1.953125
9898,-1.953125
9899,-1.953125
9900,-1.953125
9901,-1.953125
9902,0.000000
9903,0.000000
9904,0.000000
9905,0.000000
9906,0.000000
9907,1.953125
9908,0.000000
9909,1.953125
9910,1.953125
9911,1.953125
9912,3.906250
9913,3.906250
9914,3.906250
9915,3.906250
9916,3.906250
9917,3.906250
9918,3.906250
9919,3.906250
9920,3.906250
9921,5.859375
9922,5.859375
9923,5.859375
9924,5.859375
9925,5.859375
9926,5.859375
9927,5.859375
9928,7.812500
9929,5.859375
9930,7.812500
9931,7.812500
9932,7.812500
9933,7.812500
9934,7.812500
9935,7.812500
9936,7.812500
9937,7.812500
9938,9.765625
9939,9.765625
9940,9.765625
9941,9.765625
9942,9.765625
9943,9.765625
9944,9.765625
9945,9.765625
9946,9.765625
9947,9.765625
9948,11.718750
9949,9.765625
9950,9.765625
9951,11.718750
9952,11.718750
9953,11.718750
9954,9.765625
9955,11.718750
9956,11.718750
9957,11.718750
9958,11.718750
9959,11.718750
9960,11.718750
9961,11.718750
9962,11.718750
9963,11.718750
9964,11.718750
9965,11.718750
9966,11.718750
9967,11.718750
9968,11.718750
9969,11.718750
9970,11.718750
9971,11.718750
9972,11.718750
9973,11.718750
9974,11.718750
9975,11.718750
9976,11.718750
9977,11.718750
9978,9.765625
9979,11.718750
9980,9.765625
9981,11.718750
9982,9.765625
9983,9.765625
9984,9.765625
9985,9.765625
9986,9.765625
9987,9.765625
9988,9.765625
9989,9.765625
9990,9.765625
9991,9.765625
9992,7.812500
9993,9.765625
9994,7.812500
9995,7.812500
9996,7.812500
9997,9.765625
9998,7.812500
9999,5.859375
10000,5.859375
