Channel              :,CH1
Frequency            :,1.759kHz
Period               :,0.568ms
PK-PK                :,189.5mV
Probe attenuation    :,1X
Voltage per ADC value:,0.122070mV
Time interval        :,2.00000us

index,CH1_Voltage(mV)
1,60.546875
2,60.546875
3,58.593750
4,56.640625
5,56.640625
6,54.687500
7,52.734375
8,52.734375
9,50.781250
10,48.828125
11,46.875000
12,44.921875
13,42.968750
14,42.968750
15,41.015625
16,39.062500
17,37.109375
18,35.156250
19,33.203125
20,31.250000
21,29.296875
22,27.343750
23,25.390625
24,25.390625
25,21.484375
26,19.531250
27,17.578125
28,15.625000
29,13.671875
30,11.718750
31,9.765625
32,7.812500
33,5.859375
34,3.906250
35,1.953125
36,0.000000
37,-1.953125
38,-3.906250
39,-7.812500
40,-7.812500
41,-9.765625
42,-11.718750
43,-13.671875
44,-17.578125
45,-19.531250
46,-21.484375
47,-23.437500
48,-25.390625
49,-29.296875
50,-29.296875
51,-31.250000
52,-33.203125
53,-35.156250
54,-37.109375
55,-39.062500
56,-41.015625
57,-42.968750
58,-44.921875
59,-46.875000
60,-48.828125
61,-50.781250
62,-52.734375
63,-54.687500
64,-56.640625
65,-58.593750
66,-60.546875
67,-62.500000
68,-64.453125
69,-66.406250
70,-66.406250
71,-66.406250
72,-70.312500
73,-72.265625
74,-74.218750
75,-74.218750
76,-76.171875
77,-76.171875
78,-78.125000
79,-80.078125
80,-82.031250
81,-83.984375
82,-83.984375
83,-85.937500
84,-85.937500
85,-87.890625
86,-87.890625
87,-89.843750
88,-91.796875
89,-91.796875
90,-93.750000
91,-93.750000
92,-93.750000
93,-95.703125
94,-95.703125
95,-95.703125
96,-97.656250
97,-97.656250
98,-97.656250
99,-99.609375
100,-99.609375
101,-99.609375
102,-99.609375
103,-101.562500
104,-101.562500
105,-101.562500
106,-101.562500
107,-101.562500
108,-101.562500
109,-101.562500
110,-101.562500
111,-101.562500
112,-101.562500
113,-101.562500
114,-101.562500
115,-101.562500
116,-99.609375
117,-101.562500
118,-99.609375
119,-99.609375
120,-99.609375
121,-97.656250
122,-97.656250
123,-97.656250
124,-97.656250
125,-95.703125
126,-93.750000
127,-93.750000
128,-93.750000
129,-91.796875
130,-91.796875
131,-89.843750
132,-89.843750
133,-87.890625
134,-87.890625
135,-85.937500
136,-83.984375
137,-82.031250
138,-82.031250
139,-80.078125
140,-78.125000
141,-76.171875
142,-76.171875
143,-74.218750
144,-72.265625
145,-72.265625
146,-68.359375
147,-68.359375
148,-66.406250
149,-64.453125
150,-62.500000
151,-60.546875
152,-60.546875
153,-56.640625
154,-56.640625
155,-54.687500
156,-52.734375
157,-50.781250
158,-48.828125
159,-48.828125
160,-44.921875
161,-42.968750
162,-41.015625
163,-39.062500
164,-37.109375
165,-35.156250
166,-33.203125
167,-31.250000
168,-29.296875
169,-27.343750
170,-25.390625
171,-23.437500
172,-21.484375
173,-17.578125
174,-15.625000
175,-11.718750
176,-11.718750
177,-9.765625
178,-7.812500
179,-5.859375
180,-3.906250
181,-1.953125
182,0.000000
183,1.953125
184,3.906250
185,5.859375
186,7.812500
187,9.765625
188,11.718750
189,13.671875
190,15.625000
191,17.578125
192,19.531250
193,21.484375
194,23.437500
195,25.390625
196,27.343750
197,29.296875
198,31.250000
199,33.203125
200,35.156250
201,37.109375
202,39.062500
203,41.015625
204,41.015625
205,42.968750
206,44.921875
207,46.875000
208,48.828125
209,48.828125
210,50.781250
211,52.734375
212,54.687500
213,54.687500
214,56.640625
215,58.593750
216,58.593750
217,60.546875
218,62.500000
219,64.453125
220,64.453125
221,66.406250
222,66.406250
223,66.406250
224,70.312500
225,70.312500
226,70.312500
227,72.265625
228,72.265625
229,72.265625
230,74.218750
231,76.171875
232,76.171875
233,76.171875
234,78.125000
235,82.031250
236,78.125000
237,78.125000
238,80.078125
239,80.078125
240,80.078125
241,82.031250
242,82.031250
243,82.031250
244,82.031250
245,82.031250
246,82.031250
247,82.031250
248,83.984375
249,82.031250
250,83.984375
251,83.984375
252,80.078125
253,83.984375
254,83.984375
255,82.031250
256,82.031250
257,82.031250
258,82.031250
259,82.031250
260,82.031250
261,80.078125
262,82.031250
263,80.078125
264,80.078125
265,80.078125
266,80.078125
267,78.125000
268,78.125000
269,78.125000
270,76.171875
271,76.171875
272,74.218750
273,74.218750
274,70.312500
275,72.265625
276,72.265625
277,70.312500
278,70.312500
279,68.359375
280,68.359375
281,66.406250
282,64.453125
283,64.453125
284,62.500000
285,60.546875
286,60.546875
287,58.593750
288,56.640625
289,56.640625
290,54.687500
291,52.734375
292,50.781250
293,50.781250
294,48.828125
295,46.875000
296,44.921875
297,44.921875
298,42.968750
299,41.015625
300,39.062500
301,37.109375
302,35.156250
303,33.203125
304,31.250000
305,29.296875
306,27.343750
307,25.390625
308,25.390625
309,23.437500
310,19.531250
311,17.578125
312,15.625000
313,15.625000
314,11.718750
315,9.765625
316,7.812500
317,5.859375
318,3.906250
319,1.953125
320,0.000000
321,-1.953125
322,-3.906250
323,-5.859375
324,-7.812500
325,-9.765625
326,-11.718750
327,-13.671875
328,-15.625000
329,-19.531250
330,-19.531250
331,-23.437500
332,-25.390625
333,-27.343750
334,-29.296875
335,-31.250000
336,-33.203125
337,-35.156250
338,-37.109375
339,-39.062500
340,-41.015625
341,-42.968750
342,-44.921875
343,-46.875000
344,-48.828125
345,-50.781250
346,-52.734375
347,-54.687500
348,-54.687500
349,-56.640625
350,-60.546875
351,-60.546875
352,-62.500000
353,-64.453125
354,-66.406250
355,-68.359375
356,-70.312500
357,-72.265625
358,-72.265625
359,-74.218750
360,-76.171875
361,-78.125000
362,-78.125000
363,-82.031250
364,-82.031250
365,-83.984375
366,-83.984375
367,-85.937500
368,-87.890625
369,-87.890625
370,-89.843750
371,-89.843750
372,-91.796875
373,-91.796875
374,-93.750000
375,-93.750000
376,-95.703125
377,-95.703125
378,-95.703125
379,-97.656250
380,-97.656250
381,-97.656250
382,-99.609375
383,-99.609375
384,-101.562500
385,-99.609375
386,-101.562500
387,-101.562500
388,-101.562500
389,-101.562500
390,-101.562500
391,-101.562500
392,-103.515625
393,-101.562500
394,-101.562500
395,-101.562500
396,-101.562500
397,-101.562500
398,-101.562500
399,-99.609375
400,-99.609375
401,-101.562500
402,-99.609375
403,-99.609375
404,-97.656250
405,-97.656250
406,-97.656250
407,-97.656250
408,-95.703125
409,-95.703125
410,-95.703125
411,-93.750000
412,-91.796875
413,-91.796875
414,-91.796875
415,-89.843750
416,-89.843750
417,-87.890625
418,-85.937500
419,-85.937500
420,-83.984375
421,-83.984375
422,-82.031250
423,-80.078125
424,-78.125000
425,-78.125000
426,-76.171875
427,-76.171875
428,-74.218750
429,-72.265625
430,-70.312500
431,-70.312500
432,-66.406250
433,-64.453125
434,-64.453125
435,-62.500000
436,-60.546875
437,-58.593750
438,-56.640625
439,-54.687500
440,-52.734375
441,-50.781250
442,-48.828125
443,-46.875000
444,-44.921875
445,-44.921875
446,-41.015625
447,-39.062500
448,-37.109375
449,-35.156250
450,-33.203125
451,-29.296875
452,-29.296875
453,-27.343750
454,-25.390625
455,-23.437500
456,-21.484375
457,-19.531250
458,-17.578125
459,-15.625000
460,-13.671875
461,-9.765625
462,-7.812500
463,-5.859375
464,-3.906250
465,-1.953125
466,0.000000
467,1.953125
468,3.906250
469,5.859375
470,7.812500
471,9.765625
472,11.718750
473,13.671875
474,15.625000
475,17.578125
476,19.531250
477,21.484375
478,23.437500
479,25.390625
480,27.343750
481,29.296875
482,31.250000
483,33.203125
484,33.203125
485,35.156250
486,37.109375
487,39.062500
488,41.015625
489,42.968750
490,44.921875
491,46.875000
492,48.828125
493,48.828125
494,50.781250
495,52.734375
496,52.734375
497,54.687500
498,56.640625
499,56.640625
500,58.593750
501,60.546875
502,62.500000
503,62.500000
504,64.453125
505,64.453125
506,66.406250
507,68.359375
508,68.359375
509,70.312500
510,70.312500
511,72.265625
512,72.265625
513,74.218750
514,74.218750
515,76.171875
516,76.171875
517,78.125000
518,78.125000
519,80.078125
520,78.125000
521,80.078125
522,80.078125
523,80.078125
524,82.031250
525,82.031250
526,82.031250
527,82.031250
528,82.031250
529,82.031250
530,83.984375
531,83.984375
532,83.984375
533,83.984375
534,83.984375
535,83.984375
536,83.984375
537,83.984375
538,83.984375
539,82.031250
540,83.984375
541,82.031250
542,83.984375
543,82.031250
544,82.031250
545,82.031250
546,80.078125
547,80.078125
548,80.078125
549,80.078125
550,80.078125
551,78.125000
552,78.125000
553,76.171875
554,78.125000
555,76.171875
556,74.218750
557,74.218750
558,74.218750
559,72.265625
560,70.312500
561,70.312500
562,70.312500
563,68.359375
564,66.406250
565,66.406250
566,64.453125
567,64.453125
568,62.500000
569,60.546875
570,58.593750
571,58.593750
572,56.640625
573,54.687500
574,54.687500
575,52.734375
576,50.781250
577,50.781250
578,48.828125
579,46.875000
580,44.921875
581,42.968750
582,41.015625
583,41.015625
584,42.968750
585,37.109375
586,35.156250
587,33.203125
588,31.250000
589,31.250000
590,27.343750
591,25.390625
592,25.390625
593,23.437500
594,21.484375
595,19.531250
596,15.625000
597,15.625000
598,11.718750
599,9.765625
600,7.812500
601,7.812500
602,3.906250
603,3.906250
604,0.000000
605,-1.953125
606,-3.906250
607,-5.859375
608,-7.812500
609,-9.765625
610,-11.718750
611,-13.671875
612,-15.625000
613,-17.578125
614,-21.484375
615,-21.484375
616,-21.484375
617,-25.390625
618,-27.343750
619,-31.250000
620,-33.203125
621,-35.156250
622,-37.109375
623,-39.062500
624,-41.015625
625,-42.968750
626,-44.921875
627,-46.875000
628,-48.828125
629,-50.781250
630,-52.734375
631,-54.687500
632,-56.640625
633,-58.593750
634,-60.546875
635,-60.546875
636,-62.500000
637,-66.406250
638,-66.406250
639,-68.359375
640,-70.312500
641,-72.265625
642,-72.265625
643,-74.218750
644,-76.171875
645,-78.125000
646,-78.125000
647,-80.078125
648,-82.031250
649,-83.984375
650,-83.984375
651,-85.937500
652,-85.937500
653,-87.890625
654,-89.843750
655,-89.843750
656,-91.796875
657,-91.796875
658,-93.750000
659,-93.750000
660,-95.703125
661,-95.703125
662,-95.703125
663,-97.656250
664,-97.656250
665,-97.656250
666,-99.609375
667,-99.609375
668,-99.609375
669,-99.609375
670,-99.609375
671,-101.562500
672,-101.562500
673,-101.562500
674,-101.562500
675,-101.562500
676,-101.562500
677,-101.562500
678,-101.562500
679,-101.562500
680,-101.562500
681,-101.562500
682,-101.562500
683,-101.562500
684,-101.562500
685,-99.609375
686,-99.609375
687,-99.609375
688,-99.609375
689,-97.656250
690,-97.656250
691,-97.656250
692,-95.703125
693,-95.703125
694,-95.703125
695,-95.703125
696,-93.750000
697,-91.796875
698,-91.796875
699,-91.796875
700,-89.843750
701,-89.843750
702,-87.890625
703,-85.937500
704,-83.984375
705,-83.984375
706,-82.031250
707,-80.078125
708,-80.078125
709,-78.125000
710,-76.171875
711,-76.171875
712,-74.218750
713,-72.265625
714,-70.312500
715,-68.359375
716,-66.406250
717,-64.453125
718,-64.453125
719,-62.500000
720,-60.546875
721,-58.593750
722,-56.640625
723,-54.687500
724,-52.734375
725,-50.781250
726,-48.828125
727,-48.828125
728,-44.921875
729,-42.968750
730,-41.015625
731,-39.062500
732,-37.109375
733,-35.156250
734,-33.203125
735,-31.250000
736,-29.296875
737,-25.390625
738,-25.390625
739,-23.437500
740,-21.484375
741,-19.531250
742,-17.578125
743,-15.625000
744,-11.718750
745,-9.765625
746,-7.812500
747,-5.859375
748,-3.906250
749,-3.906250
750,0.000000
751,1.953125
752,3.906250
753,5.859375
754,7.812500
755,9.765625
756,11.718750
757,13.671875
758,15.625000
759,17.578125
760,19.531250
761,21.484375
762,23.437500
763,25.390625
764,25.390625
765,29.296875
766,31.250000
767,31.250000
768,33.203125
769,35.156250
770,39.062500
771,39.062500
772,41.015625
773,42.968750
774,44.921875
775,42.968750
776,46.875000
777,48.828125
778,50.781250
779,52.734375
780,54.687500
781,54.687500
782,56.640625
783,58.593750
784,58.593750
785,60.546875
786,60.546875
787,64.453125
788,66.406250
789,64.453125
790,66.406250
791,68.359375
792,68.359375
793,70.312500
794,72.265625
795,72.265625
796,74.218750
797,74.218750
798,74.218750
799,76.171875
800,76.171875
801,76.171875
802,78.125000
803,78.125000
804,80.078125
805,80.078125
806,80.078125
807,80.078125
808,82.031250
809,82.031250
810,82.031250
811,82.031250
812,82.031250
813,82.031250
814,82.031250
815,82.031250
816,83.984375
817,83.984375
818,83.984375
819,83.984375
820,83.984375
821,82.031250
822,82.031250
823,83.984375
824,82.031250
825,82.031250
826,82.031250
827,82.031250
828,82.031250
829,82.031250
830,82.031250
831,80.078125
832,80.078125
833,80.078125
834,80.078125
835,78.125000
836,78.125000
837,76.171875
838,76.171875
839,76.171875
840,74.218750
841,74.218750
842,74.218750
843,72.265625
844,70.312500
845,70.312500
846,70.312500
847,68.359375
848,68.359375
849,66.406250
850,64.453125
851,64.453125
852,62.500000
853,62.500000
854,60.546875
855,58.593750
856,56.640625
857,56.640625
858,54.687500
859,54.687500
860,52.734375
861,50.781250
862,48.828125
863,46.875000
864,44.921875
865,44.921875
866,42.968750
867,41.015625
868,39.062500
869,37.109375
870,35.156250
871,33.203125
872,31.250000
873,29.296875
874,27.343750
875,27.343750
876,25.390625
877,23.437500
878,21.484375
879,19.531250
880,17.578125
881,15.625000
882,11.718750
883,11.718750
884,9.765625
885,7.812500
886,3.906250
887,1.953125
888,0.000000
889,-1.953125
890,-3.906250
891,0.000000
892,-7.812500
893,-9.765625
894,-11.718750
895,-13.671875
896,-17.578125
897,-17.578125
898,-19.531250
899,-21.484375
900,-25.390625
901,-27.343750
902,-29.296875
903,-29.296875
904,-33.203125
905,-33.203125
906,-37.109375
907,-39.062500
908,-41.015625
909,-42.968750
910,-44.921875
911,-46.875000
912,-48.828125
913,-50.781250
914,-52.734375
915,-54.687500
916,-54.687500
917,-56.640625
918,-58.593750
919,-60.546875
920,-62.500000
921,-64.453125
922,-66.406250
923,-68.359375
924,-68.359375
925,-70.312500
926,-72.265625
927,-74.218750
928,-76.171875
929,-76.171875
930,-80.078125
931,-80.078125
932,-80.078125
933,-82.031250
934,-83.984375
935,-83.984375
936,-85.937500
937,-87.890625
938,-87.890625
939,-89.843750
940,-91.796875
941,-91.796875
942,-93.750000
943,-93.750000
944,-93.750000
945,-95.703125
946,-95.703125
947,-97.656250
948,-97.656250
949,-99.609375
950,-97.656250
951,-99.609375
952,-99.609375
953,-101.562500
954,-99.609375
955,-101.562500
956,-101.562500
957,-101.562500
958,-101.562500
959,-101.562500
960,-101.562500
961,-101.562500
962,-101.562500
963,-101.562500
964,-101.562500
965,-101.562500
966,-101.562500
967,-101.562500
968,-101.562500
969,-101.562500
970,-99.609375
971,-103.515625
972,-97.656250
973,-97.656250
974,-97.656250
975,-97.656250
976,-93.750000
977,-95.703125
978,-95.703125
979,-93.750000
980,-93.750000
981,-93.750000
982,-91.796875
983,-89.843750
984,-87.890625
985,-87.890625
986,-87.890625
987,-85.937500
988,-85.937500
989,-82.031250
990,-82.031250
991,-82.031250
992,-80.078125
993,-78.125000
994,-76.171875
995,-76.171875
996,-72.265625
997,-72.265625
998,-70.312500
999,-68.359375
1000,-66.406250
1001,-66.406250
1002,-64.453125
1003,-62.500000
1004,-60.546875
1005,-58.593750
1006,-56.640625
1007,-54.687500
1008,-52.734375
1009,-50.781250
1010,-48.828125
1011,-46.875000
1012,-44.921875
1013,-42.968750
1014,-42.968750
1015,-39.062500
1016,-37.109375
1017,-35.156250
1018,-33.203125
1019,-31.250000
1020,-29.296875
1021,-29.296875
1022,-25.390625
1023,-23.437500
1024,-21.484375
1025,-19.531250
1026,-17.578125
1027,-17.578125
1028,-13.671875
1029,-11.718750
1030,-7.812500
1031,-7.812500
1032,-5.859375
1033,-3.906250
1034,0.000000
1035,1.953125
1036,3.906250
1037,5.859375
1038,5.859375
1039,9.765625
1040,11.718750
1041,13.671875
1042,15.625000
1043,17.578125
1044,19.531250
1045,21.484375
1046,23.437500
1047,25.390625
1048,27.343750
1049,29.296875
1050,31.250000
1051,33.203125
1052,35.156250
1053,35.156250
1054,37.109375
1055,39.062500
1056,41.015625
1057,42.968750
1058,44.921875
1059,46.875000
1060,46.875000
1061,48.828125
1062,50.781250
1063,52.734375
1064,54.687500
1065,54.687500
1066,56.640625
1067,58.593750
1068,58.593750
1069,60.546875
1070,60.546875
1071,62.500000
1072,64.453125
1073,66.406250
1074,66.406250
1075,68.359375
1076,68.359375
1077,70.312500
1078,70.312500
1079,72.265625
1080,72.265625
1081,72.265625
1082,74.218750
1083,76.171875
1084,76.171875
1085,76.171875
1086,78.125000
1087,78.125000
1088,78.125000
1089,78.125000
1090,80.078125
1091,80.078125
1092,80.078125
1093,80.078125
1094,82.031250
1095,82.031250
1096,82.031250
1097,82.031250
1098,82.031250
1099,82.031250
1100,83.984375
1101,83.984375
1102,83.984375
1103,82.031250
1104,83.984375
1105,83.984375
1106,82.031250
1107,83.984375
1108,83.984375
1109,82.031250
1110,82.031250
1111,82.031250
1112,82.031250
1113,82.031250
1114,82.031250
1115,80.078125
1116,80.078125
1117,80.078125
1118,80.078125
1119,78.125000
1120,78.125000
1121,78.125000
1122,78.125000
1123,76.171875
1124,76.171875
1125,74.218750
1126,74.218750
1127,72.265625
1128,72.265625
1129,70.312500
1130,70.312500
1131,68.359375
1132,66.406250
1133,66.406250
1134,66.406250
1135,64.453125
1136,62.500000
1137,62.500000
1138,60.546875
1139,58.593750
1140,58.593750
1141,56.640625
1142,54.687500
1143,52.734375
1144,52.734375
1145,50.781250
1146,48.828125
1147,48.828125
1148,44.921875
1149,44.921875
1150,42.968750
1151,39.062500
1152,39.062500
1153,37.109375
1154,35.156250
1155,33.203125
1156,31.250000
1157,29.296875
1158,27.343750
1159,25.390625
1160,25.390625
1161,23.437500
1162,21.484375
1163,19.531250
1164,15.625000
1165,15.625000
1166,13.671875
1167,11.718750
1168,9.765625
1169,5.859375
1170,5.859375
1171,3.906250
1172,1.953125
1173,0.000000
1174,-3.906250
1175,-5.859375
1176,-5.859375
1177,-9.765625
1178,-11.718750
1179,-13.671875
1180,-15.625000
1181,-17.578125
1182,-19.531250
1183,-21.484375
1184,-23.437500
1185,-25.390625
1186,-27.343750
1187,-31.250000
1188,-31.250000
1189,-35.156250
1190,-35.156250
1191,-37.109375
1192,-41.015625
1193,-41.015625
1194,-42.968750
1195,-44.921875
1196,-48.828125
1197,-50.781250
1198,-52.734375
1199,-52.734375
1200,-54.687500
1201,-56.640625
1202,-58.593750
1203,-60.546875
1204,-62.500000
1205,-64.453125
1206,-66.406250
1207,-68.359375
1208,-70.312500
1209,-72.265625
1210,-72.265625
1211,-74.218750
1212,-76.171875
1213,-78.125000
1214,-76.171875
1215,-80.078125
1216,-82.031250
1217,-83.984375
1218,-83.984375
1219,-85.937500
1220,-87.890625
1221,-85.937500
1222,-89.843750
1223,-89.843750
1224,-91.796875
1225,-91.796875
1226,-93.750000
1227,-93.750000
1228,-95.703125
1229,-95.703125
1230,-95.703125
1231,-97.656250
1232,-97.656250
1233,-97.656250
1234,-97.656250
1235,-99.609375
1236,-99.609375
1237,-99.609375
1238,-101.562500
1239,-101.562500
1240,-101.562500
1241,-101.562500
1242,-101.562500
1243,-101.562500
1244,-101.562500
1245,-101.562500
1246,-101.562500
1247,-101.562500
1248,-101.562500
1249,-101.562500
1250,-101.562500
1251,-101.562500
1252,-101.562500
1253,-101.562500
1254,-99.609375
1255,-99.609375
1256,-99.609375
1257,-97.656250
1258,-97.656250
1259,-97.656250
1260,-95.703125
1261,-95.703125
1262,-95.703125
1263,-93.750000
1264,-93.750000
1265,-91.796875
1266,-91.796875
1267,-89.843750
1268,-89.843750
1269,-87.890625
1270,-87.890625
1271,-85.937500
1272,-85.937500
1273,-83.984375
1274,-82.031250
1275,-80.078125
1276,-80.078125
1277,-80.078125
1278,-78.125000
1279,-76.171875
1280,-74.218750
1281,-72.265625
1282,-70.312500
1283,-70.312500
1284,-68.359375
1285,-66.406250
1286,-64.453125
1287,-62.500000
1288,-60.546875
1289,-56.640625
1290,-56.640625
1291,-54.687500
1292,-52.734375
1293,-52.734375
1294,-50.781250
1295,-46.875000
1296,-44.921875
1297,-42.968750
1298,-42.968750
1299,-39.062500
1300,-37.109375
1301,-35.156250
1302,-33.203125
1303,-31.250000
1304,-29.296875
1305,-27.343750
1306,-25.390625
1307,-23.437500
1308,-21.484375
1309,-19.531250
1310,-17.578125
1311,-15.625000
1312,-13.671875
1313,-11.718750
1314,-7.812500
1315,-5.859375
1316,-3.906250
1317,-1.953125
1318,0.000000
1319,1.953125
1320,3.906250
1321,5.859375
1322,7.812500
1323,9.765625
1324,11.718750
1325,13.671875
1326,15.625000
1327,17.578125
1328,19.531250
1329,17.578125
1330,23.437500
1331,25.390625
1332,27.343750
1333,27.343750
1334,29.296875
1335,31.250000
1336,33.203125
1337,35.156250
1338,37.109375
1339,39.062500
1340,41.015625
1341,42.968750
1342,44.921875
1343,46.875000
1344,46.875000
1345,44.921875
1346,50.781250
1347,50.781250
1348,52.734375
1349,54.687500
1350,56.640625
1351,56.640625
1352,58.593750
1353,60.546875
1354,60.546875
1355,62.500000
1356,64.453125
1357,64.453125
1358,66.406250
1359,68.359375
1360,68.359375
1361,70.312500
1362,72.265625
1363,72.265625
1364,72.265625
1365,72.265625
1366,74.218750
1367,72.265625
1368,76.171875
1369,76.171875
1370,78.125000
1371,78.125000
1372,78.125000
1373,78.125000
1374,80.078125
1375,80.078125
1376,80.078125
1377,82.031250
1378,82.031250
1379,82.031250
1380,82.031250
1381,82.031250
1382,83.984375
1383,82.031250
1384,83.984375
1385,83.984375
1386,83.984375
1387,83.984375
1388,83.984375
1389,83.984375
1390,83.984375
1391,83.984375
1392,82.031250
1393,82.031250
1394,82.031250
1395,82.031250
1396,82.031250
1397,82.031250
1398,82.031250
1399,80.078125
1400,80.078125
1401,80.078125
1402,78.125000
1403,78.125000
1404,78.125000
1405,76.171875
1406,76.171875
1407,76.171875
1408,74.218750
1409,74.218750
1410,72.265625
1411,72.265625
1412,72.265625
1413,72.265625
1414,70.312500
1415,66.406250
1416,68.359375
1417,68.359375
1418,64.453125
1419,64.453125
1420,62.500000
1421,62.500000
1422,60.546875
1423,60.546875
1424,58.593750
1425,56.640625
1426,54.687500
1427,52.734375
1428,50.781250
1429,50.781250
1430,48.828125
1431,48.828125
1432,46.875000
1433,44.921875
1434,42.968750
1435,41.015625
1436,39.062500
1437,37.109375
1438,35.156250
1439,33.203125
1440,31.250000
1441,33.203125
1442,29.296875
1443,27.343750
1444,25.390625
1445,23.437500
1446,21.484375
1447,19.531250
1448,17.578125
1449,15.625000
1450,13.671875
1451,11.718750
1452,9.765625
1453,5.859375
1454,5.859375
1455,3.906250
1456,1.953125
1457,-1.953125
1458,-1.953125
1459,-5.859375
1460,-5.859375
1461,-9.765625
1462,-11.718750
1463,-13.671875
1464,-15.625000
1465,-17.578125
1466,-19.531250
1467,-21.484375
1468,-23.437500
1469,-25.390625
1470,-27.343750
1471,-29.296875
1472,-31.250000
1473,-33.203125
1474,-37.109375
1475,-39.062500
1476,-39.062500
1477,-42.968750
1478,-42.968750
1479,-46.875000
1480,-48.828125
1481,-50.781250
1482,-52.734375
1483,-52.734375
1484,-54.687500
1485,-56.640625
1486,-58.593750
1487,-60.546875
1488,-62.500000
1489,-64.453125
1490,-66.406250
1491,-68.359375
1492,-70.312500
1493,-70.312500
1494,-72.265625
1495,-74.218750
1496,-76.171875
1497,-74.218750
1498,-78.125000
1499,-80.078125
1500,-82.031250
1501,-82.031250
1502,-83.984375
1503,-83.984375
1504,-85.937500
1505,-87.890625
1506,-87.890625
1507,-89.843750
1508,-87.890625
1509,-93.750000
1510,-93.750000
1511,-93.750000
1512,-93.750000
1513,-95.703125
1514,-95.703125
1515,-97.656250
1516,-97.656250
1517,-99.609375
1518,-97.656250
1519,-99.609375
1520,-99.609375
1521,-99.609375
1522,-101.562500
1523,-101.562500
1524,-101.562500
1525,-103.515625
1526,-101.562500
1527,-101.562500
1528,-101.562500
1529,-103.515625
1530,-101.562500
1531,-101.562500
1532,-101.562500
1533,-101.562500
1534,-101.562500
1535,-101.562500
1536,-101.562500
1537,-99.609375
1538,-99.609375
1539,-99.609375
1540,-99.609375
1541,-99.609375
1542,-97.656250
1543,-97.656250
1544,-97.656250
1545,-95.703125
1546,-95.703125
1547,-95.703125
1548,-93.750000
1549,-91.796875
1550,-91.796875
1551,-89.843750
1552,-87.890625
1553,-87.890625
1554,-87.890625
1555,-85.937500
1556,-85.937500
1557,-83.984375
1558,-82.031250
1559,-80.078125
1560,-80.078125
1561,-78.125000
1562,-76.171875
1563,-74.218750
1564,-74.218750
1565,-72.265625
1566,-70.312500
1567,-70.312500
1568,-68.359375
1569,-66.406250
1570,-64.453125
1571,-62.500000
1572,-60.546875
1573,-58.593750
1574,-58.593750
1575,-54.687500
1576,-54.687500
1577,-52.734375
1578,-50.781250
1579,-46.875000
1580,-44.921875
1581,-44.921875
1582,-42.968750
1583,-39.062500
1584,-39.062500
1585,-35.156250
1586,-33.203125
1587,-33.203125
1588,-29.296875
1589,-27.343750
1590,-25.390625
1591,-23.437500
1592,-21.484375
1593,-19.531250
1594,-17.578125
1595,-15.625000
1596,-13.671875
1597,-11.718750
1598,-9.765625
1599,-7.812500
1600,-5.859375
1601,-1.953125
1602,-3.906250
1603,0.000000
1604,3.906250
1605,3.906250
1606,7.812500
1607,9.765625
1608,9.765625
1609,13.671875
1610,15.625000
1611,17.578125
1612,19.531250
1613,19.531250
1614,21.484375
1615,25.390625
1616,27.343750
1617,27.343750
1618,31.250000
1619,31.250000
1620,33.203125
1621,35.156250
1622,37.109375
1623,39.062500
1624,41.015625
1625,41.015625
1626,44.921875
1627,44.921875
1628,46.875000
1629,48.828125
1630,50.781250
1631,50.781250
1632,52.734375
1633,54.687500
1634,56.640625
1635,58.593750
1636,58.593750
1637,60.546875
1638,60.546875
1639,64.453125
1640,64.453125
1641,66.406250
1642,66.406250
1643,68.359375
1644,68.359375
1645,70.312500
1646,70.312500
1647,72.265625
1648,72.265625
1649,74.218750
1650,74.218750
1651,74.218750
1652,76.171875
1653,76.171875
1654,76.171875
1655,78.125000
1656,78.125000
1657,80.078125
1658,80.078125
1659,80.078125
1660,80.078125
1661,82.031250
1662,82.031250
1663,82.031250
1664,82.031250
1665,82.031250
1666,82.031250
1667,83.984375
1668,82.031250
1669,82.031250
1670,82.031250
1671,82.031250
1672,83.984375
1673,83.984375
1674,83.984375
1675,82.031250
1676,82.031250
1677,83.984375
1678,82.031250
1679,82.031250
1680,82.031250
1681,82.031250
1682,82.031250
1683,82.031250
1684,80.078125
1685,80.078125
1686,80.078125
1687,80.078125
1688,78.125000
1689,78.125000
1690,78.125000
1691,76.171875
1692,74.218750
1693,74.218750
1694,74.218750
1695,72.265625
1696,72.265625
1697,70.312500
1698,70.312500
1699,68.359375
1700,68.359375
1701,68.359375
1702,66.406250
1703,64.453125
1704,64.453125
1705,62.500000
1706,60.546875
1707,58.593750
1708,58.593750
1709,56.640625
1710,54.687500
1711,54.687500
1712,52.734375
1713,50.781250
1714,48.828125
1715,48.828125
1716,46.875000
1717,44.921875
1718,42.968750
1719,41.015625
1720,37.109375
1721,37.109375
1722,35.156250
1723,33.203125
1724,31.250000
1725,31.250000
1726,29.296875
1727,27.343750
1728,25.390625
1729,23.437500
1730,21.484375
1731,19.531250
1732,17.578125
1733,15.625000
1734,13.671875
1735,11.718750
1736,9.765625
1737,7.812500
1738,5.859375
1739,3.906250
1740,1.953125
1741,0.000000
1742,-1.953125
1743,-3.906250
1744,-7.812500
1745,-9.765625
1746,-9.765625
1747,-13.671875
1748,-15.625000
1749,-17.578125
1750,-19.531250
1751,-21.484375
1752,-27.343750
1753,-25.390625
1754,-27.343750
1755,-29.296875
1756,-31.250000
1757,-33.203125
1758,-35.156250
1759,-39.062500
1760,-39.062500
1761,-41.015625
1762,-42.968750
1763,-44.921875
1764,-46.875000
1765,-48.828125
1766,-50.781250
1767,-52.734375
1768,-54.687500
1769,-56.640625
1770,-58.593750
1771,-60.546875
1772,-62.500000
1773,-64.453125
1774,-64.453125
1775,-68.359375
1776,-68.359375
1777,-70.312500
1778,-72.265625
1779,-74.218750
1780,-76.171875
1781,-76.171875
1782,-78.125000
1783,-80.078125
1784,-82.031250
1785,-82.031250
1786,-83.984375
1787,-85.937500
1788,-85.937500
1789,-87.890625
1790,-87.890625
1791,-89.843750
1792,-91.796875
1793,-91.796875
1794,-91.796875
1795,-93.750000
1796,-95.703125
1797,-95.703125
1798,-95.703125
1799,-97.656250
1800,-97.656250
1801,-97.656250
1802,-95.703125
1803,-99.609375
1804,-99.609375
1805,-99.609375
1806,-101.562500
1807,-101.562500
1808,-99.609375
1809,-101.562500
1810,-101.562500
1811,-101.562500
1812,-101.562500
1813,-101.562500
1814,-103.515625
1815,-101.562500
1816,-101.562500
1817,-101.562500
1818,-101.562500
1819,-101.562500
1820,-101.562500
1821,-101.562500
1822,-99.609375
1823,-99.609375
1824,-99.609375
1825,-97.656250
1826,-97.656250
1827,-97.656250
1828,-95.703125
1829,-95.703125
1830,-95.703125
1831,-93.750000
1832,-93.750000
1833,-91.796875
1834,-91.796875
1835,-89.843750
1836,-91.796875
1837,-89.843750
1838,-87.890625
1839,-85.937500
1840,-85.937500
1841,-83.984375
1842,-83.984375
1843,-82.031250
1844,-80.078125
1845,-78.125000
1846,-76.171875
1847,-76.171875
1848,-74.218750
1849,-72.265625
1850,-70.312500
1851,-70.312500
1852,-68.359375
1853,-66.406250
1854,-64.453125
1855,-62.500000
1856,-60.546875
1857,-58.593750
1858,-58.593750
1859,-56.640625
1860,-52.734375
1861,-52.734375
1862,-48.828125
1863,-48.828125
1864,-44.921875
1865,-44.921875
1866,-42.968750
1867,-41.015625
1868,-39.062500
1869,-37.109375
1870,-35.156250
1871,-31.250000
1872,-31.250000
1873,-27.343750
1874,-25.390625
1875,-23.437500
1876,-21.484375
1877,-19.531250
1878,-17.578125
1879,-15.625000
1880,-13.671875
1881,-11.718750
1882,-9.765625
1883,-7.812500
1884,-5.859375
1885,-3.906250
1886,0.000000
1887,1.953125
1888,3.906250
1889,3.906250
1890,7.812500
1891,9.765625
1892,11.718750
1893,13.671875
1894,15.625000
1895,17.578125
1896,19.531250
1897,21.484375
1898,23.437500
1899,25.390625
1900,27.343750
1901,29.296875
1902,29.296875
1903,31.250000
1904,35.156250
1905,35.156250
1906,37.109375
1907,39.062500
1908,41.015625
1909,42.968750
1910,44.921875
1911,44.921875
1912,46.875000
1913,48.828125
1914,50.781250
1915,50.781250
1916,52.734375
1917,54.687500
1918,56.640625
1919,56.640625
1920,58.593750
1921,58.593750
1922,60.546875
1923,62.500000
1924,64.453125
1925,64.453125
1926,66.406250
1927,66.406250
1928,68.359375
1929,70.312500
1930,70.312500
1931,70.312500
1932,72.265625
1933,74.218750
1934,74.218750
1935,74.218750
1936,76.171875
1937,76.171875
1938,76.171875
1939,78.125000
1940,78.125000
1941,80.078125
1942,80.078125
1943,80.078125
1944,82.031250
1945,82.031250
1946,82.031250
1947,82.031250
1948,82.031250
1949,82.031250
1950,82.031250
1951,82.031250
1952,83.984375
1953,83.984375
1954,85.937500
1955,85.937500
1956,83.984375
1957,83.984375
1958,83.984375
1959,83.984375
1960,83.984375
1961,82.031250
1962,82.031250
1963,82.031250
1964,82.031250
1965,82.031250
1966,80.078125
1967,80.078125
1968,80.078125
1969,80.078125
1970,80.078125
1971,82.031250
1972,78.125000
1973,78.125000
1974,76.171875
1975,76.171875
1976,76.171875
1977,74.218750
1978,74.218750
1979,72.265625
1980,72.265625
1981,70.312500
1982,70.312500
1983,68.359375
1984,68.359375
1985,66.406250
1986,66.406250
1987,64.453125
1988,62.500000
1989,60.546875
1990,60.546875
1991,58.593750
1992,58.593750
1993,56.640625
1994,52.734375
1995,52.734375
1996,52.734375
1997,50.781250
1998,48.828125
1999,46.875000
2000,46.875000
2001,44.921875
2002,42.968750
2003,41.015625
2004,39.062500
2005,39.062500
2006,37.109375
2007,33.203125
2008,33.203125
2009,31.250000
2010,29.296875
2011,27.343750
2012,25.390625
2013,23.437500
2014,21.484375
2015,19.531250
2016,17.578125
2017,15.625000
2018,13.671875
2019,11.718750
2020,9.765625
2021,5.859375
2022,5.859375
2023,3.906250
2024,1.953125
2025,0.000000
2026,-1.953125
2027,-3.906250
2028,-5.859375
2029,-7.812500
2030,-9.765625
2031,-11.718750
2032,-13.671875
2033,-17.578125
2034,-19.531250
2035,-19.531250
2036,-23.437500
2037,-23.437500
2038,-27.343750
2039,-29.296875
2040,-31.250000
2041,-33.203125
2042,-35.156250
2043,-37.109375
2044,-41.015625
2045,-41.015625
2046,-42.968750
2047,-46.875000
2048,-48.828125
2049,-50.781250
2050,-50.781250
2051,-52.734375
2052,-54.687500
2053,-56.640625
2054,-58.593750
2055,-62.500000
2056,-62.500000
2057,-64.453125
2058,-64.453125
2059,-68.359375
2060,-68.359375
2061,-70.312500
2062,-72.265625
2063,-74.218750
2064,-76.171875
2065,-76.171875
2066,-78.125000
2067,-80.078125
2068,-80.078125
2069,-82.031250
2070,-83.984375
2071,-83.984375
2072,-85.937500
2073,-87.890625
2074,-87.890625
2075,-89.843750
2076,-89.843750
2077,-91.796875
2078,-91.796875
2079,-91.796875
2080,-93.750000
2081,-95.703125
2082,-95.703125
2083,-97.656250
2084,-97.656250
2085,-97.656250
2086,-97.656250
2087,-99.609375
2088,-99.609375
2089,-99.609375
2090,-99.609375
2091,-101.562500
2092,-101.562500
2093,-101.562500
2094,-101.562500
2095,-101.562500
2096,-101.562500
2097,-99.609375
2098,-101.562500
2099,-101.562500
2100,-101.562500
2101,-101.562500
2102,-101.562500
2103,-101.562500
2104,-99.609375
2105,-99.609375
2106,-99.609375
2107,-99.609375
2108,-99.609375
2109,-99.609375
2110,-97.656250
2111,-97.656250
2112,-97.656250
2113,-95.703125
2114,-95.703125
2115,-95.703125
2116,-93.750000
2117,-93.750000
2118,-91.796875
2119,-91.796875
2120,-89.843750
2121,-89.843750
2122,-87.890625
2123,-87.890625
2124,-85.937500
2125,-83.984375
2126,-82.031250
2127,-82.031250
2128,-80.078125
2129,-80.078125
2130,-76.171875
2131,-76.171875
2132,-74.218750
2133,-72.265625
2134,-72.265625
2135,-70.312500
2136,-68.359375
2137,-66.406250
2138,-64.453125
2139,-62.500000
2140,-64.453125
2141,-58.593750
2142,-58.593750
2143,-54.687500
2144,-52.734375
2145,-52.734375
2146,-50.781250
2147,-46.875000
2148,-46.875000
2149,-44.921875
2150,-42.968750
2151,-39.062500
2152,-37.109375
2153,-35.156250
2154,-35.156250
2155,-33.203125
2156,-25.390625
2157,-27.343750
2158,-25.390625
2159,-25.390625
2160,-21.484375
2161,-19.531250
2162,-17.578125
2163,-15.625000
2164,-13.671875
2165,-9.765625
2166,-9.765625
2167,-7.812500
2168,-3.906250
2169,-3.906250
2170,-1.953125
2171,0.000000
2172,3.906250
2173,5.859375
2174,5.859375
2175,7.812500
2176,11.718750
2177,11.718750
2178,13.671875
2179,15.625000
2180,17.578125
2181,19.531250
2182,21.484375
2183,23.437500
2184,25.390625
2185,27.343750
2186,29.296875
2187,31.250000
2188,33.203125
2189,35.156250
2190,37.109375
2191,39.062500
2192,41.015625
2193,42.968750
2194,42.968750
2195,44.921875
2196,46.875000
2197,48.828125
2198,48.828125
2199,52.734375
2200,52.734375
2201,54.687500
2202,56.640625
2203,56.640625
2204,58.593750
2205,58.593750
2206,62.500000
2207,62.500000
2208,64.453125
2209,66.406250
2210,66.406250
2211,68.359375
2212,68.359375
2213,68.359375
2214,70.312500
2215,70.312500
2216,72.265625
2217,74.218750
2218,74.218750
2219,74.218750
2220,76.171875
2221,76.171875
2222,78.125000
2223,78.125000
2224,78.125000
2225,80.078125
2226,80.078125
2227,80.078125
2228,80.078125
2229,80.078125
2230,82.031250
2231,82.031250
2232,82.031250
2233,82.031250
2234,80.078125
2235,82.031250
2236,83.984375
2237,83.984375
2238,82.031250
2239,82.031250
2240,83.984375
2241,83.984375
2242,83.984375
2243,83.984375
2244,82.031250
2245,82.031250
2246,82.031250
2247,82.031250
2248,82.031250
2249,82.031250
2250,82.031250
2251,82.031250
2252,80.078125
2253,80.078125
2254,78.125000
2255,78.125000
2256,78.125000
2257,78.125000
2258,76.171875
2259,76.171875
2260,76.171875
2261,74.218750
2262,74.218750
2263,72.265625
2264,72.265625
2265,70.312500
2266,70.312500
2267,68.359375
2268,68.359375
2269,66.406250
2270,66.406250
2271,64.453125
2272,64.453125
2273,60.546875
2274,60.546875
2275,58.593750
2276,60.546875
2277,56.640625
2278,54.687500
2279,54.687500
2280,52.734375
2281,50.781250
2282,50.781250
2283,48.828125
2284,46.875000
2285,44.921875
2286,42.968750
2287,41.015625
2288,41.015625
2289,37.109375
2290,37.109375
2291,35.156250
2292,33.203125
2293,31.250000
2294,29.296875
2295,25.390625
2296,25.390625
2297,23.437500
2298,23.437500
2299,19.531250
2300,17.578125
2301,15.625000
2302,13.671875
2303,9.765625
2304,9.765625
2305,7.812500
2306,5.859375
2307,3.906250
2308,1.953125
2309,0.000000
2310,-1.953125
2311,-3.906250
2312,-5.859375
2313,-7.812500
2314,-11.718750
2315,-13.671875
2316,-15.625000
2317,-17.578125
2318,-19.531250
2319,-17.578125
2320,-23.437500
2321,-25.390625
2322,-27.343750
2323,-29.296875
2324,-31.250000
2325,-33.203125
2326,-35.156250
2327,-37.109375
2328,-39.062500
2329,-41.015625
2330,-42.968750
2331,-44.921875
2332,-46.875000
2333,-48.828125
2334,-50.781250
2335,-52.734375
2336,-54.687500
2337,-56.640625
2338,-58.593750
2339,-60.546875
2340,-60.546875
2341,-64.453125
2342,-66.406250
2343,-66.406250
2344,-68.359375
2345,-70.312500
2346,-72.265625
2347,-74.218750
2348,-74.218750
2349,-76.171875
2350,-78.125000
2351,-78.125000
2352,-80.078125
2353,-82.031250
2354,-83.984375
2355,-85.937500
2356,-83.984375
2357,-89.843750
2358,-89.843750
2359,-89.843750
2360,-89.843750
2361,-91.796875
2362,-91.796875
2363,-93.750000
2364,-95.703125
2365,-95.703125
2366,-95.703125
2367,-97.656250
2368,-97.656250
2369,-99.609375
2370,-99.609375
2371,-97.656250
2372,-99.609375
2373,-99.609375
2374,-101.562500
2375,-101.562500
2376,-101.562500
2377,-101.562500
2378,-101.562500
2379,-101.562500
2380,-103.515625
2381,-101.562500
2382,-101.562500
2383,-101.562500
2384,-101.562500
2385,-103.515625
2386,-101.562500
2387,-101.562500
2388,-101.562500
2389,-101.562500
2390,-99.609375
2391,-99.609375
2392,-101.562500
2393,-99.609375
2394,-97.656250
2395,-97.656250
2396,-95.703125
2397,-95.703125
2398,-95.703125
2399,-95.703125
2400,-93.750000
2401,-93.750000
2402,-93.750000
2403,-91.796875
2404,-89.843750
2405,-87.890625
2406,-87.890625
2407,-85.937500
2408,-85.937500
2409,-85.937500
2410,-82.031250
2411,-78.125000
2412,-80.078125
2413,-78.125000
2414,-78.125000
2415,-74.218750
2416,-74.218750
2417,-72.265625
2418,-70.312500
2419,-70.312500
2420,-68.359375
2421,-66.406250
2422,-64.453125
2423,-62.500000
2424,-60.546875
2425,-60.546875
2426,-58.593750
2427,-56.640625
2428,-54.687500
2429,-52.734375
2430,-50.781250
2431,-48.828125
2432,-46.875000
2433,-44.921875
2434,-42.968750
2435,-41.015625
2436,-39.062500
2437,-37.109375
2438,-35.156250
2439,-33.203125
2440,-31.250000
2441,-29.296875
2442,-27.343750
2443,-25.390625
2444,-21.484375
2445,-21.484375
2446,-19.531250
2447,-15.625000
2448,-15.625000
2449,-11.718750
2450,-9.765625
2451,-7.812500
2452,-7.812500
2453,-3.906250
2454,-1.953125
2455,0.000000
2456,1.953125
2457,3.906250
2458,5.859375
2459,7.812500
2460,11.718750
2461,11.718750
2462,13.671875
2463,17.578125
2464,17.578125
2465,19.531250
2466,23.437500
2467,23.437500
2468,25.390625
2469,27.343750
2470,31.250000
2471,31.250000
2472,33.203125
2473,35.156250
2474,37.109375
2475,39.062500
2476,41.015625
2477,41.015625
2478,44.921875
2479,44.921875
2480,46.875000
2481,48.828125
2482,50.781250
2483,50.781250
2484,52.734375
2485,54.687500
2486,54.687500
2487,56.640625
2488,58.593750
2489,60.546875
2490,60.546875
2491,62.500000
2492,64.453125
2493,64.453125
2494,66.406250
2495,66.406250
2496,68.359375
2497,70.312500
2498,70.312500
2499,70.312500
2500,72.265625
2501,74.218750
2502,74.218750
2503,74.218750
2504,74.218750
2505,76.171875
2506,76.171875
2507,78.125000
2508,78.125000
2509,76.171875
2510,80.078125
2511,80.078125
2512,80.078125
2513,80.078125
2514,82.031250
2515,82.031250
2516,82.031250
2517,82.031250
2518,82.031250
2519,83.984375
2520,83.984375
2521,83.984375
2522,82.031250
2523,83.984375
2524,83.984375
2525,82.031250
2526,87.890625
2527,83.984375
2528,83.984375
2529,82.031250
2530,82.031250
2531,82.031250
2532,82.031250
2533,82.031250
2534,80.078125
2535,80.078125
2536,82.031250
2537,80.078125
2538,78.125000
2539,78.125000
2540,78.125000
2541,78.125000
2542,78.125000
2543,76.171875
2544,76.171875
2545,76.171875
2546,74.218750
2547,72.265625
2548,72.265625
2549,74.218750
2550,70.312500
2551,70.312500
2552,68.359375
2553,66.406250
2554,66.406250
2555,64.453125
2556,62.500000
2557,62.500000
2558,60.546875
2559,60.546875
2560,56.640625
2561,56.640625
2562,54.687500
2563,52.734375
2564,52.734375
2565,50.781250
2566,46.875000
2567,48.828125
2568,46.875000
2569,44.921875
2570,42.968750
2571,41.015625
2572,39.062500
2573,39.062500
2574,37.109375
2575,35.156250
2576,33.203125
2577,31.250000
2578,29.296875
2579,27.343750
2580,25.390625
2581,23.437500
2582,21.484375
2583,19.531250
2584,17.578125
2585,15.625000
2586,13.671875
2587,13.671875
2588,9.765625
2589,7.812500
2590,5.859375
2591,3.906250
2592,1.953125
2593,0.000000
2594,-1.953125
2595,-3.906250
2596,-7.812500
2597,-9.765625
2598,-9.765625
2599,-11.718750
2600,-15.625000
2601,-15.625000
2602,-19.531250
2603,-21.484375
2604,-23.437500
2605,-25.390625
2606,-27.343750
2607,-29.296875
2608,-31.250000
2609,-33.203125
2610,-35.156250
2611,-37.109375
2612,-39.062500
2613,-41.015625
2614,-42.968750
2615,-44.921875
2616,-46.875000
2617,-48.828125
2618,-50.781250
2619,-52.734375
2620,-54.687500
2621,-56.640625
2622,-58.593750
2623,-60.546875
2624,-60.546875
2625,-62.500000
2626,-66.406250
2627,-66.406250
2628,-68.359375
2629,-70.312500
2630,-72.265625
2631,-72.265625
2632,-76.171875
2633,-76.171875
2634,-78.125000
2635,-80.078125
2636,-80.078125
2637,-82.031250
2638,-83.984375
2639,-85.937500
2640,-85.937500
2641,-87.890625
2642,-87.890625
2643,-89.843750
2644,-89.843750
2645,-91.796875
2646,-91.796875
2647,-93.750000
2648,-93.750000
2649,-95.703125
2650,-95.703125
2651,-95.703125
2652,-97.656250
2653,-97.656250
2654,-97.656250
2655,-97.656250
2656,-99.609375
2657,-99.609375
2658,-99.609375
2659,-101.562500
2660,-101.562500
2661,-101.562500
2662,-101.562500
2663,-101.562500
2664,-101.562500
2665,-101.562500
2666,-101.562500
2667,-101.562500
2668,-101.562500
2669,-101.562500
2670,-101.562500
2671,-101.562500
2672,-99.609375
2673,-99.609375
2674,-99.609375
2675,-99.609375
2676,-97.656250
2677,-99.609375
2678,-97.656250
2679,-97.656250
2680,-97.656250
2681,-95.703125
2682,-95.703125
2683,-95.703125
2684,-93.750000
2685,-93.750000
2686,-91.796875
2687,-91.796875
2688,-89.843750
2689,-89.843750
2690,-87.890625
2691,-85.937500
2692,-85.937500
2693,-83.984375
2694,-83.984375
2695,-82.031250
2696,-80.078125
2697,-78.125000
2698,-78.125000
2699,-76.171875
2700,-74.218750
2701,-72.265625
2702,-72.265625
2703,-70.312500
2704,-68.359375
2705,-66.406250
2706,-64.453125
2707,-62.500000
2708,-60.546875
2709,-60.546875
2710,-56.640625
2711,-56.640625
2712,-56.640625
2713,-52.734375
2714,-50.781250
2715,-48.828125
2716,-46.875000
2717,-42.968750
2718,-42.968750
2719,-41.015625
2720,-39.062500
2721,-37.109375
2722,-35.156250
2723,-33.203125
2724,-29.296875
2725,-29.296875
2726,-25.390625
2727,-25.390625
2728,-21.484375
2729,-19.531250
2730,-17.578125
2731,-17.578125
2732,-13.671875
2733,-11.718750
2734,-9.765625
2735,-7.812500
2736,-5.859375
2737,-3.906250
2738,-1.953125
2739,0.000000
2740,1.953125
2741,3.906250
2742,5.859375
2743,7.812500
2744,9.765625
2745,13.671875
2746,13.671875
2747,15.625000
2748,19.531250
2749,19.531250
2750,21.484375
2751,21.484375
2752,25.390625
2753,27.343750
2754,29.296875
2755,31.250000
2756,33.203125
2757,35.156250
2758,37.109375
2759,39.062500
2760,39.062500
2761,41.015625
2762,42.968750
2763,44.921875
2764,46.875000
2765,48.828125
2766,48.828125
2767,50.781250
2768,52.734375
2769,52.734375
2770,54.687500
2771,56.640625
2772,58.593750
2773,58.593750
2774,60.546875
2775,62.500000
2776,62.500000
2777,64.453125
2778,66.406250
2779,66.406250
2780,68.359375
2781,70.312500
2782,70.312500
2783,70.312500
2784,72.265625
2785,72.265625
2786,74.218750
2787,74.218750
2788,76.171875
2789,76.171875
2790,78.125000
2791,78.125000
2792,78.125000
2793,80.078125
2794,78.125000
2795,82.031250
2796,82.031250
2797,80.078125
2798,82.031250
2799,82.031250
2800,82.031250
2801,82.031250
2802,82.031250
2803,83.984375
2804,83.984375
2805,83.984375
2806,83.984375
2807,83.984375
2808,83.984375
2809,83.984375
2810,83.984375
2811,82.031250
2812,82.031250
2813,82.031250
2814,82.031250
2815,82.031250
2816,82.031250
2817,82.031250
2818,80.078125
2819,80.078125
2820,80.078125
2821,80.078125
2822,80.078125
2823,78.125000
2824,78.125000
2825,78.125000
2826,76.171875
2827,76.171875
2828,74.218750
2829,74.218750
2830,74.218750
2831,74.218750
2832,72.265625
2833,70.312500
2834,70.312500
2835,70.312500
2836,68.359375
2837,66.406250
2838,66.406250
2839,64.453125
2840,62.500000
2841,62.500000
2842,60.546875
2843,60.546875
2844,58.593750
2845,56.640625
2846,56.640625
2847,54.687500
2848,52.734375
2849,50.781250
2850,48.828125
2851,48.828125
2852,46.875000
2853,44.921875
2854,42.968750
2855,42.968750
2856,41.015625
2857,37.109375
2858,37.109375
2859,35.156250
2860,33.203125
2861,31.250000
2862,29.296875
2863,27.343750
2864,25.390625
2865,23.437500
2866,21.484375
2867,19.531250
2868,19.531250
2869,15.625000
2870,13.671875
2871,11.718750
2872,9.765625
2873,7.812500
2874,5.859375
2875,5.859375
2876,1.953125
2877,0.000000
2878,-1.953125
2879,-3.906250
2880,-5.859375
2881,-7.812500
2882,-9.765625
2883,-11.718750
2884,-13.671875
2885,-15.625000
2886,-17.578125
2887,-21.484375
2888,-23.437500
2889,-25.390625
2890,-27.343750
2891,-29.296875
2892,-31.250000
2893,-33.203125
2894,-35.156250
2895,-37.109375
2896,-39.062500
2897,-41.015625
2898,-42.968750
2899,-44.921875
2900,-46.875000
2901,-48.828125
2902,-50.781250
2903,-52.734375
2904,-54.687500
2905,-56.640625
2906,-58.593750
2907,-60.546875
2908,-62.500000
2909,-64.453125
2910,-64.453125
2911,-66.406250
2912,-64.453125
2913,-70.312500
2914,-72.265625
2915,-74.218750
2916,-74.218750
2917,-76.171875
2918,-78.125000
2919,-80.078125
2920,-82.031250
2921,-82.031250
2922,-82.031250
2923,-85.937500
2924,-85.937500
2925,-87.890625
2926,-87.890625
2927,-89.843750
2928,-89.843750
2929,-91.796875
2930,-91.796875
2931,-91.796875
2932,-93.750000
2933,-95.703125
2934,-95.703125
2935,-95.703125
2936,-97.656250
2937,-97.656250
2938,-99.609375
2939,-97.656250
2940,-99.609375
2941,-101.562500
2942,-101.562500
2943,-101.562500
2944,-101.562500
2945,-101.562500
2946,-101.562500
2947,-103.515625
2948,-101.562500
2949,-101.562500
2950,-101.562500
2951,-101.562500
2952,-101.562500
2953,-101.562500
2954,-101.562500
2955,-101.562500
2956,-101.562500
2957,-101.562500
2958,-101.562500
2959,-99.609375
2960,-97.656250
2961,-97.656250
2962,-101.562500
2963,-97.656250
2964,-97.656250
2965,-97.656250
2966,-95.703125
2967,-95.703125
2968,-95.703125
2969,-93.750000
2970,-91.796875
2971,-91.796875
2972,-89.843750
2973,-89.843750
2974,-87.890625
2975,-87.890625
2976,-85.937500
2977,-83.984375
2978,-82.031250
2979,-82.031250
2980,-80.078125
2981,-78.125000
2982,-78.125000
2983,-76.171875
2984,-74.218750
2985,-74.218750
2986,-72.265625
2987,-70.312500
2988,-68.359375
2989,-66.406250
2990,-64.453125
2991,-62.500000
2992,-62.500000
2993,-60.546875
2994,-56.640625
2995,-56.640625
2996,-54.687500
2997,-52.734375
2998,-50.781250
2999,-48.828125
3000,-46.875000
3001,-44.921875
3002,-42.968750
3003,-41.015625
3004,-39.062500
3005,-37.109375
3006,-35.156250
3007,-33.203125
3008,-31.250000
3009,-29.296875
3010,-27.343750
3011,-25.390625
3012,-23.437500
3013,-21.484375
3014,-19.531250
3015,-17.578125
3016,-13.671875
3017,-11.718750
3018,-9.765625
3019,-9.765625
3020,-5.859375
3021,-3.906250
3022,-1.953125
3023,0.000000
3024,1.953125
3025,3.906250
3026,5.859375
3027,7.812500
3028,9.765625
3029,11.718750
3030,13.671875
3031,15.625000
3032,17.578125
3033,19.531250
3034,21.484375
3035,23.437500
3036,27.343750
3037,27.343750
3038,29.296875
3039,31.250000
3040,33.203125
3041,35.156250
3042,37.109375
3043,37.109375
3044,41.015625
3045,42.968750
3046,42.968750
3047,44.921875
3048,44.921875
3049,48.828125
3050,50.781250
3051,50.781250
3052,52.734375
3053,54.687500
3054,54.687500
3055,56.640625
3056,58.593750
3057,58.593750
3058,60.546875
3059,62.500000
3060,64.453125
3061,64.453125
3062,66.406250
3063,68.359375
3064,68.359375
3065,68.359375
3066,70.312500
3067,72.265625
3068,72.265625
3069,72.265625
3070,74.218750
3071,74.218750
3072,76.171875
3073,76.171875
3074,76.171875
3075,78.125000
3076,78.125000
3077,78.125000
3078,78.125000
3079,80.078125
3080,80.078125
3081,80.078125
3082,82.031250
3083,82.031250
3084,82.031250
3085,82.031250
3086,82.031250
3087,82.031250
3088,82.031250
3089,83.984375
3090,83.984375
3091,83.984375
3092,83.984375
3093,83.984375
3094,83.984375
3095,83.984375
3096,82.031250
3097,83.984375
3098,83.984375
3099,83.984375
3100,82.031250
3101,82.031250
3102,80.078125
3103,80.078125
3104,78.125000
3105,80.078125
3106,80.078125
3107,80.078125
3108,78.125000
3109,78.125000
3110,78.125000
3111,76.171875
3112,76.171875
3113,74.218750
3114,74.218750
3115,72.265625
3116,72.265625
3117,72.265625
3118,70.312500
3119,70.312500
3120,68.359375
3121,66.406250
3122,66.406250
3123,64.453125
3124,64.453125
3125,62.500000
3126,62.500000
3127,60.546875
3128,58.593750
3129,58.593750
3130,56.640625
3131,52.734375
3132,52.734375
3133,50.781250
3134,50.781250
3135,48.828125
3136,46.875000
3137,44.921875
3138,44.921875
3139,41.015625
3140,39.062500
3141,37.109375
3142,41.015625
3143,35.156250
3144,33.203125
3145,35.156250
3146,29.296875
3147,27.343750
3148,27.343750
3149,23.437500
3150,21.484375
3151,19.531250
3152,17.578125
3153,15.625000
3154,15.625000
3155,9.765625
3156,11.718750
3157,7.812500
3158,7.812500
3159,3.906250
3160,1.953125
3161,0.000000
3162,-1.953125
3163,-3.906250
3164,-5.859375
3165,-7.812500
3166,-9.765625
3167,-11.718750
3168,-13.671875
3169,-15.625000
3170,-17.578125
3171,-21.484375
3172,-23.437500
3173,-25.390625
3174,-27.343750
3175,-27.343750
3176,-31.250000
3177,-31.250000
3178,-35.156250
3179,-37.109375
3180,-39.062500
3181,-39.062500
3182,-42.968750
3183,-44.921875
3184,-46.875000
3185,-48.828125
3186,-50.781250
3187,-52.734375
3188,-54.687500
3189,-54.687500
3190,-58.593750
3191,-58.593750
3192,-62.500000
3193,-62.500000
3194,-64.453125
3195,-66.406250
3196,-68.359375
3197,-70.312500
3198,-70.312500
3199,-72.265625
3200,-74.218750
3201,-76.171875
3202,-78.125000
3203,-78.125000
3204,-80.078125
3205,-82.031250
3206,-83.984375
3207,-83.984375
3208,-85.937500
3209,-85.937500
3210,-87.890625
3211,-89.843750
3212,-89.843750
3213,-91.796875
3214,-91.796875
3215,-93.750000
3216,-93.750000
3217,-95.703125
3218,-95.703125
3219,-95.703125
3220,-97.656250
3221,-97.656250
3222,-99.609375
3223,-97.656250
3224,-99.609375
3225,-99.609375
3226,-101.562500
3227,-101.562500
3228,-101.562500
3229,-99.609375
3230,-101.562500
3231,-99.609375
3232,-101.562500
3233,-101.562500
3234,-101.562500
3235,-101.562500
3236,-101.562500
3237,-101.562500
3238,-101.562500
3239,-101.562500
3240,-101.562500
3241,-101.562500
3242,-99.609375
3243,-99.609375
3244,-99.609375
3245,-97.656250
3246,-97.656250
3247,-97.656250
3248,-95.703125
3249,-95.703125
3250,-95.703125
3251,-93.750000
3252,-93.750000
3253,-91.796875
3254,-91.796875
3255,-91.796875
3256,-89.843750
3257,-89.843750
3258,-87.890625
3259,-85.937500
3260,-85.937500
3261,-83.984375
3262,-83.984375
3263,-82.031250
3264,-80.078125
3265,-80.078125
3266,-78.125000
3267,-76.171875
3268,-74.218750
3269,-74.218750
3270,-72.265625
3271,-70.312500
3272,-68.359375
3273,-66.406250
3274,-66.406250
3275,-62.500000
3276,-62.500000
3277,-60.546875
3278,-58.593750
3279,-56.640625
3280,-54.687500
3281,-52.734375
3282,-50.781250
3283,-48.828125
3284,-46.875000
3285,-44.921875
3286,-42.968750
3287,-41.015625
3288,-39.062500
3289,-37.109375
3290,-35.156250
3291,-33.203125
3292,-31.250000
3293,-29.296875
3294,-27.343750
3295,-25.390625
3296,-23.437500
3297,-21.484375
3298,-17.578125
3299,-15.625000
3300,-13.671875
3301,-13.671875
3302,-9.765625
3303,-7.812500
3304,-5.859375
3305,-3.906250
3306,-3.906250
3307,0.000000
3308,1.953125
3309,3.906250
3310,5.859375
3311,7.812500
3312,9.765625
3313,11.718750
3314,13.671875
3315,15.625000
3316,17.578125
3317,19.531250
3318,21.484375
3319,23.437500
3320,25.390625
3321,27.343750
3322,29.296875
3323,31.250000
3324,33.203125
3325,35.156250
3326,35.156250
3327,37.109375
3328,39.062500
3329,41.015625
3330,42.968750
3331,44.921875
3332,46.875000
3333,48.828125
3334,50.781250
3335,50.781250
3336,52.734375
3337,52.734375
3338,54.687500
3339,56.640625
3340,58.593750
3341,58.593750
3342,60.546875
3343,62.500000
3344,62.500000
3345,64.453125
3346,64.453125
3347,66.406250
3348,68.359375
3349,68.359375
3350,68.359375
3351,70.312500
3352,72.265625
3353,72.265625
3354,74.218750
3355,74.218750
3356,74.218750
3357,76.171875
3358,78.125000
3359,78.125000
3360,78.125000
3361,78.125000
3362,80.078125
3363,80.078125
3364,80.078125
3365,80.078125
3366,82.031250
3367,82.031250
3368,82.031250
3369,82.031250
3370,82.031250
3371,83.984375
3372,82.031250
3373,82.031250
3374,83.984375
3375,82.031250
3376,83.984375
3377,83.984375
3378,83.984375
3379,82.031250
3380,83.984375
3381,83.984375
3382,83.984375
3383,82.031250
3384,82.031250
3385,82.031250
3386,82.031250
3387,82.031250
3388,80.078125
3389,80.078125
3390,80.078125
3391,78.125000
3392,78.125000
3393,78.125000
3394,78.125000
3395,76.171875
3396,74.218750
3397,74.218750
3398,74.218750
3399,74.218750
3400,72.265625
3401,72.265625
3402,70.312500
3403,68.359375
3404,68.359375
3405,66.406250
3406,66.406250
3407,64.453125
3408,64.453125
3409,62.500000
3410,60.546875
3411,60.546875
3412,58.593750
3413,56.640625
3414,56.640625
3415,54.687500
3416,52.734375
3417,50.781250
3418,50.781250
3419,50.781250
3420,46.875000
3421,44.921875
3422,42.968750
3423,42.968750
3424,41.015625
3425,39.062500
3426,37.109375
3427,35.156250
3428,33.203125
3429,31.250000
3430,29.296875
3431,27.343750
3432,27.343750
3433,25.390625
3434,23.437500
3435,21.484375
3436,19.531250
3437,17.578125
3438,15.625000
3439,13.671875
3440,11.718750
3441,9.765625
3442,5.859375
3443,5.859375
3444,1.953125
3445,0.000000
3446,0.000000
3447,-1.953125
3448,-5.859375
3449,-7.812500
3450,-9.765625
3451,-11.718750
3452,-13.671875
3453,-15.625000
3454,-17.578125
3455,-19.531250
3456,-21.484375
3457,-23.437500
3458,-27.343750
3459,-29.296875
3460,-29.296875
3461,-33.203125
3462,-33.203125
3463,-37.109375
3464,-39.062500
3465,-41.015625
3466,-42.968750
3467,-44.921875
3468,-46.875000
3469,-48.828125
3470,-50.781250
3471,-52.734375
3472,-54.687500
3473,-56.640625
3474,-58.593750
3475,-58.593750
3476,-60.546875
3477,-62.500000
3478,-64.453125
3479,-66.406250
3480,-70.312500
3481,-70.312500
3482,-72.265625
3483,-72.265625
3484,-74.218750
3485,-76.171875
3486,-78.125000
3487,-78.125000
3488,-80.078125
3489,-82.031250
3490,-83.984375
3491,-83.984375
3492,-85.937500
3493,-85.937500
3494,-87.890625
3495,-87.890625
3496,-89.843750
3497,-89.843750
3498,-91.796875
3499,-93.750000
3500,-97.656250
3501,-91.796875
3502,-95.703125
3503,-95.703125
3504,-97.656250
3505,-97.656250
3506,-97.656250
3507,-97.656250
3508,-99.609375
3509,-99.609375
3510,-99.609375
3511,-101.562500
3512,-103.515625
3513,-101.562500
3514,-101.562500
3515,-101.562500
3516,-101.562500
3517,-101.562500
3518,-101.562500
3519,-101.562500
3520,-101.562500
3521,-101.562500
3522,-101.562500
3523,-101.562500
3524,-99.609375
3525,-101.562500
3526,-99.609375
3527,-99.609375
3528,-99.609375
3529,-99.609375
3530,-99.609375
3531,-97.656250
3532,-97.656250
3533,-97.656250
3534,-95.703125
3535,-95.703125
3536,-93.750000
3537,-93.750000
3538,-93.750000
3539,-91.796875
3540,-91.796875
3541,-89.843750
3542,-87.890625
3543,-87.890625
3544,-85.937500
3545,-85.937500
3546,-83.984375
3547,-82.031250
3548,-80.078125
3549,-80.078125
3550,-78.125000
3551,-78.125000
3552,-74.218750
3553,-72.265625
3554,-72.265625
3555,-70.312500
3556,-70.312500
3557,-66.406250
3558,-64.453125
3559,-62.500000
3560,-62.500000
3561,-60.546875
3562,-58.593750
3563,-56.640625
3564,-54.687500
3565,-52.734375
3566,-50.781250
3567,-48.828125
3568,-46.875000
3569,-44.921875
3570,-42.968750
3571,-41.015625
3572,-39.062500
3573,-37.109375
3574,-35.156250
3575,-33.203125
3576,-31.250000
3577,-29.296875
3578,-27.343750
3579,-25.390625
3580,-23.437500
3581,-21.484375
3582,-19.531250
3583,-17.578125
3584,-15.625000
3585,-13.671875
3586,-11.718750
3587,-7.812500
3588,-5.859375
3589,-3.906250
3590,-1.953125
3591,0.000000
3592,1.953125
3593,3.906250
3594,5.859375
3595,7.812500
3596,9.765625
3597,11.718750
3598,13.671875
3599,15.625000
3600,17.578125
3601,19.531250
3602,21.484375
3603,23.437500
3604,25.390625
3605,27.343750
3606,27.343750
3607,29.296875
3608,33.203125
3609,35.156250
3610,35.156250
3611,37.109375
3612,39.062500
3613,41.015625
3614,42.968750
3615,44.921875
3616,46.875000
3617,46.875000
3618,48.828125
3619,50.781250
3620,52.734375
3621,52.734375
3622,54.687500
3623,56.640625
3624,58.593750
3625,60.546875
3626,60.546875
3627,62.500000
3628,62.500000
3629,64.453125
3630,66.406250
3631,66.406250
3632,68.359375
3633,68.359375
3634,70.312500
3635,70.312500
3636,72.265625
3637,74.218750
3638,74.218750
3639,74.218750
3640,74.218750
3641,76.171875
3642,80.078125
3643,78.125000
3644,80.078125
3645,78.125000
3646,80.078125
3647,80.078125
3648,80.078125
3649,80.078125
3650,82.031250
3651,83.984375
3652,82.031250
3653,82.031250
3654,82.031250
3655,82.031250
3656,82.031250
3657,83.984375
3658,83.984375
3659,82.031250
3660,83.984375
3661,83.984375
3662,83.984375
3663,83.984375
3664,82.031250
3665,82.031250
3666,82.031250
3667,82.031250
3668,82.031250
3669,80.078125
3670,82.031250
3671,80.078125
3672,80.078125
3673,80.078125
3674,80.078125
3675,80.078125
3676,78.125000
3677,78.125000
3678,78.125000
3679,76.171875
3680,76.171875
3681,74.218750
3682,74.218750
3683,72.265625
3684,72.265625
3685,70.312500
3686,70.312500
3687,70.312500
3688,68.359375
3689,68.359375
3690,66.406250
3691,66.406250
3692,64.453125
3693,62.500000
3694,62.500000
3695,60.546875
3696,58.593750
3697,56.640625
3698,56.640625
3699,54.687500
3700,52.734375
3701,52.734375
3702,50.781250
3703,48.828125
3704,46.875000
3705,46.875000
3706,44.921875
3707,42.968750
3708,41.015625
3709,39.062500
3710,37.109375
3711,35.156250
3712,35.156250
3713,31.250000
3714,29.296875
3715,29.296875
3716,25.390625
3717,23.437500
3718,23.437500
3719,23.437500
3720,23.437500
3721,15.625000
3722,13.671875
3723,11.718750
3724,11.718750
3725,9.765625
3726,5.859375
3727,5.859375
3728,3.906250
3729,0.000000
3730,-1.953125
3731,-3.906250
3732,-7.812500
3733,-7.812500
3734,-9.765625
3735,-11.718750
3736,-13.671875
3737,-13.671875
3738,-17.578125
3739,-19.531250
3740,-21.484375
3741,-23.437500
3742,-27.343750
3743,-27.343750
3744,-31.250000
3745,-33.203125
3746,-35.156250
3747,-37.109375
3748,-39.062500
3749,-41.015625
3750,-42.968750
3751,-44.921875
3752,-46.875000
3753,-48.828125
3754,-52.734375
3755,-52.734375
3756,-54.687500
3757,-56.640625
3758,-58.593750
3759,-58.593750
3760,-60.546875
3761,-62.500000
3762,-64.453125
3763,-66.406250
3764,-68.359375
3765,-70.312500
3766,-70.312500
3767,-72.265625
3768,-74.218750
3769,-76.171875
3770,-76.171875
3771,-78.125000
3772,-80.078125
3773,-82.031250
3774,-83.984375
3775,-83.984375
3776,-85.937500
3777,-85.937500
3778,-87.890625
3779,-87.890625
3780,-87.890625
3781,-91.796875
3782,-91.796875
3783,-93.750000
3784,-93.750000
3785,-95.703125
3786,-95.703125
3787,-95.703125
3788,-97.656250
3789,-97.656250
3790,-97.656250
3791,-99.609375
3792,-99.609375
3793,-99.609375
3794,-99.609375
3795,-101.562500
3796,-101.562500
3797,-101.562500
3798,-101.562500
3799,-101.562500
3800,-101.562500
3801,-101.562500
3802,-101.562500
3803,-101.562500
3804,-101.562500
3805,-101.562500
3806,-101.562500
3807,-103.515625
3808,-101.562500
3809,-99.609375
3810,-99.609375
3811,-99.609375
3812,-105.468750
3813,-99.609375
3814,-97.656250
3815,-97.656250
3816,-97.656250
3817,-97.656250
3818,-95.703125
3819,-95.703125
3820,-93.750000
3821,-93.750000
3822,-91.796875
3823,-91.796875
3824,-89.843750
3825,-89.843750
3826,-87.890625
3827,-85.937500
3828,-85.937500
3829,-83.984375
3830,-83.984375
3831,-82.031250
3832,-80.078125
3833,-80.078125
3834,-78.125000
3835,-76.171875
3836,-74.218750
3837,-74.218750
3838,-74.218750
3839,-70.312500
3840,-68.359375
3841,-66.406250
3842,-66.406250
3843,-64.453125
3844,-62.500000
3845,-60.546875
3846,-58.593750
3847,-58.593750
3848,-54.687500
3849,-52.734375
3850,-50.781250
3851,-48.828125
3852,-46.875000
3853,-44.921875
3854,-44.921875
3855,-42.968750
3856,-41.015625
3857,-37.109375
3858,-35.156250
3859,-33.203125
3860,-31.250000
3861,-29.296875
3862,-27.343750
3863,-25.390625
3864,-23.437500
3865,-21.484375
3866,-19.531250
3867,-17.578125
3868,-15.625000
3869,-13.671875
3870,-11.718750
3871,-9.765625
3872,-5.859375
3873,-3.906250
3874,-1.953125
3875,0.000000
3876,1.953125
3877,0.000000
3878,5.859375
3879,7.812500
3880,9.765625
3881,11.718750
3882,13.671875
3883,15.625000
3884,17.578125
3885,19.531250
3886,21.484375
3887,23.437500
3888,25.390625
3889,27.343750
3890,29.296875
3891,31.250000
3892,33.203125
3893,35.156250
3894,37.109375
3895,39.062500
3896,39.062500
3897,41.015625
3898,42.968750
3899,44.921875
3900,44.921875
3901,46.875000
3902,48.828125
3903,50.781250
3904,50.781250
3905,54.687500
3906,54.687500
3907,56.640625
3908,58.593750
3909,58.593750
3910,56.640625
3911,60.546875
3912,62.500000
3913,64.453125
3914,64.453125
3915,66.406250
3916,66.406250
3917,68.359375
3918,70.312500
3919,70.312500
3920,70.312500
3921,72.265625
3922,74.218750
3923,74.218750
3924,74.218750
3925,76.171875
3926,76.171875
3927,76.171875
3928,78.125000
3929,78.125000
3930,80.078125
3931,80.078125
3932,80.078125
3933,80.078125
3934,80.078125
3935,82.031250
3936,82.031250
3937,82.031250
3938,82.031250
3939,82.031250
3940,82.031250
3941,83.984375
3942,83.984375
3943,82.031250
3944,83.984375
3945,83.984375
3946,83.984375
3947,83.984375
3948,82.031250
3949,82.031250
3950,83.984375
3951,83.984375
3952,82.031250
3953,82.031250
3954,82.031250
3955,80.078125
3956,80.078125
3957,82.031250
3958,80.078125
3959,80.078125
3960,78.125000
3961,80.078125
3962,78.125000
3963,76.171875
3964,76.171875
3965,76.171875
3966,74.218750
3967,74.218750
3968,72.265625
3969,70.312500
3970,72.265625
3971,70.312500
3972,68.359375
3973,68.359375
3974,66.406250
3975,64.453125
3976,64.453125
3977,62.500000
3978,60.546875
3979,58.593750
3980,58.593750
3981,56.640625
3982,56.640625
3983,54.687500
3984,52.734375
3985,50.781250
3986,50.781250
3987,48.828125
3988,46.875000
3989,44.921875
3990,44.921875
3991,42.968750
3992,41.015625
3993,39.062500
3994,37.109375
3995,37.109375
3996,33.203125
3997,33.203125
3998,29.296875
3999,29.296875
4000,27.343750
4001,25.390625
4002,25.390625
4003,21.484375
4004,17.578125
4005,17.578125
4006,13.671875
4007,13.671875
4008,11.718750
4009,9.765625
4010,7.812500
4011,5.859375
4012,3.906250
4013,1.953125
4014,0.000000
4015,-3.906250
4016,-5.859375
4017,-7.812500
4018,-9.765625
4019,-11.718750
4020,-13.671875
4021,-15.625000
4022,-17.578125
4023,-21.484375
4024,-21.484375
4025,-23.437500
4026,-25.390625
4027,-27.343750
4028,-29.296875
4029,-33.203125
4030,-33.203125
4031,-35.156250
4032,-39.062500
4033,-41.015625
4034,-42.968750
4035,-44.921875
4036,-46.875000
4037,-46.875000
4038,-46.875000
4039,-50.781250
4040,-54.687500
4041,-56.640625
4042,-56.640625
4043,-58.593750
4044,-62.500000
4045,-62.500000
4046,-64.453125
4047,-66.406250
4048,-66.406250
4049,-68.359375
4050,-72.265625
4051,-72.265625
4052,-74.218750
4053,-76.171875
4054,-78.125000
4055,-78.125000
4056,-80.078125
4057,-82.031250
4058,-83.984375
4059,-83.984375
4060,-85.937500
4061,-85.937500
4062,-87.890625
4063,-89.843750
4064,-89.843750
4065,-91.796875
4066,-91.796875
4067,-91.796875
4068,-93.750000
4069,-95.703125
4070,-95.703125
4071,-95.703125
4072,-97.656250
4073,-101.562500
4074,-97.656250
4075,-97.656250
4076,-99.609375
4077,-99.609375
4078,-99.609375
4079,-99.609375
4080,-101.562500
4081,-101.562500
4082,-101.562500
4083,-101.562500
4084,-101.562500
4085,-101.562500
4086,-99.609375
4087,-101.562500
4088,-101.562500
4089,-105.468750
4090,-101.562500
4091,-101.562500
4092,-101.562500
4093,-99.609375
4094,-101.562500
4095,-101.562500
4096,-99.609375
4097,-99.609375
4098,-97.656250
4099,-97.656250
4100,-97.656250
4101,-97.656250
4102,-95.703125
4103,-95.703125
4104,-93.750000
4105,-93.750000
4106,-91.796875
4107,-95.703125
4108,-91.796875
4109,-89.843750
4110,-89.843750
4111,-87.890625
4112,-85.937500
4113,-85.937500
4114,-83.984375
4115,-83.984375
4116,-80.078125
4117,-80.078125
4118,-78.125000
4119,-76.171875
4120,-76.171875
4121,-74.218750
4122,-72.265625
4123,-72.265625
4124,-70.312500
4125,-68.359375
4126,-66.406250
4127,-64.453125
4128,-62.500000
4129,-60.546875
4130,-58.593750
4131,-56.640625
4132,-54.687500
4133,-52.734375
4134,-50.781250
4135,-48.828125
4136,-46.875000
4137,-46.875000
4138,-44.921875
4139,-41.015625
4140,-39.062500
4141,-37.109375
4142,-35.156250
4143,-33.203125
4144,-31.250000
4145,-31.250000
4146,-27.343750
4147,-25.390625
4148,-23.437500
4149,-19.531250
4150,-19.531250
4151,-17.578125
4152,-15.625000
4153,-15.625000
4154,-11.718750
4155,-9.765625
4156,-7.812500
4157,-5.859375
4158,-3.906250
4159,-3.906250
4160,1.953125
4161,3.906250
4162,5.859375
4163,5.859375
4164,9.765625
4165,11.718750
4166,13.671875
4167,15.625000
4168,17.578125
4169,19.531250
4170,21.484375
4171,23.437500
4172,25.390625
4173,27.343750
4174,29.296875
4175,29.296875
4176,33.203125
4177,35.156250
4178,35.156250
4179,37.109375
4180,39.062500
4181,41.015625
4182,42.968750
4183,42.968750
4184,46.875000
4185,46.875000
4186,48.828125
4187,50.781250
4188,52.734375
4189,52.734375
4190,54.687500
4191,56.640625
4192,58.593750
4193,58.593750
4194,60.546875
4195,60.546875
4196,62.500000
4197,64.453125
4198,66.406250
4199,66.406250
4200,68.359375
4201,68.359375
4202,70.312500
4203,70.312500
4204,70.312500
4205,72.265625
4206,74.218750
4207,74.218750
4208,76.171875
4209,74.218750
4210,76.171875
4211,78.125000
4212,78.125000
4213,78.125000
4214,80.078125
4215,80.078125
4216,80.078125
4217,80.078125
4218,80.078125
4219,82.031250
4220,82.031250
4221,82.031250
4222,82.031250
4223,83.984375
4224,83.984375
4225,83.984375
4226,82.031250
4227,83.984375
4228,82.031250
4229,82.031250
4230,83.984375
4231,83.984375
4232,82.031250
4233,82.031250
4234,82.031250
4235,82.031250
4236,82.031250
4237,82.031250
4238,82.031250
4239,80.078125
4240,80.078125
4241,80.078125
4242,80.078125
4243,80.078125
4244,78.125000
4245,83.984375
4246,78.125000
4247,76.171875
4248,76.171875
4249,74.218750
4250,74.218750
4251,74.218750
4252,74.218750
4253,72.265625
4254,70.312500
4255,70.312500
4256,68.359375
4257,66.406250
4258,66.406250
4259,66.406250
4260,64.453125
4261,62.500000
4262,62.500000
4263,60.546875
4264,60.546875
4265,58.593750
4266,56.640625
4267,54.687500
4268,52.734375
4269,52.734375
4270,50.781250
4271,48.828125
4272,48.828125
4273,44.921875
4274,44.921875
4275,42.968750
4276,41.015625
4277,39.062500
4278,39.062500
4279,35.156250
4280,33.203125
4281,33.203125
4282,31.250000
4283,29.296875
4284,27.343750
4285,25.390625
4286,23.437500
4287,21.484375
4288,19.531250
4289,17.578125
4290,13.671875
4291,13.671875
4292,11.718750
4293,9.765625
4294,7.812500
4295,3.906250
4296,3.906250
4297,1.953125
4298,-1.953125
4299,-1.953125
4300,-5.859375
4301,-7.812500
4302,-9.765625
4303,-11.718750
4304,-11.718750
4305,-15.625000
4306,-17.578125
4307,-21.484375
4308,-21.484375
4309,-23.437500
4310,-25.390625
4311,-29.296875
4312,-29.296875
4313,-31.250000
4314,-33.203125
4315,-37.109375
4316,-39.062500
4317,-39.062500
4318,-41.015625
4319,-44.921875
4320,-46.875000
4321,-48.828125
4322,-50.781250
4323,-52.734375
4324,-54.687500
4325,-54.687500
4326,-56.640625
4327,-58.593750
4328,-60.546875
4329,-62.500000
4330,-64.453125
4331,-66.406250
4332,-68.359375
4333,-68.359375
4334,-70.312500
4335,-72.265625
4336,-74.218750
4337,-76.171875
4338,-78.125000
4339,-78.125000
4340,-80.078125
4341,-80.078125
4342,-82.031250
4343,-83.984375
4344,-85.937500
4345,-85.937500
4346,-87.890625
4347,-89.843750
4348,-89.843750
4349,-89.843750
4350,-91.796875
4351,-93.750000
4352,-93.750000
4353,-95.703125
4354,-95.703125
4355,-95.703125
4356,-97.656250
4357,-97.656250
4358,-97.656250
4359,-99.609375
4360,-99.609375
4361,-99.609375
4362,-99.609375
4363,-101.562500
4364,-101.562500
4365,-101.562500
4366,-101.562500
4367,-101.562500
4368,-103.515625
4369,-101.562500
4370,-101.562500
4371,-103.515625
4372,-101.562500
4373,-101.562500
4374,-101.562500
4375,-101.562500
4376,-101.562500
4377,-101.562500
4378,-99.609375
4379,-99.609375
4380,-99.609375
4381,-99.609375
4382,-97.656250
4383,-97.656250
4384,-97.656250
4385,-95.703125
4386,-95.703125
4387,-95.703125
4388,-93.750000
4389,-93.750000
4390,-93.750000
4391,-91.796875
4392,-89.843750
4393,-89.843750
4394,-89.843750
4395,-87.890625
4396,-85.937500
4397,-83.984375
4398,-83.984375
4399,-82.031250
4400,-80.078125
4401,-80.078125
4402,-78.125000
4403,-78.125000
4404,-74.218750
4405,-74.218750
4406,-72.265625
4407,-70.312500
4408,-70.312500
4409,-68.359375
4410,-66.406250
4411,-64.453125
4412,-62.500000
4413,-60.546875
4414,-58.593750
4415,-56.640625
4416,-54.687500
4417,-52.734375
4418,-50.781250
4419,-46.875000
4420,-46.875000
4421,-44.921875
4422,-42.968750
4423,-41.015625
4424,-39.062500
4425,-37.109375
4426,-35.156250
4427,-33.203125
4428,-31.250000
4429,-29.296875
4430,-27.343750
4431,-25.390625
4432,-23.437500
4433,-21.484375
4434,-19.531250
4435,-17.578125
4436,-15.625000
4437,-13.671875
4438,-11.718750
4439,-9.765625
4440,-7.812500
4441,-5.859375
4442,-3.906250
4443,-1.953125
4444,1.953125
4445,3.906250
4446,5.859375
4447,5.859375
4448,9.765625
4449,11.718750
4450,13.671875
4451,15.625000
4452,17.578125
4453,19.531250
4454,21.484375
4455,23.437500
4456,25.390625
4457,27.343750
4458,27.343750
4459,31.250000
4460,33.203125
4461,33.203125
4462,35.156250
4463,37.109375
4464,39.062500
4465,41.015625
4466,42.968750
4467,44.921875
4468,46.875000
4469,46.875000
4470,48.828125
4471,50.781250
4472,52.734375
4473,52.734375
4474,58.593750
4475,56.640625
4476,56.640625
4477,58.593750
4478,60.546875
4479,60.546875
4480,62.500000
4481,64.453125
4482,66.406250
4483,66.406250
4484,66.406250
4485,68.359375
4486,70.312500
4487,70.312500
4488,72.265625
4489,72.265625
4490,74.218750
4491,74.218750
4492,74.218750
4493,76.171875
4494,76.171875
4495,83.984375
4496,78.125000
4497,78.125000
4498,78.125000
4499,80.078125
4500,80.078125
4501,80.078125
4502,82.031250
4503,82.031250
4504,82.031250
4505,82.031250
4506,82.031250
4507,82.031250
4508,82.031250
4509,83.984375
4510,83.984375
4511,83.984375
4512,83.984375
4513,82.031250
4514,82.031250
4515,83.984375
4516,83.984375
4517,82.031250
4518,82.031250
4519,82.031250
4520,82.031250
4521,82.031250
4522,82.031250
4523,80.078125
4524,80.078125
4525,80.078125
4526,80.078125
4527,80.078125
4528,78.125000
4529,78.125000
4530,78.125000
4531,78.125000
4532,76.171875
4533,74.218750
4534,72.265625
4535,74.218750
4536,72.265625
4537,72.265625
4538,70.312500
4539,70.312500
4540,68.359375
4541,68.359375
4542,66.406250
4543,66.406250
4544,64.453125
4545,62.500000
4546,62.500000
4547,60.546875
4548,60.546875
4549,58.593750
4550,56.640625
4551,54.687500
4552,54.687500
4553,52.734375
4554,50.781250
4555,48.828125
4556,48.828125
4557,46.875000
4558,44.921875
4559,42.968750
4560,41.015625
4561,39.062500
4562,37.109375
4563,37.109375
4564,35.156250
4565,33.203125
4566,31.250000
4567,29.296875
4568,25.390625
4569,25.390625
4570,23.437500
4571,21.484375
4572,19.531250
4573,17.578125
4574,15.625000
4575,13.671875
4576,11.718750
4577,9.765625
4578,7.812500
4579,5.859375
4580,5.859375
4581,1.953125
4582,0.000000
4583,-1.953125
4584,-5.859375
4585,-7.812500
4586,-9.765625
4587,-11.718750
4588,-13.671875
4589,-15.625000
4590,-17.578125
4591,-19.531250
4592,-21.484375
4593,-23.437500
4594,-25.390625
4595,-27.343750
4596,-29.296875
4597,-31.250000
4598,-31.250000
4599,-35.156250
4600,-37.109375
4601,-39.062500
4602,-41.015625
4603,-42.968750
4604,-44.921875
4605,-46.875000
4606,-48.828125
4607,-50.781250
4608,-52.734375
4609,-54.687500
4610,-56.640625
4611,-58.593750
4612,-60.546875
4613,-62.500000
4614,-62.500000
4615,-66.406250
4616,-66.406250
4617,-70.312500
4618,-70.312500
4619,-72.265625
4620,-72.265625
4621,-76.171875
4622,-76.171875
4623,-78.125000
4624,-80.078125
4625,-82.031250
4626,-82.031250
4627,-83.984375
4628,-85.937500
4629,-85.937500
4630,-85.937500
4631,-87.890625
4632,-89.843750
4633,-89.843750
4634,-91.796875
4635,-91.796875
4636,-93.750000
4637,-93.750000
4638,-95.703125
4639,-95.703125
4640,-97.656250
4641,-97.656250
4642,-97.656250
4643,-97.656250
4644,-97.656250
4645,-99.609375
4646,-99.609375
4647,-101.562500
4648,-101.562500
4649,-101.562500
4650,-101.562500
4651,-101.562500
4652,-101.562500
4653,-101.562500
4654,-101.562500
4655,-101.562500
4656,-101.562500
4657,-101.562500
4658,-101.562500
4659,-101.562500
4660,-101.562500
4661,-101.562500
4662,-101.562500
4663,-99.609375
4664,-99.609375
4665,-99.609375
4666,-99.609375
4667,-99.609375
4668,-97.656250
4669,-97.656250
4670,-97.656250
4671,-95.703125
4672,-93.750000
4673,-93.750000
4674,-91.796875
4675,-91.796875
4676,-91.796875
4677,-89.843750
4678,-87.890625
4679,-87.890625
4680,-85.937500
4681,-83.984375
4682,-83.984375
4683,-82.031250
4684,-82.031250
4685,-80.078125
4686,-80.078125
4687,-76.171875
4688,-76.171875
4689,-74.218750
4690,-72.265625
4691,-70.312500
4692,-68.359375
4693,-68.359375
4694,-66.406250
4695,-64.453125
4696,-62.500000
4697,-60.546875
4698,-58.593750
4699,-56.640625
4700,-56.640625
4701,-52.734375
4702,-52.734375
4703,-48.828125
4704,-48.828125
4705,-46.875000
4706,-44.921875
4707,-41.015625
4708,-41.015625
4709,-39.062500
4710,-35.156250
4711,-35.156250
4712,-33.203125
4713,-31.250000
4714,-27.343750
4715,-25.390625
4716,-23.437500
4717,-23.437500
4718,-19.531250
4719,-17.578125
4720,-15.625000
4721,-13.671875
4722,-11.718750
4723,-9.765625
4724,-7.812500
4725,-5.859375
4726,-3.906250
4727,0.000000
4728,0.000000
4729,3.906250
4730,5.859375
4731,5.859375
4732,9.765625
4733,11.718750
4734,13.671875
4735,15.625000
4736,15.625000
4737,17.578125
4738,21.484375
4739,23.437500
4740,25.390625
4741,27.343750
4742,27.343750
4743,29.296875
4744,31.250000
4745,35.156250
4746,35.156250
4747,37.109375
4748,39.062500
4749,41.015625
4750,41.015625
4751,42.968750
4752,44.921875
4753,46.875000
4754,48.828125
4755,50.781250
4756,50.781250
4757,52.734375
4758,54.687500
4759,54.687500
4760,58.593750
4761,58.593750
4762,60.546875
4763,60.546875
4764,62.500000
4765,62.500000
4766,64.453125
4767,66.406250
4768,68.359375
4769,68.359375
4770,68.359375
4771,70.312500
4772,72.265625
4773,72.265625
4774,74.218750
4775,74.218750
4776,74.218750
4777,76.171875
4778,76.171875
4779,76.171875
4780,78.125000
4781,78.125000
4782,80.078125
4783,80.078125
4784,80.078125
4785,80.078125
4786,82.031250
4787,82.031250
4788,82.031250
4789,82.031250
4790,83.984375
4791,83.984375
4792,83.984375
4793,82.031250
4794,83.984375
4795,83.984375
4796,83.984375
4797,83.984375
4798,83.984375
4799,83.984375
4800,83.984375
4801,83.984375
4802,83.984375
4803,82.031250
4804,83.984375
4805,82.031250
4806,82.031250
4807,80.078125
4808,82.031250
4809,80.078125
4810,80.078125
4811,80.078125
4812,78.125000
4813,78.125000
4814,78.125000
4815,76.171875
4816,76.171875
4817,76.171875
4818,76.171875
4819,74.218750
4820,72.265625
4821,72.265625
4822,70.312500
4823,70.312500
4824,68.359375
4825,68.359375
4826,66.406250
4827,64.453125
4828,64.453125
4829,62.500000
4830,62.500000
4831,60.546875
4832,60.546875
4833,58.593750
4834,56.640625
4835,54.687500
4836,54.687500
4837,52.734375
4838,50.781250
4839,50.781250
4840,48.828125
4841,46.875000
4842,44.921875
4843,42.968750
4844,41.015625
4845,39.062500
4846,39.062500
4847,37.109375
4848,33.203125
4849,33.203125
4850,31.250000
4851,29.296875
4852,27.343750
4853,25.390625
4854,23.437500
4855,21.484375
4856,15.625000
4857,17.578125
4858,15.625000
4859,9.765625
4860,11.718750
4861,9.765625
4862,7.812500
4863,5.859375
4864,1.953125
4865,1.953125
4866,0.000000
4867,-1.953125
4868,-5.859375
4869,-5.859375
4870,-7.812500
4871,-11.718750
4872,-11.718750
4873,-15.625000
4874,-17.578125
4875,-19.531250
4876,-21.484375
4877,-23.437500
4878,-25.390625
4879,-27.343750
4880,-29.296875
4881,-31.250000
4882,-33.203125
4883,-35.156250
4884,-37.109375
4885,-39.062500
4886,-41.015625
4887,-44.921875
4888,-46.875000
4889,-48.828125
4890,-48.828125
4891,-50.781250
4892,-52.734375
4893,-54.687500
4894,-56.640625
4895,-58.593750
4896,-60.546875
4897,-62.500000
4898,-64.453125
4899,-64.453125
4900,-68.359375
4901,-70.312500
4902,-70.312500
4903,-70.312500
4904,-74.218750
4905,-74.218750
4906,-76.171875
4907,-78.125000
4908,-78.125000
4909,-80.078125
4910,-82.031250
4911,-83.984375
4912,-83.984375
4913,-85.937500
4914,-87.890625
4915,-87.890625
4916,-87.890625
4917,-89.843750
4918,-91.796875
4919,-91.796875
4920,-93.750000
4921,-93.750000
4922,-95.703125
4923,-95.703125
4924,-95.703125
4925,-97.656250
4926,-97.656250
4927,-99.609375
4928,-99.609375
4929,-99.609375
4930,-99.609375
4931,-101.562500
4932,-101.562500
4933,-101.562500
4934,-101.562500
4935,-101.562500
4936,-101.562500
4937,-101.562500
4938,-101.562500
4939,-101.562500
4940,-101.562500
4941,-101.562500
4942,-101.562500
4943,-101.562500
4944,-101.562500
4945,-101.562500
4946,-101.562500
4947,-101.562500
4948,-99.609375
4949,-99.609375
4950,-99.609375
4951,-97.656250
4952,-97.656250
4953,-97.656250
4954,-95.703125
4955,-95.703125
4956,-93.750000
4957,-93.750000
4958,-91.796875
4959,-91.796875
4960,-91.796875
4961,-89.843750
4962,-89.843750
4963,-87.890625
4964,-85.937500
4965,-85.937500
4966,-83.984375
4967,-82.031250
4968,-82.031250
4969,-80.078125
4970,-78.125000
4971,-76.171875
4972,-76.171875
4973,-74.218750
4974,-72.265625
4975,-70.312500
4976,-68.359375
4977,-68.359375
4978,-66.406250
4979,-64.453125
4980,-62.500000
4981,-60.546875
4982,-58.593750
4983,-56.640625
4984,-54.687500
4985,-52.734375
4986,-52.734375
4987,-50.781250
4988,-46.875000
4989,-44.921875
4990,-44.921875
4991,-42.968750
4992,-39.062500
4993,-39.062500
4994,-37.109375
4995,-35.156250
4996,-31.250000
4997,-29.296875
4998,-27.343750
4999,-25.390625
5000,-23.437500
5001,-21.484375
5002,-19.531250
5003,-17.578125
5004,-15.625000
5005,-13.671875
5006,-11.718750
5007,-9.765625
5008,-7.812500
5009,-5.859375
5010,-3.906250
5011,-1.953125
5012,0.000000
5013,3.906250
5014,5.859375
5015,7.812500
5016,7.812500
5017,11.718750
5018,13.671875
5019,13.671875
5020,17.578125
5021,17.578125
5022,19.531250
5023,23.437500
5024,23.437500
5025,27.343750
5026,29.296875
5027,29.296875
5028,31.250000
5029,33.203125
5030,37.109375
5031,37.109375
5032,39.062500
5033,41.015625
5034,41.015625
5035,44.921875
5036,44.921875
5037,46.875000
5038,48.828125
5039,50.781250
5040,50.781250
5041,52.734375
5042,54.687500
5043,56.640625
5044,56.640625
5045,58.593750
5046,60.546875
5047,62.500000
5048,64.453125
5049,64.453125
5050,64.453125
5051,66.406250
5052,68.359375
5053,68.359375
5054,68.359375
5055,70.312500
5056,72.265625
5057,72.265625
5058,72.265625
5059,74.218750
5060,74.218750
5061,76.171875
5062,76.171875
5063,78.125000
5064,78.125000
5065,78.125000
5066,78.125000
5067,80.078125
5068,80.078125
5069,80.078125
5070,80.078125
5071,80.078125
5072,82.031250
5073,82.031250
5074,82.031250
5075,82.031250
5076,83.984375
5077,83.984375
5078,83.984375
5079,83.984375
5080,83.984375
5081,82.031250
5082,83.984375
5083,82.031250
5084,83.984375
5085,83.984375
5086,82.031250
5087,82.031250
5088,82.031250
5089,82.031250
5090,82.031250
5091,80.078125
5092,80.078125
5093,80.078125
5094,80.078125
5095,82.031250
5096,78.125000
5097,78.125000
5098,78.125000
5099,78.125000
5100,76.171875
5101,74.218750
5102,74.218750
5103,74.218750
5104,72.265625
5105,72.265625
5106,70.312500
5107,70.312500
5108,70.312500
5109,68.359375
5110,66.406250
5111,66.406250
5112,64.453125
5113,64.453125
5114,62.500000
5115,60.546875
5116,58.593750
5117,58.593750
5118,56.640625
5119,54.687500
5120,54.687500
5121,52.734375
5122,50.781250
5123,50.781250
5124,48.828125
5125,46.875000
5126,44.921875
5127,42.968750
5128,41.015625
5129,39.062500
5130,39.062500
5131,37.109375
5132,35.156250
5133,33.203125
5134,31.250000
5135,29.296875
5136,27.343750
5137,25.390625
5138,23.437500
5139,21.484375
5140,19.531250
5141,17.578125
5142,15.625000
5143,13.671875
5144,11.718750
5145,9.765625
5146,7.812500
5147,5.859375
5148,3.906250
5149,1.953125
5150,0.000000
5151,-3.906250
5152,-5.859375
5153,-5.859375
5154,-9.765625
5155,-9.765625
5156,-11.718750
5157,-15.625000
5158,-15.625000
5159,-19.531250
5160,-19.531250
5161,-23.437500
5162,-23.437500
5163,-27.343750
5164,-29.296875
5165,-31.250000
5166,-33.203125
5167,-35.156250
5168,-37.109375
5169,-39.062500
5170,-41.015625
5171,-42.968750
5172,-44.921875
5173,-46.875000
5174,-48.828125
5175,-50.781250
5176,-52.734375
5177,-54.687500
5178,-56.640625
5179,-58.593750
5180,-60.546875
5181,-60.546875
5182,-64.453125
5183,-66.406250
5184,-66.406250
5185,-68.359375
5186,-70.312500
5187,-72.265625
5188,-74.218750
5189,-76.171875
5190,-76.171875
5191,-78.125000
5192,-80.078125
5193,-82.031250
5194,-82.031250
5195,-83.984375
5196,-85.937500
5197,-85.937500
5198,-87.890625
5199,-87.890625
5200,-89.843750
5201,-89.843750
5202,-91.796875
5203,-91.796875
5204,-93.750000
5205,-93.750000
5206,-93.750000
5207,-95.703125
5208,-97.656250
5209,-97.656250
5210,-97.656250
5211,-97.656250
5212,-97.656250
5213,-99.609375
5214,-99.609375
5215,-99.609375
5216,-101.562500
5217,-101.562500
5218,-101.562500
5219,-101.562500
5220,-101.562500
5221,-101.562500
5222,-101.562500
5223,-101.562500
5224,-101.562500
5225,-101.562500
5226,-101.562500
5227,-101.562500
5228,-101.562500
5229,-101.562500
5230,-99.609375
5231,-99.609375
5232,-99.609375
5233,-99.609375
5234,-97.656250
5235,-97.656250
5236,-97.656250
5237,-97.656250
5238,-95.703125
5239,-95.703125
5240,-93.750000
5241,-93.750000
5242,-91.796875
5243,-91.796875
5244,-89.843750
5245,-89.843750
5246,-87.890625
5247,-87.890625
5248,-85.937500
5249,-85.937500
5250,-83.984375
5251,-83.984375
5252,-80.078125
5253,-80.078125
5254,-78.125000
5255,-78.125000
5256,-76.171875
5257,-74.218750
5258,-72.265625
5259,-70.312500
5260,-70.312500
5261,-68.359375
5262,-66.406250
5263,-64.453125
5264,-62.500000
5265,-60.546875
5266,-58.593750
5267,-56.640625
5268,-54.687500
5269,-52.734375
5270,-52.734375
5271,-50.781250
5272,-48.828125
5273,-46.875000
5274,-44.921875
5275,-42.968750
5276,-41.015625
5277,-39.062500
5278,-37.109375
5279,-35.156250
5280,-33.203125
5281,-31.250000
5282,-27.343750
5283,-27.343750
5284,-25.390625
5285,-21.484375
5286,-19.531250
5287,-19.531250
5288,-17.578125
5289,-15.625000
5290,-11.718750
5291,-9.765625
5292,-7.812500
5293,-5.859375
5294,-3.906250
5295,-1.953125
5296,0.000000
5297,1.953125
5298,3.906250
5299,5.859375
5300,7.812500
5301,9.765625
5302,13.671875
5303,15.625000
5304,15.625000
5305,17.578125
5306,19.531250
5307,23.437500
5308,23.437500
5309,27.343750
5310,27.343750
5311,29.296875
5312,31.250000
5313,33.203125
5314,35.156250
5315,37.109375
5316,39.062500
5317,41.015625
5318,42.968750
5319,42.968750
5320,44.921875
5321,46.875000
5322,48.828125
5323,50.781250
5324,50.781250
5325,52.734375
5326,54.687500
5327,56.640625
5328,56.640625
5329,58.593750
5330,60.546875
5331,60.546875
5332,62.500000
5333,64.453125
5334,64.453125
5335,66.406250
5336,66.406250
5337,68.359375
5338,70.312500
5339,70.312500
5340,70.312500
5341,72.265625
5342,74.218750
5343,74.218750
5344,74.218750
5345,76.171875
5346,76.171875
5347,76.171875
5348,78.125000
5349,78.125000
5350,78.125000
5351,80.078125
5352,80.078125
5353,80.078125
5354,80.078125
5355,82.031250
5356,82.031250
5357,82.031250
5358,82.031250
5359,82.031250
5360,82.031250
5361,82.031250
5362,83.984375
5363,82.031250
5364,83.984375
5365,83.984375
5366,83.984375
5367,83.984375
5368,83.984375
5369,83.984375
5370,82.031250
5371,82.031250
5372,82.031250
5373,82.031250
5374,82.031250
5375,82.031250
5376,82.031250
5377,80.078125
5378,80.078125
5379,80.078125
5380,80.078125
5381,78.125000
5382,78.125000
5383,78.125000
5384,76.171875
5385,74.218750
5386,74.218750
5387,74.218750
5388,74.218750
5389,72.265625
5390,72.265625
5391,70.312500
5392,70.312500
5393,68.359375
5394,66.406250
5395,66.406250
5396,66.406250
5397,64.453125
5398,62.500000
5399,60.546875
5400,60.546875
5401,58.593750
5402,56.640625
5403,54.687500
5404,54.687500
5405,52.734375
5406,52.734375
5407,48.828125
5408,46.875000
5409,46.875000
5410,44.921875
5411,42.968750
5412,41.015625
5413,41.015625
5414,37.109375
5415,35.156250
5416,33.203125
5417,33.203125
5418,31.250000
5419,29.296875
5420,27.343750
5421,25.390625
5422,23.437500
5423,21.484375
5424,19.531250
5425,17.578125
5426,15.625000
5427,13.671875
5428,11.718750
5429,9.765625
5430,7.812500
5431,5.859375
5432,3.906250
5433,1.953125
5434,0.000000
5435,-3.906250
5436,-3.906250
5437,-5.859375
5438,-7.812500
5439,-9.765625
5440,-11.718750
5441,-13.671875
5442,-15.625000
5443,-19.531250
5444,-19.531250
5445,-23.437500
5446,-25.390625
5447,-27.343750
5448,-29.296875
5449,-31.250000
5450,-33.203125
5451,-35.156250
5452,-37.109375
5453,-39.062500
5454,-41.015625
5455,-42.968750
5456,-44.921875
5457,-46.875000
5458,-48.828125
5459,-50.781250
5460,-52.734375
5461,-54.687500
5462,-56.640625
5463,-58.593750
5464,-60.546875
5465,-60.546875
5466,-62.500000
5467,-66.406250
5468,-68.359375
5469,-70.312500
5470,-70.312500
5471,-72.265625
5472,-74.218750
5473,-76.171875
5474,-76.171875
5475,-78.125000
5476,-80.078125
5477,-80.078125
5478,-82.031250
5479,-83.984375
5480,-83.984375
5481,-85.937500
5482,-87.890625
5483,-87.890625
5484,-89.843750
5485,-89.843750
5486,-91.796875
5487,-91.796875
5488,-93.750000
5489,-93.750000
5490,-95.703125
5491,-95.703125
5492,-95.703125
5493,-97.656250
5494,-97.656250
5495,-97.656250
5496,-99.609375
5497,-99.609375
5498,-99.609375
5499,-99.609375
5500,-101.562500
5501,-101.562500
5502,-101.562500
5503,-101.562500
5504,-101.562500
5505,-101.562500
5506,-101.562500
5507,-101.562500
5508,-101.562500
5509,-101.562500
5510,-99.609375
5511,-101.562500
5512,-99.609375
5513,-99.609375
5514,-101.562500
5515,-99.609375
5516,-99.609375
5517,-99.609375
5518,-99.609375
5519,-99.609375
5520,-97.656250
5521,-95.703125
5522,-95.703125
5523,-95.703125
5524,-93.750000
5525,-93.750000
5526,-93.750000
5527,-91.796875
5528,-91.796875
5529,-89.843750
5530,-89.843750
5531,-87.890625
5532,-85.937500
5533,-85.937500
5534,-83.984375
5535,-83.984375
5536,-82.031250
5537,-80.078125
5538,-78.125000
5539,-78.125000
5540,-76.171875
5541,-76.171875
5542,-72.265625
5543,-70.312500
5544,-70.312500
5545,-68.359375
5546,-66.406250
5547,-64.453125
5548,-62.500000
5549,-62.500000
5550,-60.546875
5551,-58.593750
5552,-56.640625
5553,-54.687500
5554,-52.734375
5555,-50.781250
5556,-48.828125
5557,-46.875000
5558,-42.968750
5559,-42.968750
5560,-41.015625
5561,-39.062500
5562,-37.109375
5563,-35.156250
5564,-33.203125
5565,-29.296875
5566,-27.343750
5567,-25.390625
5568,-23.437500
5569,-23.437500
5570,-21.484375
5571,-17.578125
5572,-15.625000
5573,-13.671875
5574,-11.718750
5575,-9.765625
5576,-7.812500
5577,-5.859375
5578,-3.906250
5579,-1.953125
5580,0.000000
5581,1.953125
5582,3.906250
5583,7.812500
5584,7.812500
5585,9.765625
5586,13.671875
5587,13.671875
5588,15.625000
5589,17.578125
5590,19.531250
5591,23.437500
5592,23.437500
5593,25.390625
5594,27.343750
5595,29.296875
5596,31.250000
5597,33.203125
5598,35.156250
5599,37.109375
5600,37.109375
5601,41.015625
5602,41.015625
5603,42.968750
5604,44.921875
5605,46.875000
5606,48.828125
5607,50.781250
5608,50.781250
5609,52.734375
5610,54.687500
5611,56.640625
5612,56.640625
5613,58.593750
5614,60.546875
5615,60.546875
5616,62.500000
5617,64.453125
5618,64.453125
5619,66.406250
5620,66.406250
5621,68.359375
5622,70.312500
5623,70.312500
5624,72.265625
5625,72.265625
5626,72.265625
5627,74.218750
5628,74.218750
5629,76.171875
5630,76.171875
5631,78.125000
5632,78.125000
5633,78.125000
5634,80.078125
5635,80.078125
5636,80.078125
5637,80.078125
5638,80.078125
5639,82.031250
5640,82.031250
5641,82.031250
5642,83.984375
5643,82.031250
5644,82.031250
5645,83.984375
5646,82.031250
5647,83.984375
5648,83.984375
5649,83.984375
5650,83.984375
5651,83.984375
5652,83.984375
5653,82.031250
5654,82.031250
5655,82.031250
5656,80.078125
5657,82.031250
5658,82.031250
5659,82.031250
5660,80.078125
5661,80.078125
5662,80.078125
5663,80.078125
5664,78.125000
5665,78.125000
5666,78.125000
5667,76.171875
5668,76.171875
5669,76.171875
5670,74.218750
5671,74.218750
5672,72.265625
5673,72.265625
5674,70.312500
5675,70.312500
5676,68.359375
5677,68.359375
5678,66.406250
5679,66.406250
5680,64.453125
5681,64.453125
5682,62.500000
5683,60.546875
5684,60.546875
5685,58.593750
5686,58.593750
5687,56.640625
5688,54.687500
5689,52.734375
5690,50.781250
5691,50.781250
5692,48.828125
5693,46.875000
5694,44.921875
5695,42.968750
5696,41.015625
5697,41.015625
5698,39.062500
5699,37.109375
5700,35.156250
5701,33.203125
5702,31.250000
5703,29.296875
5704,27.343750
5705,25.390625
5706,23.437500
5707,21.484375
5708,21.484375
5709,17.578125
5710,15.625000
5711,13.671875
5712,11.718750
5713,9.765625
5714,7.812500
5715,5.859375
5716,3.906250
5717,1.953125
5718,0.000000
5719,-1.953125
5720,-3.906250
5721,-5.859375
5722,-7.812500
5723,-9.765625
5724,-13.671875
5725,-15.625000
5726,-17.578125
5727,-17.578125
5728,-21.484375
5729,-23.437500
5730,-25.390625
5731,-27.343750
5732,-29.296875
5733,-31.250000
5734,-33.203125
5735,-35.156250
5736,-37.109375
5737,-39.062500
5738,-41.015625
5739,-42.968750
5740,-44.921875
5741,-46.875000
5742,-48.828125
5743,-50.781250
5744,-52.734375
5745,-54.687500
5746,-56.640625
5747,-58.593750
5748,-58.593750
5749,-60.546875
5750,-62.500000
5751,-64.453125
5752,-66.406250
5753,-68.359375
5754,-70.312500
5755,-72.265625
5756,-72.265625
5757,-74.218750
5758,-76.171875
5759,-78.125000
5760,-78.125000
5761,-80.078125
5762,-82.031250
5763,-83.984375
5764,-83.984375
5765,-83.984375
5766,-85.937500
5767,-87.890625
5768,-89.843750
5769,-89.843750
5770,-91.796875
5771,-91.796875
5772,-93.750000
5773,-93.750000
5774,-93.750000
5775,-95.703125
5776,-95.703125
5777,-97.656250
5778,-97.656250
5779,-97.656250
5780,-97.656250
5781,-99.609375
5782,-101.562500
5783,-99.609375
5784,-101.562500
5785,-99.609375
5786,-101.562500
5787,-101.562500
5788,-101.562500
5789,-101.562500
5790,-101.562500
5791,-101.562500
5792,-101.562500
5793,-101.562500
5794,-101.562500
5795,-101.562500
5796,-99.609375
5797,-101.562500
5798,-101.562500
5799,-99.609375
5800,-99.609375
5801,-97.656250
5802,-99.609375
5803,-97.656250
5804,-97.656250
5805,-97.656250
5806,-97.656250
5807,-95.703125
5808,-93.750000
5809,-93.750000
5810,-93.750000
5811,-91.796875
5812,-91.796875
5813,-89.843750
5814,-87.890625
5815,-87.890625
5816,-85.937500
5817,-85.937500
5818,-83.984375
5819,-82.031250
5820,-82.031250
5821,-80.078125
5822,-78.125000
5823,-76.171875
5824,-76.171875
5825,-74.218750
5826,-72.265625
5827,-72.265625
5828,-70.312500
5829,-66.406250
5830,-66.406250
5831,-64.453125
5832,-62.500000
5833,-60.546875
5834,-56.640625
5835,-58.593750
5836,-56.640625
5837,-52.734375
5838,-52.734375
5839,-50.781250
5840,-48.828125
5841,-46.875000
5842,-44.921875
5843,-42.968750
5844,-41.015625
5845,-39.062500
5846,-37.109375
5847,-35.156250
5848,-33.203125
5849,-31.250000
5850,-29.296875
5851,-27.343750
5852,-25.390625
5853,-23.437500
5854,-21.484375
5855,-19.531250
5856,-17.578125
5857,-13.671875
5858,-11.718750
5859,-9.765625
5860,-7.812500
5861,-5.859375
5862,-3.906250
5863,-1.953125
5864,-1.953125
5865,1.953125
5866,3.906250
5867,5.859375
5868,7.812500
5869,9.765625
5870,11.718750
5871,13.671875
5872,15.625000
5873,17.578125
5874,19.531250
5875,21.484375
5876,23.437500
5877,25.390625
5878,27.343750
5879,29.296875
5880,31.250000
5881,33.203125
5882,35.156250
5883,37.109375
5884,39.062500
5885,41.015625
5886,42.968750
5887,42.968750
5888,44.921875
5889,46.875000
5890,46.875000
5891,48.828125
5892,50.781250
5893,52.734375
5894,54.687500
5895,56.640625
5896,56.640625
5897,56.640625
5898,60.546875
5899,60.546875
5900,62.500000
5901,64.453125
5902,64.453125
5903,66.406250
5904,66.406250
5905,68.359375
5906,68.359375
5907,70.312500
5908,72.265625
5909,72.265625
5910,74.218750
5911,74.218750
5912,74.218750
5913,76.171875
5914,76.171875
5915,76.171875
5916,78.125000
5917,78.125000
5918,78.125000
5919,80.078125
5920,80.078125
5921,80.078125
5922,80.078125
5923,80.078125
5924,82.031250
5925,82.031250
5926,83.984375
5927,82.031250
5928,82.031250
5929,82.031250
5930,82.031250
5931,83.984375
5932,83.984375
5933,83.984375
5934,83.984375
5935,83.984375
5936,83.984375
5937,83.984375
5938,83.984375
5939,82.031250
5940,82.031250
5941,82.031250
5942,82.031250
5943,82.031250
5944,80.078125
5945,80.078125
5946,80.078125
5947,78.125000
5948,80.078125
5949,78.125000
5950,78.125000
5951,78.125000
5952,76.171875
5953,76.171875
5954,74.218750
5955,74.218750
5956,74.218750
5957,72.265625
5958,70.312500
5959,70.312500
5960,70.312500
5961,68.359375
5962,64.453125
5963,66.406250
5964,64.453125
5965,64.453125
5966,64.453125
5967,62.500000
5968,60.546875
5969,58.593750
5970,58.593750
5971,56.640625
5972,54.687500
5973,52.734375
5974,50.781250
5975,48.828125
5976,48.828125
5977,46.875000
5978,44.921875
5979,42.968750
5980,41.015625
5981,41.015625
5982,39.062500
5983,37.109375
5984,35.156250
5985,33.203125
5986,31.250000
5987,29.296875
5988,27.343750
5989,25.390625
5990,23.437500
5991,21.484375
5992,19.531250
5993,19.531250
5994,15.625000
5995,13.671875
5996,11.718750
5997,11.718750
5998,7.812500
5999,9.765625
6000,3.906250
6001,0.000000
6002,0.000000
6003,-1.953125
6004,-3.906250
6005,-5.859375
6006,-7.812500
6007,-9.765625
6008,-11.718750
6009,-13.671875
6010,-15.625000
6011,-19.531250
6012,-19.531250
6013,-21.484375
6014,-29.296875
6015,-25.390625
6016,-29.296875
6017,-31.250000
6018,-33.203125
6019,-35.156250
6020,-37.109375
6021,-39.062500
6022,-39.062500
6023,-42.968750
6024,-44.921875
6025,-46.875000
6026,-48.828125
6027,-50.781250
6028,-52.734375
6029,-54.687500
6030,-56.640625
6031,-58.593750
6032,-58.593750
6033,-58.593750
6034,-62.500000
6035,-64.453125
6036,-66.406250
6037,-68.359375
6038,-70.312500
6039,-70.312500
6040,-72.265625
6041,-74.218750
6042,-76.171875
6043,-78.125000
6044,-80.078125
6045,-80.078125
6046,-83.984375
6047,-82.031250
6048,-87.890625
6049,-85.937500
6050,-85.937500
6051,-89.843750
6052,-89.843750
6053,-89.843750
6054,-91.796875
6055,-91.796875
6056,-93.750000
6057,-93.750000
6058,-95.703125
6059,-95.703125
6060,-95.703125
6061,-97.656250
6062,-97.656250
6063,-99.609375
6064,-99.609375
6065,-101.562500
6066,-99.609375
6067,-99.609375
6068,-99.609375
6069,-101.562500
6070,-101.562500
6071,-99.609375
6072,-101.562500
6073,-101.562500
6074,-101.562500
6075,-101.562500
6076,-101.562500
6077,-101.562500
6078,-101.562500
6079,-101.562500
6080,-101.562500
6081,-101.562500
6082,-101.562500
6083,-99.609375
6084,-99.609375
6085,-99.609375
6086,-99.609375
6087,-99.609375
6088,-97.656250
6089,-97.656250
6090,-95.703125
6091,-95.703125
6092,-93.750000
6093,-95.703125
6094,-93.750000
6095,-91.796875
6096,-89.843750
6097,-89.843750
6098,-89.843750
6099,-89.843750
6100,-87.890625
6101,-85.937500
6102,-83.984375
6103,-82.031250
6104,-82.031250
6105,-80.078125
6106,-80.078125
6107,-78.125000
6108,-76.171875
6109,-74.218750
6110,-74.218750
6111,-74.218750
6112,-70.312500
6113,-68.359375
6114,-66.406250
6115,-66.406250
6116,-62.500000
6117,-62.500000
6118,-60.546875
6119,-58.593750
6120,-56.640625
6121,-54.687500
6122,-52.734375
6123,-50.781250
6124,-48.828125
6125,-46.875000
6126,-44.921875
6127,-44.921875
6128,-41.015625
6129,-39.062500
6130,-37.109375
6131,-35.156250
6132,-33.203125
6133,-31.250000
6134,-29.296875
6135,-27.343750
6136,-25.390625
6137,-23.437500
6138,-21.484375
6139,-17.578125
6140,-15.625000
6141,-15.625000
6142,-13.671875
6143,-9.765625
6144,-7.812500
6145,-5.859375
6146,-3.906250
6147,-1.953125
6148,0.000000
6149,1.953125
6150,3.906250
6151,5.859375
6152,7.812500
6153,9.765625
6154,11.718750
6155,13.671875
6156,15.625000
6157,17.578125
6158,19.531250
6159,21.484375
6160,23.437500
6161,25.390625
6162,27.343750
6163,29.296875
6164,31.250000
6165,33.203125
6166,35.156250
6167,35.156250
6168,39.062500
6169,39.062500
6170,41.015625
6171,42.968750
6172,44.921875
6173,46.875000
6174,46.875000
6175,48.828125
6176,50.781250
6177,52.734375
6178,54.687500
6179,54.687500
6180,56.640625
6181,58.593750
6182,58.593750
6183,58.593750
6184,62.500000
6185,64.453125
6186,64.453125
6187,64.453125
6188,66.406250
6189,66.406250
6190,68.359375
6191,70.312500
6192,72.265625
6193,72.265625
6194,72.265625
6195,74.218750
6196,74.218750
6197,74.218750
6198,76.171875
6199,76.171875
6200,76.171875
6201,78.125000
6202,78.125000
6203,80.078125
6204,80.078125
6205,80.078125
6206,80.078125
6207,82.031250
6208,80.078125
6209,82.031250
6210,82.031250
6211,82.031250
6212,82.031250
6213,83.984375
6214,87.890625
6215,83.984375
6216,83.984375
6217,83.984375
6218,83.984375
6219,83.984375
6220,83.984375
6221,83.984375
6222,83.984375
6223,82.031250
6224,82.031250
6225,82.031250
6226,82.031250
6227,82.031250
6228,82.031250
6229,80.078125
6230,80.078125
6231,80.078125
6232,80.078125
6233,78.125000
6234,78.125000
6235,78.125000
6236,76.171875
6237,78.125000
6238,74.218750
6239,74.218750
6240,74.218750
6241,72.265625
6242,70.312500
6243,70.312500
6244,68.359375
6245,68.359375
6246,66.406250
6247,68.359375
6248,64.453125
6249,62.500000
6250,62.500000
6251,60.546875
6252,60.546875
6253,58.593750
6254,56.640625
6255,54.687500
6256,54.687500
6257,52.734375
6258,50.781250
6259,50.781250
6260,48.828125
6261,46.875000
6262,44.921875
6263,42.968750
6264,41.015625
6265,41.015625
6266,39.062500
6267,37.109375
6268,35.156250
6269,33.203125
6270,31.250000
6271,29.296875
6272,29.296875
6273,27.343750
6274,25.390625
6275,23.437500
6276,21.484375
6277,19.531250
6278,15.625000
6279,15.625000
6280,11.718750
6281,9.765625
6282,7.812500
6283,7.812500
6284,5.859375
6285,3.906250
6286,0.000000
6287,-1.953125
6288,-3.906250
6289,-5.859375
6290,-7.812500
6291,-9.765625
6292,-11.718750
6293,-13.671875
6294,-15.625000
6295,-17.578125
6296,-19.531250
6297,-23.437500
6298,-23.437500
6299,-27.343750
6300,-27.343750
6301,-29.296875
6302,-33.203125
6303,-35.156250
6304,-35.156250
6305,-39.062500
6306,-41.015625
6307,-42.968750
6308,-44.921875
6309,-46.875000
6310,-48.828125
6311,-50.781250
6312,-52.734375
6313,-52.734375
6314,-54.687500
6315,-58.593750
6316,-58.593750
6317,-60.546875
6318,-62.500000
6319,-64.453125
6320,-66.406250
6321,-68.359375
6322,-70.312500
6323,-72.265625
6324,-74.218750
6325,-74.218750
6326,-78.125000
6327,-78.125000
6328,-78.125000
6329,-80.078125
6330,-82.031250
6331,-82.031250
6332,-82.031250
6333,-85.937500
6334,-85.937500
6335,-87.890625
6336,-87.890625
6337,-89.843750
6338,-89.843750
6339,-91.796875
6340,-91.796875
6341,-93.750000
6342,-93.750000
6343,-95.703125
6344,-95.703125
6345,-97.656250
6346,-97.656250
6347,-97.656250
6348,-99.609375
6349,-99.609375
6350,-99.609375
6351,-99.609375
6352,-101.562500
6353,-101.562500
6354,-101.562500
6355,-101.562500
6356,-101.562500
6357,-101.562500
6358,-101.562500
6359,-101.562500
6360,-101.562500
6361,-101.562500
6362,-101.562500
6363,-101.562500
6364,-101.562500
6365,-101.562500
6366,-99.609375
6367,-101.562500
6368,-99.609375
6369,-99.609375
6370,-99.609375
6371,-99.609375
6372,-99.609375
6373,-97.656250
6374,-95.703125
6375,-95.703125
6376,-95.703125
6377,-93.750000
6378,-93.750000
6379,-91.796875
6380,-91.796875
6381,-91.796875
6382,-89.843750
6383,-87.890625
6384,-87.890625
6385,-85.937500
6386,-83.984375
6387,-83.984375
6388,-82.031250
6389,-82.031250
6390,-80.078125
6391,-78.125000
6392,-76.171875
6393,-76.171875
6394,-74.218750
6395,-72.265625
6396,-70.312500
6397,-68.359375
6398,-68.359375
6399,-64.453125
6400,-62.500000
6401,-62.500000
6402,-60.546875
6403,-58.593750
6404,-56.640625
6405,-54.687500
6406,-52.734375
6407,-50.781250
6408,-48.828125
6409,-46.875000
6410,-44.921875
6411,-44.921875
6412,-41.015625
6413,-39.062500
6414,-37.109375
6415,-33.203125
6416,-33.203125
6417,-31.250000
6418,-29.296875
6419,-27.343750
6420,-25.390625
6421,-23.437500
6422,-21.484375
6423,-19.531250
6424,-17.578125
6425,-15.625000
6426,-13.671875
6427,-11.718750
6428,-9.765625
6429,-5.859375
6430,-5.859375
6431,-1.953125
6432,0.000000
6433,1.953125
6434,3.906250
6435,5.859375
6436,7.812500
6437,9.765625
6438,11.718750
6439,13.671875
6440,15.625000
6441,17.578125
6442,19.531250
6443,21.484375
6444,23.437500
6445,25.390625
6446,27.343750
6447,29.296875
6448,29.296875
6449,33.203125
6450,31.250000
6451,35.156250
6452,37.109375
6453,39.062500
6454,41.015625
6455,42.968750
6456,44.921875
6457,46.875000
6458,46.875000
6459,48.828125
6460,50.781250
6461,52.734375
6462,52.734375
6463,54.687500
6464,56.640625
6465,58.593750
6466,60.546875
6467,60.546875
6468,62.500000
6469,64.453125
6470,64.453125
6471,66.406250
6472,66.406250
6473,68.359375
6474,68.359375
6475,70.312500
6476,70.312500
6477,72.265625
6478,72.265625
6479,74.218750
6480,74.218750
6481,74.218750
6482,76.171875
6483,76.171875
6484,76.171875
6485,78.125000
6486,78.125000
6487,80.078125
6488,80.078125
6489,80.078125
6490,80.078125
6491,82.031250
6492,82.031250
6493,82.031250
6494,82.031250
6495,82.031250
6496,82.031250
6497,83.984375
6498,82.031250
6499,82.031250
6500,83.984375
6501,83.984375
6502,83.984375
6503,83.984375
6504,83.984375
6505,82.031250
6506,82.031250
6507,82.031250
6508,82.031250
6509,82.031250
6510,82.031250
6511,85.937500
6512,82.031250
6513,80.078125
6514,80.078125
6515,80.078125
6516,78.125000
6517,78.125000
6518,78.125000
6519,76.171875
6520,76.171875
6521,76.171875
6522,74.218750
6523,74.218750
6524,74.218750
6525,72.265625
6526,72.265625
6527,70.312500
6528,68.359375
6529,68.359375
6530,68.359375
6531,66.406250
6532,66.406250
6533,64.453125
6534,62.500000
6535,62.500000
6536,60.546875
6537,58.593750
6538,58.593750
6539,56.640625
6540,54.687500
6541,54.687500
6542,52.734375
6543,50.781250
6544,48.828125
6545,48.828125
6546,46.875000
6547,44.921875
6548,42.968750
6549,41.015625
6550,39.062500
6551,37.109375
6552,37.109375
6553,33.203125
6554,31.250000
6555,31.250000
6556,29.296875
6557,25.390625
6558,25.390625
6559,23.437500
6560,19.531250
6561,19.531250
6562,17.578125
6563,13.671875
6564,13.671875
6565,11.718750
6566,7.812500
6567,5.859375
6568,3.906250
6569,1.953125
6570,1.953125
6571,-1.953125
6572,-3.906250
6573,-5.859375
6574,-7.812500
6575,-9.765625
6576,-11.718750
6577,-13.671875
6578,-15.625000
6579,-17.578125
6580,-19.531250
6581,-21.484375
6582,-23.437500
6583,-25.390625
6584,-27.343750
6585,-29.296875
6586,-31.250000
6587,-35.156250
6588,-35.156250
6589,-37.109375
6590,-41.015625
6591,-42.968750
6592,-44.921875
6593,-46.875000
6594,-46.875000
6595,-48.828125
6596,-50.781250
6597,-54.687500
6598,-56.640625
6599,-56.640625
6600,-58.593750
6601,-60.546875
6602,-62.500000
6603,-64.453125
6604,-66.406250
6605,-66.406250
6606,-68.359375
6607,-70.312500
6608,-72.265625
6609,-74.218750
6610,-76.171875
6611,-76.171875
6612,-78.125000
6613,-80.078125
6614,-82.031250
6615,-83.984375
6616,-83.984375
6617,-83.984375
6618,-85.937500
6619,-85.937500
6620,-87.890625
6621,-89.843750
6622,-91.796875
6623,-91.796875
6624,-93.750000
6625,-93.750000
6626,-93.750000
6627,-95.703125
6628,-95.703125
6629,-97.656250
6630,-97.656250
6631,-97.656250
6632,-99.609375
6633,-99.609375
6634,-101.562500
6635,-101.562500
6636,-101.562500
6637,-101.562500
6638,-101.562500
6639,-101.562500
6640,-101.562500
6641,-101.562500
6642,-101.562500
6643,-101.562500
6644,-101.562500
6645,-101.562500
6646,-101.562500
6647,-101.562500
6648,-101.562500
6649,-101.562500
6650,-101.562500
6651,-101.562500
6652,-99.609375
6653,-99.609375
6654,-99.609375
6655,-97.656250
6656,-97.656250
6657,-97.656250
6658,-97.656250
6659,-95.703125
6660,-95.703125
6661,-93.750000
6662,-93.750000
6663,-91.796875
6664,-91.796875
6665,-89.843750
6666,-89.843750
6667,-87.890625
6668,-85.937500
6669,-85.937500
6670,-83.984375
6671,-83.984375
6672,-82.031250
6673,-80.078125
6674,-80.078125
6675,-78.125000
6676,-76.171875
6677,-76.171875
6678,-74.218750
6679,-72.265625
6680,-70.312500
6681,-68.359375
6682,-68.359375
6683,-66.406250
6684,-64.453125
6685,-62.500000
6686,-60.546875
6687,-56.640625
6688,-56.640625
6689,-54.687500
6690,-52.734375
6691,-50.781250
6692,-48.828125
6693,-46.875000
6694,-44.921875
6695,-42.968750
6696,-41.015625
6697,-39.062500
6698,-37.109375
6699,-37.109375
6700,-33.203125
6701,-31.250000
6702,-29.296875
6703,-27.343750
6704,-25.390625
6705,-23.437500
6706,-21.484375
6707,-19.531250
6708,-17.578125
6709,-15.625000
6710,-13.671875
6711,-11.718750
6712,-9.765625
6713,-7.812500
6714,-3.906250
6715,-1.953125
6716,0.000000
6717,1.953125
6718,3.906250
6719,5.859375
6720,7.812500
6721,9.765625
6722,11.718750
6723,13.671875
6724,15.625000
6725,17.578125
6726,19.531250
6727,21.484375
6728,23.437500
6729,25.390625
6730,27.343750
6731,29.296875
6732,31.250000
6733,33.203125
6734,35.156250
6735,35.156250
6736,37.109375
6737,39.062500
6738,41.015625
6739,42.968750
6740,44.921875
6741,46.875000
6742,46.875000
6743,48.828125
6744,50.781250
6745,52.734375
6746,54.687500
6747,54.687500
6748,56.640625
6749,58.593750
6750,58.593750
6751,60.546875
6752,62.500000
6753,62.500000
6754,64.453125
6755,66.406250
6756,66.406250
6757,66.406250
6758,68.359375
6759,70.312500
6760,70.312500
6761,72.265625
6762,72.265625
6763,72.265625
6764,74.218750
6765,74.218750
6766,76.171875
6767,76.171875
6768,76.171875
6769,78.125000
6770,78.125000
6771,80.078125
6772,80.078125
6773,80.078125
6774,80.078125
6775,82.031250
6776,80.078125
6777,82.031250
6778,82.031250
6779,82.031250
6780,82.031250
6781,82.031250
6782,82.031250
6783,83.984375
6784,83.984375
6785,83.984375
6786,83.984375
6787,83.984375
6788,82.031250
6789,83.984375
6790,83.984375
6791,83.984375
6792,82.031250
6793,82.031250
6794,82.031250
6795,82.031250
6796,82.031250
6797,80.078125
6798,80.078125
6799,80.078125
6800,80.078125
6801,78.125000
6802,78.125000
6803,78.125000
6804,78.125000
6805,76.171875
6806,74.218750
6807,74.218750
6808,74.218750
6809,72.265625
6810,72.265625
6811,72.265625
6812,70.312500
6813,68.359375
6814,68.359375
6815,66.406250
6816,64.453125
6817,64.453125
6818,62.500000
6819,60.546875
6820,60.546875
6821,58.593750
6822,56.640625
6823,56.640625
6824,54.687500
6825,52.734375
6826,52.734375
6827,50.781250
6828,48.828125
6829,46.875000
6830,44.921875
6831,44.921875
6832,41.015625
6833,41.015625
6834,39.062500
6835,37.109375
6836,35.156250
6837,33.203125
6838,31.250000
6839,29.296875
6840,27.343750
6841,27.343750
6842,25.390625
6843,23.437500
6844,21.484375
6845,19.531250
6846,17.578125
6847,15.625000
6848,13.671875
6849,11.718750
6850,9.765625
6851,7.812500
6852,5.859375
6853,3.906250
6854,1.953125
6855,-1.953125
6856,-3.906250
6857,-5.859375
6858,-5.859375
6859,-9.765625
6860,-11.718750
6861,-15.625000
6862,-15.625000
6863,-17.578125
6864,-19.531250
6865,-21.484375
6866,-23.437500
6867,-25.390625
6868,-27.343750
6869,-29.296875
6870,-31.250000
6871,-35.156250
6872,-37.109375
6873,-37.109375
6874,-41.015625
6875,-41.015625
6876,-44.921875
6877,-44.921875
6878,-44.921875
6879,-50.781250
6880,-52.734375
6881,-54.687500
6882,-54.687500
6883,-56.640625
6884,-58.593750
6885,-60.546875
6886,-64.453125
6887,-64.453125
6888,-66.406250
6889,-68.359375
6890,-70.312500
6891,-70.312500
6892,-72.265625
6893,-74.218750
6894,-76.171875
6895,-78.125000
6896,-78.125000
6897,-80.078125
6898,-82.031250
6899,-83.984375
6900,-83.984375
6901,-85.937500
6902,-85.937500
6903,-87.890625
6904,-89.843750
6905,-89.843750
6906,-91.796875
6907,-91.796875
6908,-93.750000
6909,-93.750000
6910,-93.750000
6911,-95.703125
6912,-95.703125
6913,-95.703125
6914,-95.703125
6915,-97.656250
6916,-99.609375
6917,-99.609375
6918,-99.609375
6919,-99.609375
6920,-99.609375
6921,-101.562500
6922,-101.562500
6923,-101.562500
6924,-101.562500
6925,-101.562500
6926,-101.562500
6927,-101.562500
6928,-101.562500
6929,-101.562500
6930,-101.562500
6931,-101.562500
6932,-101.562500
6933,-101.562500
6934,-99.609375
6935,-99.609375
6936,-99.609375
6937,-99.609375
6938,-99.609375
6939,-97.656250
6940,-97.656250
6941,-97.656250
6942,-95.703125
6943,-95.703125
6944,-95.703125
6945,-95.703125
6946,-93.750000
6947,-93.750000
6948,-91.796875
6949,-89.843750
6950,-89.843750
6951,-87.890625
6952,-87.890625
6953,-85.937500
6954,-83.984375
6955,-83.984375
6956,-83.984375
6957,-82.031250
6958,-80.078125
6959,-78.125000
6960,-78.125000
6961,-76.171875
6962,-74.218750
6963,-72.265625
6964,-70.312500
6965,-70.312500
6966,-68.359375
6967,-66.406250
6968,-64.453125
6969,-62.500000
6970,-60.546875
6971,-58.593750
6972,-56.640625
6973,-54.687500
6974,-52.734375
6975,-50.781250
6976,-48.828125
6977,-46.875000
6978,-44.921875
6979,-42.968750
6980,-42.968750
6981,-39.062500
6982,-41.015625
6983,-35.156250
6984,-33.203125
6985,-31.250000
6986,-29.296875
6987,-27.343750
6988,-25.390625
6989,-23.437500
6990,-21.484375
6991,-19.531250
6992,-17.578125
6993,-15.625000
6994,-13.671875
6995,-11.718750
6996,-9.765625
6997,-5.859375
6998,-5.859375
6999,-3.906250
7000,0.000000
7001,1.953125
7002,1.953125
7003,3.906250
7004,7.812500
7005,9.765625
7006,9.765625
7007,13.671875
7008,15.625000
7009,17.578125
7010,17.578125
7011,21.484375
7012,23.437500
7013,25.390625
7014,27.343750
7015,27.343750
7016,31.250000
7017,31.250000
7018,33.203125
7019,35.156250
7020,37.109375
7021,39.062500
7022,39.062500
7023,42.968750
7024,44.921875
7025,44.921875
7026,46.875000
7027,48.828125
7028,50.781250
7029,50.781250
7030,52.734375
7031,54.687500
7032,54.687500
7033,58.593750
7034,58.593750
7035,60.546875
7036,60.546875
7037,62.500000
7038,62.500000
7039,64.453125
7040,66.406250
7041,68.359375
7042,68.359375
7043,70.312500
7044,70.312500
7045,72.265625
7046,72.265625
7047,72.265625
7048,74.218750
7049,76.171875
7050,76.171875
7051,76.171875
7052,78.125000
7053,78.125000
7054,78.125000
7055,78.125000
7056,80.078125
7057,80.078125
7058,82.031250
7059,82.031250
7060,82.031250
7061,82.031250
7062,82.031250
7063,82.031250
7064,82.031250
7065,83.984375
7066,83.984375
7067,83.984375
7068,83.984375
7069,83.984375
7070,83.984375
7071,82.031250
7072,83.984375
7073,83.984375
7074,82.031250
7075,82.031250
7076,83.984375
7077,82.031250
7078,82.031250
7079,82.031250
7080,82.031250
7081,80.078125
7082,80.078125
7083,80.078125
7084,80.078125
7085,78.125000
7086,78.125000
7087,78.125000
7088,76.171875
7089,76.171875
7090,76.171875
7091,74.218750
7092,72.265625
7093,72.265625
7094,72.265625
7095,72.265625
7096,70.312500
7097,68.359375
7098,68.359375
7099,66.406250
7100,66.406250
7101,64.453125
7102,62.500000
7103,62.500000
7104,60.546875
7105,58.593750
7106,56.640625
7107,56.640625
7108,54.687500
7109,54.687500
7110,52.734375
7111,50.781250
7112,48.828125
7113,48.828125
7114,44.921875
7115,44.921875
7116,42.968750
7117,39.062500
7118,39.062500
7119,37.109375
7120,37.109375
7121,35.156250
7122,33.203125
7123,31.250000
7124,29.296875
7125,27.343750
7126,25.390625
7127,23.437500
7128,21.484375
7129,19.531250
7130,17.578125
7131,15.625000
7132,13.671875
7133,11.718750
7134,9.765625
7135,7.812500
7136,5.859375
7137,3.906250
7138,1.953125
7139,-1.953125
7140,-1.953125
7141,-3.906250
7142,-7.812500
7143,-9.765625
7144,-11.718750
7145,-13.671875
7146,-15.625000
7147,-15.625000
7148,-19.531250
7149,-21.484375
7150,-23.437500
7151,-25.390625
7152,-27.343750
7153,-29.296875
7154,-31.250000
7155,-33.203125
7156,-35.156250
7157,-37.109375
7158,-39.062500
7159,-41.015625
7160,-44.921875
7161,-44.921875
7162,-46.875000
7163,-48.828125
7164,-50.781250
7165,-52.734375
7166,-54.687500
7167,-56.640625
7168,-58.593750
7169,-60.546875
7170,-62.500000
7171,-64.453125
7172,-64.453125
7173,-68.359375
7174,-70.312500
7175,-70.312500
7176,-72.265625
7177,-74.218750
7178,-76.171875
7179,-76.171875
7180,-78.125000
7181,-80.078125
7182,-80.078125
7183,-82.031250
7184,-83.984375
7185,-83.984375
7186,-85.937500
7187,-87.890625
7188,-87.890625
7189,-89.843750
7190,-89.843750
7191,-91.796875
7192,-93.750000
7193,-93.750000
7194,-93.750000
7195,-95.703125
7196,-95.703125
7197,-95.703125
7198,-97.656250
7199,-97.656250
7200,-99.609375
7201,-99.609375
7202,-99.609375
7203,-101.562500
7204,-101.562500
7205,-101.562500
7206,-101.562500
7207,-101.562500
7208,-101.562500
7209,-101.562500
7210,-101.562500
7211,-101.562500
7212,-101.562500
7213,-103.515625
7214,-101.562500
7215,-101.562500
7216,-99.609375
7217,-101.562500
7218,-101.562500
7219,-101.562500
7220,-99.609375
7221,-99.609375
7222,-99.609375
7223,-97.656250
7224,-99.609375
7225,-97.656250
7226,-97.656250
7227,-97.656250
7228,-95.703125
7229,-95.703125
7230,-93.750000
7231,-93.750000
7232,-91.796875
7233,-91.796875
7234,-89.843750
7235,-87.890625
7236,-87.890625
7237,-85.937500
7238,-85.937500
7239,-83.984375
7240,-82.031250
7241,-82.031250
7242,-80.078125
7243,-78.125000
7244,-76.171875
7245,-76.171875
7246,-74.218750
7247,-72.265625
7248,-70.312500
7249,-68.359375
7250,-68.359375
7251,-66.406250
7252,-64.453125
7253,-62.500000
7254,-60.546875
7255,-58.593750
7256,-56.640625
7257,-54.687500
7258,-52.734375
7259,-50.781250
7260,-50.781250
7261,-46.875000
7262,-44.921875
7263,-44.921875
7264,-42.968750
7265,-39.062500
7266,-37.109375
7267,-35.156250
7268,-33.203125
7269,-31.250000
7270,-29.296875
7271,-27.343750
7272,-27.343750
7273,-23.437500
7274,-21.484375
7275,-19.531250
7276,-17.578125
7277,-15.625000
7278,-13.671875
7279,-11.718750
7280,-9.765625
7281,-7.812500
7282,-5.859375
7283,-3.906250
7284,-1.953125
7285,1.953125
7286,3.906250
7287,3.906250
7288,7.812500
7289,9.765625
7290,11.718750
7291,11.718750
7292,15.625000
7293,17.578125
7294,19.531250
7295,21.484375
7296,23.437500
7297,25.390625
7298,27.343750
7299,29.296875
7300,29.296875
7301,31.250000
7302,33.203125
7303,35.156250
7304,37.109375
7305,39.062500
7306,41.015625
7307,42.968750
7308,44.921875
7309,44.921875
7310,46.875000
7311,48.828125
7312,50.781250
7313,50.781250
7314,52.734375
7315,54.687500
7316,56.640625
7317,56.640625
7318,58.593750
7319,60.546875
7320,60.546875
7321,62.500000
7322,64.453125
7323,64.453125
7324,66.406250
7325,66.406250
7326,68.359375
7327,70.312500
7328,70.312500
7329,72.265625
7330,72.265625
7331,72.265625
7332,74.218750
7333,76.171875
7334,76.171875
7335,76.171875
7336,78.125000
7337,78.125000
7338,78.125000
7339,76.171875
7340,80.078125
7341,80.078125
7342,80.078125
7343,82.031250
7344,82.031250
7345,82.031250
7346,82.031250
7347,83.984375
7348,82.031250
7349,82.031250
7350,83.984375
7351,83.984375
7352,82.031250
7353,83.984375
7354,83.984375
7355,83.984375
7356,82.031250
7357,83.984375
7358,82.031250
7359,82.031250
7360,82.031250
7361,82.031250
7362,82.031250
7363,82.031250
7364,80.078125
7365,82.031250
7366,80.078125
7367,80.078125
7368,80.078125
7369,78.125000
7370,78.125000
7371,78.125000
7372,76.171875
7373,76.171875
7374,76.171875
7375,74.218750
7376,74.218750
7377,74.218750
7378,72.265625
7379,70.312500
7380,70.312500
7381,70.312500
7382,68.359375
7383,66.406250
7384,66.406250
7385,64.453125
7386,64.453125
7387,62.500000
7388,60.546875
7389,58.593750
7390,58.593750
7391,56.640625
7392,54.687500
7393,54.687500
7394,52.734375
7395,50.781250
7396,48.828125
7397,46.875000
7398,46.875000
7399,44.921875
7400,42.968750
7401,41.015625
7402,39.062500
7403,39.062500
7404,37.109375
7405,33.203125
7406,31.250000
7407,31.250000
7408,29.296875
7409,27.343750
7410,25.390625
7411,23.437500
7412,21.484375
7413,19.531250
7414,17.578125
7415,21.484375
7416,13.671875
7417,11.718750
7418,9.765625
7419,5.859375
7420,5.859375
7421,3.906250
7422,1.953125
7423,0.000000
7424,-3.906250
7425,-5.859375
7426,-7.812500
7427,-9.765625
7428,-11.718750
7429,-13.671875
7430,-15.625000
7431,-17.578125
7432,-19.531250
7433,-21.484375
7434,-23.437500
7435,-25.390625
7436,-27.343750
7437,-29.296875
7438,-29.296875
7439,-33.203125
7440,-35.156250
7441,-37.109375
7442,-39.062500
7443,-41.015625
7444,-42.968750
7445,-46.875000
7446,-48.828125
7447,-48.828125
7448,-50.781250
7449,-52.734375
7450,-54.687500
7451,-56.640625
7452,-58.593750
7453,-60.546875
7454,-62.500000
7455,-64.453125
7456,-64.453125
7457,-66.406250
7458,-68.359375
7459,-70.312500
7460,-72.265625
7461,-74.218750
7462,-76.171875
7463,-76.171875
7464,-78.125000
7465,-80.078125
7466,-82.031250
7467,-82.031250
7468,-83.984375
7469,-85.937500
7470,-85.937500
7471,-87.890625
7472,-87.890625
7473,-89.843750
7474,-91.796875
7475,-91.796875
7476,-93.750000
7477,-93.750000
7478,-95.703125
7479,-97.656250
7480,-95.703125
7481,-97.656250
7482,-97.656250
7483,-99.609375
7484,-99.609375
7485,-99.609375
7486,-99.609375
7487,-99.609375
7488,-101.562500
7489,-101.562500
7490,-99.609375
7491,-101.562500
7492,-101.562500
7493,-101.562500
7494,-101.562500
7495,-101.562500
7496,-101.562500
7497,-101.562500
7498,-101.562500
7499,-101.562500
7500,-101.562500
7501,-101.562500
7502,-101.562500
7503,-99.609375
7504,-99.609375
7505,-99.609375
7506,-99.609375
7507,-99.609375
7508,-97.656250
7509,-97.656250
7510,-97.656250
7511,-95.703125
7512,-93.750000
7513,-93.750000
7514,-93.750000
7515,-93.750000
7516,-91.796875
7517,-89.843750
7518,-89.843750
7519,-87.890625
7520,-87.890625
7521,-85.937500
7522,-83.984375
7523,-83.984375
7524,-83.984375
7525,-82.031250
7526,-80.078125
7527,-78.125000
7528,-78.125000
7529,-76.171875
7530,-74.218750
7531,-72.265625
7532,-70.312500
7533,-70.312500
7534,-68.359375
7535,-66.406250
7536,-64.453125
7537,-62.500000
7538,-62.500000
7539,-58.593750
7540,-58.593750
7541,-56.640625
7542,-52.734375
7543,-52.734375
7544,-50.781250
7545,-48.828125
7546,-46.875000
7547,-44.921875
7548,-42.968750
7549,-41.015625
7550,-39.062500
7551,-37.109375
7552,-33.203125
7553,-33.203125
7554,-31.250000
7555,-27.343750
7556,-25.390625
7557,-23.437500
7558,-21.484375
7559,-19.531250
7560,-17.578125
7561,-15.625000
7562,-13.671875
7563,-13.671875
7564,-9.765625
7565,-7.812500
7566,-5.859375
7567,-3.906250
7568,-1.953125
7569,1.953125
7570,3.906250
7571,3.906250
7572,5.859375
7573,9.765625
7574,11.718750
7575,11.718750
7576,13.671875
7577,17.578125
7578,19.531250
7579,19.531250
7580,23.437500
7581,23.437500
7582,25.390625
7583,29.296875
7584,29.296875
7585,31.250000
7586,33.203125
7587,35.156250
7588,37.109375
7589,39.062500
7590,41.015625
7591,42.968750
7592,42.968750
7593,44.921875
7594,46.875000
7595,48.828125
7596,46.875000
7597,50.781250
7598,52.734375
7599,54.687500
7600,56.640625
7601,56.640625
7602,58.593750
7603,60.546875
7604,60.546875
7605,62.500000
7606,64.453125
7607,64.453125
7608,66.406250
7609,66.406250
7610,68.359375
7611,70.312500
7612,70.312500
7613,70.312500
7614,72.265625
7615,74.218750
7616,74.218750
7617,74.218750
7618,76.171875
7619,76.171875
7620,78.125000
7621,78.125000
7622,78.125000
7623,80.078125
7624,80.078125
7625,80.078125
7626,80.078125
7627,82.031250
7628,82.031250
7629,82.031250
7630,82.031250
7631,82.031250
7632,83.984375
7633,83.984375
7634,82.031250
7635,83.984375
7636,82.031250
7637,83.984375
7638,83.984375
7639,83.984375
7640,82.031250
7641,82.031250
7642,83.984375
7643,82.031250
7644,83.984375
7645,82.031250
7646,82.031250
7647,80.078125
7648,80.078125
7649,82.031250
7650,80.078125
7651,80.078125
7652,78.125000
7653,78.125000
7654,78.125000
7655,78.125000
7656,76.171875
7657,76.171875
7658,76.171875
7659,74.218750
7660,74.218750
7661,72.265625
7662,72.265625
7663,70.312500
7664,70.312500
7665,68.359375
7666,68.359375
7667,66.406250
7668,66.406250
7669,64.453125
7670,64.453125
7671,62.500000
7672,60.546875
7673,60.546875
7674,58.593750
7675,56.640625
7676,54.687500
7677,52.734375
7678,52.734375
7679,50.781250
7680,48.828125
7681,48.828125
7682,46.875000
7683,44.921875
7684,42.968750
7685,42.968750
7686,41.015625
7687,39.062500
7688,35.156250
7689,35.156250
7690,33.203125
7691,31.250000
7692,29.296875
7693,27.343750
7694,25.390625
7695,23.437500
7696,21.484375
7697,19.531250
7698,17.578125
7699,15.625000
7700,13.671875
7701,11.718750
7702,9.765625
7703,9.765625
7704,5.859375
7705,3.906250
7706,1.953125
7707,0.000000
7708,-1.953125
7709,-3.906250
7710,-5.859375
7711,-7.812500
7712,-11.718750
7713,-13.671875
7714,-15.625000
7715,-15.625000
7716,-19.531250
7717,-21.484375
7718,-23.437500
7719,-25.390625
7720,-27.343750
7721,-29.296875
7722,-31.250000
7723,-33.203125
7724,-35.156250
7725,-39.062500
7726,-39.062500
7727,-42.968750
7728,-44.921875
7729,-42.968750
7730,-46.875000
7731,-48.828125
7732,-50.781250
7733,-52.734375
7734,-54.687500
7735,-56.640625
7736,-58.593750
7737,-60.546875
7738,-62.500000
7739,-64.453125
7740,-66.406250
7741,-66.406250
7742,-68.359375
7743,-70.312500
7744,-74.218750
7745,-74.218750
7746,-76.171875
7747,-76.171875
7748,-78.125000
7749,-80.078125
7750,-82.031250
7751,-82.031250
7752,-83.984375
7753,-85.937500
7754,-85.937500
7755,-91.796875
7756,-85.937500
7757,-89.843750
7758,-89.843750
7759,-91.796875
7760,-93.750000
7761,-93.750000
7762,-93.750000
7763,-95.703125
7764,-95.703125
7765,-95.703125
7766,-97.656250
7767,-97.656250
7768,-97.656250
7769,-99.609375
7770,-99.609375
7771,-99.609375
7772,-99.609375
7773,-101.562500
7774,-101.562500
7775,-101.562500
7776,-101.562500
7777,-101.562500
7778,-101.562500
7779,-103.515625
7780,-101.562500
7781,-101.562500
7782,-101.562500
7783,-101.562500
7784,-101.562500
7785,-101.562500
7786,-103.515625
7787,-99.609375
7788,-101.562500
7789,-99.609375
7790,-99.609375
7791,-99.609375
7792,-97.656250
7793,-97.656250
7794,-97.656250
7795,-97.656250
7796,-91.796875
7797,-93.750000
7798,-93.750000
7799,-93.750000
7800,-91.796875
7801,-91.796875
7802,-89.843750
7803,-85.937500
7804,-87.890625
7805,-87.890625
7806,-85.937500
7807,-83.984375
7808,-83.984375
7809,-82.031250
7810,-80.078125
7811,-80.078125
7812,-78.125000
7813,-76.171875
7814,-74.218750
7815,-74.218750
7816,-70.312500
7817,-70.312500
7818,-68.359375
7819,-66.406250
7820,-66.406250
7821,-62.500000
7822,-60.546875
7823,-58.593750
7824,-58.593750
7825,-54.687500
7826,-54.687500
7827,-52.734375
7828,-50.781250
7829,-48.828125
7830,-46.875000
7831,-44.921875
7832,-42.968750
7833,-41.015625
7834,-39.062500
7835,-35.156250
7836,-35.156250
7837,-31.250000
7838,-31.250000
7839,-29.296875
7840,-25.390625
7841,-23.437500
7842,-21.484375
7843,-19.531250
7844,-17.578125
7845,-15.625000
7846,-13.671875
7847,-11.718750
7848,-9.765625
7849,-7.812500
7850,-5.859375
7851,-1.953125
7852,-1.953125
7853,0.000000
7854,1.953125
7855,3.906250
7856,5.859375
7857,9.765625
7858,11.718750
7859,11.718750
7860,15.625000
7861,15.625000
7862,17.578125
7863,19.531250
7864,21.484375
7865,23.437500
7866,25.390625
7867,27.343750
7868,29.296875
7869,31.250000
7870,33.203125
7871,35.156250
7872,37.109375
7873,39.062500
7874,39.062500
7875,42.968750
7876,44.921875
7877,44.921875
7878,46.875000
7879,48.828125
7880,48.828125
7881,50.781250
7882,52.734375
7883,54.687500
7884,56.640625
7885,58.593750
7886,58.593750
7887,60.546875
7888,60.546875
7889,62.500000
7890,64.453125
7891,64.453125
7892,66.406250
7893,68.359375
7894,68.359375
7895,70.312500
7896,70.312500
7897,72.265625
7898,72.265625
7899,72.265625
7900,74.218750
7901,74.218750
7902,76.171875
7903,76.171875
7904,74.218750
7905,78.125000
7906,78.125000
7907,78.125000
7908,80.078125
7909,80.078125
7910,80.078125
7911,82.031250
7912,82.031250
7913,82.031250
7914,82.031250
7915,82.031250
7916,82.031250
7917,82.031250
7918,83.984375
7919,83.984375
7920,82.031250
7921,83.984375
7922,83.984375
7923,82.031250
7924,83.984375
7925,82.031250
7926,82.031250
7927,82.031250
7928,82.031250
7929,80.078125
7930,82.031250
7931,82.031250
7932,82.031250
7933,80.078125
7934,78.125000
7935,80.078125
7936,80.078125
7937,78.125000
7938,78.125000
7939,76.171875
7940,76.171875
7941,76.171875
7942,76.171875
7943,74.218750
7944,74.218750
7945,72.265625
7946,72.265625
7947,70.312500
7948,68.359375
7949,68.359375
7950,68.359375
7951,66.406250
7952,66.406250
7953,62.500000
7954,64.453125
7955,62.500000
7956,60.546875
7957,58.593750
7958,58.593750
7959,56.640625
7960,54.687500
7961,54.687500
7962,52.734375
7963,50.781250
7964,48.828125
7965,48.828125
7966,46.875000
7967,44.921875
7968,42.968750
7969,41.015625
7970,39.062500
7971,39.062500
7972,37.109375
7973,35.156250
7974,33.203125
7975,31.250000
7976,29.296875
7977,27.343750
7978,25.390625
7979,23.437500
7980,21.484375
7981,19.531250
7982,17.578125
7983,15.625000
7984,13.671875
7985,11.718750
7986,9.765625
7987,7.812500
7988,5.859375
7989,3.906250
7990,1.953125
7991,0.000000
7992,-1.953125
7993,-5.859375
7994,-7.812500
7995,-7.812500
7996,-9.765625
7997,-13.671875
7998,-15.625000
7999,-15.625000
8000,-19.531250
8001,-21.484375
8002,-23.437500
8003,-25.390625
8004,-27.343750
8005,-29.296875
8006,-31.250000
8007,-33.203125
8008,-35.156250
8009,-37.109375
8010,-39.062500
8011,-41.015625
8012,-42.968750
8013,-44.921875
8014,-46.875000
8015,-48.828125
8016,-50.781250
8017,-52.734375
8018,-54.687500
8019,-56.640625
8020,-58.593750
8021,-60.546875
8022,-60.546875
8023,-64.453125
8024,-64.453125
8025,-68.359375
8026,-68.359375
8027,-70.312500
8028,-72.265625
8029,-74.218750
8030,-76.171875
8031,-76.171875
8032,-78.125000
8033,-80.078125
8034,-80.078125
8035,-82.031250
8036,-83.984375
8037,-83.984375
8038,-85.937500
8039,-87.890625
8040,-87.890625
8041,-89.843750
8042,-89.843750
8043,-91.796875
8044,-91.796875
8045,-93.750000
8046,-93.750000
8047,-95.703125
8048,-95.703125
8049,-95.703125
8050,-97.656250
8051,-97.656250
8052,-99.609375
8053,-99.609375
8054,-99.609375
8055,-99.609375
8056,-101.562500
8057,-101.562500
8058,-101.562500
8059,-101.562500
8060,-101.562500
8061,-103.515625
8062,-101.562500
8063,-101.562500
8064,-101.562500
8065,-101.562500
8066,-101.562500
8067,-101.562500
8068,-101.562500
8069,-101.562500
8070,-101.562500
8071,-99.609375
8072,-99.609375
8073,-99.609375
8074,-99.609375
8075,-99.609375
8076,-97.656250
8077,-97.656250
8078,-97.656250
8079,-95.703125
8080,-95.703125
8081,-95.703125
8082,-93.750000
8083,-91.796875
8084,-91.796875
8085,-91.796875
8086,-89.843750
8087,-87.890625
8088,-87.890625
8089,-87.890625
8090,-85.937500
8091,-83.984375
8092,-82.031250
8093,-82.031250
8094,-80.078125
8095,-78.125000
8096,-78.125000
8097,-76.171875
8098,-72.265625
8099,-72.265625
8100,-72.265625
8101,-70.312500
8102,-68.359375
8103,-66.406250
8104,-64.453125
8105,-62.500000
8106,-60.546875
8107,-58.593750
8108,-56.640625
8109,-54.687500
8110,-54.687500
8111,-52.734375
8112,-50.781250
8113,-48.828125
8114,-46.875000
8115,-44.921875
8116,-42.968750
8117,-41.015625
8118,-39.062500
8119,-37.109375
8120,-35.156250
8121,-33.203125
8122,-31.250000
8123,-29.296875
8124,-27.343750
8125,-25.390625
8126,-23.437500
8127,-21.484375
8128,-17.578125
8129,-17.578125
8130,-13.671875
8131,-13.671875
8132,-9.765625
8133,-7.812500
8134,-5.859375
8135,-3.906250
8136,0.000000
8137,0.000000
8138,1.953125
8139,3.906250
8140,5.859375
8141,7.812500
8142,7.812500
8143,13.671875
8144,13.671875
8145,15.625000
8146,17.578125
8147,19.531250
8148,21.484375
8149,23.437500
8150,27.343750
8151,27.343750
8152,29.296875
8153,31.250000
8154,33.203125
8155,35.156250
8156,37.109375
8157,39.062500
8158,41.015625
8159,42.968750
8160,42.968750
8161,44.921875
8162,46.875000
8163,48.828125
8164,48.828125
8165,50.781250
8166,52.734375
8167,54.687500
8168,54.687500
8169,56.640625
8170,58.593750
8171,58.593750
8172,58.593750
8173,62.500000
8174,64.453125
8175,64.453125
8176,66.406250
8177,66.406250
8178,68.359375
8179,68.359375
8180,70.312500
8181,70.312500
8182,72.265625
8183,72.265625
8184,74.218750
8185,74.218750
8186,74.218750
8187,76.171875
8188,76.171875
8189,78.125000
8190,78.125000
8191,78.125000
8192,80.078125
8193,80.078125
8194,80.078125
8195,78.125000
8196,82.031250
8197,82.031250
8198,82.031250
8199,82.031250
8200,82.031250
8201,82.031250
8202,82.031250
8203,82.031250
8204,82.031250
8205,83.984375
8206,83.984375
8207,83.984375
8208,83.984375
8209,83.984375
8210,83.984375
8211,82.031250
8212,83.984375
8213,83.984375
8214,82.031250
8215,82.031250
8216,82.031250
8217,82.031250
8218,80.078125
8219,80.078125
8220,80.078125
8221,78.125000
8222,78.125000
8223,78.125000
8224,76.171875
8225,76.171875
8226,76.171875
8227,74.218750
8228,74.218750
8229,72.265625
8230,72.265625
8231,70.312500
8232,70.312500
8233,68.359375
8234,68.359375
8235,66.406250
8236,66.406250
8237,64.453125
8238,64.453125
8239,62.500000
8240,60.546875
8241,60.546875
8242,58.593750
8243,56.640625
8244,54.687500
8245,54.687500
8246,52.734375
8247,50.781250
8248,42.968750
8249,48.828125
8250,46.875000
8251,44.921875
8252,42.968750
8253,44.921875
8254,39.062500
8255,37.109375
8256,37.109375
8257,35.156250
8258,37.109375
8259,31.250000
8260,29.296875
8261,27.343750
8262,25.390625
8263,23.437500
8264,21.484375
8265,19.531250
8266,17.578125
8267,15.625000
8268,13.671875
8269,11.718750
8270,9.765625
8271,7.812500
8272,5.859375
8273,3.906250
8274,1.953125
8275,0.000000
8276,-1.953125
8277,-3.906250
8278,-5.859375
8279,-7.812500
8280,-9.765625
8281,-11.718750
8282,-13.671875
8283,-15.625000
8284,-17.578125
8285,-19.531250
8286,-21.484375
8287,-23.437500
8288,-27.343750
8289,-29.296875
8290,-31.250000
8291,-33.203125
8292,-35.156250
8293,-37.109375
8294,-39.062500
8295,-41.015625
8296,-42.968750
8297,-44.921875
8298,-46.875000
8299,-48.828125
8300,-50.781250
8301,-52.734375
8302,-54.687500
8303,-56.640625
8304,-58.593750
8305,-60.546875
8306,-62.500000
8307,-64.453125
8308,-66.406250
8309,-66.406250
8310,-68.359375
8311,-70.312500
8312,-72.265625
8313,-74.218750
8314,-74.218750
8315,-76.171875
8316,-78.125000
8317,-80.078125
8318,-80.078125
8319,-82.031250
8320,-83.984375
8321,-85.937500
8322,-85.937500
8323,-85.937500
8324,-87.890625
8325,-89.843750
8326,-89.843750
8327,-91.796875
8328,-91.796875
8329,-93.750000
8330,-93.750000
8331,-93.750000
8332,-95.703125
8333,-95.703125
8334,-97.656250
8335,-97.656250
8336,-97.656250
8337,-99.609375
8338,-99.609375
8339,-99.609375
8340,-99.609375
8341,-101.562500
8342,-101.562500
8343,-101.562500
8344,-101.562500
8345,-101.562500
8346,-101.562500
8347,-101.562500
8348,-101.562500
8349,-101.562500
8350,-101.562500
8351,-101.562500
8352,-101.562500
8353,-101.562500
8354,-99.609375
8355,-101.562500
8356,-101.562500
8357,-99.609375
8358,-99.609375
8359,-97.656250
8360,-99.609375
8361,-97.656250
8362,-97.656250
8363,-95.703125
8364,-95.703125
8365,-95.703125
8366,-93.750000
8367,-93.750000
8368,-93.750000
8369,-89.843750
8370,-89.843750
8371,-89.843750
8372,-87.890625
8373,-87.890625
8374,-85.937500
8375,-83.984375
8376,-83.984375
8377,-82.031250
8378,-82.031250
8379,-78.125000
8380,-78.125000
8381,-76.171875
8382,-74.218750
8383,-74.218750
8384,-72.265625
8385,-70.312500
8386,-68.359375
8387,-66.406250
8388,-64.453125
8389,-62.500000
8390,-62.500000
8391,-60.546875
8392,-58.593750
8393,-56.640625
8394,-54.687500
8395,-52.734375
8396,-50.781250
8397,-48.828125
8398,-46.875000
8399,-44.921875
8400,-42.968750
8401,-41.015625
8402,-39.062500
8403,-37.109375
8404,-35.156250
8405,-33.203125
8406,-31.250000
8407,-29.296875
8408,-27.343750
8409,-23.437500
8410,-21.484375
8411,-19.531250
8412,-17.578125
8413,-15.625000
8414,-13.671875
8415,-11.718750
8416,-9.765625
8417,-7.812500
8418,-5.859375
8419,-3.906250
8420,-1.953125
8421,0.000000
8422,1.953125
8423,3.906250
8424,5.859375
8425,7.812500
8426,9.765625
8427,11.718750
8428,13.671875
8429,15.625000
8430,17.578125
8431,19.531250
8432,21.484375
8433,23.437500
8434,25.390625
8435,27.343750
8436,29.296875
8437,31.250000
8438,33.203125
8439,33.203125
8440,35.156250
8441,39.062500
8442,39.062500
8443,41.015625
8444,42.968750
8445,44.921875
8446,46.875000
8447,48.828125
8448,50.781250
8449,50.781250
8450,52.734375
8451,54.687500
8452,54.687500
8453,56.640625
8454,58.593750
8455,60.546875
8456,60.546875
8457,62.500000
8458,62.500000
8459,64.453125
8460,66.406250
8461,66.406250
8462,68.359375
8463,70.312500
8464,70.312500
8465,70.312500
8466,72.265625
8467,74.218750
8468,74.218750
8469,74.218750
8470,76.171875
8471,76.171875
8472,78.125000
8473,78.125000
8474,78.125000
8475,80.078125
8476,80.078125
8477,80.078125
8478,80.078125
8479,82.031250
8480,82.031250
8481,82.031250
8482,82.031250
8483,83.984375
8484,82.031250
8485,82.031250
8486,83.984375
8487,83.984375
8488,83.984375
8489,83.984375
8490,83.984375
8491,83.984375
8492,83.984375
8493,83.984375
8494,83.984375
8495,83.984375
8496,82.031250
8497,82.031250
8498,82.031250
8499,82.031250
8500,82.031250
8501,80.078125
8502,80.078125
8503,80.078125
8504,80.078125
8505,78.125000
8506,78.125000
8507,82.031250
8508,78.125000
8509,78.125000
8510,76.171875
8511,74.218750
8512,72.265625
8513,72.265625
8514,72.265625
8515,72.265625
8516,70.312500
8517,68.359375
8518,70.312500
8519,66.406250
8520,66.406250
8521,66.406250
8522,64.453125
8523,62.500000
8524,60.546875
8525,60.546875
8526,58.593750
8527,56.640625
8528,54.687500
8529,54.687500
8530,52.734375
8531,52.734375
8532,48.828125
8533,48.828125
8534,46.875000
8535,44.921875
8536,44.921875
8537,42.968750
8538,41.015625
8539,39.062500
8540,37.109375
8541,35.156250
8542,33.203125
8543,31.250000
8544,29.296875
8545,27.343750
8546,25.390625
8547,23.437500
8548,21.484375
8549,19.531250
8550,17.578125
8551,17.578125
8552,13.671875
8553,11.718750
8554,9.765625
8555,7.812500
8556,5.859375
8557,3.906250
8558,1.953125
8559,0.000000
8560,-1.953125
8561,-5.859375
8562,-5.859375
8563,-9.765625
8564,-11.718750
8565,-11.718750
8566,-13.671875
8567,-15.625000
8568,-17.578125
8569,-19.531250
8570,-23.437500
8571,-25.390625
8572,-27.343750
8573,-29.296875
8574,-31.250000
8575,-33.203125
8576,-35.156250
8577,-37.109375
8578,-39.062500
8579,-41.015625
8580,-42.968750
8581,-44.921875
8582,-46.875000
8583,-48.828125
8584,-50.781250
8585,-52.734375
8586,-54.687500
8587,-56.640625
8588,-58.593750
8589,-60.546875
8590,-62.500000
8591,-62.500000
8592,-64.453125
8593,-68.359375
8594,-68.359375
8595,-70.312500
8596,-72.265625
8597,-72.265625
8598,-74.218750
8599,-76.171875
8600,-78.125000
8601,-80.078125
8602,-80.078125
8603,-80.078125
8604,-83.984375
8605,-83.984375
8606,-85.937500
8607,-87.890625
8608,-87.890625
8609,-89.843750
8610,-89.843750
8611,-89.843750
8612,-91.796875
8613,-93.750000
8614,-93.750000
8615,-95.703125
8616,-95.703125
8617,-97.656250
8618,-97.656250
8619,-97.656250
8620,-99.609375
8621,-99.609375
8622,-99.609375
8623,-99.609375
8624,-101.562500
8625,-101.562500
8626,-101.562500
8627,-101.562500
8628,-101.562500
8629,-101.562500
8630,-101.562500
8631,-101.562500
8632,-101.562500
8633,-103.515625
8634,-101.562500
8635,-101.562500
8636,-101.562500
8637,-101.562500
8638,-101.562500
8639,-101.562500
8640,-99.609375
8641,-99.609375
8642,-99.609375
8643,-97.656250
8644,-97.656250
8645,-97.656250
8646,-97.656250
8647,-97.656250
8648,-95.703125
8649,-95.703125
8650,-93.750000
8651,-93.750000
8652,-91.796875
8653,-91.796875
8654,-89.843750
8655,-89.843750
8656,-87.890625
8657,-85.937500
8658,-85.937500
8659,-83.984375
8660,-82.031250
8661,-82.031250
8662,-80.078125
8663,-80.078125
8664,-78.125000
8665,-76.171875
8666,-74.218750
8667,-72.265625
8668,-72.265625
8669,-70.312500
8670,-68.359375
8671,-66.406250
8672,-64.453125
8673,-62.500000
8674,-60.546875
8675,-58.593750
8676,-58.593750
8677,-56.640625
8678,-54.687500
8679,-52.734375
8680,-50.781250
8681,-48.828125
8682,-46.875000
8683,-44.921875
8684,-42.968750
8685,-39.062500
8686,-39.062500
8687,-37.109375
8688,-35.156250
8689,-33.203125
8690,-31.250000
8691,-29.296875
8692,-27.343750
8693,-25.390625
8694,-23.437500
8695,-21.484375
8696,-19.531250
8697,-17.578125
8698,-15.625000
8699,-11.718750
8700,-11.718750
8701,-7.812500
8702,-5.859375
8703,-3.906250
8704,-1.953125
8705,0.000000
8706,1.953125
8707,3.906250
8708,5.859375
8709,7.812500
8710,9.765625
8711,11.718750
8712,13.671875
8713,15.625000
8714,17.578125
8715,19.531250
8716,21.484375
8717,23.437500
8718,25.390625
8719,27.343750
8720,29.296875
8721,31.250000
8722,33.203125
8723,33.203125
8724,35.156250
8725,39.062500
8726,39.062500
8727,41.015625
8728,42.968750
8729,44.921875
8730,44.921875
8731,46.875000
8732,48.828125
8733,50.781250
8734,52.734375
8735,52.734375
8736,54.687500
8737,56.640625
8738,58.593750
8739,56.640625
8740,60.546875
8741,62.500000
8742,64.453125
8743,64.453125
8744,66.406250
8745,66.406250
8746,68.359375
8747,68.359375
8748,70.312500
8749,70.312500
8750,72.265625
8751,72.265625
8752,74.218750
8753,74.218750
8754,76.171875
8755,76.171875
8756,78.125000
8757,78.125000
8758,78.125000
8759,78.125000
8760,78.125000
8761,80.078125
8762,80.078125
8763,80.078125
8764,82.031250
8765,82.031250
8766,82.031250
8767,82.031250
8768,82.031250
8769,82.031250
8770,82.031250
8771,83.984375
8772,82.031250
8773,82.031250
8774,83.984375
8775,83.984375
8776,82.031250
8777,83.984375
8778,82.031250
8779,83.984375
8780,82.031250
8781,82.031250
8782,82.031250
8783,82.031250
8784,82.031250
8785,80.078125
8786,80.078125
8787,80.078125
8788,80.078125
8789,80.078125
8790,80.078125
8791,78.125000
8792,76.171875
8793,76.171875
8794,76.171875
8795,76.171875
8796,74.218750
8797,72.265625
8798,72.265625
8799,70.312500
8800,70.312500
8801,68.359375
8802,68.359375
8803,68.359375
8804,66.406250
8805,66.406250
8806,64.453125
8807,62.500000
8808,60.546875
8809,60.546875
8810,58.593750
8811,56.640625
8812,56.640625
8813,54.687500
8814,52.734375
8815,50.781250
8816,50.781250
8817,48.828125
8818,46.875000
8819,44.921875
8820,42.968750
8821,41.015625
8822,41.015625
8823,39.062500
8824,37.109375
8825,35.156250
8826,33.203125
8827,31.250000
8828,29.296875
8829,27.343750
8830,25.390625
8831,23.437500
8832,21.484375
8833,19.531250
8834,19.531250
8835,15.625000
8836,13.671875
8837,13.671875
8838,11.718750
8839,7.812500
8840,5.859375
8841,3.906250
8842,1.953125
8843,0.000000
8844,-1.953125
8845,-3.906250
8846,-5.859375
8847,-7.812500
8848,-9.765625
8849,-11.718750
8850,-13.671875
8851,-15.625000
8852,-17.578125
8853,-21.484375
8854,-21.484375
8855,-25.390625
8856,-27.343750
8857,-29.296875
8858,-31.250000
8859,-33.203125
8860,-35.156250
8861,-37.109375
8862,-39.062500
8863,-41.015625
8864,-41.015625
8865,-44.921875
8866,-46.875000
8867,-48.828125
8868,-50.781250
8869,-52.734375
8870,-54.687500
8871,-56.640625
8872,-56.640625
8873,-58.593750
8874,-60.546875
8875,-62.500000
8876,-64.453125
8877,-66.406250
8878,-68.359375
8879,-70.312500
8880,-70.312500
8881,-72.265625
8882,-74.218750
8883,-76.171875
8884,-78.125000
8885,-80.078125
8886,-80.078125
8887,-82.031250
8888,-83.984375
8889,-85.937500
8890,-85.937500
8891,-85.937500
8892,-87.890625
8893,-89.843750
8894,-89.843750
8895,-91.796875
8896,-91.796875
8897,-93.750000
8898,-93.750000
8899,-95.703125
8900,-95.703125
8901,-95.703125
8902,-97.656250
8903,-97.656250
8904,-99.609375
8905,-97.656250
8906,-99.609375
8907,-97.656250
8908,-99.609375
8909,-101.562500
8910,-105.468750
8911,-101.562500
8912,-101.562500
8913,-101.562500
8914,-101.562500
8915,-101.562500
8916,-101.562500
8917,-101.562500
8918,-101.562500
8919,-101.562500
8920,-101.562500
8921,-101.562500
8922,-101.562500
8923,-99.609375
8924,-101.562500
8925,-99.609375
8926,-99.609375
8927,-99.609375
8928,-97.656250
8929,-97.656250
8930,-97.656250
8931,-97.656250
8932,-95.703125
8933,-93.750000
8934,-95.703125
8935,-93.750000
8936,-91.796875
8937,-91.796875
8938,-89.843750
8939,-89.843750
8940,-87.890625
8941,-87.890625
8942,-85.937500
8943,-83.984375
8944,-83.984375
8945,-82.031250
8946,-80.078125
8947,-80.078125
8948,-78.125000
8949,-76.171875
8950,-74.218750
8951,-74.218750
8952,-72.265625
8953,-70.312500
8954,-66.406250
8955,-66.406250
8956,-64.453125
8957,-64.453125
8958,-62.500000
8959,-60.546875
8960,-58.593750
8961,-56.640625
8962,-54.687500
8963,-52.734375
8964,-50.781250
8965,-48.828125
8966,-48.828125
8967,-44.921875
8968,-44.921875
8969,-41.015625
8970,-39.062500
8971,-37.109375
8972,-35.156250
8973,-35.156250
8974,-31.250000
8975,-29.296875
8976,-27.343750
8977,-25.390625
8978,-23.437500
8979,-21.484375
8980,-19.531250
8981,-17.578125
8982,-15.625000
8983,-11.718750
8984,-9.765625
8985,-7.812500
8986,-5.859375
8987,-3.906250
8988,-1.953125
8989,0.000000
8990,1.953125
8991,3.906250
8992,5.859375
8993,7.812500
8994,9.765625
8995,11.718750
8996,13.671875
8997,15.625000
8998,17.578125
8999,19.531250
9000,21.484375
9001,23.437500
9002,25.390625
9003,27.343750
9004,29.296875
9005,31.250000
9006,33.203125
9007,33.203125
9008,37.109375
9009,37.109375
9010,39.062500
9011,41.015625
9012,42.968750
9013,44.921875
9014,44.921875
9015,46.875000
9016,48.828125
9017,50.781250
9018,52.734375
9019,52.734375
9020,54.687500
9021,56.640625
9022,58.593750
9023,58.593750
9024,60.546875
9025,60.546875
9026,62.500000
9027,64.453125
9028,64.453125
9029,66.406250
9030,68.359375
9031,68.359375
9032,70.312500
9033,70.312500
9034,72.265625
9035,72.265625
9036,74.218750
9037,74.218750
9038,76.171875
9039,76.171875
9040,76.171875
9041,78.125000
9042,78.125000
9043,78.125000
9044,80.078125
9045,80.078125
9046,80.078125
9047,82.031250
9048,82.031250
9049,82.031250
9050,82.031250
9051,82.031250
9052,82.031250
9053,82.031250
9054,83.984375
9055,82.031250
9056,83.984375
9057,83.984375
9058,83.984375
9059,83.984375
9060,83.984375
9061,83.984375
9062,82.031250
9063,83.984375
9064,83.984375
9065,82.031250
9066,82.031250
9067,82.031250
9068,82.031250
9069,80.078125
9070,80.078125
9071,78.125000
9072,80.078125
9073,80.078125
9074,78.125000
9075,78.125000
9076,76.171875
9077,76.171875
9078,76.171875
9079,74.218750
9080,74.218750
9081,74.218750
9082,72.265625
9083,72.265625
9084,70.312500
9085,70.312500
9086,68.359375
9087,66.406250
9088,66.406250
9089,64.453125
9090,64.453125
9091,62.500000
9092,60.546875
9093,60.546875
9094,58.593750
9095,58.593750
9096,56.640625
9097,54.687500
9098,52.734375
9099,50.781250
9100,50.781250
9101,48.828125
9102,46.875000
9103,44.921875
9104,42.968750
9105,41.015625
9106,41.015625
9107,39.062500
9108,37.109375
9109,35.156250
9110,35.156250
9111,31.250000
9112,29.296875
9113,29.296875
9114,27.343750
9115,23.437500
9116,23.437500
9117,21.484375
9118,19.531250
9119,17.578125
9120,15.625000
9121,13.671875
9122,11.718750
9123,7.812500
9124,5.859375
9125,3.906250
9126,3.906250
9127,0.000000
9128,-1.953125
9129,-3.906250
9130,-5.859375
9131,-7.812500
9132,-9.765625
9133,-11.718750
9134,-13.671875
9135,-15.625000
9136,-17.578125
9137,-19.531250
9138,-21.484375
9139,-23.437500
9140,-25.390625
9141,-29.296875
9142,-29.296875
9143,-31.250000
9144,-35.156250
9145,-37.109375
9146,-39.062500
9147,-41.015625
9148,-42.968750
9149,-44.921875
9150,-46.875000
9151,-48.828125
9152,-50.781250
9153,-52.734375
9154,-54.687500
9155,-56.640625
9156,-58.593750
9157,-58.593750
9158,-60.546875
9159,-62.500000
9160,-64.453125
9161,-66.406250
9162,-68.359375
9163,-70.312500
9164,-72.265625
9165,-74.218750
9166,-74.218750
9167,-76.171875
9168,-78.125000
9169,-78.125000
9170,-80.078125
9171,-82.031250
9172,-82.031250
9173,-83.984375
9174,-85.937500
9175,-85.937500
9176,-87.890625
9177,-89.843750
9178,-89.843750
9179,-89.843750
9180,-93.750000
9181,-93.750000
9182,-93.750000
9183,-93.750000
9184,-95.703125
9185,-95.703125
9186,-97.656250
9187,-97.656250
9188,-97.656250
9189,-99.609375
9190,-99.609375
9191,-99.609375
9192,-99.609375
9193,-101.562500
9194,-101.562500
9195,-101.562500
9196,-101.562500
9197,-101.562500
9198,-101.562500
9199,-101.562500
9200,-103.515625
9201,-101.562500
9202,-101.562500
9203,-101.562500
9204,-99.609375
9205,-101.562500
9206,-101.562500
9207,-101.562500
9208,-101.562500
9209,-99.609375
9210,-99.609375
9211,-99.609375
9212,-99.609375
9213,-97.656250
9214,-97.656250
9215,-95.703125
9216,-97.656250
9217,-95.703125
9218,-93.750000
9219,-93.750000
9220,-93.750000
9221,-91.796875
9222,-89.843750
9223,-89.843750
9224,-87.890625
9225,-87.890625
9226,-85.937500
9227,-85.937500
9228,-83.984375
9229,-83.984375
9230,-80.078125
9231,-80.078125
9232,-78.125000
9233,-76.171875
9234,-76.171875
9235,-74.218750
9236,-72.265625
9237,-70.312500
9238,-68.359375
9239,-68.359375
9240,-66.406250
9241,-62.500000
9242,-60.546875
9243,-60.546875
9244,-58.593750
9245,-56.640625
9246,-54.687500
9247,-52.734375
9248,-50.781250
9249,-48.828125
9250,-46.875000
9251,-44.921875
9252,-42.968750
9253,-41.015625
9254,-39.062500
9255,-37.109375
9256,-35.156250
9257,-33.203125
9258,-31.250000
9259,-29.296875
9260,-27.343750
9261,-25.390625
9262,-23.437500
9263,-21.484375
9264,-19.531250
9265,-17.578125
9266,-13.671875
9267,-11.718750
9268,-9.765625
9269,-9.765625
9270,-7.812500
9271,-3.906250
9272,-1.953125
9273,0.000000
9274,1.953125
9275,3.906250
9276,5.859375
9277,7.812500
9278,9.765625
9279,11.718750
9280,13.671875
9281,15.625000
9282,17.578125
9283,17.578125
9284,21.484375
9285,23.437500
9286,25.390625
9287,27.343750
9288,29.296875
9289,31.250000
9290,33.203125
9291,33.203125
9292,37.109375
9293,37.109375
9294,39.062500
9295,41.015625
9296,42.968750
9297,44.921875
9298,44.921875
9299,46.875000
9300,48.828125
9301,50.781250
9302,52.734375
9303,54.687500
9304,54.687500
9305,56.640625
9306,58.593750
9307,58.593750
9308,60.546875
9309,62.500000
9310,64.453125
9311,64.453125
9312,66.406250
9313,66.406250
9314,68.359375
9315,68.359375
9316,70.312500
9317,70.312500
9318,72.265625
9319,74.218750
9320,74.218750
9321,74.218750
9322,74.218750
9323,76.171875
9324,76.171875
9325,78.125000
9326,78.125000
9327,78.125000
9328,80.078125
9329,80.078125
9330,80.078125
9331,80.078125
9332,82.031250
9333,82.031250
9334,82.031250
9335,82.031250
9336,83.984375
9337,82.031250
9338,83.984375
9339,82.031250
9340,83.984375
9341,82.031250
9342,83.984375
9343,83.984375
9344,82.031250
9345,82.031250
9346,82.031250
9347,82.031250
9348,82.031250
9349,82.031250
9350,82.031250
9351,82.031250
9352,82.031250
9353,80.078125
9354,80.078125
9355,80.078125
9356,80.078125
9357,78.125000
9358,78.125000
9359,78.125000
9360,76.171875
9361,76.171875
9362,76.171875
9363,76.171875
9364,74.218750
9365,74.218750
9366,72.265625
9367,70.312500
9368,70.312500
9369,70.312500
9370,68.359375
9371,68.359375
9372,66.406250
9373,66.406250
9374,64.453125
9375,62.500000
9376,62.500000
9377,60.546875
9378,58.593750
9379,56.640625
9380,56.640625
9381,54.687500
9382,52.734375
9383,52.734375
9384,50.781250
9385,48.828125
9386,46.875000
9387,46.875000
9388,42.968750
9389,42.968750
9390,41.015625
9391,39.062500
9392,37.109375
9393,35.156250
9394,33.203125
9395,31.250000
9396,29.296875
9397,29.296875
9398,25.390625
9399,23.437500
9400,21.484375
9401,21.484375
9402,19.531250
9403,17.578125
9404,13.671875
9405,13.671875
9406,9.765625
9407,7.812500
9408,5.859375
9409,3.906250
9410,1.953125
9411,0.000000
9412,-1.953125
9413,-3.906250
9414,-5.859375
9415,-7.812500
9416,-9.765625
9417,-11.718750
9418,-13.671875
9419,-15.625000
9420,-17.578125
9421,-19.531250
9422,-21.484375
9423,-25.390625
9424,-25.390625
9425,-29.296875
9426,-31.250000
9427,-31.250000
9428,-35.156250
9429,-37.109375
9430,-39.062500
9431,-41.015625
9432,-42.968750
9433,-44.921875
9434,-44.921875
9435,-46.875000
9436,-50.781250
9437,-52.734375
9438,-52.734375
9439,-54.687500
9440,-56.640625
9441,-58.593750
9442,-60.546875
9443,-62.500000
9444,-64.453125
9445,-66.406250
9446,-68.359375
9447,-70.312500
9448,-72.265625
9449,-72.265625
9450,-74.218750
9451,-76.171875
9452,-76.171875
9453,-78.125000
9454,-80.078125
9455,-82.031250
9456,-82.031250
9457,-83.984375
9458,-85.937500
9459,-85.937500
9460,-87.890625
9461,-87.890625
9462,-89.843750
9463,-91.796875
9464,-91.796875
9465,-93.750000
9466,-93.750000
9467,-95.703125
9468,-95.703125
9469,-95.703125
9470,-97.656250
9471,-97.656250
9472,-99.609375
9473,-99.609375
9474,-99.609375
9475,-99.609375
9476,-99.609375
9477,-101.562500
9478,-101.562500
9479,-101.562500
9480,-101.562500
9481,-103.515625
9482,-101.562500
9483,-101.562500
9484,-101.562500
9485,-101.562500
9486,-101.562500
9487,-101.562500
9488,-101.562500
9489,-101.562500
9490,-101.562500
9491,-101.562500
9492,-99.609375
9493,-99.609375
9494,-99.609375
9495,-99.609375
9496,-97.656250
9497,-97.656250
9498,-97.656250
9499,-97.656250
9500,-95.703125
9501,-95.703125
9502,-95.703125
9503,-93.750000
9504,-91.796875
9505,-91.796875
9506,-89.843750
9507,-89.843750
9508,-87.890625
9509,-87.890625
9510,-85.937500
9511,-83.984375
9512,-82.031250
9513,-82.031250
9514,-80.078125
9515,-80.078125
9516,-78.125000
9517,-76.171875
9518,-74.218750
9519,-74.218750
9520,-72.265625
9521,-70.312500
9522,-70.312500
9523,-68.359375
9524,-66.406250
9525,-64.453125
9526,-62.500000
9527,-60.546875
9528,-58.593750
9529,-56.640625
9530,-54.687500
9531,-52.734375
9532,-50.781250
9533,-48.828125
9534,-46.875000
9535,-44.921875
9536,-42.968750
9537,-42.968750
9538,-39.062500
9539,-37.109375
9540,-35.156250
9541,-35.156250
9542,-31.250000
9543,-29.296875
9544,-27.343750
9545,-25.390625
9546,-23.437500
9547,-21.484375
9548,-19.531250
9549,-17.578125
9550,-15.625000
9551,-13.671875
9552,-11.718750
9553,-9.765625
9554,-7.812500
9555,-5.859375
9556,-3.906250
9557,0.000000
9558,1.953125
9559,1.953125
9560,5.859375
9561,7.812500
9562,9.765625
9563,11.718750
9564,11.718750
9565,15.625000
9566,17.578125
9567,19.531250
9568,21.484375
9569,23.437500
9570,25.390625
9571,27.343750
9572,29.296875
9573,31.250000
9574,33.203125
9575,35.156250
9576,35.156250
9577,37.109375
9578,39.062500
9579,41.015625
9580,42.968750
9581,44.921875
9582,44.921875
9583,48.828125
9584,48.828125
9585,50.781250
9586,50.781250
9587,52.734375
9588,54.687500
9589,56.640625
9590,56.640625
9591,56.640625
9592,60.546875
9593,60.546875
9594,62.500000
9595,64.453125
9596,66.406250
9597,66.406250
9598,68.359375
9599,68.359375
9600,70.312500
9601,70.312500
9602,72.265625
9603,74.218750
9604,72.265625
9605,74.218750
9606,76.171875
9607,76.171875
9608,76.171875
9609,78.125000
9610,78.125000
9611,78.125000
9612,78.125000
9613,80.078125
9614,78.125000
9615,80.078125
9616,82.031250
9617,80.078125
9618,82.031250
9619,82.031250
9620,82.031250
9621,83.984375
9622,82.031250
9623,82.031250
9624,83.984375
9625,82.031250
9626,83.984375
9627,83.984375
9628,83.984375
9629,83.984375
9630,83.984375
9631,83.984375
9632,82.031250
9633,82.031250
9634,82.031250
9635,82.031250
9636,82.031250
9637,82.031250
9638,80.078125
9639,80.078125
9640,80.078125
9641,78.125000
9642,78.125000
9643,78.125000
9644,78.125000
9645,76.171875
9646,76.171875
9647,76.171875
9648,74.218750
9649,74.218750
9650,72.265625
9651,72.265625
9652,70.312500
9653,70.312500
9654,68.359375
9655,68.359375
9656,66.406250
9657,66.406250
9658,64.453125
9659,62.500000
9660,62.500000
9661,60.546875
9662,60.546875
9663,58.593750
9664,56.640625
9665,54.687500
9666,52.734375
9667,52.734375
9668,50.781250
9669,48.828125
9670,46.875000
9671,46.875000
9672,44.921875
9673,42.968750
9674,41.015625
9675,39.062500
9676,37.109375
9677,35.156250
9678,33.203125
9679,31.250000
9680,31.250000
9681,29.296875
9682,27.343750
9683,25.390625
9684,23.437500
9685,23.437500
9686,19.531250
9687,17.578125
9688,15.625000
9689,13.671875
9690,11.718750
9691,9.765625
9692,7.812500
9693,5.859375
9694,3.906250
9695,0.000000
9696,0.000000
9697,-3.906250
9698,-5.859375
9699,-7.812500
9700,-9.765625
9701,-11.718750
9702,-13.671875
9703,-15.625000
9704,-17.578125
9705,-19.531250
9706,-21.484375
9707,-23.437500
9708,-25.390625
9709,-27.343750
9710,-29.296875
9711,-33.203125
9712,-33.203125
9713,-37.109375
9714,-39.062500
9715,-39.062500
9716,-42.968750
9717,-42.968750
9718,-46.875000
9719,-48.828125
9720,-50.781250
9721,-52.734375
9722,-56.640625
9723,-54.687500
9724,-58.593750
9725,-58.593750
9726,-60.546875
9727,-62.500000
9728,-64.453125
9729,-66.406250
9730,-68.359375
9731,-70.312500
9732,-70.312500
9733,-66.406250
9734,-74.218750
9735,-76.171875
9736,-78.125000
9737,-80.078125
9738,-80.078125
9739,-82.031250
9740,-82.031250
9741,-83.984375
9742,-85.937500
9743,-85.937500
9744,-87.890625
9745,-89.843750
9746,-89.843750
9747,-89.843750
9748,-91.796875
9749,-93.750000
9750,-93.750000
9751,-95.703125
9752,-95.703125
9753,-95.703125
9754,-97.656250
9755,-97.656250
9756,-97.656250
9757,-97.656250
9758,-99.609375
9759,-99.609375
9760,-99.609375
9761,-99.609375
9762,-101.562500
9763,-101.562500
9764,-101.562500
9765,-101.562500
9766,-101.562500
9767,-101.562500
9768,-101.562500
9769,-101.562500
9770,-101.562500
9771,-101.562500
9772,-101.562500
9773,-101.562500
9774,-101.562500
9775,-101.562500
9776,-101.562500
9777,-99.609375
9778,-99.609375
9779,-99.609375
9780,-99.609375
9781,-97.656250
9782,-97.656250
9783,-97.656250
9784,-95.703125
9785,-95.703125
9786,-93.750000
9787,-93.750000
9788,-91.796875
9789,-91.796875
9790,-91.796875
9791,-89.843750
9792,-87.890625
9793,-87.890625
9794,-85.937500
9795,-85.937500
9796,-83.984375
9797,-82.031250
9798,-82.031250
9799,-80.078125
9800,-78.125000
9801,-76.171875
9802,-76.171875
9803,-74.218750
9804,-72.265625
9805,-70.312500
9806,-70.312500
9807,-68.359375
9808,-66.406250
9809,-64.453125
9810,-62.500000
9811,-60.546875
9812,-58.593750
9813,-56.640625
9814,-54.687500
9815,-52.734375
9816,-50.781250
9817,-48.828125
9818,-48.828125
9819,-46.875000
9820,-42.968750
9821,-41.015625
9822,-39.062500
9823,-37.109375
9824,-35.156250
9825,-33.203125
9826,-33.203125
9827,-29.296875
9828,-27.343750
9829,-25.390625
9830,-23.437500
9831,-21.484375
9832,-19.531250
9833,-17.578125
9834,-15.625000
9835,-11.718750
9836,-9.765625
9837,-9.765625
9838,-5.859375
9839,-3.906250
9840,-3.906250
9841,-1.953125
9842,0.000000
9843,3.906250
9844,5.859375
9845,7.812500
9846,9.765625
9847,11.718750
9848,13.671875
9849,13.671875
9850,17.578125
9851,19.531250
9852,21.484375
9853,23.437500
9854,25.390625
9855,27.343750
9856,29.296875
9857,29.296875
9858,31.250000
9859,33.203125
9860,37.109375
9861,37.109375
9862,39.062500
9863,41.015625
9864,42.968750
9865,42.968750
9866,46.875000
9867,46.875000
9868,48.828125
9869,48.828125
9870,52.734375
9871,52.734375
9872,54.687500
9873,54.687500
9874,56.640625
9875,58.593750
9876,60.546875
9877,62.500000
9878,62.500000
9879,64.453125
9880,66.406250
9881,66.406250
9882,68.359375
9883,68.359375
9884,70.312500
9885,70.312500
9886,70.312500
9887,72.265625
9888,74.218750
9889,74.218750
9890,74.218750
9891,76.171875
9892,76.171875
9893,76.171875
9894,78.125000
9895,78.125000
9896,80.078125
9897,80.078125
9898,80.078125
9899,80.078125
9900,82.031250
9901,82.031250
9902,82.031250
9903,82.031250
9904,82.031250
9905,83.984375
9906,83.984375
9907,83.984375
9908,83.984375
9909,83.984375
9910,83.984375
9911,83.984375
9912,83.984375
9913,83.984375
9914,82.031250
9915,82.031250
9916,82.031250
9917,82.031250
9918,82.031250
9919,82.031250
9920,82.031250
9921,80.078125
9922,82.031250
9923,78.125000
9924,80.078125
9925,78.125000
9926,78.125000
9927,78.125000
9928,78.125000
9929,76.171875
9930,76.171875
9931,76.171875
9932,74.218750
9933,72.265625
9934,72.265625
9935,72.265625
9936,70.312500
9937,70.312500
9938,68.359375
9939,68.359375
9940,66.406250
9941,64.453125
9942,64.453125
9943,64.453125
9944,60.546875
9945,60.546875
9946,58.593750
9947,58.593750
9948,56.640625
9949,54.687500
9950,52.734375
9951,50.781250
9952,50.781250
9953,48.828125
9954,48.828125
9955,44.921875
9956,44.921875
9957,42.968750
9958,41.015625
9959,39.062500
9960,37.109375
9961,37.109375
9962,33.203125
9963,31.250000
9964,31.250000
9965,29.296875
9966,25.390625
9967,25.390625
9968,23.437500
9969,21.484375
9970,19.531250
9971,17.578125
9972,15.625000
9973,11.718750
9974,13.671875
9975,9.765625
9976,7.812500
9977,3.906250
9978,1.953125
9979,1.953125
9980,0.000000
9981,-3.906250
9982,-5.859375
9983,-7.812500
9984,-9.765625
9985,-11.718750
9986,-13.671875
9987,-15.625000
9988,-17.578125
9989,-19.531250
9990,-21.484375
9991,-23.437500
9992,-25.390625
9993,-29.296875
9994,-29.296875
9995,-33.203125
9996,-35.156250
9997,-35.156250
9998,-37.109375
9999,-39.062500
10000,-42.968750
