Channel              :,CH1
Frequency            :,1.762kHz
Period               :,0.568ms
PK-PK                :,142.6mV
Probe attenuation    :,1X
Voltage per ADC value:,0.122070mV
Time interval        :,2.00000us

index,CH1_Voltage(mV)
1,46.875000
2,46.875000
3,46.875000
4,44.921875
5,42.968750
6,44.921875
7,42.968750
8,41.015625
9,41.015625
10,39.062500
11,39.062500
12,37.109375
13,37.109375
14,35.156250
15,35.156250
16,33.203125
17,31.250000
18,31.250000
19,29.296875
20,27.343750
21,27.343750
22,25.390625
23,23.437500
24,23.437500
25,21.484375
26,19.531250
27,19.531250
28,17.578125
29,15.625000
30,15.625000
31,13.671875
32,11.718750
33,9.765625
34,9.765625
35,7.812500
36,5.859375
37,3.906250
38,1.953125
39,1.953125
40,0.000000
41,-1.953125
42,-1.953125
43,-3.906250
44,-5.859375
45,-7.812500
46,-9.765625
47,-9.765625
48,-11.718750
49,-13.671875
50,-15.625000
51,-17.578125
52,-17.578125
53,-19.531250
54,-21.484375
55,-23.437500
56,-23.437500
57,-25.390625
58,-27.343750
59,-29.296875
60,-29.296875
61,-31.250000
62,-33.203125
63,-33.203125
64,-35.156250
65,-37.109375
66,-39.062500
67,-39.062500
68,-41.015625
69,-42.968750
70,-42.968750
71,-44.921875
72,-46.875000
73,-46.875000
74,-48.828125
75,-50.781250
76,-50.781250
77,-52.734375
78,-52.734375
79,-54.687500
80,-56.640625
81,-56.640625
82,-56.640625
83,-58.593750
84,-60.546875
85,-60.546875
86,-60.546875
87,-62.500000
88,-62.500000
89,-64.453125
90,-64.453125
91,-66.406250
92,-66.406250
93,-68.359375
94,-68.359375
95,-68.359375
96,-70.312500
97,-70.312500
98,-70.312500
99,-72.265625
100,-72.265625
101,-72.265625
102,-72.265625
103,-72.265625
104,-74.218750
105,-74.218750
106,-74.218750
107,-74.218750
108,-76.171875
109,-76.171875
110,-74.218750
111,-76.171875
112,-74.218750
113,-76.171875
114,-70.312500
115,-76.171875
116,-76.171875
117,-76.171875
118,-76.171875
119,-74.218750
120,-74.218750
121,-74.218750
122,-74.218750
123,-74.218750
124,-74.218750
125,-74.218750
126,-72.265625
127,-72.265625
128,-72.265625
129,-72.265625
130,-70.312500
131,-70.312500
132,-70.312500
133,-68.359375
134,-68.359375
135,-68.359375
136,-66.406250
137,-66.406250
138,-66.406250
139,-64.453125
140,-62.500000
141,-62.500000
142,-62.500000
143,-60.546875
144,-58.593750
145,-58.593750
146,-56.640625
147,-56.640625
148,-56.640625
149,-54.687500
150,-52.734375
151,-52.734375
152,-50.781250
153,-50.781250
154,-48.828125
155,-46.875000
156,-44.921875
157,-44.921875
158,-42.968750
159,-42.968750
160,-41.015625
161,-41.015625
162,-39.062500
163,-37.109375
164,-35.156250
165,-33.203125
166,-33.203125
167,-31.250000
168,-29.296875
169,-29.296875
170,-27.343750
171,-25.390625
172,-25.390625
173,-21.484375
174,-21.484375
175,-19.531250
176,-17.578125
177,-17.578125
178,-15.625000
179,-13.671875
180,-11.718750
181,-9.765625
182,-9.765625
183,-7.812500
184,-5.859375
185,-5.859375
186,-3.906250
187,-1.953125
188,0.000000
189,0.000000
190,1.953125
191,3.906250
192,5.859375
193,5.859375
194,7.812500
195,9.765625
196,11.718750
197,11.718750
198,13.671875
199,15.625000
200,17.578125
201,17.578125
202,19.531250
203,21.484375
204,21.484375
205,23.437500
206,25.390625
207,25.390625
208,27.343750
209,29.296875
210,29.296875
211,31.250000
212,33.203125
213,33.203125
214,35.156250
215,37.109375
216,37.109375
217,37.109375
218,39.062500
219,41.015625
220,41.015625
221,41.015625
222,42.968750
223,44.921875
224,44.921875
225,46.875000
226,46.875000
227,46.875000
228,48.828125
229,50.781250
230,50.781250
231,50.781250
232,50.781250
233,54.687500
234,52.734375
235,52.734375
236,54.687500
237,54.687500
238,54.687500
239,54.687500
240,56.640625
241,56.640625
242,56.640625
243,56.640625
244,56.640625
245,58.593750
246,58.593750
247,58.593750
248,58.593750
249,58.593750
250,58.593750
251,60.546875
252,60.546875
253,60.546875
254,60.546875
255,58.593750
256,60.546875
257,60.546875
258,60.546875
259,58.593750
260,60.546875
261,60.546875
262,60.546875
263,60.546875
264,58.593750
265,58.593750
266,58.593750
267,58.593750
268,58.593750
269,56.640625
270,56.640625
271,56.640625
272,56.640625
273,56.640625
274,54.687500
275,56.640625
276,54.687500
277,54.687500
278,52.734375
279,52.734375
280,52.734375
281,52.734375
282,50.781250
283,48.828125
284,48.828125
285,48.828125
286,46.875000
287,46.875000
288,44.921875
289,44.921875
290,42.968750
291,42.968750
292,41.015625
293,41.015625
294,39.062500
295,39.062500
296,37.109375
297,37.109375
298,35.156250
299,33.203125
300,33.203125
301,31.250000
302,29.296875
303,29.296875
304,27.343750
305,27.343750
306,25.390625
307,25.390625
308,23.437500
309,21.484375
310,19.531250
311,19.531250
312,17.578125
313,15.625000
314,13.671875
315,13.671875
316,11.718750
317,9.765625
318,7.812500
319,7.812500
320,5.859375
321,3.906250
322,1.953125
323,1.953125
324,0.000000
325,-1.953125
326,-1.953125
327,-3.906250
328,-5.859375
329,-7.812500
330,-9.765625
331,-9.765625
332,-11.718750
333,-13.671875
334,-15.625000
335,-15.625000
336,-17.578125
337,-19.531250
338,-19.531250
339,-21.484375
340,-23.437500
341,-25.390625
342,-25.390625
343,-27.343750
344,-29.296875
345,-31.250000
346,-33.203125
347,-33.203125
348,-35.156250
349,-37.109375
350,-39.062500
351,-39.062500
352,-41.015625
353,-42.968750
354,-42.968750
355,-44.921875
356,-46.875000
357,-46.875000
358,-48.828125
359,-50.781250
360,-50.781250
361,-52.734375
362,-54.687500
363,-54.687500
364,-54.687500
365,-56.640625
366,-58.593750
367,-58.593750
368,-60.546875
369,-60.546875
370,-62.500000
371,-62.500000
372,-64.453125
373,-64.453125
374,-66.406250
375,-66.406250
376,-66.406250
377,-66.406250
378,-68.359375
379,-68.359375
380,-70.312500
381,-70.312500
382,-70.312500
383,-72.265625
384,-72.265625
385,-72.265625
386,-72.265625
387,-74.218750
388,-74.218750
389,-74.218750
390,-74.218750
391,-74.218750
392,-74.218750
393,-74.218750
394,-76.171875
395,-76.171875
396,-74.218750
397,-76.171875
398,-76.171875
399,-74.218750
400,-76.171875
401,-76.171875
402,-74.218750
403,-74.218750
404,-74.218750
405,-74.218750
406,-76.171875
407,-74.218750
408,-74.218750
409,-72.265625
410,-72.265625
411,-70.312500
412,-72.265625
413,-72.265625
414,-70.312500
415,-70.312500
416,-70.312500
417,-66.406250
418,-68.359375
419,-68.359375
420,-66.406250
421,-66.406250
422,-64.453125
423,-64.453125
424,-64.453125
425,-62.500000
426,-62.500000
427,-60.546875
428,-60.546875
429,-58.593750
430,-58.593750
431,-56.640625
432,-56.640625
433,-54.687500
434,-52.734375
435,-52.734375
436,-52.734375
437,-48.828125
438,-48.828125
439,-48.828125
440,-46.875000
441,-44.921875
442,-42.968750
443,-41.015625
444,-41.015625
445,-41.015625
446,-39.062500
447,-37.109375
448,-37.109375
449,-35.156250
450,-33.203125
451,-31.250000
452,-29.296875
453,-29.296875
454,-27.343750
455,-25.390625
456,-25.390625
457,-23.437500
458,-21.484375
459,-19.531250
460,-17.578125
461,-17.578125
462,-15.625000
463,-13.671875
464,-11.718750
465,-9.765625
466,-9.765625
467,-7.812500
468,-5.859375
469,-3.906250
470,-3.906250
471,-1.953125
472,0.000000
473,1.953125
474,1.953125
475,3.906250
476,5.859375
477,7.812500
478,7.812500
479,9.765625
480,11.718750
481,13.671875
482,13.671875
483,15.625000
484,17.578125
485,17.578125
486,19.531250
487,21.484375
488,21.484375
489,23.437500
490,25.390625
491,25.390625
492,27.343750
493,29.296875
494,29.296875
495,31.250000
496,33.203125
497,33.203125
498,35.156250
499,35.156250
500,37.109375
501,39.062500
502,39.062500
503,41.015625
504,41.015625
505,41.015625
506,42.968750
507,42.968750
508,44.921875
509,44.921875
510,46.875000
511,48.828125
512,48.828125
513,48.828125
514,48.828125
515,50.781250
516,50.781250
517,52.734375
518,52.734375
519,52.734375
520,54.687500
521,54.687500
522,54.687500
523,56.640625
524,56.640625
525,56.640625
526,56.640625
527,56.640625
528,58.593750
529,56.640625
530,58.593750
531,58.593750
532,58.593750
533,58.593750
534,58.593750
535,60.546875
536,60.546875
537,60.546875
538,60.546875
539,60.546875
540,60.546875
541,60.546875
542,60.546875
543,60.546875
544,60.546875
545,60.546875
546,60.546875
547,60.546875
548,60.546875
549,58.593750
550,58.593750
551,58.593750
552,58.593750
553,56.640625
554,58.593750
555,56.640625
556,58.593750
557,56.640625
558,54.687500
559,54.687500
560,54.687500
561,54.687500
562,52.734375
563,52.734375
564,52.734375
565,50.781250
566,50.781250
567,48.828125
568,48.828125
569,48.828125
570,46.875000
571,46.875000
572,44.921875
573,44.921875
574,42.968750
575,42.968750
576,41.015625
577,41.015625
578,39.062500
579,39.062500
580,37.109375
581,37.109375
582,35.156250
583,33.203125
584,33.203125
585,33.203125
586,31.250000
587,29.296875
588,27.343750
589,27.343750
590,25.390625
591,25.390625
592,23.437500
593,21.484375
594,21.484375
595,19.531250
596,17.578125
597,17.578125
598,15.625000
599,13.671875
600,11.718750
601,11.718750
602,9.765625
603,7.812500
604,7.812500
605,5.859375
606,3.906250
607,1.953125
608,0.000000
609,-1.953125
610,-1.953125
611,-3.906250
612,-5.859375
613,-7.812500
614,-7.812500
615,-9.765625
616,-11.718750
617,-13.671875
618,-15.625000
619,-17.578125
620,-17.578125
621,-17.578125
622,-21.484375
623,-21.484375
624,-23.437500
625,-25.390625
626,-27.343750
627,-27.343750
628,-29.296875
629,-31.250000
630,-33.203125
631,-33.203125
632,-35.156250
633,-37.109375
634,-37.109375
635,-39.062500
636,-41.015625
637,-42.968750
638,-42.968750
639,-44.921875
640,-46.875000
641,-46.875000
642,-48.828125
643,-48.828125
644,-50.781250
645,-50.781250
646,-52.734375
647,-54.687500
648,-56.640625
649,-56.640625
650,-58.593750
651,-58.593750
652,-58.593750
653,-60.546875
654,-60.546875
655,-62.500000
656,-64.453125
657,-62.500000
658,-66.406250
659,-66.406250
660,-66.406250
661,-66.406250
662,-68.359375
663,-68.359375
664,-68.359375
665,-70.312500
666,-70.312500
667,-70.312500
668,-72.265625
669,-72.265625
670,-72.265625
671,-72.265625
672,-72.265625
673,-74.218750
674,-74.218750
675,-74.218750
676,-74.218750
677,-74.218750
678,-74.218750
679,-76.171875
680,-76.171875
681,-76.171875
682,-76.171875
683,-78.125000
684,-74.218750
685,-74.218750
686,-74.218750
687,-74.218750
688,-74.218750
689,-74.218750
690,-74.218750
691,-74.218750
692,-74.218750
693,-72.265625
694,-72.265625
695,-72.265625
696,-72.265625
697,-72.265625
698,-70.312500
699,-70.312500
700,-70.312500
701,-68.359375
702,-68.359375
703,-68.359375
704,-66.406250
705,-66.406250
706,-66.406250
707,-64.453125
708,-64.453125
709,-62.500000
710,-62.500000
711,-60.546875
712,-60.546875
713,-58.593750
714,-58.593750
715,-56.640625
716,-56.640625
717,-54.687500
718,-52.734375
719,-52.734375
720,-50.781250
721,-50.781250
722,-48.828125
723,-48.828125
724,-46.875000
725,-44.921875
726,-42.968750
727,-42.968750
728,-41.015625
729,-39.062500
730,-39.062500
731,-37.109375
732,-37.109375
733,-33.203125
734,-33.203125
735,-31.250000
736,-29.296875
737,-29.296875
738,-27.343750
739,-25.390625
740,-23.437500
741,-23.437500
742,-21.484375
743,-19.531250
744,-17.578125
745,-17.578125
746,-15.625000
747,-13.671875
748,-13.671875
749,-9.765625
750,-9.765625
751,-7.812500
752,-5.859375
753,-5.859375
754,-3.906250
755,-1.953125
756,0.000000
757,0.000000
758,3.906250
759,3.906250
760,5.859375
761,7.812500
762,7.812500
763,9.765625
764,11.718750
765,11.718750
766,13.671875
767,15.625000
768,15.625000
769,17.578125
770,19.531250
771,21.484375
772,21.484375
773,23.437500
774,25.390625
775,25.390625
776,27.343750
777,29.296875
778,29.296875
779,31.250000
780,33.203125
781,33.203125
782,35.156250
783,35.156250
784,37.109375
785,37.109375
786,39.062500
787,41.015625
788,41.015625
789,42.968750
790,42.968750
791,42.968750
792,44.921875
793,44.921875
794,46.875000
795,46.875000
796,48.828125
797,48.828125
798,50.781250
799,50.781250
800,50.781250
801,52.734375
802,52.734375
803,52.734375
804,52.734375
805,54.687500
806,56.640625
807,54.687500
808,56.640625
809,56.640625
810,56.640625
811,58.593750
812,58.593750
813,58.593750
814,58.593750
815,58.593750
816,58.593750
817,60.546875
818,60.546875
819,58.593750
820,58.593750
821,60.546875
822,60.546875
823,60.546875
824,60.546875
825,60.546875
826,60.546875
827,60.546875
828,60.546875
829,60.546875
830,58.593750
831,60.546875
832,58.593750
833,58.593750
834,54.687500
835,58.593750
836,58.593750
837,58.593750
838,56.640625
839,56.640625
840,56.640625
841,56.640625
842,56.640625
843,54.687500
844,54.687500
845,54.687500
846,52.734375
847,52.734375
848,52.734375
849,50.781250
850,50.781250
851,50.781250
852,48.828125
853,48.828125
854,48.828125
855,46.875000
856,46.875000
857,44.921875
858,42.968750
859,42.968750
860,41.015625
861,41.015625
862,41.015625
863,39.062500
864,37.109375
865,37.109375
866,35.156250
867,35.156250
868,33.203125
869,31.250000
870,31.250000
871,29.296875
872,29.296875
873,27.343750
874,27.343750
875,23.437500
876,23.437500
877,21.484375
878,21.484375
879,19.531250
880,17.578125
881,15.625000
882,15.625000
883,15.625000
884,13.671875
885,9.765625
886,9.765625
887,7.812500
888,5.859375
889,3.906250
890,3.906250
891,3.906250
892,0.000000
893,-1.953125
894,-1.953125
895,-3.906250
896,-5.859375
897,-7.812500
898,-7.812500
899,-9.765625
900,-11.718750
901,-13.671875
902,-15.625000
903,-15.625000
904,-17.578125
905,-19.531250
906,-21.484375
907,-21.484375
908,-23.437500
909,-25.390625
910,-25.390625
911,-27.343750
912,-29.296875
913,-31.250000
914,-33.203125
915,-33.203125
916,-35.156250
917,-37.109375
918,-39.062500
919,-39.062500
920,-39.062500
921,-41.015625
922,-42.968750
923,-42.968750
924,-44.921875
925,-46.875000
926,-48.828125
927,-48.828125
928,-50.781250
929,-50.781250
930,-52.734375
931,-54.687500
932,-54.687500
933,-56.640625
934,-56.640625
935,-58.593750
936,-58.593750
937,-60.546875
938,-62.500000
939,-62.500000
940,-62.500000
941,-64.453125
942,-66.406250
943,-64.453125
944,-66.406250
945,-68.359375
946,-68.359375
947,-68.359375
948,-70.312500
949,-70.312500
950,-70.312500
951,-70.312500
952,-70.312500
953,-72.265625
954,-72.265625
955,-72.265625
956,-74.218750
957,-74.218750
958,-74.218750
959,-74.218750
960,-76.171875
961,-74.218750
962,-74.218750
963,-76.171875
964,-76.171875
965,-74.218750
966,-76.171875
967,-76.171875
968,-76.171875
969,-74.218750
970,-76.171875
971,-76.171875
972,-74.218750
973,-74.218750
974,-74.218750
975,-74.218750
976,-74.218750
977,-72.265625
978,-72.265625
979,-72.265625
980,-72.265625
981,-70.312500
982,-70.312500
983,-70.312500
984,-70.312500
985,-68.359375
986,-68.359375
987,-68.359375
988,-66.406250
989,-66.406250
990,-64.453125
991,-64.453125
992,-64.453125
993,-66.406250
994,-62.500000
995,-60.546875
996,-60.546875
997,-58.593750
998,-58.593750
999,-56.640625
1000,-56.640625
1001,-54.687500
1002,-54.687500
1003,-52.734375
1004,-52.734375
1005,-50.781250
1006,-48.828125
1007,-46.875000
1008,-46.875000
1009,-44.921875
1010,-44.921875
1011,-42.968750
1012,-41.015625
1013,-41.015625
1014,-39.062500
1015,-37.109375
1016,-37.109375
1017,-35.156250
1018,-33.203125
1019,-31.250000
1020,-31.250000
1021,-29.296875
1022,-27.343750
1023,-25.390625
1024,-25.390625
1025,-23.437500
1026,-21.484375
1027,-21.484375
1028,-19.531250
1029,-17.578125
1030,-15.625000
1031,-13.671875
1032,-11.718750
1033,-11.718750
1034,-9.765625
1035,-7.812500
1036,-5.859375
1037,-5.859375
1038,-3.906250
1039,-1.953125
1040,0.000000
1041,0.000000
1042,1.953125
1043,3.906250
1044,5.859375
1045,7.812500
1046,7.812500
1047,9.765625
1048,11.718750
1049,13.671875
1050,13.671875
1051,15.625000
1052,17.578125
1053,17.578125
1054,19.531250
1055,21.484375
1056,23.437500
1057,23.437500
1058,25.390625
1059,25.390625
1060,27.343750
1061,29.296875
1062,29.296875
1063,29.296875
1064,33.203125
1065,33.203125
1066,35.156250
1067,35.156250
1068,37.109375
1069,39.062500
1070,37.109375
1071,39.062500
1072,41.015625
1073,41.015625
1074,42.968750
1075,42.968750
1076,44.921875
1077,44.921875
1078,46.875000
1079,46.875000
1080,46.875000
1081,48.828125
1082,48.828125
1083,50.781250
1084,50.781250
1085,50.781250
1086,52.734375
1087,52.734375
1088,54.687500
1089,54.687500
1090,54.687500
1091,54.687500
1092,54.687500
1093,56.640625
1094,56.640625
1095,56.640625
1096,56.640625
1097,58.593750
1098,58.593750
1099,58.593750
1100,58.593750
1101,58.593750
1102,62.500000
1103,58.593750
1104,60.546875
1105,60.546875
1106,60.546875
1107,58.593750
1108,60.546875
1109,60.546875
1110,60.546875
1111,60.546875
1112,62.500000
1113,60.546875
1114,60.546875
1115,60.546875
1116,58.593750
1117,58.593750
1118,60.546875
1119,58.593750
1120,58.593750
1121,58.593750
1122,58.593750
1123,56.640625
1124,56.640625
1125,56.640625
1126,54.687500
1127,54.687500
1128,54.687500
1129,54.687500
1130,52.734375
1131,52.734375
1132,52.734375
1133,50.781250
1134,50.781250
1135,48.828125
1136,48.828125
1137,48.828125
1138,50.781250
1139,46.875000
1140,44.921875
1141,44.921875
1142,44.921875
1143,42.968750
1144,41.015625
1145,42.968750
1146,39.062500
1147,39.062500
1148,37.109375
1149,37.109375
1150,35.156250
1151,35.156250
1152,33.203125
1153,31.250000
1154,31.250000
1155,29.296875
1156,27.343750
1157,27.343750
1158,25.390625
1159,23.437500
1160,23.437500
1161,21.484375
1162,21.484375
1163,19.531250
1164,19.531250
1165,15.625000
1166,13.671875
1167,13.671875
1168,11.718750
1169,9.765625
1170,9.765625
1171,7.812500
1172,5.859375
1173,5.859375
1174,3.906250
1175,1.953125
1176,0.000000
1177,0.000000
1178,-1.953125
1179,-3.906250
1180,-3.906250
1181,-7.812500
1182,-7.812500
1183,-9.765625
1184,-11.718750
1185,-11.718750
1186,-13.671875
1187,-15.625000
1188,-17.578125
1189,-17.578125
1190,-19.531250
1191,-21.484375
1192,-23.437500
1193,-25.390625
1194,-25.390625
1195,-27.343750
1196,-29.296875
1197,-29.296875
1198,-31.250000
1199,-33.203125
1200,-35.156250
1201,-37.109375
1202,-37.109375
1203,-39.062500
1204,-41.015625
1205,-41.015625
1206,-42.968750
1207,-44.921875
1208,-44.921875
1209,-46.875000
1210,-48.828125
1211,-48.828125
1212,-50.781250
1213,-52.734375
1214,-54.687500
1215,-54.687500
1216,-54.687500
1217,-56.640625
1218,-58.593750
1219,-58.593750
1220,-58.593750
1221,-60.546875
1222,-60.546875
1223,-62.500000
1224,-62.500000
1225,-66.406250
1226,-66.406250
1227,-66.406250
1228,-66.406250
1229,-68.359375
1230,-68.359375
1231,-70.312500
1232,-68.359375
1233,-70.312500
1234,-70.312500
1235,-72.265625
1236,-70.312500
1237,-72.265625
1238,-72.265625
1239,-72.265625
1240,-74.218750
1241,-74.218750
1242,-74.218750
1243,-74.218750
1244,-74.218750
1245,-74.218750
1246,-74.218750
1247,-74.218750
1248,-76.171875
1249,-74.218750
1250,-74.218750
1251,-74.218750
1252,-76.171875
1253,-76.171875
1254,-74.218750
1255,-74.218750
1256,-74.218750
1257,-74.218750
1258,-74.218750
1259,-74.218750
1260,-74.218750
1261,-72.265625
1262,-74.218750
1263,-72.265625
1264,-72.265625
1265,-72.265625
1266,-70.312500
1267,-70.312500
1268,-70.312500
1269,-68.359375
1270,-68.359375
1271,-68.359375
1272,-68.359375
1273,-66.406250
1274,-66.406250
1275,-66.406250
1276,-64.453125
1277,-64.453125
1278,-62.500000
1279,-60.546875
1280,-60.546875
1281,-58.593750
1282,-58.593750
1283,-58.593750
1284,-56.640625
1285,-54.687500
1286,-54.687500
1287,-52.734375
1288,-52.734375
1289,-50.781250
1290,-48.828125
1291,-48.828125
1292,-46.875000
1293,-44.921875
1294,-44.921875
1295,-42.968750
1296,-42.968750
1297,-41.015625
1298,-39.062500
1299,-37.109375
1300,-35.156250
1301,-35.156250
1302,-33.203125
1303,-31.250000
1304,-29.296875
1305,-29.296875
1306,-27.343750
1307,-25.390625
1308,-23.437500
1309,-23.437500
1310,-21.484375
1311,-21.484375
1312,-17.578125
1313,-17.578125
1314,-15.625000
1315,-15.625000
1316,-11.718750
1317,-11.718750
1318,-7.812500
1319,-7.812500
1320,-7.812500
1321,-5.859375
1322,-3.906250
1323,-5.859375
1324,-1.953125
1325,1.953125
1326,1.953125
1327,3.906250
1328,5.859375
1329,5.859375
1330,7.812500
1331,9.765625
1332,11.718750
1333,11.718750
1334,13.671875
1335,15.625000
1336,15.625000
1337,17.578125
1338,19.531250
1339,21.484375
1340,21.484375
1341,23.437500
1342,23.437500
1343,25.390625
1344,27.343750
1345,27.343750
1346,29.296875
1347,31.250000
1348,31.250000
1349,33.203125
1350,33.203125
1351,35.156250
1352,35.156250
1353,37.109375
1354,39.062500
1355,39.062500
1356,39.062500
1357,41.015625
1358,42.968750
1359,42.968750
1360,44.921875
1361,44.921875
1362,46.875000
1363,46.875000
1364,48.828125
1365,48.828125
1366,50.781250
1367,50.781250
1368,50.781250
1369,50.781250
1370,52.734375
1371,52.734375
1372,54.687500
1373,54.687500
1374,54.687500
1375,54.687500
1376,56.640625
1377,56.640625
1378,56.640625
1379,56.640625
1380,58.593750
1381,58.593750
1382,58.593750
1383,58.593750
1384,58.593750
1385,58.593750
1386,58.593750
1387,60.546875
1388,60.546875
1389,60.546875
1390,60.546875
1391,58.593750
1392,60.546875
1393,60.546875
1394,60.546875
1395,60.546875
1396,58.593750
1397,60.546875
1398,60.546875
1399,58.593750
1400,56.640625
1401,58.593750
1402,58.593750
1403,58.593750
1404,58.593750
1405,58.593750
1406,56.640625
1407,56.640625
1408,56.640625
1409,54.687500
1410,56.640625
1411,54.687500
1412,54.687500
1413,54.687500
1414,52.734375
1415,52.734375
1416,52.734375
1417,50.781250
1418,50.781250
1419,48.828125
1420,48.828125
1421,48.828125
1422,46.875000
1423,46.875000
1424,46.875000
1425,44.921875
1426,42.968750
1427,42.968750
1428,42.968750
1429,41.015625
1430,41.015625
1431,39.062500
1432,39.062500
1433,37.109375
1434,37.109375
1435,35.156250
1436,33.203125
1437,33.203125
1438,31.250000
1439,31.250000
1440,29.296875
1441,27.343750
1442,25.390625
1443,25.390625
1444,23.437500
1445,19.531250
1446,21.484375
1447,19.531250
1448,17.578125
1449,17.578125
1450,15.625000
1451,13.671875
1452,11.718750
1453,11.718750
1454,9.765625
1455,7.812500
1456,7.812500
1457,3.906250
1458,3.906250
1459,1.953125
1460,0.000000
1461,0.000000
1462,-3.906250
1463,-1.953125
1464,-5.859375
1465,-7.812500
1466,-7.812500
1467,-9.765625
1468,-11.718750
1469,-13.671875
1470,-13.671875
1471,-15.625000
1472,-17.578125
1473,-17.578125
1474,-21.484375
1475,-21.484375
1476,-23.437500
1477,-25.390625
1478,-27.343750
1479,-27.343750
1480,-29.296875
1481,-31.250000
1482,-31.250000
1483,-33.203125
1484,-35.156250
1485,-37.109375
1486,-37.109375
1487,-39.062500
1488,-41.015625
1489,-41.015625
1490,-42.968750
1491,-44.921875
1492,-44.921875
1493,-46.875000
1494,-48.828125
1495,-48.828125
1496,-50.781250
1497,-50.781250
1498,-52.734375
1499,-54.687500
1500,-54.687500
1501,-56.640625
1502,-56.640625
1503,-58.593750
1504,-58.593750
1505,-60.546875
1506,-60.546875
1507,-62.500000
1508,-62.500000
1509,-64.453125
1510,-64.453125
1511,-66.406250
1512,-66.406250
1513,-66.406250
1514,-66.406250
1515,-68.359375
1516,-70.312500
1517,-70.312500
1518,-70.312500
1519,-70.312500
1520,-72.265625
1521,-72.265625
1522,-72.265625
1523,-74.218750
1524,-74.218750
1525,-74.218750
1526,-74.218750
1527,-74.218750
1528,-74.218750
1529,-74.218750
1530,-74.218750
1531,-74.218750
1532,-76.171875
1533,-76.171875
1534,-76.171875
1535,-76.171875
1536,-76.171875
1537,-76.171875
1538,-76.171875
1539,-76.171875
1540,-76.171875
1541,-76.171875
1542,-74.218750
1543,-74.218750
1544,-74.218750
1545,-72.265625
1546,-72.265625
1547,-72.265625
1548,-72.265625
1549,-72.265625
1550,-72.265625
1551,-70.312500
1552,-70.312500
1553,-70.312500
1554,-68.359375
1555,-68.359375
1556,-68.359375
1557,-66.406250
1558,-66.406250
1559,-64.453125
1560,-64.453125
1561,-62.500000
1562,-62.500000
1563,-60.546875
1564,-60.546875
1565,-60.546875
1566,-58.593750
1567,-56.640625
1568,-56.640625
1569,-54.687500
1570,-52.734375
1571,-52.734375
1572,-50.781250
1573,-50.781250
1574,-48.828125
1575,-48.828125
1576,-46.875000
1577,-46.875000
1578,-44.921875
1579,-42.968750
1580,-41.015625
1581,-41.015625
1582,-39.062500
1583,-37.109375
1584,-37.109375
1585,-35.156250
1586,-33.203125
1587,-33.203125
1588,-31.250000
1589,-29.296875
1590,-27.343750
1591,-27.343750
1592,-25.390625
1593,-23.437500
1594,-23.437500
1595,-21.484375
1596,-19.531250
1597,-17.578125
1598,-15.625000
1599,-15.625000
1600,-13.671875
1601,-11.718750
1602,-9.765625
1603,-7.812500
1604,-7.812500
1605,-5.859375
1606,-3.906250
1607,-1.953125
1608,-1.953125
1609,0.000000
1610,1.953125
1611,3.906250
1612,5.859375
1613,5.859375
1614,7.812500
1615,9.765625
1616,11.718750
1617,11.718750
1618,13.671875
1619,13.671875
1620,15.625000
1621,17.578125
1622,19.531250
1623,19.531250
1624,21.484375
1625,23.437500
1626,23.437500
1627,25.390625
1628,27.343750
1629,27.343750
1630,29.296875
1631,31.250000
1632,31.250000
1633,33.203125
1634,35.156250
1635,35.156250
1636,37.109375
1637,37.109375
1638,39.062500
1639,39.062500
1640,41.015625
1641,41.015625
1642,42.968750
1643,46.875000
1644,42.968750
1645,44.921875
1646,46.875000
1647,46.875000
1648,48.828125
1649,48.828125
1650,48.828125
1651,48.828125
1652,50.781250
1653,50.781250
1654,52.734375
1655,52.734375
1656,54.687500
1657,54.687500
1658,54.687500
1659,54.687500
1660,56.640625
1661,56.640625
1662,58.593750
1663,56.640625
1664,56.640625
1665,58.593750
1666,56.640625
1667,58.593750
1668,58.593750
1669,58.593750
1670,58.593750
1671,60.546875
1672,60.546875
1673,60.546875
1674,60.546875
1675,58.593750
1676,60.546875
1677,60.546875
1678,60.546875
1679,58.593750
1680,60.546875
1681,60.546875
1682,58.593750
1683,60.546875
1684,58.593750
1685,58.593750
1686,58.593750
1687,58.593750
1688,58.593750
1689,58.593750
1690,56.640625
1691,56.640625
1692,56.640625
1693,56.640625
1694,54.687500
1695,54.687500
1696,54.687500
1697,54.687500
1698,54.687500
1699,52.734375
1700,54.687500
1701,50.781250
1702,50.781250
1703,50.781250
1704,48.828125
1705,48.828125
1706,46.875000
1707,46.875000
1708,44.921875
1709,46.875000
1710,44.921875
1711,42.968750
1712,42.968750
1713,41.015625
1714,41.015625
1715,39.062500
1716,37.109375
1717,37.109375
1718,35.156250
1719,35.156250
1720,33.203125
1721,31.250000
1722,31.250000
1723,31.250000
1724,29.296875
1725,27.343750
1726,27.343750
1727,25.390625
1728,23.437500
1729,21.484375
1730,19.531250
1731,19.531250
1732,17.578125
1733,17.578125
1734,15.625000
1735,13.671875
1736,11.718750
1737,9.765625
1738,9.765625
1739,7.812500
1740,5.859375
1741,5.859375
1742,3.906250
1743,5.859375
1744,0.000000
1745,0.000000
1746,-1.953125
1747,-3.906250
1748,-5.859375
1749,-7.812500
1750,-7.812500
1751,-9.765625
1752,-11.718750
1753,-11.718750
1754,-13.671875
1755,-15.625000
1756,-15.625000
1757,-19.531250
1758,-19.531250
1759,-21.484375
1760,-21.484375
1761,-25.390625
1762,-25.390625
1763,-27.343750
1764,-29.296875
1765,-29.296875
1766,-31.250000
1767,-33.203125
1768,-35.156250
1769,-35.156250
1770,-37.109375
1771,-39.062500
1772,-39.062500
1773,-41.015625
1774,-42.968750
1775,-44.921875
1776,-44.921875
1777,-46.875000
1778,-46.875000
1779,-48.828125
1780,-50.781250
1781,-50.781250
1782,-52.734375
1783,-52.734375
1784,-54.687500
1785,-56.640625
1786,-56.640625
1787,-58.593750
1788,-58.593750
1789,-60.546875
1790,-60.546875
1791,-62.500000
1792,-64.453125
1793,-64.453125
1794,-64.453125
1795,-66.406250
1796,-66.406250
1797,-68.359375
1798,-68.359375
1799,-68.359375
1800,-70.312500
1801,-70.312500
1802,-70.312500
1803,-70.312500
1804,-70.312500
1805,-72.265625
1806,-72.265625
1807,-74.218750
1808,-74.218750
1809,-74.218750
1810,-74.218750
1811,-74.218750
1812,-74.218750
1813,-74.218750
1814,-76.171875
1815,-74.218750
1816,-76.171875
1817,-74.218750
1818,-76.171875
1819,-74.218750
1820,-76.171875
1821,-74.218750
1822,-74.218750
1823,-74.218750
1824,-74.218750
1825,-74.218750
1826,-74.218750
1827,-74.218750
1828,-74.218750
1829,-74.218750
1830,-72.265625
1831,-72.265625
1832,-72.265625
1833,-70.312500
1834,-70.312500
1835,-70.312500
1836,-70.312500
1837,-68.359375
1838,-68.359375
1839,-68.359375
1840,-68.359375
1841,-66.406250
1842,-64.453125
1843,-64.453125
1844,-64.453125
1845,-60.546875
1846,-62.500000
1847,-62.500000
1848,-60.546875
1849,-60.546875
1850,-58.593750
1851,-58.593750
1852,-56.640625
1853,-54.687500
1854,-54.687500
1855,-52.734375
1856,-52.734375
1857,-50.781250
1858,-50.781250
1859,-48.828125
1860,-46.875000
1861,-46.875000
1862,-44.921875
1863,-42.968750
1864,-42.968750
1865,-41.015625
1866,-39.062500
1867,-37.109375
1868,-37.109375
1869,-39.062500
1870,-35.156250
1871,-33.203125
1872,-31.250000
1873,-29.296875
1874,-27.343750
1875,-27.343750
1876,-25.390625
1877,-23.437500
1878,-23.437500
1879,-19.531250
1880,-19.531250
1881,-17.578125
1882,-15.625000
1883,-13.671875
1884,-13.671875
1885,-13.671875
1886,-9.765625
1887,-7.812500
1888,-5.859375
1889,-5.859375
1890,-3.906250
1891,-1.953125
1892,0.000000
1893,0.000000
1894,1.953125
1895,3.906250
1896,3.906250
1897,5.859375
1898,7.812500
1899,9.765625
1900,9.765625
1901,11.718750
1902,13.671875
1903,15.625000
1904,15.625000
1905,17.578125
1906,19.531250
1907,21.484375
1908,21.484375
1909,23.437500
1910,23.437500
1911,25.390625
1912,25.390625
1913,27.343750
1914,29.296875
1915,31.250000
1916,31.250000
1917,33.203125
1918,35.156250
1919,33.203125
1920,35.156250
1921,37.109375
1922,37.109375
1923,39.062500
1924,41.015625
1925,41.015625
1926,39.062500
1927,42.968750
1928,44.921875
1929,44.921875
1930,44.921875
1931,46.875000
1932,46.875000
1933,48.828125
1934,48.828125
1935,50.781250
1936,50.781250
1937,52.734375
1938,52.734375
1939,52.734375
1940,52.734375
1941,54.687500
1942,54.687500
1943,54.687500
1944,56.640625
1945,54.687500
1946,56.640625
1947,56.640625
1948,56.640625
1949,58.593750
1950,58.593750
1951,58.593750
1952,58.593750
1953,58.593750
1954,60.546875
1955,56.640625
1956,60.546875
1957,60.546875
1958,60.546875
1959,60.546875
1960,60.546875
1961,60.546875
1962,60.546875
1963,60.546875
1964,60.546875
1965,60.546875
1966,60.546875
1967,58.593750
1968,60.546875
1969,60.546875
1970,58.593750
1971,58.593750
1972,58.593750
1973,56.640625
1974,56.640625
1975,56.640625
1976,56.640625
1977,56.640625
1978,56.640625
1979,54.687500
1980,54.687500
1981,54.687500
1982,52.734375
1983,52.734375
1984,52.734375
1985,50.781250
1986,50.781250
1987,50.781250
1988,48.828125
1989,46.875000
1990,46.875000
1991,46.875000
1992,44.921875
1993,44.921875
1994,42.968750
1995,42.968750
1996,41.015625
1997,41.015625
1998,41.015625
1999,39.062500
2000,39.062500
2001,37.109375
2002,35.156250
2003,35.156250
2004,33.203125
2005,33.203125
2006,31.250000
2007,31.250000
2008,29.296875
2009,27.343750
2010,25.390625
2011,25.390625
2012,23.437500
2013,21.484375
2014,21.484375
2015,19.531250
2016,19.531250
2017,17.578125
2018,17.578125
2019,15.625000
2020,11.718750
2021,11.718750
2022,9.765625
2023,7.812500
2024,7.812500
2025,5.859375
2026,3.906250
2027,1.953125
2028,1.953125
2029,0.000000
2030,-1.953125
2031,-3.906250
2032,-5.859375
2033,-5.859375
2034,-7.812500
2035,-9.765625
2036,-9.765625
2037,-11.718750
2038,-11.718750
2039,-15.625000
2040,-17.578125
2041,-17.578125
2042,-19.531250
2043,-21.484375
2044,-23.437500
2045,-25.390625
2046,-25.390625
2047,-27.343750
2048,-29.296875
2049,-31.250000
2050,-31.250000
2051,-33.203125
2052,-35.156250
2053,-37.109375
2054,-37.109375
2055,-39.062500
2056,-41.015625
2057,-41.015625
2058,-42.968750
2059,-44.921875
2060,-46.875000
2061,-46.875000
2062,-46.875000
2063,-48.828125
2064,-50.781250
2065,-52.734375
2066,-52.734375
2067,-54.687500
2068,-54.687500
2069,-56.640625
2070,-56.640625
2071,-58.593750
2072,-58.593750
2073,-60.546875
2074,-62.500000
2075,-62.500000
2076,-62.500000
2077,-62.500000
2078,-64.453125
2079,-66.406250
2080,-66.406250
2081,-68.359375
2082,-66.406250
2083,-68.359375
2084,-68.359375
2085,-70.312500
2086,-70.312500
2087,-70.312500
2088,-70.312500
2089,-72.265625
2090,-72.265625
2091,-72.265625
2092,-72.265625
2093,-74.218750
2094,-74.218750
2095,-74.218750
2096,-74.218750
2097,-74.218750
2098,-76.171875
2099,-76.171875
2100,-74.218750
2101,-74.218750
2102,-76.171875
2103,-76.171875
2104,-76.171875
2105,-74.218750
2106,-76.171875
2107,-74.218750
2108,-74.218750
2109,-74.218750
2110,-74.218750
2111,-74.218750
2112,-74.218750
2113,-74.218750
2114,-74.218750
2115,-74.218750
2116,-72.265625
2117,-72.265625
2118,-72.265625
2119,-70.312500
2120,-70.312500
2121,-64.453125
2122,-68.359375
2123,-68.359375
2124,-66.406250
2125,-66.406250
2126,-66.406250
2127,-64.453125
2128,-64.453125
2129,-64.453125
2130,-62.500000
2131,-62.500000
2132,-60.546875
2133,-60.546875
2134,-58.593750
2135,-58.593750
2136,-56.640625
2137,-54.687500
2138,-54.687500
2139,-54.687500
2140,-52.734375
2141,-50.781250
2142,-48.828125
2143,-46.875000
2144,-46.875000
2145,-46.875000
2146,-44.921875
2147,-42.968750
2148,-41.015625
2149,-41.015625
2150,-41.015625
2151,-39.062500
2152,-37.109375
2153,-35.156250
2154,-33.203125
2155,-33.203125
2156,-31.250000
2157,-29.296875
2158,-29.296875
2159,-27.343750
2160,-25.390625
2161,-23.437500
2162,-21.484375
2163,-21.484375
2164,-17.578125
2165,-17.578125
2166,-15.625000
2167,-13.671875
2168,-13.671875
2169,-11.718750
2170,-9.765625
2171,-7.812500
2172,-7.812500
2173,-5.859375
2174,-3.906250
2175,-3.906250
2176,-1.953125
2177,0.000000
2178,1.953125
2179,3.906250
2180,3.906250
2181,5.859375
2182,7.812500
2183,9.765625
2184,9.765625
2185,11.718750
2186,11.718750
2187,13.671875
2188,15.625000
2189,15.625000
2190,19.531250
2191,19.531250
2192,21.484375
2193,23.437500
2194,23.437500
2195,23.437500
2196,25.390625
2197,27.343750
2198,29.296875
2199,31.250000
2200,31.250000
2201,33.203125
2202,33.203125
2203,35.156250
2204,37.109375
2205,37.109375
2206,39.062500
2207,39.062500
2208,41.015625
2209,41.015625
2210,42.968750
2211,42.968750
2212,44.921875
2213,46.875000
2214,44.921875
2215,46.875000
2216,46.875000
2217,48.828125
2218,48.828125
2219,50.781250
2220,50.781250
2221,50.781250
2222,52.734375
2223,54.687500
2224,52.734375
2225,54.687500
2226,54.687500
2227,54.687500
2228,56.640625
2229,56.640625
2230,56.640625
2231,56.640625
2232,58.593750
2233,58.593750
2234,58.593750
2235,58.593750
2236,58.593750
2237,58.593750
2238,58.593750
2239,58.593750
2240,58.593750
2241,60.546875
2242,60.546875
2243,58.593750
2244,60.546875
2245,60.546875
2246,60.546875
2247,60.546875
2248,60.546875
2249,60.546875
2250,60.546875
2251,58.593750
2252,60.546875
2253,58.593750
2254,58.593750
2255,58.593750
2256,58.593750
2257,58.593750
2258,56.640625
2259,56.640625
2260,56.640625
2261,56.640625
2262,52.734375
2263,54.687500
2264,54.687500
2265,52.734375
2266,52.734375
2267,50.781250
2268,50.781250
2269,52.734375
2270,50.781250
2271,48.828125
2272,44.921875
2273,48.828125
2274,46.875000
2275,46.875000
2276,46.875000
2277,44.921875
2278,42.968750
2279,42.968750
2280,42.968750
2281,41.015625
2282,41.015625
2283,39.062500
2284,39.062500
2285,37.109375
2286,35.156250
2287,35.156250
2288,33.203125
2289,33.203125
2290,31.250000
2291,29.296875
2292,29.296875
2293,29.296875
2294,23.437500
2295,25.390625
2296,21.484375
2297,21.484375
2298,21.484375
2299,19.531250
2300,17.578125
2301,17.578125
2302,15.625000
2303,13.671875
2304,13.671875
2305,11.718750
2306,9.765625
2307,7.812500
2308,5.859375
2309,5.859375
2310,3.906250
2311,1.953125
2312,0.000000
2313,0.000000
2314,-3.906250
2315,-3.906250
2316,-5.859375
2317,-7.812500
2318,-7.812500
2319,-9.765625
2320,-11.718750
2321,-11.718750
2322,-13.671875
2323,-15.625000
2324,-17.578125
2325,-17.578125
2326,-19.531250
2327,-21.484375
2328,-23.437500
2329,-25.390625
2330,-27.343750
2331,-27.343750
2332,-27.343750
2333,-31.250000
2334,-31.250000
2335,-33.203125
2336,-35.156250
2337,-35.156250
2338,-37.109375
2339,-39.062500
2340,-39.062500
2341,-41.015625
2342,-42.968750
2343,-44.921875
2344,-44.921875
2345,-46.875000
2346,-46.875000
2347,-48.828125
2348,-50.781250
2349,-50.781250
2350,-52.734375
2351,-54.687500
2352,-54.687500
2353,-56.640625
2354,-56.640625
2355,-56.640625
2356,-58.593750
2357,-60.546875
2358,-60.546875
2359,-62.500000
2360,-62.500000
2361,-62.500000
2362,-64.453125
2363,-66.406250
2364,-66.406250
2365,-66.406250
2366,-68.359375
2367,-68.359375
2368,-68.359375
2369,-72.265625
2370,-70.312500
2371,-70.312500
2372,-72.265625
2373,-72.265625
2374,-72.265625
2375,-72.265625
2376,-74.218750
2377,-72.265625
2378,-74.218750
2379,-74.218750
2380,-74.218750
2381,-74.218750
2382,-76.171875
2383,-74.218750
2384,-74.218750
2385,-74.218750
2386,-76.171875
2387,-76.171875
2388,-76.171875
2389,-76.171875
2390,-76.171875
2391,-74.218750
2392,-74.218750
2393,-74.218750
2394,-74.218750
2395,-74.218750
2396,-74.218750
2397,-74.218750
2398,-74.218750
2399,-72.265625
2400,-72.265625
2401,-72.265625
2402,-70.312500
2403,-70.312500
2404,-70.312500
2405,-70.312500
2406,-68.359375
2407,-68.359375
2408,-68.359375
2409,-66.406250
2410,-66.406250
2411,-64.453125
2412,-64.453125
2413,-62.500000
2414,-62.500000
2415,-60.546875
2416,-60.546875
2417,-58.593750
2418,-56.640625
2419,-56.640625
2420,-56.640625
2421,-52.734375
2422,-54.687500
2423,-54.687500
2424,-52.734375
2425,-50.781250
2426,-48.828125
2427,-48.828125
2428,-46.875000
2429,-46.875000
2430,-44.921875
2431,-42.968750
2432,-42.968750
2433,-41.015625
2434,-39.062500
2435,-39.062500
2436,-37.109375
2437,-35.156250
2438,-35.156250
2439,-33.203125
2440,-31.250000
2441,-29.296875
2442,-27.343750
2443,-27.343750
2444,-25.390625
2445,-23.437500
2446,-23.437500
2447,-21.484375
2448,-19.531250
2449,-19.531250
2450,-17.578125
2451,-15.625000
2452,-13.671875
2453,-11.718750
2454,-13.671875
2455,-9.765625
2456,-7.812500
2457,-7.812500
2458,-5.859375
2459,-3.906250
2460,0.000000
2461,0.000000
2462,1.953125
2463,3.906250
2464,5.859375
2465,5.859375
2466,7.812500
2467,9.765625
2468,9.765625
2469,11.718750
2470,13.671875
2471,13.671875
2472,15.625000
2473,17.578125
2474,19.531250
2475,19.531250
2476,21.484375
2477,23.437500
2478,23.437500
2479,25.390625
2480,25.390625
2481,27.343750
2482,29.296875
2483,29.296875
2484,31.250000
2485,33.203125
2486,35.156250
2487,37.109375
2488,37.109375
2489,37.109375
2490,39.062500
2491,39.062500
2492,39.062500
2493,41.015625
2494,41.015625
2495,42.968750
2496,42.968750
2497,44.921875
2498,46.875000
2499,46.875000
2500,46.875000
2501,48.828125
2502,48.828125
2503,50.781250
2504,50.781250
2505,50.781250
2506,50.781250
2507,52.734375
2508,54.687500
2509,52.734375
2510,54.687500
2511,54.687500
2512,54.687500
2513,54.687500
2514,56.640625
2515,56.640625
2516,58.593750
2517,56.640625
2518,58.593750
2519,58.593750
2520,58.593750
2521,58.593750
2522,58.593750
2523,58.593750
2524,60.546875
2525,60.546875
2526,60.546875
2527,60.546875
2528,60.546875
2529,60.546875
2530,60.546875
2531,60.546875
2532,60.546875
2533,60.546875
2534,60.546875
2535,58.593750
2536,60.546875
2537,58.593750
2538,58.593750
2539,58.593750
2540,58.593750
2541,58.593750
2542,56.640625
2543,56.640625
2544,56.640625
2545,56.640625
2546,54.687500
2547,54.687500
2548,54.687500
2549,54.687500
2550,52.734375
2551,52.734375
2552,52.734375
2553,52.734375
2554,50.781250
2555,50.781250
2556,48.828125
2557,48.828125
2558,46.875000
2559,46.875000
2560,44.921875
2561,44.921875
2562,44.921875
2563,42.968750
2564,42.968750
2565,41.015625
2566,39.062500
2567,39.062500
2568,39.062500
2569,37.109375
2570,35.156250
2571,35.156250
2572,33.203125
2573,33.203125
2574,31.250000
2575,31.250000
2576,29.296875
2577,27.343750
2578,27.343750
2579,25.390625
2580,23.437500
2581,23.437500
2582,21.484375
2583,19.531250
2584,19.531250
2585,17.578125
2586,15.625000
2587,13.671875
2588,13.671875
2589,11.718750
2590,9.765625
2591,9.765625
2592,7.812500
2593,5.859375
2594,3.906250
2595,3.906250
2596,1.953125
2597,0.000000
2598,-1.953125
2599,-3.906250
2600,-3.906250
2601,-5.859375
2602,-7.812500
2603,-9.765625
2604,-9.765625
2605,-11.718750
2606,-13.671875
2607,-13.671875
2608,-15.625000
2609,-17.578125
2610,-19.531250
2611,-21.484375
2612,-21.484375
2613,-23.437500
2614,-25.390625
2615,-27.343750
2616,-27.343750
2617,-31.250000
2618,-31.250000
2619,-33.203125
2620,-35.156250
2621,-35.156250
2622,-37.109375
2623,-39.062500
2624,-39.062500
2625,-39.062500
2626,-42.968750
2627,-44.921875
2628,-44.921875
2629,-46.875000
2630,-48.828125
2631,-48.828125
2632,-50.781250
2633,-50.781250
2634,-52.734375
2635,-54.687500
2636,-54.687500
2637,-56.640625
2638,-56.640625
2639,-58.593750
2640,-56.640625
2641,-60.546875
2642,-60.546875
2643,-62.500000
2644,-62.500000
2645,-62.500000
2646,-64.453125
2647,-66.406250
2648,-66.406250
2649,-66.406250
2650,-68.359375
2651,-68.359375
2652,-68.359375
2653,-70.312500
2654,-70.312500
2655,-70.312500
2656,-72.265625
2657,-72.265625
2658,-76.171875
2659,-72.265625
2660,-72.265625
2661,-72.265625
2662,-74.218750
2663,-74.218750
2664,-74.218750
2665,-74.218750
2666,-74.218750
2667,-74.218750
2668,-74.218750
2669,-74.218750
2670,-76.171875
2671,-74.218750
2672,-76.171875
2673,-74.218750
2674,-74.218750
2675,-76.171875
2676,-74.218750
2677,-74.218750
2678,-74.218750
2679,-74.218750
2680,-74.218750
2681,-74.218750
2682,-72.265625
2683,-74.218750
2684,-72.265625
2685,-72.265625
2686,-72.265625
2687,-70.312500
2688,-70.312500
2689,-70.312500
2690,-68.359375
2691,-68.359375
2692,-72.265625
2693,-66.406250
2694,-68.359375
2695,-66.406250
2696,-64.453125
2697,-64.453125
2698,-62.500000
2699,-62.500000
2700,-60.546875
2701,-60.546875
2702,-58.593750
2703,-58.593750
2704,-56.640625
2705,-56.640625
2706,-54.687500
2707,-54.687500
2708,-52.734375
2709,-50.781250
2710,-50.781250
2711,-48.828125
2712,-46.875000
2713,-46.875000
2714,-44.921875
2715,-42.968750
2716,-42.968750
2717,-41.015625
2718,-41.015625
2719,-39.062500
2720,-37.109375
2721,-35.156250
2722,-33.203125
2723,-33.203125
2724,-31.250000
2725,-29.296875
2726,-27.343750
2727,-27.343750
2728,-25.390625
2729,-23.437500
2730,-23.437500
2731,-21.484375
2732,-19.531250
2733,-17.578125
2734,-15.625000
2735,-13.671875
2736,-13.671875
2737,-11.718750
2738,-9.765625
2739,-9.765625
2740,-7.812500
2741,-5.859375
2742,-3.906250
2743,-3.906250
2744,-1.953125
2745,0.000000
2746,1.953125
2747,3.906250
2748,3.906250
2749,5.859375
2750,5.859375
2751,7.812500
2752,9.765625
2753,11.718750
2754,11.718750
2755,13.671875
2756,15.625000
2757,17.578125
2758,17.578125
2759,19.531250
2760,21.484375
2761,21.484375
2762,23.437500
2763,23.437500
2764,27.343750
2765,27.343750
2766,29.296875
2767,29.296875
2768,31.250000
2769,31.250000
2770,33.203125
2771,35.156250
2772,35.156250
2773,37.109375
2774,37.109375
2775,39.062500
2776,39.062500
2777,41.015625
2778,42.968750
2779,42.968750
2780,44.921875
2781,44.921875
2782,46.875000
2783,46.875000
2784,46.875000
2785,48.828125
2786,48.828125
2787,50.781250
2788,50.781250
2789,50.781250
2790,52.734375
2791,52.734375
2792,54.687500
2793,54.687500
2794,54.687500
2795,56.640625
2796,56.640625
2797,56.640625
2798,56.640625
2799,58.593750
2800,56.640625
2801,58.593750
2802,58.593750
2803,58.593750
2804,58.593750
2805,58.593750
2806,60.546875
2807,60.546875
2808,60.546875
2809,60.546875
2810,60.546875
2811,58.593750
2812,60.546875
2813,60.546875
2814,60.546875
2815,60.546875
2816,60.546875
2817,58.593750
2818,60.546875
2819,58.593750
2820,58.593750
2821,58.593750
2822,58.593750
2823,58.593750
2824,58.593750
2825,56.640625
2826,56.640625
2827,56.640625
2828,56.640625
2829,56.640625
2830,56.640625
2831,54.687500
2832,54.687500
2833,54.687500
2834,52.734375
2835,52.734375
2836,52.734375
2837,50.781250
2838,50.781250
2839,48.828125
2840,48.828125
2841,48.828125
2842,48.828125
2843,46.875000
2844,44.921875
2845,42.968750
2846,44.921875
2847,42.968750
2848,42.968750
2849,41.015625
2850,41.015625
2851,39.062500
2852,39.062500
2853,37.109375
2854,37.109375
2855,35.156250
2856,33.203125
2857,33.203125
2858,31.250000
2859,31.250000
2860,29.296875
2861,29.296875
2862,27.343750
2863,25.390625
2864,23.437500
2865,23.437500
2866,21.484375
2867,19.531250
2868,19.531250
2869,17.578125
2870,15.625000
2871,15.625000
2872,13.671875
2873,11.718750
2874,9.765625
2875,9.765625
2876,7.812500
2877,5.859375
2878,3.906250
2879,1.953125
2880,1.953125
2881,0.000000
2882,-1.953125
2883,-1.953125
2884,-3.906250
2885,-5.859375
2886,-7.812500
2887,-9.765625
2888,-9.765625
2889,-11.718750
2890,-13.671875
2891,-15.625000
2892,-17.578125
2893,-17.578125
2894,-19.531250
2895,-21.484375
2896,-21.484375
2897,-23.437500
2898,-25.390625
2899,-27.343750
2900,-29.296875
2901,-29.296875
2902,-31.250000
2903,-33.203125
2904,-35.156250
2905,-35.156250
2906,-33.203125
2907,-39.062500
2908,-41.015625
2909,-41.015625
2910,-42.968750
2911,-41.015625
2912,-42.968750
2913,-46.875000
2914,-46.875000
2915,-48.828125
2916,-48.828125
2917,-50.781250
2918,-52.734375
2919,-52.734375
2920,-54.687500
2921,-56.640625
2922,-56.640625
2923,-56.640625
2924,-58.593750
2925,-58.593750
2926,-60.546875
2927,-60.546875
2928,-62.500000
2929,-64.453125
2930,-64.453125
2931,-64.453125
2932,-68.359375
2933,-66.406250
2934,-68.359375
2935,-68.359375
2936,-70.312500
2937,-68.359375
2938,-70.312500
2939,-70.312500
2940,-70.312500
2941,-72.265625
2942,-72.265625
2943,-72.265625
2944,-74.218750
2945,-74.218750
2946,-74.218750
2947,-74.218750
2948,-74.218750
2949,-74.218750
2950,-76.171875
2951,-74.218750
2952,-76.171875
2953,-76.171875
2954,-74.218750
2955,-76.171875
2956,-76.171875
2957,-76.171875
2958,-76.171875
2959,-76.171875
2960,-74.218750
2961,-76.171875
2962,-74.218750
2963,-74.218750
2964,-74.218750
2965,-74.218750
2966,-74.218750
2967,-72.265625
2968,-72.265625
2969,-72.265625
2970,-72.265625
2971,-70.312500
2972,-70.312500
2973,-70.312500
2974,-68.359375
2975,-68.359375
2976,-66.406250
2977,-66.406250
2978,-62.500000
2979,-64.453125
2980,-68.359375
2981,-64.453125
2982,-62.500000
2983,-62.500000
2984,-60.546875
2985,-60.546875
2986,-58.593750
2987,-56.640625
2988,-56.640625
2989,-56.640625
2990,-54.687500
2991,-52.734375
2992,-52.734375
2993,-50.781250
2994,-50.781250
2995,-48.828125
2996,-46.875000
2997,-44.921875
2998,-44.921875
2999,-42.968750
3000,-42.968750
3001,-41.015625
3002,-39.062500
3003,-39.062500
3004,-37.109375
3005,-35.156250
3006,-35.156250
3007,-33.203125
3008,-31.250000
3009,-29.296875
3010,-29.296875
3011,-27.343750
3012,-25.390625
3013,-23.437500
3014,-21.484375
3015,-21.484375
3016,-19.531250
3017,-19.531250
3018,-15.625000
3019,-13.671875
3020,-13.671875
3021,-11.718750
3022,-11.718750
3023,-9.765625
3024,-7.812500
3025,-5.859375
3026,-3.906250
3027,-3.906250
3028,-1.953125
3029,0.000000
3030,0.000000
3031,1.953125
3032,3.906250
3033,5.859375
3034,5.859375
3035,7.812500
3036,9.765625
3037,11.718750
3038,13.671875
3039,13.671875
3040,15.625000
3041,15.625000
3042,19.531250
3043,19.531250
3044,21.484375
3045,21.484375
3046,23.437500
3047,29.296875
3048,27.343750
3049,27.343750
3050,29.296875
3051,29.296875
3052,31.250000
3053,33.203125
3054,33.203125
3055,35.156250
3056,35.156250
3057,37.109375
3058,39.062500
3059,39.062500
3060,41.015625
3061,41.015625
3062,41.015625
3063,42.968750
3064,44.921875
3065,44.921875
3066,46.875000
3067,46.875000
3068,46.875000
3069,50.781250
3070,48.828125
3071,50.781250
3072,50.781250
3073,50.781250
3074,52.734375
3075,52.734375
3076,52.734375
3077,52.734375
3078,54.687500
3079,54.687500
3080,54.687500
3081,54.687500
3082,56.640625
3083,56.640625
3084,56.640625
3085,56.640625
3086,58.593750
3087,58.593750
3088,58.593750
3089,58.593750
3090,58.593750
3091,58.593750
3092,60.546875
3093,58.593750
3094,58.593750
3095,60.546875
3096,60.546875
3097,58.593750
3098,60.546875
3099,60.546875
3100,60.546875
3101,60.546875
3102,58.593750
3103,60.546875
3104,58.593750
3105,58.593750
3106,58.593750
3107,58.593750
3108,58.593750
3109,58.593750
3110,58.593750
3111,56.640625
3112,56.640625
3113,54.687500
3114,56.640625
3115,54.687500
3116,54.687500
3117,54.687500
3118,54.687500
3119,52.734375
3120,52.734375
3121,52.734375
3122,50.781250
3123,50.781250
3124,48.828125
3125,48.828125
3126,46.875000
3127,46.875000
3128,46.875000
3129,44.921875
3130,42.968750
3131,42.968750
3132,42.968750
3133,41.015625
3134,41.015625
3135,39.062500
3136,39.062500
3137,37.109375
3138,35.156250
3139,35.156250
3140,33.203125
3141,33.203125
3142,31.250000
3143,31.250000
3144,29.296875
3145,27.343750
3146,25.390625
3147,25.390625
3148,23.437500
3149,23.437500
3150,21.484375
3151,19.531250
3152,19.531250
3153,17.578125
3154,15.625000
3155,13.671875
3156,13.671875
3157,11.718750
3158,9.765625
3159,9.765625
3160,7.812500
3161,5.859375
3162,3.906250
3163,3.906250
3164,1.953125
3165,0.000000
3166,-1.953125
3167,-1.953125
3168,-3.906250
3169,-5.859375
3170,-13.671875
3171,-7.812500
3172,-9.765625
3173,-11.718750
3174,-13.671875
3175,-13.671875
3176,-15.625000
3177,-17.578125
3178,-19.531250
3179,-19.531250
3180,-23.437500
3181,-23.437500
3182,-25.390625
3183,-27.343750
3184,-27.343750
3185,-29.296875
3186,-31.250000
3187,-33.203125
3188,-35.156250
3189,-35.156250
3190,-37.109375
3191,-37.109375
3192,-39.062500
3193,-41.015625
3194,-42.968750
3195,-42.968750
3196,-44.921875
3197,-44.921875
3198,-46.875000
3199,-48.828125
3200,-48.828125
3201,-50.781250
3202,-50.781250
3203,-52.734375
3204,-54.687500
3205,-56.640625
3206,-56.640625
3207,-56.640625
3208,-58.593750
3209,-60.546875
3210,-60.546875
3211,-62.500000
3212,-62.500000
3213,-64.453125
3214,-64.453125
3215,-66.406250
3216,-66.406250
3217,-66.406250
3218,-68.359375
3219,-68.359375
3220,-70.312500
3221,-70.312500
3222,-70.312500
3223,-70.312500
3224,-70.312500
3225,-72.265625
3226,-72.265625
3227,-74.218750
3228,-72.265625
3229,-72.265625
3230,-76.171875
3231,-74.218750
3232,-74.218750
3233,-74.218750
3234,-74.218750
3235,-74.218750
3236,-74.218750
3237,-76.171875
3238,-76.171875
3239,-76.171875
3240,-76.171875
3241,-78.125000
3242,-74.218750
3243,-74.218750
3244,-74.218750
3245,-74.218750
3246,-74.218750
3247,-74.218750
3248,-74.218750
3249,-74.218750
3250,-72.265625
3251,-72.265625
3252,-72.265625
3253,-72.265625
3254,-68.359375
3255,-72.265625
3256,-70.312500
3257,-70.312500
3258,-68.359375
3259,-68.359375
3260,-68.359375
3261,-66.406250
3262,-66.406250
3263,-64.453125
3264,-64.453125
3265,-62.500000
3266,-62.500000
3267,-62.500000
3268,-62.500000
3269,-60.546875
3270,-58.593750
3271,-58.593750
3272,-56.640625
3273,-56.640625
3274,-52.734375
3275,-54.687500
3276,-52.734375
3277,-50.781250
3278,-50.781250
3279,-48.828125
3280,-46.875000
3281,-46.875000
3282,-44.921875
3283,-44.921875
3284,-42.968750
3285,-41.015625
3286,-41.015625
3287,-39.062500
3288,-39.062500
3289,-37.109375
3290,-35.156250
3291,-33.203125
3292,-31.250000
3293,-29.296875
3294,-29.296875
3295,-27.343750
3296,-27.343750
3297,-23.437500
3298,-23.437500
3299,-21.484375
3300,-19.531250
3301,-19.531250
3302,-17.578125
3303,-15.625000
3304,-13.671875
3305,-11.718750
3306,-9.765625
3307,-9.765625
3308,-7.812500
3309,-5.859375
3310,-3.906250
3311,-3.906250
3312,-1.953125
3313,0.000000
3314,0.000000
3315,1.953125
3316,3.906250
3317,5.859375
3318,7.812500
3319,7.812500
3320,9.765625
3321,11.718750
3322,13.671875
3323,13.671875
3324,13.671875
3325,17.578125
3326,17.578125
3327,19.531250
3328,21.484375
3329,21.484375
3330,23.437500
3331,23.437500
3332,25.390625
3333,27.343750
3334,29.296875
3335,29.296875
3336,31.250000
3337,33.203125
3338,33.203125
3339,35.156250
3340,35.156250
3341,37.109375
3342,37.109375
3343,39.062500
3344,39.062500
3345,41.015625
3346,41.015625
3347,42.968750
3348,42.968750
3349,44.921875
3350,44.921875
3351,44.921875
3352,46.875000
3353,48.828125
3354,48.828125
3355,48.828125
3356,50.781250
3357,50.781250
3358,54.687500
3359,52.734375
3360,52.734375
3361,52.734375
3362,54.687500
3363,56.640625
3364,54.687500
3365,56.640625
3366,54.687500
3367,56.640625
3368,56.640625
3369,58.593750
3370,56.640625
3371,58.593750
3372,60.546875
3373,58.593750
3374,60.546875
3375,60.546875
3376,58.593750
3377,60.546875
3378,60.546875
3379,60.546875
3380,60.546875
3381,60.546875
3382,60.546875
3383,58.593750
3384,60.546875
3385,60.546875
3386,60.546875
3387,60.546875
3388,60.546875
3389,58.593750
3390,58.593750
3391,58.593750
3392,58.593750
3393,56.640625
3394,58.593750
3395,56.640625
3396,56.640625
3397,54.687500
3398,54.687500
3399,54.687500
3400,54.687500
3401,54.687500
3402,52.734375
3403,52.734375
3404,52.734375
3405,52.734375
3406,50.781250
3407,50.781250
3408,48.828125
3409,48.828125
3410,46.875000
3411,46.875000
3412,46.875000
3413,44.921875
3414,44.921875
3415,44.921875
3416,42.968750
3417,41.015625
3418,41.015625
3419,39.062500
3420,39.062500
3421,37.109375
3422,35.156250
3423,35.156250
3424,35.156250
3425,33.203125
3426,31.250000
3427,31.250000
3428,29.296875
3429,29.296875
3430,27.343750
3431,25.390625
3432,23.437500
3433,23.437500
3434,21.484375
3435,21.484375
3436,19.531250
3437,17.578125
3438,15.625000
3439,15.625000
3440,11.718750
3441,13.671875
3442,9.765625
3443,9.765625
3444,9.765625
3445,5.859375
3446,3.906250
3447,3.906250
3448,1.953125
3449,1.953125
3450,0.000000
3451,-1.953125
3452,-3.906250
3453,-5.859375
3454,-5.859375
3455,-7.812500
3456,-11.718750
3457,-11.718750
3458,-13.671875
3459,-13.671875
3460,-15.625000
3461,-17.578125
3462,-19.531250
3463,-21.484375
3464,-21.484375
3465,-23.437500
3466,-25.390625
3467,-29.296875
3468,-27.343750
3469,-29.296875
3470,-31.250000
3471,-33.203125
3472,-35.156250
3473,-35.156250
3474,-37.109375
3475,-37.109375
3476,-39.062500
3477,-41.015625
3478,-42.968750
3479,-44.921875
3480,-44.921875
3481,-46.875000
3482,-46.875000
3483,-48.828125
3484,-50.781250
3485,-50.781250
3486,-52.734375
3487,-52.734375
3488,-54.687500
3489,-54.687500
3490,-56.640625
3491,-58.593750
3492,-58.593750
3493,-60.546875
3494,-60.546875
3495,-62.500000
3496,-62.500000
3497,-64.453125
3498,-64.453125
3499,-64.453125
3500,-64.453125
3501,-66.406250
3502,-68.359375
3503,-68.359375
3504,-68.359375
3505,-64.453125
3506,-70.312500
3507,-70.312500
3508,-70.312500
3509,-70.312500
3510,-72.265625
3511,-72.265625
3512,-72.265625
3513,-74.218750
3514,-72.265625
3515,-74.218750
3516,-74.218750
3517,-74.218750
3518,-74.218750
3519,-76.171875
3520,-74.218750
3521,-74.218750
3522,-74.218750
3523,-74.218750
3524,-76.171875
3525,-76.171875
3526,-74.218750
3527,-76.171875
3528,-74.218750
3529,-74.218750
3530,-74.218750
3531,-74.218750
3532,-74.218750
3533,-74.218750
3534,-74.218750
3535,-72.265625
3536,-72.265625
3537,-72.265625
3538,-72.265625
3539,-70.312500
3540,-70.312500
3541,-70.312500
3542,-70.312500
3543,-68.359375
3544,-68.359375
3545,-66.406250
3546,-66.406250
3547,-64.453125
3548,-66.406250
3549,-64.453125
3550,-62.500000
3551,-62.500000
3552,-60.546875
3553,-60.546875
3554,-60.546875
3555,-58.593750
3556,-56.640625
3557,-56.640625
3558,-54.687500
3559,-52.734375
3560,-52.734375
3561,-50.781250
3562,-50.781250
3563,-48.828125
3564,-46.875000
3565,-46.875000
3566,-44.921875
3567,-44.921875
3568,-42.968750
3569,-41.015625
3570,-41.015625
3571,-39.062500
3572,-37.109375
3573,-37.109375
3574,-35.156250
3575,-33.203125
3576,-31.250000
3577,-29.296875
3578,-29.296875
3579,-27.343750
3580,-25.390625
3581,-25.390625
3582,-25.390625
3583,-21.484375
3584,-19.531250
3585,-17.578125
3586,-17.578125
3587,-15.625000
3588,-13.671875
3589,-11.718750
3590,-11.718750
3591,-9.765625
3592,-7.812500
3593,-7.812500
3594,-5.859375
3595,-3.906250
3596,-1.953125
3597,0.000000
3598,1.953125
3599,1.953125
3600,3.906250
3601,5.859375
3602,5.859375
3603,7.812500
3604,9.765625
3605,11.718750
3606,13.671875
3607,15.625000
3608,15.625000
3609,15.625000
3610,17.578125
3611,19.531250
3612,19.531250
3613,21.484375
3614,23.437500
3615,23.437500
3616,25.390625
3617,27.343750
3618,29.296875
3619,29.296875
3620,31.250000
3621,33.203125
3622,33.203125
3623,35.156250
3624,35.156250
3625,37.109375
3626,37.109375
3627,39.062500
3628,41.015625
3629,41.015625
3630,41.015625
3631,42.968750
3632,42.968750
3633,44.921875
3634,44.921875
3635,46.875000
3636,46.875000
3637,48.828125
3638,48.828125
3639,50.781250
3640,50.781250
3641,48.828125
3642,52.734375
3643,52.734375
3644,52.734375
3645,54.687500
3646,54.687500
3647,54.687500
3648,56.640625
3649,56.640625
3650,56.640625
3651,56.640625
3652,58.593750
3653,58.593750
3654,58.593750
3655,58.593750
3656,58.593750
3657,58.593750
3658,58.593750
3659,58.593750
3660,60.546875
3661,58.593750
3662,60.546875
3663,60.546875
3664,60.546875
3665,60.546875
3666,60.546875
3667,60.546875
3668,60.546875
3669,62.500000
3670,60.546875
3671,58.593750
3672,58.593750
3673,58.593750
3674,58.593750
3675,58.593750
3676,58.593750
3677,58.593750
3678,58.593750
3679,56.640625
3680,56.640625
3681,56.640625
3682,56.640625
3683,56.640625
3684,54.687500
3685,54.687500
3686,54.687500
3687,52.734375
3688,52.734375
3689,52.734375
3690,50.781250
3691,50.781250
3692,50.781250
3693,48.828125
3694,48.828125
3695,46.875000
3696,46.875000
3697,46.875000
3698,44.921875
3699,42.968750
3700,42.968750
3701,41.015625
3702,41.015625
3703,39.062500
3704,39.062500
3705,37.109375
3706,37.109375
3707,35.156250
3708,35.156250
3709,33.203125
3710,31.250000
3711,31.250000
3712,29.296875
3713,27.343750
3714,27.343750
3715,25.390625
3716,23.437500
3717,23.437500
3718,21.484375
3719,21.484375
3720,19.531250
3721,17.578125
3722,15.625000
3723,13.671875
3724,13.671875
3725,11.718750
3726,11.718750
3727,9.765625
3728,7.812500
3729,5.859375
3730,5.859375
3731,3.906250
3732,1.953125
3733,0.000000
3734,0.000000
3735,-1.953125
3736,-3.906250
3737,-5.859375
3738,-7.812500
3739,-7.812500
3740,-9.765625
3741,-11.718750
3742,-11.718750
3743,-13.671875
3744,-19.531250
3745,-17.578125
3746,-17.578125
3747,-19.531250
3748,-21.484375
3749,-23.437500
3750,-25.390625
3751,-25.390625
3752,-27.343750
3753,-29.296875
3754,-31.250000
3755,-31.250000
3756,-33.203125
3757,-35.156250
3758,-37.109375
3759,-37.109375
3760,-39.062500
3761,-41.015625
3762,-41.015625
3763,-42.968750
3764,-44.921875
3765,-44.921875
3766,-46.875000
3767,-48.828125
3768,-50.781250
3769,-50.781250
3770,-50.781250
3771,-52.734375
3772,-54.687500
3773,-54.687500
3774,-56.640625
3775,-56.640625
3776,-56.640625
3777,-58.593750
3778,-60.546875
3779,-60.546875
3780,-62.500000
3781,-62.500000
3782,-62.500000
3783,-64.453125
3784,-66.406250
3785,-66.406250
3786,-68.359375
3787,-68.359375
3788,-68.359375
3789,-68.359375
3790,-70.312500
3791,-70.312500
3792,-70.312500
3793,-72.265625
3794,-72.265625
3795,-72.265625
3796,-74.218750
3797,-74.218750
3798,-74.218750
3799,-74.218750
3800,-74.218750
3801,-74.218750
3802,-74.218750
3803,-74.218750
3804,-74.218750
3805,-76.171875
3806,-76.171875
3807,-76.171875
3808,-76.171875
3809,-76.171875
3810,-76.171875
3811,-76.171875
3812,-76.171875
3813,-74.218750
3814,-74.218750
3815,-74.218750
3816,-74.218750
3817,-74.218750
3818,-72.265625
3819,-72.265625
3820,-72.265625
3821,-72.265625
3822,-70.312500
3823,-70.312500
3824,-70.312500
3825,-70.312500
3826,-68.359375
3827,-68.359375
3828,-68.359375
3829,-66.406250
3830,-66.406250
3831,-66.406250
3832,-64.453125
3833,-62.500000
3834,-62.500000
3835,-62.500000
3836,-60.546875
3837,-60.546875
3838,-58.593750
3839,-58.593750
3840,-56.640625
3841,-56.640625
3842,-54.687500
3843,-54.687500
3844,-52.734375
3845,-50.781250
3846,-50.781250
3847,-48.828125
3848,-48.828125
3849,-46.875000
3850,-44.921875
3851,-44.921875
3852,-42.968750
3853,-39.062500
3854,-41.015625
3855,-39.062500
3856,-39.062500
3857,-37.109375
3858,-35.156250
3859,-33.203125
3860,-31.250000
3861,-31.250000
3862,-29.296875
3863,-27.343750
3864,-27.343750
3865,-25.390625
3866,-23.437500
3867,-21.484375
3868,-19.531250
3869,-19.531250
3870,-17.578125
3871,-15.625000
3872,-13.671875
3873,-13.671875
3874,-11.718750
3875,-9.765625
3876,-9.765625
3877,-5.859375
3878,-5.859375
3879,-3.906250
3880,-1.953125
3881,0.000000
3882,0.000000
3883,1.953125
3884,3.906250
3885,5.859375
3886,5.859375
3887,7.812500
3888,9.765625
3889,11.718750
3890,11.718750
3891,13.671875
3892,15.625000
3893,15.625000
3894,17.578125
3895,19.531250
3896,21.484375
3897,21.484375
3898,23.437500
3899,25.390625
3900,25.390625
3901,27.343750
3902,29.296875
3903,29.296875
3904,31.250000
3905,31.250000
3906,33.203125
3907,33.203125
3908,37.109375
3909,37.109375
3910,39.062500
3911,39.062500
3912,41.015625
3913,41.015625
3914,42.968750
3915,42.968750
3916,42.968750
3917,44.921875
3918,44.921875
3919,46.875000
3920,46.875000
3921,48.828125
3922,48.828125
3923,50.781250
3924,50.781250
3925,50.781250
3926,52.734375
3927,52.734375
3928,52.734375
3929,52.734375
3930,54.687500
3931,54.687500
3932,56.640625
3933,56.640625
3934,56.640625
3935,56.640625
3936,56.640625
3937,58.593750
3938,58.593750
3939,58.593750
3940,58.593750
3941,62.500000
3942,58.593750
3943,60.546875
3944,60.546875
3945,58.593750
3946,58.593750
3947,60.546875
3948,60.546875
3949,60.546875
3950,60.546875
3951,60.546875
3952,60.546875
3953,60.546875
3954,60.546875
3955,60.546875
3956,60.546875
3957,58.593750
3958,58.593750
3959,58.593750
3960,58.593750
3961,58.593750
3962,58.593750
3963,58.593750
3964,56.640625
3965,56.640625
3966,56.640625
3967,56.640625
3968,54.687500
3969,54.687500
3970,54.687500
3971,52.734375
3972,52.734375
3973,52.734375
3974,50.781250
3975,50.781250
3976,48.828125
3977,50.781250
3978,48.828125
3979,46.875000
3980,46.875000
3981,44.921875
3982,44.921875
3983,44.921875
3984,42.968750
3985,41.015625
3986,41.015625
3987,39.062500
3988,39.062500
3989,37.109375
3990,37.109375
3991,35.156250
3992,35.156250
3993,33.203125
3994,33.203125
3995,31.250000
3996,29.296875
3997,27.343750
3998,27.343750
3999,27.343750
4000,23.437500
4001,23.437500
4002,21.484375
4003,19.531250
4004,19.531250
4005,17.578125
4006,17.578125
4007,15.625000
4008,13.671875
4009,13.671875
4010,11.718750
4011,9.765625
4012,7.812500
4013,7.812500
4014,3.906250
4015,3.906250
4016,1.953125
4017,0.000000
4018,0.000000
4019,-1.953125
4020,-3.906250
4021,-5.859375
4022,-5.859375
4023,-9.765625
4024,-9.765625
4025,-11.718750
4026,-13.671875
4027,-13.671875
4028,-15.625000
4029,-17.578125
4030,-19.531250
4031,-19.531250
4032,-21.484375
4033,-23.437500
4034,-25.390625
4035,-25.390625
4036,-27.343750
4037,-29.296875
4038,-31.250000
4039,-31.250000
4040,-33.203125
4041,-35.156250
4042,-37.109375
4043,-37.109375
4044,-39.062500
4045,-41.015625
4046,-41.015625
4047,-42.968750
4048,-42.968750
4049,-44.921875
4050,-46.875000
4051,-48.828125
4052,-50.781250
4053,-50.781250
4054,-52.734375
4055,-52.734375
4056,-54.687500
4057,-54.687500
4058,-56.640625
4059,-56.640625
4060,-58.593750
4061,-58.593750
4062,-60.546875
4063,-60.546875
4064,-62.500000
4065,-62.500000
4066,-62.500000
4067,-66.406250
4068,-66.406250
4069,-64.453125
4070,-68.359375
4071,-68.359375
4072,-68.359375
4073,-68.359375
4074,-70.312500
4075,-70.312500
4076,-70.312500
4077,-72.265625
4078,-72.265625
4079,-72.265625
4080,-74.218750
4081,-72.265625
4082,-74.218750
4083,-74.218750
4084,-74.218750
4085,-74.218750
4086,-76.171875
4087,-74.218750
4088,-74.218750
4089,-74.218750
4090,-76.171875
4091,-76.171875
4092,-74.218750
4093,-76.171875
4094,-74.218750
4095,-74.218750
4096,-76.171875
4097,-74.218750
4098,-74.218750
4099,-74.218750
4100,-74.218750
4101,-74.218750
4102,-74.218750
4103,-72.265625
4104,-72.265625
4105,-72.265625
4106,-72.265625
4107,-72.265625
4108,-70.312500
4109,-70.312500
4110,-70.312500
4111,-68.359375
4112,-68.359375
4113,-68.359375
4114,-68.359375
4115,-66.406250
4116,-64.453125
4117,-64.453125
4118,-62.500000
4119,-62.500000
4120,-60.546875
4121,-60.546875
4122,-58.593750
4123,-58.593750
4124,-58.593750
4125,-56.640625
4126,-54.687500
4127,-52.734375
4128,-52.734375
4129,-50.781250
4130,-50.781250
4131,-48.828125
4132,-48.828125
4133,-46.875000
4134,-46.875000
4135,-44.921875
4136,-42.968750
4137,-41.015625
4138,-39.062500
4139,-39.062500
4140,-37.109375
4141,-37.109375
4142,-35.156250
4143,-33.203125
4144,-31.250000
4145,-31.250000
4146,-29.296875
4147,-27.343750
4148,-25.390625
4149,-25.390625
4150,-23.437500
4151,-21.484375
4152,-21.484375
4153,-19.531250
4154,-17.578125
4155,-15.625000
4156,-13.671875
4157,-13.671875
4158,-11.718750
4159,-9.765625
4160,-7.812500
4161,-5.859375
4162,-5.859375
4163,-3.906250
4164,-1.953125
4165,-1.953125
4166,1.953125
4167,1.953125
4168,3.906250
4169,7.812500
4170,7.812500
4171,9.765625
4172,9.765625
4173,11.718750
4174,11.718750
4175,13.671875
4176,15.625000
4177,15.625000
4178,17.578125
4179,19.531250
4180,21.484375
4181,21.484375
4182,23.437500
4183,23.437500
4184,25.390625
4185,27.343750
4186,29.296875
4187,29.296875
4188,31.250000
4189,31.250000
4190,33.203125
4191,35.156250
4192,35.156250
4193,37.109375
4194,37.109375
4195,39.062500
4196,39.062500
4197,41.015625
4198,41.015625
4199,42.968750
4200,42.968750
4201,44.921875
4202,50.781250
4203,46.875000
4204,46.875000
4205,48.828125
4206,48.828125
4207,50.781250
4208,50.781250
4209,50.781250
4210,52.734375
4211,52.734375
4212,52.734375
4213,54.687500
4214,54.687500
4215,54.687500
4216,56.640625
4217,56.640625
4218,56.640625
4219,56.640625
4220,56.640625
4221,58.593750
4222,56.640625
4223,58.593750
4224,60.546875
4225,58.593750
4226,58.593750
4227,60.546875
4228,58.593750
4229,60.546875
4230,60.546875
4231,60.546875
4232,60.546875
4233,58.593750
4234,62.500000
4235,60.546875
4236,58.593750
4237,60.546875
4238,60.546875
4239,60.546875
4240,58.593750
4241,58.593750
4242,58.593750
4243,58.593750
4244,58.593750
4245,58.593750
4246,58.593750
4247,56.640625
4248,56.640625
4249,56.640625
4250,56.640625
4251,56.640625
4252,54.687500
4253,54.687500
4254,54.687500
4255,52.734375
4256,52.734375
4257,52.734375
4258,50.781250
4259,50.781250
4260,50.781250
4261,48.828125
4262,48.828125
4263,46.875000
4264,46.875000
4265,46.875000
4266,44.921875
4267,42.968750
4268,42.968750
4269,42.968750
4270,41.015625
4271,39.062500
4272,37.109375
4273,39.062500
4274,37.109375
4275,35.156250
4276,35.156250
4277,33.203125
4278,31.250000
4279,31.250000
4280,29.296875
4281,29.296875
4282,27.343750
4283,25.390625
4284,25.390625
4285,23.437500
4286,21.484375
4287,19.531250
4288,19.531250
4289,17.578125
4290,17.578125
4291,15.625000
4292,13.671875
4293,13.671875
4294,11.718750
4295,9.765625
4296,7.812500
4297,7.812500
4298,3.906250
4299,3.906250
4300,1.953125
4301,0.000000
4302,0.000000
4303,-1.953125
4304,-3.906250
4305,-5.859375
4306,-5.859375
4307,-7.812500
4308,-9.765625
4309,-11.718750
4310,-13.671875
4311,-13.671875
4312,-15.625000
4313,-17.578125
4314,-19.531250
4315,-21.484375
4316,-21.484375
4317,-23.437500
4318,-25.390625
4319,-25.390625
4320,-27.343750
4321,-29.296875
4322,-31.250000
4323,-31.250000
4324,-33.203125
4325,-35.156250
4326,-37.109375
4327,-37.109375
4328,-39.062500
4329,-39.062500
4330,-41.015625
4331,-42.968750
4332,-44.921875
4333,-44.921875
4334,-46.875000
4335,-48.828125
4336,-48.828125
4337,-50.781250
4338,-52.734375
4339,-52.734375
4340,-54.687500
4341,-54.687500
4342,-56.640625
4343,-56.640625
4344,-58.593750
4345,-60.546875
4346,-60.546875
4347,-60.546875
4348,-60.546875
4349,-62.500000
4350,-64.453125
4351,-64.453125
4352,-66.406250
4353,-66.406250
4354,-66.406250
4355,-68.359375
4356,-68.359375
4357,-68.359375
4358,-70.312500
4359,-68.359375
4360,-70.312500
4361,-70.312500
4362,-72.265625
4363,-72.265625
4364,-74.218750
4365,-72.265625
4366,-74.218750
4367,-74.218750
4368,-74.218750
4369,-74.218750
4370,-74.218750
4371,-74.218750
4372,-74.218750
4373,-76.171875
4374,-76.171875
4375,-74.218750
4376,-76.171875
4377,-74.218750
4378,-76.171875
4379,-74.218750
4380,-74.218750
4381,-74.218750
4382,-74.218750
4383,-74.218750
4384,-74.218750
4385,-74.218750
4386,-74.218750
4387,-74.218750
4388,-72.265625
4389,-72.265625
4390,-72.265625
4391,-70.312500
4392,-70.312500
4393,-70.312500
4394,-70.312500
4395,-62.500000
4396,-68.359375
4397,-66.406250
4398,-66.406250
4399,-64.453125
4400,-64.453125
4401,-64.453125
4402,-62.500000
4403,-62.500000
4404,-62.500000
4405,-60.546875
4406,-58.593750
4407,-58.593750
4408,-56.640625
4409,-56.640625
4410,-54.687500
4411,-52.734375
4412,-52.734375
4413,-52.734375
4414,-50.781250
4415,-48.828125
4416,-46.875000
4417,-46.875000
4418,-44.921875
4419,-44.921875
4420,-42.968750
4421,-41.015625
4422,-41.015625
4423,-39.062500
4424,-37.109375
4425,-35.156250
4426,-35.156250
4427,-33.203125
4428,-33.203125
4429,-31.250000
4430,-29.296875
4431,-27.343750
4432,-27.343750
4433,-25.390625
4434,-23.437500
4435,-21.484375
4436,-21.484375
4437,-19.531250
4438,-17.578125
4439,-15.625000
4440,-15.625000
4441,-13.671875
4442,-11.718750
4443,-9.765625
4444,-9.765625
4445,-7.812500
4446,-5.859375
4447,-3.906250
4448,-3.906250
4449,0.000000
4450,0.000000
4451,1.953125
4452,3.906250
4453,3.906250
4454,5.859375
4455,7.812500
4456,9.765625
4457,9.765625
4458,11.718750
4459,13.671875
4460,13.671875
4461,15.625000
4462,17.578125
4463,19.531250
4464,19.531250
4465,21.484375
4466,23.437500
4467,23.437500
4468,25.390625
4469,27.343750
4470,27.343750
4471,29.296875
4472,31.250000
4473,31.250000
4474,33.203125
4475,35.156250
4476,35.156250
4477,37.109375
4478,39.062500
4479,39.062500
4480,39.062500
4481,41.015625
4482,39.062500
4483,42.968750
4484,44.921875
4485,44.921875
4486,46.875000
4487,44.921875
4488,46.875000
4489,48.828125
4490,48.828125
4491,50.781250
4492,50.781250
4493,50.781250
4494,50.781250
4495,52.734375
4496,52.734375
4497,54.687500
4498,54.687500
4499,54.687500
4500,54.687500
4501,56.640625
4502,56.640625
4503,56.640625
4504,56.640625
4505,58.593750
4506,58.593750
4507,58.593750
4508,58.593750
4509,58.593750
4510,58.593750
4511,58.593750
4512,60.546875
4513,60.546875
4514,60.546875
4515,60.546875
4516,60.546875
4517,60.546875
4518,60.546875
4519,60.546875
4520,58.593750
4521,60.546875
4522,60.546875
4523,58.593750
4524,58.593750
4525,60.546875
4526,60.546875
4527,58.593750
4528,58.593750
4529,58.593750
4530,58.593750
4531,56.640625
4532,56.640625
4533,56.640625
4534,56.640625
4535,56.640625
4536,54.687500
4537,54.687500
4538,54.687500
4539,54.687500
4540,52.734375
4541,52.734375
4542,52.734375
4543,50.781250
4544,50.781250
4545,48.828125
4546,48.828125
4547,48.828125
4548,46.875000
4549,46.875000
4550,44.921875
4551,44.921875
4552,44.921875
4553,42.968750
4554,41.015625
4555,39.062500
4556,39.062500
4557,37.109375
4558,37.109375
4559,37.109375
4560,35.156250
4561,33.203125
4562,31.250000
4563,31.250000
4564,29.296875
4565,29.296875
4566,27.343750
4567,25.390625
4568,25.390625
4569,23.437500
4570,21.484375
4571,21.484375
4572,19.531250
4573,17.578125
4574,17.578125
4575,15.625000
4576,13.671875
4577,13.671875
4578,11.718750
4579,9.765625
4580,7.812500
4581,7.812500
4582,3.906250
4583,3.906250
4584,1.953125
4585,1.953125
4586,0.000000
4587,-1.953125
4588,-3.906250
4589,-5.859375
4590,-5.859375
4591,-7.812500
4592,-9.765625
4593,-11.718750
4594,-13.671875
4595,-13.671875
4596,-15.625000
4597,-17.578125
4598,-17.578125
4599,-19.531250
4600,-21.484375
4601,-23.437500
4602,-23.437500
4603,-25.390625
4604,-27.343750
4605,-29.296875
4606,-31.250000
4607,-31.250000
4608,-33.203125
4609,-35.156250
4610,-35.156250
4611,-37.109375
4612,-39.062500
4613,-39.062500
4614,-41.015625
4615,-42.968750
4616,-42.968750
4617,-44.921875
4618,-46.875000
4619,-46.875000
4620,-48.828125
4621,-50.781250
4622,-50.781250
4623,-52.734375
4624,-54.687500
4625,-54.687500
4626,-56.640625
4627,-58.593750
4628,-58.593750
4629,-60.546875
4630,-60.546875
4631,-62.500000
4632,-62.500000
4633,-64.453125
4634,-64.453125
4635,-64.453125
4636,-66.406250
4637,-66.406250
4638,-66.406250
4639,-68.359375
4640,-68.359375
4641,-70.312500
4642,-70.312500
4643,-70.312500
4644,-72.265625
4645,-72.265625
4646,-72.265625
4647,-72.265625
4648,-74.218750
4649,-74.218750
4650,-74.218750
4651,-74.218750
4652,-74.218750
4653,-74.218750
4654,-74.218750
4655,-74.218750
4656,-74.218750
4657,-76.171875
4658,-76.171875
4659,-76.171875
4660,-76.171875
4661,-76.171875
4662,-76.171875
4663,-74.218750
4664,-76.171875
4665,-74.218750
4666,-76.171875
4667,-74.218750
4668,-74.218750
4669,-74.218750
4670,-74.218750
4671,-72.265625
4672,-72.265625
4673,-72.265625
4674,-70.312500
4675,-70.312500
4676,-70.312500
4677,-70.312500
4678,-70.312500
4679,-68.359375
4680,-68.359375
4681,-66.406250
4682,-66.406250
4683,-64.453125
4684,-64.453125
4685,-64.453125
4686,-62.500000
4687,-64.453125
4688,-62.500000
4689,-60.546875
4690,-60.546875
4691,-58.593750
4692,-58.593750
4693,-56.640625
4694,-54.687500
4695,-54.687500
4696,-52.734375
4697,-52.734375
4698,-50.781250
4699,-48.828125
4700,-48.828125
4701,-46.875000
4702,-44.921875
4703,-44.921875
4704,-44.921875
4705,-41.015625
4706,-41.015625
4707,-39.062500
4708,-37.109375
4709,-37.109375
4710,-35.156250
4711,-33.203125
4712,-33.203125
4713,-31.250000
4714,-29.296875
4715,-27.343750
4716,-27.343750
4717,-25.390625
4718,-25.390625
4719,-21.484375
4720,-19.531250
4721,-19.531250
4722,-17.578125
4723,-15.625000
4724,-13.671875
4725,-13.671875
4726,-11.718750
4727,-9.765625
4728,-7.812500
4729,-7.812500
4730,-7.812500
4731,-3.906250
4732,-1.953125
4733,0.000000
4734,0.000000
4735,1.953125
4736,3.906250
4737,5.859375
4738,5.859375
4739,7.812500
4740,9.765625
4741,9.765625
4742,11.718750
4743,13.671875
4744,13.671875
4745,15.625000
4746,17.578125
4747,19.531250
4748,19.531250
4749,21.484375
4750,23.437500
4751,23.437500
4752,25.390625
4753,27.343750
4754,27.343750
4755,29.296875
4756,29.296875
4757,31.250000
4758,33.203125
4759,33.203125
4760,35.156250
4761,35.156250
4762,37.109375
4763,39.062500
4764,41.015625
4765,41.015625
4766,41.015625
4767,42.968750
4768,42.968750
4769,44.921875
4770,44.921875
4771,44.921875
4772,46.875000
4773,46.875000
4774,48.828125
4775,48.828125
4776,50.781250
4777,50.781250
4778,50.781250
4779,52.734375
4780,52.734375
4781,52.734375
4782,54.687500
4783,54.687500
4784,54.687500
4785,56.640625
4786,54.687500
4787,56.640625
4788,56.640625
4789,58.593750
4790,56.640625
4791,58.593750
4792,58.593750
4793,58.593750
4794,58.593750
4795,58.593750
4796,58.593750
4797,60.546875
4798,58.593750
4799,60.546875
4800,60.546875
4801,60.546875
4802,60.546875
4803,60.546875
4804,60.546875
4805,60.546875
4806,60.546875
4807,60.546875
4808,58.593750
4809,60.546875
4810,60.546875
4811,58.593750
4812,58.593750
4813,58.593750
4814,56.640625
4815,58.593750
4816,56.640625
4817,56.640625
4818,56.640625
4819,54.687500
4820,54.687500
4821,54.687500
4822,54.687500
4823,54.687500
4824,52.734375
4825,52.734375
4826,50.781250
4827,50.781250
4828,50.781250
4829,48.828125
4830,48.828125
4831,46.875000
4832,46.875000
4833,46.875000
4834,44.921875
4835,42.968750
4836,42.968750
4837,42.968750
4838,41.015625
4839,41.015625
4840,39.062500
4841,37.109375
4842,37.109375
4843,35.156250
4844,35.156250
4845,33.203125
4846,31.250000
4847,31.250000
4848,29.296875
4849,29.296875
4850,27.343750
4851,25.390625
4852,25.390625
4853,23.437500
4854,23.437500
4855,21.484375
4856,19.531250
4857,19.531250
4858,17.578125
4859,15.625000
4860,13.671875
4861,13.671875
4862,11.718750
4863,9.765625
4864,7.812500
4865,7.812500
4866,5.859375
4867,3.906250
4868,3.906250
4869,1.953125
4870,0.000000
4871,-1.953125
4872,-1.953125
4873,-5.859375
4874,-5.859375
4875,-7.812500
4876,-3.906250
4877,-9.765625
4878,-11.718750
4879,-13.671875
4880,-15.625000
4881,-17.578125
4882,-17.578125
4883,-19.531250
4884,-21.484375
4885,-23.437500
4886,-25.390625
4887,-25.390625
4888,-27.343750
4889,-29.296875
4890,-31.250000
4891,-31.250000
4892,-33.203125
4893,-35.156250
4894,-37.109375
4895,-37.109375
4896,-39.062500
4897,-41.015625
4898,-41.015625
4899,-42.968750
4900,-44.921875
4901,-44.921875
4902,-46.875000
4903,-46.875000
4904,-48.828125
4905,-50.781250
4906,-52.734375
4907,-52.734375
4908,-52.734375
4909,-54.687500
4910,-56.640625
4911,-56.640625
4912,-58.593750
4913,-58.593750
4914,-60.546875
4915,-60.546875
4916,-60.546875
4917,-62.500000
4918,-64.453125
4919,-64.453125
4920,-66.406250
4921,-66.406250
4922,-66.406250
4923,-68.359375
4924,-68.359375
4925,-68.359375
4926,-68.359375
4927,-70.312500
4928,-70.312500
4929,-70.312500
4930,-72.265625
4931,-72.265625
4932,-72.265625
4933,-74.218750
4934,-74.218750
4935,-74.218750
4936,-74.218750
4937,-74.218750
4938,-74.218750
4939,-74.218750
4940,-76.171875
4941,-74.218750
4942,-72.265625
4943,-76.171875
4944,-76.171875
4945,-74.218750
4946,-74.218750
4947,-74.218750
4948,-76.171875
4949,-74.218750
4950,-74.218750
4951,-74.218750
4952,-74.218750
4953,-74.218750
4954,-74.218750
4955,-74.218750
4956,-72.265625
4957,-72.265625
4958,-70.312500
4959,-72.265625
4960,-70.312500
4961,-70.312500
4962,-70.312500
4963,-68.359375
4964,-68.359375
4965,-68.359375
4966,-66.406250
4967,-66.406250
4968,-64.453125
4969,-64.453125
4970,-62.500000
4971,-62.500000
4972,-60.546875
4973,-60.546875
4974,-60.546875
4975,-58.593750
4976,-56.640625
4977,-56.640625
4978,-54.687500
4979,-54.687500
4980,-50.781250
4981,-52.734375
4982,-50.781250
4983,-50.781250
4984,-48.828125
4985,-46.875000
4986,-42.968750
4987,-44.921875
4988,-39.062500
4989,-42.968750
4990,-41.015625
4991,-35.156250
4992,-39.062500
4993,-37.109375
4994,-35.156250
4995,-33.203125
4996,-33.203125
4997,-29.296875
4998,-29.296875
4999,-27.343750
5000,-27.343750
5001,-25.390625
5002,-23.437500
5003,-21.484375
5004,-21.484375
5005,-19.531250
5006,-17.578125
5007,-17.578125
5008,-15.625000
5009,-13.671875
5010,-11.718750
5011,-11.718750
5012,-7.812500
5013,-7.812500
5014,-5.859375
5015,-5.859375
5016,-3.906250
5017,-1.953125
5018,0.000000
5019,0.000000
5020,1.953125
5021,3.906250
5022,3.906250
5023,7.812500
5024,7.812500
5025,9.765625
5026,11.718750
5027,11.718750
5028,13.671875
5029,15.625000
5030,17.578125
5031,19.531250
5032,19.531250
5033,21.484375
5034,21.484375
5035,23.437500
5036,25.390625
5037,27.343750
5038,27.343750
5039,29.296875
5040,29.296875
5041,31.250000
5042,33.203125
5043,33.203125
5044,35.156250
5045,35.156250
5046,37.109375
5047,37.109375
5048,39.062500
5049,41.015625
5050,41.015625
5051,42.968750
5052,42.968750
5053,44.921875
5054,44.921875
5055,46.875000
5056,46.875000
5057,46.875000
5058,48.828125
5059,48.828125
5060,50.781250
5061,50.781250
5062,50.781250
5063,52.734375
5064,52.734375
5065,52.734375
5066,54.687500
5067,54.687500
5068,54.687500
5069,54.687500
5070,56.640625
5071,56.640625
5072,56.640625
5073,58.593750
5074,56.640625
5075,58.593750
5076,58.593750
5077,58.593750
5078,58.593750
5079,58.593750
5080,60.546875
5081,58.593750
5082,58.593750
5083,60.546875
5084,60.546875
5085,60.546875
5086,60.546875
5087,60.546875
5088,58.593750
5089,58.593750
5090,58.593750
5091,60.546875
5092,60.546875
5093,60.546875
5094,58.593750
5095,58.593750
5096,58.593750
5097,58.593750
5098,58.593750
5099,58.593750
5100,56.640625
5101,56.640625
5102,56.640625
5103,56.640625
5104,54.687500
5105,54.687500
5106,54.687500
5107,52.734375
5108,52.734375
5109,52.734375
5110,50.781250
5111,50.781250
5112,50.781250
5113,50.781250
5114,48.828125
5115,46.875000
5116,46.875000
5117,44.921875
5118,44.921875
5119,44.921875
5120,42.968750
5121,42.968750
5122,41.015625
5123,41.015625
5124,39.062500
5125,39.062500
5126,37.109375
5127,37.109375
5128,35.156250
5129,33.203125
5130,33.203125
5131,31.250000
5132,31.250000
5133,27.343750
5134,27.343750
5135,27.343750
5136,23.437500
5137,23.437500
5138,25.390625
5139,21.484375
5140,19.531250
5141,17.578125
5142,17.578125
5143,17.578125
5144,15.625000
5145,11.718750
5146,11.718750
5147,9.765625
5148,9.765625
5149,7.812500
5150,5.859375
5151,3.906250
5152,1.953125
5153,1.953125
5154,-1.953125
5155,-1.953125
5156,-3.906250
5157,-3.906250
5158,-5.859375
5159,-7.812500
5160,-9.765625
5161,-11.718750
5162,-11.718750
5163,-13.671875
5164,-15.625000
5165,-17.578125
5166,-17.578125
5167,-19.531250
5168,-21.484375
5169,-23.437500
5170,-23.437500
5171,-23.437500
5172,-27.343750
5173,-27.343750
5174,-29.296875
5175,-31.250000
5176,-33.203125
5177,-33.203125
5178,-35.156250
5179,-37.109375
5180,-39.062500
5181,-39.062500
5182,-41.015625
5183,-42.968750
5184,-44.921875
5185,-44.921875
5186,-46.875000
5187,-46.875000
5188,-48.828125
5189,-48.828125
5190,-50.781250
5191,-52.734375
5192,-52.734375
5193,-54.687500
5194,-56.640625
5195,-56.640625
5196,-58.593750
5197,-58.593750
5198,-60.546875
5199,-60.546875
5200,-62.500000
5201,-62.500000
5202,-64.453125
5203,-64.453125
5204,-66.406250
5205,-66.406250
5206,-68.359375
5207,-68.359375
5208,-68.359375
5209,-68.359375
5210,-70.312500
5211,-70.312500
5212,-70.312500
5213,-72.265625
5214,-72.265625
5215,-72.265625
5216,-72.265625
5217,-74.218750
5218,-74.218750
5219,-74.218750
5220,-74.218750
5221,-74.218750
5222,-74.218750
5223,-76.171875
5224,-76.171875
5225,-74.218750
5226,-76.171875
5227,-76.171875
5228,-76.171875
5229,-76.171875
5230,-76.171875
5231,-76.171875
5232,-76.171875
5233,-76.171875
5234,-76.171875
5235,-74.218750
5236,-74.218750
5237,-74.218750
5238,-74.218750
5239,-74.218750
5240,-74.218750
5241,-72.265625
5242,-72.265625
5243,-72.265625
5244,-70.312500
5245,-70.312500
5246,-68.359375
5247,-68.359375
5248,-68.359375
5249,-68.359375
5250,-66.406250
5251,-66.406250
5252,-64.453125
5253,-64.453125
5254,-64.453125
5255,-62.500000
5256,-62.500000
5257,-60.546875
5258,-60.546875
5259,-58.593750
5260,-58.593750
5261,-56.640625
5262,-54.687500
5263,-54.687500
5264,-54.687500
5265,-52.734375
5266,-50.781250
5267,-50.781250
5268,-48.828125
5269,-46.875000
5270,-44.921875
5271,-44.921875
5272,-44.921875
5273,-42.968750
5274,-41.015625
5275,-41.015625
5276,-39.062500
5277,-37.109375
5278,-35.156250
5279,-33.203125
5280,-33.203125
5281,-31.250000
5282,-29.296875
5283,-27.343750
5284,-27.343750
5285,-25.390625
5286,-25.390625
5287,-21.484375
5288,-21.484375
5289,-19.531250
5290,-17.578125
5291,-17.578125
5292,-13.671875
5293,-13.671875
5294,-13.671875
5295,-9.765625
5296,-9.765625
5297,-7.812500
5298,-5.859375
5299,-5.859375
5300,-3.906250
5301,-1.953125
5302,0.000000
5303,1.953125
5304,3.906250
5305,3.906250
5306,5.859375
5307,7.812500
5308,9.765625
5309,9.765625
5310,11.718750
5311,13.671875
5312,13.671875
5313,15.625000
5314,17.578125
5315,19.531250
5316,19.531250
5317,21.484375
5318,23.437500
5319,23.437500
5320,25.390625
5321,27.343750
5322,27.343750
5323,29.296875
5324,31.250000
5325,31.250000
5326,33.203125
5327,33.203125
5328,37.109375
5329,37.109375
5330,37.109375
5331,39.062500
5332,39.062500
5333,39.062500
5334,41.015625
5335,42.968750
5336,42.968750
5337,44.921875
5338,44.921875
5339,44.921875
5340,46.875000
5341,48.828125
5342,48.828125
5343,48.828125
5344,50.781250
5345,50.781250
5346,50.781250
5347,52.734375
5348,52.734375
5349,54.687500
5350,52.734375
5351,54.687500
5352,54.687500
5353,54.687500
5354,56.640625
5355,56.640625
5356,56.640625
5357,56.640625
5358,58.593750
5359,58.593750
5360,58.593750
5361,58.593750
5362,58.593750
5363,58.593750
5364,60.546875
5365,58.593750
5366,58.593750
5367,60.546875
5368,60.546875
5369,60.546875
5370,60.546875
5371,60.546875
5372,60.546875
5373,60.546875
5374,58.593750
5375,60.546875
5376,60.546875
5377,58.593750
5378,58.593750
5379,58.593750
5380,58.593750
5381,58.593750
5382,56.640625
5383,58.593750
5384,58.593750
5385,56.640625
5386,56.640625
5387,56.640625
5388,54.687500
5389,54.687500
5390,54.687500
5391,52.734375
5392,52.734375
5393,52.734375
5394,52.734375
5395,46.875000
5396,48.828125
5397,48.828125
5398,48.828125
5399,46.875000
5400,46.875000
5401,46.875000
5402,44.921875
5403,44.921875
5404,42.968750
5405,42.968750
5406,41.015625
5407,41.015625
5408,39.062500
5409,37.109375
5410,37.109375
5411,35.156250
5412,35.156250
5413,33.203125
5414,31.250000
5415,31.250000
5416,31.250000
5417,29.296875
5418,27.343750
5419,27.343750
5420,25.390625
5421,23.437500
5422,23.437500
5423,19.531250
5424,19.531250
5425,17.578125
5426,17.578125
5427,15.625000
5428,13.671875
5429,11.718750
5430,11.718750
5431,9.765625
5432,9.765625
5433,7.812500
5434,5.859375
5435,3.906250
5436,3.906250
5437,1.953125
5438,0.000000
5439,-1.953125
5440,-3.906250
5441,-3.906250
5442,-7.812500
5443,-7.812500
5444,-7.812500
5445,-9.765625
5446,-11.718750
5447,-13.671875
5448,-15.625000
5449,-15.625000
5450,-17.578125
5451,-19.531250
5452,-21.484375
5453,-23.437500
5454,-23.437500
5455,-25.390625
5456,-27.343750
5457,-29.296875
5458,-29.296875
5459,-31.250000
5460,-33.203125
5461,-35.156250
5462,-35.156250
5463,-37.109375
5464,-39.062500
5465,-39.062500
5466,-41.015625
5467,-42.968750
5468,-44.921875
5469,-44.921875
5470,-46.875000
5471,-48.828125
5472,-48.828125
5473,-50.781250
5474,-50.781250
5475,-52.734375
5476,-52.734375
5477,-54.687500
5478,-56.640625
5479,-56.640625
5480,-58.593750
5481,-58.593750
5482,-60.546875
5483,-60.546875
5484,-62.500000
5485,-62.500000
5486,-62.500000
5487,-64.453125
5488,-66.406250
5489,-66.406250
5490,-66.406250
5491,-66.406250
5492,-68.359375
5493,-70.312500
5494,-70.312500
5495,-70.312500
5496,-70.312500
5497,-70.312500
5498,-72.265625
5499,-72.265625
5500,-72.265625
5501,-72.265625
5502,-72.265625
5503,-74.218750
5504,-74.218750
5505,-74.218750
5506,-74.218750
5507,-74.218750
5508,-74.218750
5509,-76.171875
5510,-74.218750
5511,-76.171875
5512,-74.218750
5513,-76.171875
5514,-76.171875
5515,-74.218750
5516,-74.218750
5517,-74.218750
5518,-74.218750
5519,-74.218750
5520,-74.218750
5521,-74.218750
5522,-74.218750
5523,-72.265625
5524,-72.265625
5525,-72.265625
5526,-72.265625
5527,-70.312500
5528,-70.312500
5529,-70.312500
5530,-70.312500
5531,-68.359375
5532,-68.359375
5533,-68.359375
5534,-66.406250
5535,-66.406250
5536,-64.453125
5537,-64.453125
5538,-64.453125
5539,-62.500000
5540,-62.500000
5541,-60.546875
5542,-60.546875
5543,-60.546875
5544,-58.593750
5545,-56.640625
5546,-56.640625
5547,-54.687500
5548,-54.687500
5549,-52.734375
5550,-50.781250
5551,-48.828125
5552,-48.828125
5553,-48.828125
5554,-46.875000
5555,-44.921875
5556,-42.968750
5557,-42.968750
5558,-41.015625
5559,-39.062500
5560,-37.109375
5561,-37.109375
5562,-35.156250
5563,-33.203125
5564,-33.203125
5565,-31.250000
5566,-29.296875
5567,-27.343750
5568,-27.343750
5569,-25.390625
5570,-23.437500
5571,-21.484375
5572,-21.484375
5573,-19.531250
5574,-17.578125
5575,-17.578125
5576,-15.625000
5577,-13.671875
5578,-11.718750
5579,-11.718750
5580,-9.765625
5581,-7.812500
5582,-5.859375
5583,-3.906250
5584,-3.906250
5585,-1.953125
5586,0.000000
5587,1.953125
5588,1.953125
5589,3.906250
5590,5.859375
5591,5.859375
5592,7.812500
5593,9.765625
5594,11.718750
5595,15.625000
5596,13.671875
5597,15.625000
5598,17.578125
5599,17.578125
5600,19.531250
5601,21.484375
5602,23.437500
5603,23.437500
5604,25.390625
5605,27.343750
5606,27.343750
5607,29.296875
5608,29.296875
5609,31.250000
5610,33.203125
5611,33.203125
5612,33.203125
5613,35.156250
5614,37.109375
5615,37.109375
5616,39.062500
5617,41.015625
5618,41.015625
5619,41.015625
5620,42.968750
5621,42.968750
5622,44.921875
5623,46.875000
5624,46.875000
5625,46.875000
5626,48.828125
5627,48.828125
5628,50.781250
5629,50.781250
5630,50.781250
5631,52.734375
5632,52.734375
5633,54.687500
5634,54.687500
5635,54.687500
5636,54.687500
5637,56.640625
5638,56.640625
5639,56.640625
5640,56.640625
5641,58.593750
5642,58.593750
5643,54.687500
5644,58.593750
5645,58.593750
5646,58.593750
5647,60.546875
5648,58.593750
5649,58.593750
5650,60.546875
5651,60.546875
5652,60.546875
5653,60.546875
5654,60.546875
5655,60.546875
5656,60.546875
5657,60.546875
5658,60.546875
5659,58.593750
5660,60.546875
5661,60.546875
5662,58.593750
5663,58.593750
5664,58.593750
5665,58.593750
5666,58.593750
5667,56.640625
5668,56.640625
5669,56.640625
5670,56.640625
5671,56.640625
5672,54.687500
5673,54.687500
5674,54.687500
5675,54.687500
5676,54.687500
5677,50.781250
5678,50.781250
5679,54.687500
5680,50.781250
5681,48.828125
5682,48.828125
5683,46.875000
5684,46.875000
5685,46.875000
5686,44.921875
5687,44.921875
5688,42.968750
5689,42.968750
5690,41.015625
5691,39.062500
5692,39.062500
5693,39.062500
5694,37.109375
5695,37.109375
5696,35.156250
5697,33.203125
5698,33.203125
5699,31.250000
5700,31.250000
5701,29.296875
5702,27.343750
5703,27.343750
5704,25.390625
5705,23.437500
5706,23.437500
5707,21.484375
5708,19.531250
5709,19.531250
5710,17.578125
5711,15.625000
5712,15.625000
5713,13.671875
5714,11.718750
5715,9.765625
5716,9.765625
5717,7.812500
5718,5.859375
5719,3.906250
5720,1.953125
5721,1.953125
5722,0.000000
5723,0.000000
5724,-1.953125
5725,-3.906250
5726,-5.859375
5727,-7.812500
5728,-9.765625
5729,-9.765625
5730,-11.718750
5731,-13.671875
5732,-13.671875
5733,-17.578125
5734,-17.578125
5735,-19.531250
5736,-21.484375
5737,-23.437500
5738,-23.437500
5739,-25.390625
5740,-27.343750
5741,-29.296875
5742,-29.296875
5743,-31.250000
5744,-33.203125
5745,-35.156250
5746,-35.156250
5747,-37.109375
5748,-39.062500
5749,-39.062500
5750,-41.015625
5751,-42.968750
5752,-44.921875
5753,-44.921875
5754,-46.875000
5755,-46.875000
5756,-48.828125
5757,-50.781250
5758,-50.781250
5759,-52.734375
5760,-54.687500
5761,-54.687500
5762,-56.640625
5763,-56.640625
5764,-58.593750
5765,-58.593750
5766,-60.546875
5767,-60.546875
5768,-62.500000
5769,-62.500000
5770,-64.453125
5771,-64.453125
5772,-64.453125
5773,-66.406250
5774,-68.359375
5775,-68.359375
5776,-68.359375
5777,-68.359375
5778,-70.312500
5779,-70.312500
5780,-72.265625
5781,-70.312500
5782,-72.265625
5783,-72.265625
5784,-72.265625
5785,-74.218750
5786,-74.218750
5787,-74.218750
5788,-74.218750
5789,-74.218750
5790,-74.218750
5791,-76.171875
5792,-74.218750
5793,-76.171875
5794,-76.171875
5795,-76.171875
5796,-76.171875
5797,-76.171875
5798,-76.171875
5799,-76.171875
5800,-74.218750
5801,-76.171875
5802,-76.171875
5803,-74.218750
5804,-74.218750
5805,-74.218750
5806,-74.218750
5807,-74.218750
5808,-72.265625
5809,-74.218750
5810,-72.265625
5811,-72.265625
5812,-72.265625
5813,-70.312500
5814,-70.312500
5815,-68.359375
5816,-68.359375
5817,-68.359375
5818,-66.406250
5819,-66.406250
5820,-66.406250
5821,-64.453125
5822,-62.500000
5823,-62.500000
5824,-62.500000
5825,-60.546875
5826,-60.546875
5827,-58.593750
5828,-56.640625
5829,-56.640625
5830,-56.640625
5831,-54.687500
5832,-52.734375
5833,-52.734375
5834,-52.734375
5835,-48.828125
5836,-48.828125
5837,-46.875000
5838,-46.875000
5839,-44.921875
5840,-42.968750
5841,-42.968750
5842,-41.015625
5843,-41.015625
5844,-39.062500
5845,-37.109375
5846,-35.156250
5847,-35.156250
5848,-33.203125
5849,-31.250000
5850,-31.250000
5851,-27.343750
5852,-27.343750
5853,-29.296875
5854,-23.437500
5855,-23.437500
5856,-21.484375
5857,-19.531250
5858,-17.578125
5859,-17.578125
5860,-15.625000
5861,-13.671875
5862,-13.671875
5863,-11.718750
5864,-9.765625
5865,-7.812500
5866,-5.859375
5867,-5.859375
5868,-3.906250
5869,-1.953125
5870,0.000000
5871,1.953125
5872,1.953125
5873,3.906250
5874,5.859375
5875,7.812500
5876,7.812500
5877,9.765625
5878,11.718750
5879,11.718750
5880,15.625000
5881,15.625000
5882,17.578125
5883,17.578125
5884,19.531250
5885,21.484375
5886,21.484375
5887,23.437500
5888,23.437500
5889,27.343750
5890,27.343750
5891,29.296875
5892,29.296875
5893,31.250000
5894,33.203125
5895,33.203125
5896,35.156250
5897,35.156250
5898,37.109375
5899,39.062500
5900,39.062500
5901,39.062500
5902,41.015625
5903,41.015625
5904,42.968750
5905,44.921875
5906,44.921875
5907,46.875000
5908,46.875000
5909,48.828125
5910,46.875000
5911,48.828125
5912,52.734375
5913,50.781250
5914,50.781250
5915,52.734375
5916,52.734375
5917,52.734375
5918,54.687500
5919,54.687500
5920,54.687500
5921,56.640625
5922,56.640625
5923,56.640625
5924,56.640625
5925,56.640625
5926,58.593750
5927,58.593750
5928,58.593750
5929,58.593750
5930,58.593750
5931,58.593750
5932,58.593750
5933,58.593750
5934,60.546875
5935,60.546875
5936,60.546875
5937,58.593750
5938,60.546875
5939,60.546875
5940,58.593750
5941,60.546875
5942,60.546875
5943,60.546875
5944,58.593750
5945,58.593750
5946,58.593750
5947,58.593750
5948,58.593750
5949,58.593750
5950,58.593750
5951,56.640625
5952,56.640625
5953,56.640625
5954,56.640625
5955,56.640625
5956,54.687500
5957,54.687500
5958,54.687500
5959,52.734375
5960,52.734375
5961,52.734375
5962,52.734375
5963,50.781250
5964,50.781250
5965,50.781250
5966,48.828125
5967,48.828125
5968,46.875000
5969,46.875000
5970,44.921875
5971,44.921875
5972,42.968750
5973,42.968750
5974,42.968750
5975,41.015625
5976,39.062500
5977,39.062500
5978,37.109375
5979,37.109375
5980,35.156250
5981,33.203125
5982,33.203125
5983,31.250000
5984,31.250000
5985,29.296875
5986,27.343750
5987,27.343750
5988,25.390625
5989,23.437500
5990,21.484375
5991,21.484375
5992,19.531250
5993,19.531250
5994,17.578125
5995,15.625000
5996,15.625000
5997,13.671875
5998,11.718750
5999,9.765625
6000,9.765625
6001,7.812500
6002,5.859375
6003,7.812500
6004,3.906250
6005,1.953125
6006,0.000000
6007,-1.953125
6008,-1.953125
6009,-3.906250
6010,-5.859375
6011,-7.812500
6012,-7.812500
6013,-9.765625
6014,-11.718750
6015,-13.671875
6016,-15.625000
6017,-15.625000
6018,-17.578125
6019,-19.531250
6020,-21.484375
6021,-21.484375
6022,-23.437500
6023,-25.390625
6024,-27.343750
6025,-27.343750
6026,-29.296875
6027,-31.250000
6028,-33.203125
6029,-33.203125
6030,-35.156250
6031,-37.109375
6032,-39.062500
6033,-39.062500
6034,-41.015625
6035,-41.015625
6036,-42.968750
6037,-44.921875
6038,-46.875000
6039,-46.875000
6040,-48.828125
6041,-50.781250
6042,-50.781250
6043,-52.734375
6044,-52.734375
6045,-54.687500
6046,-56.640625
6047,-56.640625
6048,-56.640625
6049,-58.593750
6050,-60.546875
6051,-60.546875
6052,-62.500000
6053,-62.500000
6054,-64.453125
6055,-64.453125
6056,-64.453125
6057,-66.406250
6058,-66.406250
6059,-68.359375
6060,-68.359375
6061,-70.312500
6062,-70.312500
6063,-70.312500
6064,-70.312500
6065,-72.265625
6066,-72.265625
6067,-72.265625
6068,-74.218750
6069,-72.265625
6070,-74.218750
6071,-74.218750
6072,-74.218750
6073,-74.218750
6074,-74.218750
6075,-74.218750
6076,-76.171875
6077,-74.218750
6078,-74.218750
6079,-76.171875
6080,-76.171875
6081,-74.218750
6082,-76.171875
6083,-74.218750
6084,-74.218750
6085,-74.218750
6086,-76.171875
6087,-74.218750
6088,-74.218750
6089,-74.218750
6090,-74.218750
6091,-72.265625
6092,-72.265625
6093,-72.265625
6094,-72.265625
6095,-70.312500
6096,-70.312500
6097,-70.312500
6098,-70.312500
6099,-72.265625
6100,-68.359375
6101,-68.359375
6102,-66.406250
6103,-66.406250
6104,-64.453125
6105,-64.453125
6106,-64.453125
6107,-62.500000
6108,-62.500000
6109,-60.546875
6110,-60.546875
6111,-58.593750
6112,-58.593750
6113,-56.640625
6114,-56.640625
6115,-54.687500
6116,-54.687500
6117,-52.734375
6118,-50.781250
6119,-50.781250
6120,-48.828125
6121,-48.828125
6122,-46.875000
6123,-44.921875
6124,-44.921875
6125,-42.968750
6126,-42.968750
6127,-41.015625
6128,-39.062500
6129,-37.109375
6130,-37.109375
6131,-35.156250
6132,-33.203125
6133,-31.250000
6134,-29.296875
6135,-29.296875
6136,-27.343750
6137,-25.390625
6138,-23.437500
6139,-23.437500
6140,-21.484375
6141,-21.484375
6142,-17.578125
6143,-17.578125
6144,-15.625000
6145,-13.671875
6146,-11.718750
6147,-11.718750
6148,-9.765625
6149,-7.812500
6150,-7.812500
6151,-5.859375
6152,-1.953125
6153,-1.953125
6154,0.000000
6155,1.953125
6156,1.953125
6157,3.906250
6158,5.859375
6159,5.859375
6160,7.812500
6161,9.765625
6162,11.718750
6163,11.718750
6164,13.671875
6165,15.625000
6166,15.625000
6167,19.531250
6168,19.531250
6169,21.484375
6170,21.484375
6171,23.437500
6172,25.390625
6173,25.390625
6174,27.343750
6175,29.296875
6176,29.296875
6177,31.250000
6178,31.250000
6179,29.296875
6180,33.203125
6181,33.203125
6182,35.156250
6183,37.109375
6184,39.062500
6185,41.015625
6186,41.015625
6187,41.015625
6188,42.968750
6189,42.968750
6190,44.921875
6191,44.921875
6192,46.875000
6193,46.875000
6194,48.828125
6195,48.828125
6196,52.734375
6197,50.781250
6198,50.781250
6199,52.734375
6200,52.734375
6201,52.734375
6202,54.687500
6203,54.687500
6204,54.687500
6205,54.687500
6206,56.640625
6207,56.640625
6208,56.640625
6209,56.640625
6210,58.593750
6211,56.640625
6212,58.593750
6213,58.593750
6214,58.593750
6215,58.593750
6216,58.593750
6217,60.546875
6218,60.546875
6219,60.546875
6220,60.546875
6221,60.546875
6222,60.546875
6223,60.546875
6224,58.593750
6225,58.593750
6226,60.546875
6227,60.546875
6228,60.546875
6229,58.593750
6230,60.546875
6231,58.593750
6232,58.593750
6233,58.593750
6234,58.593750
6235,58.593750
6236,56.640625
6237,56.640625
6238,56.640625
6239,56.640625
6240,54.687500
6241,54.687500
6242,54.687500
6243,54.687500
6244,52.734375
6245,52.734375
6246,50.781250
6247,50.781250
6248,50.781250
6249,48.828125
6250,48.828125
6251,48.828125
6252,46.875000
6253,46.875000
6254,44.921875
6255,44.921875
6256,42.968750
6257,42.968750
6258,41.015625
6259,41.015625
6260,39.062500
6261,39.062500
6262,37.109375
6263,37.109375
6264,35.156250
6265,33.203125
6266,33.203125
6267,31.250000
6268,31.250000
6269,29.296875
6270,27.343750
6271,27.343750
6272,25.390625
6273,23.437500
6274,23.437500
6275,21.484375
6276,19.531250
6277,17.578125
6278,17.578125
6279,17.578125
6280,15.625000
6281,11.718750
6282,13.671875
6283,11.718750
6284,9.765625
6285,7.812500
6286,5.859375
6287,5.859375
6288,3.906250
6289,1.953125
6290,0.000000
6291,0.000000
6292,-1.953125
6293,-3.906250
6294,-5.859375
6295,-7.812500
6296,-7.812500
6297,-9.765625
6298,-11.718750
6299,-13.671875
6300,-15.625000
6301,-15.625000
6302,-17.578125
6303,-19.531250
6304,-21.484375
6305,-21.484375
6306,-23.437500
6307,-25.390625
6308,-27.343750
6309,-27.343750
6310,-29.296875
6311,-31.250000
6312,-33.203125
6313,-33.203125
6314,-35.156250
6315,-37.109375
6316,-39.062500
6317,-39.062500
6318,-41.015625
6319,-42.968750
6320,-42.968750
6321,-44.921875
6322,-46.875000
6323,-46.875000
6324,-48.828125
6325,-50.781250
6326,-50.781250
6327,-52.734375
6328,-52.734375
6329,-54.687500
6330,-54.687500
6331,-56.640625
6332,-58.593750
6333,-58.593750
6334,-58.593750
6335,-60.546875
6336,-62.500000
6337,-62.500000
6338,-62.500000
6339,-64.453125
6340,-64.453125
6341,-64.453125
6342,-66.406250
6343,-68.359375
6344,-68.359375
6345,-68.359375
6346,-70.312500
6347,-70.312500
6348,-70.312500
6349,-70.312500
6350,-72.265625
6351,-72.265625
6352,-72.265625
6353,-74.218750
6354,-74.218750
6355,-74.218750
6356,-74.218750
6357,-76.171875
6358,-74.218750
6359,-74.218750
6360,-76.171875
6361,-74.218750
6362,-74.218750
6363,-74.218750
6364,-76.171875
6365,-76.171875
6366,-74.218750
6367,-76.171875
6368,-76.171875
6369,-74.218750
6370,-74.218750
6371,-72.265625
6372,-76.171875
6373,-74.218750
6374,-74.218750
6375,-74.218750
6376,-72.265625
6377,-72.265625
6378,-72.265625
6379,-72.265625
6380,-72.265625
6381,-70.312500
6382,-70.312500
6383,-70.312500
6384,-68.359375
6385,-68.359375
6386,-68.359375
6387,-66.406250
6388,-66.406250
6389,-64.453125
6390,-64.453125
6391,-62.500000
6392,-62.500000
6393,-60.546875
6394,-60.546875
6395,-58.593750
6396,-58.593750
6397,-56.640625
6398,-56.640625
6399,-54.687500
6400,-54.687500
6401,-52.734375
6402,-50.781250
6403,-50.781250
6404,-48.828125
6405,-48.828125
6406,-46.875000
6407,-44.921875
6408,-44.921875
6409,-42.968750
6410,-41.015625
6411,-41.015625
6412,-37.109375
6413,-37.109375
6414,-35.156250
6415,-35.156250
6416,-33.203125
6417,-31.250000
6418,-29.296875
6419,-29.296875
6420,-27.343750
6421,-25.390625
6422,-25.390625
6423,-23.437500
6424,-21.484375
6425,-21.484375
6426,-19.531250
6427,-17.578125
6428,-15.625000
6429,-13.671875
6430,-13.671875
6431,-11.718750
6432,-9.765625
6433,-9.765625
6434,-5.859375
6435,-5.859375
6436,-3.906250
6437,-1.953125
6438,0.000000
6439,0.000000
6440,1.953125
6441,3.906250
6442,3.906250
6443,5.859375
6444,7.812500
6445,11.718750
6446,11.718750
6447,11.718750
6448,13.671875
6449,15.625000
6450,15.625000
6451,17.578125
6452,19.531250
6453,19.531250
6454,23.437500
6455,23.437500
6456,25.390625
6457,25.390625
6458,25.390625
6459,27.343750
6460,29.296875
6461,31.250000
6462,31.250000
6463,33.203125
6464,35.156250
6465,35.156250
6466,37.109375
6467,37.109375
6468,39.062500
6469,39.062500
6470,41.015625
6471,42.968750
6472,42.968750
6473,42.968750
6474,44.921875
6475,46.875000
6476,46.875000
6477,46.875000
6478,48.828125
6479,48.828125
6480,48.828125
6481,50.781250
6482,50.781250
6483,52.734375
6484,52.734375
6485,52.734375
6486,54.687500
6487,52.734375
6488,54.687500
6489,56.640625
6490,56.640625
6491,56.640625
6492,56.640625
6493,56.640625
6494,56.640625
6495,58.593750
6496,58.593750
6497,58.593750
6498,58.593750
6499,58.593750
6500,60.546875
6501,58.593750
6502,60.546875
6503,60.546875
6504,60.546875
6505,58.593750
6506,60.546875
6507,60.546875
6508,60.546875
6509,60.546875
6510,60.546875
6511,60.546875
6512,58.593750
6513,58.593750
6514,58.593750
6515,58.593750
6516,58.593750
6517,56.640625
6518,58.593750
6519,58.593750
6520,56.640625
6521,56.640625
6522,56.640625
6523,56.640625
6524,54.687500
6525,54.687500
6526,54.687500
6527,54.687500
6528,52.734375
6529,52.734375
6530,52.734375
6531,50.781250
6532,50.781250
6533,48.828125
6534,48.828125
6535,48.828125
6536,46.875000
6537,46.875000
6538,46.875000
6539,46.875000
6540,44.921875
6541,42.968750
6542,41.015625
6543,41.015625
6544,39.062500
6545,39.062500
6546,37.109375
6547,37.109375
6548,35.156250
6549,35.156250
6550,33.203125
6551,31.250000
6552,31.250000
6553,29.296875
6554,27.343750
6555,27.343750
6556,25.390625
6557,23.437500
6558,23.437500
6559,21.484375
6560,21.484375
6561,19.531250
6562,17.578125
6563,15.625000
6564,13.671875
6565,13.671875
6566,11.718750
6567,9.765625
6568,9.765625
6569,7.812500
6570,5.859375
6571,3.906250
6572,1.953125
6573,1.953125
6574,0.000000
6575,-1.953125
6576,-1.953125
6577,-3.906250
6578,-5.859375
6579,-7.812500
6580,-9.765625
6581,-9.765625
6582,-11.718750
6583,-13.671875
6584,-13.671875
6585,-15.625000
6586,-17.578125
6587,-19.531250
6588,-19.531250
6589,-23.437500
6590,-23.437500
6591,-25.390625
6592,-27.343750
6593,-27.343750
6594,-29.296875
6595,-31.250000
6596,-33.203125
6597,-33.203125
6598,-35.156250
6599,-37.109375
6600,-39.062500
6601,-39.062500
6602,-41.015625
6603,-41.015625
6604,-42.968750
6605,-44.921875
6606,-46.875000
6607,-46.875000
6608,-48.828125
6609,-48.828125
6610,-50.781250
6611,-50.781250
6612,-52.734375
6613,-54.687500
6614,-54.687500
6615,-56.640625
6616,-56.640625
6617,-58.593750
6618,-58.593750
6619,-60.546875
6620,-60.546875
6621,-62.500000
6622,-62.500000
6623,-64.453125
6624,-64.453125
6625,-66.406250
6626,-66.406250
6627,-70.312500
6628,-68.359375
6629,-68.359375
6630,-70.312500
6631,-70.312500
6632,-70.312500
6633,-72.265625
6634,-72.265625
6635,-74.218750
6636,-72.265625
6637,-74.218750
6638,-74.218750
6639,-74.218750
6640,-74.218750
6641,-74.218750
6642,-74.218750
6643,-76.171875
6644,-74.218750
6645,-76.171875
6646,-76.171875
6647,-76.171875
6648,-76.171875
6649,-76.171875
6650,-76.171875
6651,-74.218750
6652,-76.171875
6653,-74.218750
6654,-74.218750
6655,-74.218750
6656,-74.218750
6657,-74.218750
6658,-72.265625
6659,-74.218750
6660,-72.265625
6661,-72.265625
6662,-74.218750
6663,-72.265625
6664,-70.312500
6665,-70.312500
6666,-68.359375
6667,-68.359375
6668,-68.359375
6669,-68.359375
6670,-66.406250
6671,-66.406250
6672,-66.406250
6673,-64.453125
6674,-64.453125
6675,-62.500000
6676,-62.500000
6677,-60.546875
6678,-60.546875
6679,-58.593750
6680,-58.593750
6681,-56.640625
6682,-56.640625
6683,-54.687500
6684,-52.734375
6685,-52.734375
6686,-50.781250
6687,-50.781250
6688,-48.828125
6689,-48.828125
6690,-46.875000
6691,-44.921875
6692,-44.921875
6693,-42.968750
6694,-41.015625
6695,-41.015625
6696,-39.062500
6697,-37.109375
6698,-35.156250
6699,-35.156250
6700,-33.203125
6701,-33.203125
6702,-31.250000
6703,-29.296875
6704,-27.343750
6705,-25.390625
6706,-25.390625
6707,-23.437500
6708,-21.484375
6709,-21.484375
6710,-19.531250
6711,-17.578125
6712,-15.625000
6713,-13.671875
6714,-13.671875
6715,-11.718750
6716,-9.765625
6717,-11.718750
6718,-5.859375
6719,-1.953125
6720,-1.953125
6721,-1.953125
6722,0.000000
6723,0.000000
6724,1.953125
6725,3.906250
6726,5.859375
6727,5.859375
6728,7.812500
6729,9.765625
6730,11.718750
6731,11.718750
6732,13.671875
6733,15.625000
6734,17.578125
6735,17.578125
6736,17.578125
6737,19.531250
6738,21.484375
6739,23.437500
6740,25.390625
6741,25.390625
6742,27.343750
6743,27.343750
6744,29.296875
6745,31.250000
6746,31.250000
6747,33.203125
6748,35.156250
6749,35.156250
6750,37.109375
6751,37.109375
6752,39.062500
6753,39.062500
6754,41.015625
6755,41.015625
6756,42.968750
6757,42.968750
6758,44.921875
6759,44.921875
6760,46.875000
6761,46.875000
6762,48.828125
6763,48.828125
6764,48.828125
6765,50.781250
6766,50.781250
6767,50.781250
6768,52.734375
6769,52.734375
6770,54.687500
6771,54.687500
6772,54.687500
6773,54.687500
6774,54.687500
6775,56.640625
6776,56.640625
6777,56.640625
6778,58.593750
6779,58.593750
6780,58.593750
6781,58.593750
6782,58.593750
6783,58.593750
6784,58.593750
6785,58.593750
6786,60.546875
6787,60.546875
6788,58.593750
6789,60.546875
6790,60.546875
6791,60.546875
6792,60.546875
6793,60.546875
6794,58.593750
6795,60.546875
6796,60.546875
6797,58.593750
6798,58.593750
6799,58.593750
6800,58.593750
6801,58.593750
6802,58.593750
6803,56.640625
6804,58.593750
6805,56.640625
6806,56.640625
6807,56.640625
6808,56.640625
6809,56.640625
6810,54.687500
6811,54.687500
6812,52.734375
6813,52.734375
6814,52.734375
6815,50.781250
6816,50.781250
6817,50.781250
6818,48.828125
6819,48.828125
6820,46.875000
6821,46.875000
6822,46.875000
6823,44.921875
6824,42.968750
6825,42.968750
6826,42.968750
6827,41.015625
6828,39.062500
6829,39.062500
6830,37.109375
6831,37.109375
6832,35.156250
6833,33.203125
6834,33.203125
6835,31.250000
6836,31.250000
6837,29.296875
6838,29.296875
6839,27.343750
6840,25.390625
6841,23.437500
6842,23.437500
6843,21.484375
6844,19.531250
6845,19.531250
6846,17.578125
6847,17.578125
6848,15.625000
6849,13.671875
6850,13.671875
6851,13.671875
6852,9.765625
6853,7.812500
6854,5.859375
6855,5.859375
6856,3.906250
6857,1.953125
6858,0.000000
6859,-1.953125
6860,-1.953125
6861,-3.906250
6862,-3.906250
6863,-7.812500
6864,-7.812500
6865,-9.765625
6866,-11.718750
6867,-11.718750
6868,-13.671875
6869,-15.625000
6870,-17.578125
6871,-19.531250
6872,-19.531250
6873,-21.484375
6874,-23.437500
6875,-23.437500
6876,-25.390625
6877,-27.343750
6878,-29.296875
6879,-29.296875
6880,-33.203125
6881,-33.203125
6882,-35.156250
6883,-37.109375
6884,-39.062500
6885,-39.062500
6886,-41.015625
6887,-41.015625
6888,-42.968750
6889,-44.921875
6890,-46.875000
6891,-46.875000
6892,-46.875000
6893,-48.828125
6894,-50.781250
6895,-52.734375
6896,-52.734375
6897,-54.687500
6898,-54.687500
6899,-56.640625
6900,-56.640625
6901,-58.593750
6902,-60.546875
6903,-60.546875
6904,-60.546875
6905,-62.500000
6906,-62.500000
6907,-64.453125
6908,-64.453125
6909,-64.453125
6910,-66.406250
6911,-68.359375
6912,-68.359375
6913,-68.359375
6914,-70.312500
6915,-70.312500
6916,-70.312500
6917,-70.312500
6918,-72.265625
6919,-72.265625
6920,-72.265625
6921,-74.218750
6922,-74.218750
6923,-72.265625
6924,-74.218750
6925,-74.218750
6926,-74.218750
6927,-74.218750
6928,-74.218750
6929,-76.171875
6930,-76.171875
6931,-74.218750
6932,-74.218750
6933,-76.171875
6934,-76.171875
6935,-74.218750
6936,-74.218750
6937,-74.218750
6938,-74.218750
6939,-74.218750
6940,-74.218750
6941,-74.218750
6942,-74.218750
6943,-74.218750
6944,-72.265625
6945,-72.265625
6946,-72.265625
6947,-72.265625
6948,-70.312500
6949,-70.312500
6950,-68.359375
6951,-68.359375
6952,-68.359375
6953,-68.359375
6954,-68.359375
6955,-66.406250
6956,-66.406250
6957,-66.406250
6958,-64.453125
6959,-62.500000
6960,-62.500000
6961,-62.500000
6962,-60.546875
6963,-58.593750
6964,-58.593750
6965,-58.593750
6966,-56.640625
6967,-54.687500
6968,-52.734375
6969,-52.734375
6970,-52.734375
6971,-50.781250
6972,-48.828125
6973,-48.828125
6974,-46.875000
6975,-44.921875
6976,-44.921875
6977,-42.968750
6978,-41.015625
6979,-41.015625
6980,-39.062500
6981,-39.062500
6982,-37.109375
6983,-35.156250
6984,-33.203125
6985,-33.203125
6986,-31.250000
6987,-29.296875
6988,-27.343750
6989,-27.343750
6990,-25.390625
6991,-23.437500
6992,-21.484375
6993,-19.531250
6994,-19.531250
6995,-17.578125
6996,-15.625000
6997,-15.625000
6998,-13.671875
6999,-11.718750
7000,-9.765625
7001,-7.812500
7002,-7.812500
7003,-5.859375
7004,-3.906250
7005,-1.953125
7006,0.000000
7007,0.000000
7008,1.953125
7009,3.906250
7010,5.859375
7011,5.859375
7012,7.812500
7013,9.765625
7014,9.765625
7015,11.718750
7016,13.671875
7017,15.625000
7018,15.625000
7019,17.578125
7020,17.578125
7021,19.531250
7022,21.484375
7023,23.437500
7024,25.390625
7025,25.390625
7026,27.343750
7027,27.343750
7028,29.296875
7029,31.250000
7030,31.250000
7031,33.203125
7032,33.203125
7033,35.156250
7034,37.109375
7035,37.109375
7036,39.062500
7037,39.062500
7038,41.015625
7039,41.015625
7040,42.968750
7041,42.968750
7042,42.968750
7043,44.921875
7044,46.875000
7045,46.875000
7046,48.828125
7047,48.828125
7048,48.828125
7049,50.781250
7050,50.781250
7051,52.734375
7052,52.734375
7053,52.734375
7054,52.734375
7055,54.687500
7056,54.687500
7057,56.640625
7058,56.640625
7059,56.640625
7060,56.640625
7061,58.593750
7062,58.593750
7063,58.593750
7064,58.593750
7065,58.593750
7066,58.593750
7067,60.546875
7068,58.593750
7069,58.593750
7070,60.546875
7071,60.546875
7072,60.546875
7073,60.546875
7074,60.546875
7075,60.546875
7076,60.546875
7077,60.546875
7078,60.546875
7079,60.546875
7080,60.546875
7081,58.593750
7082,58.593750
7083,58.593750
7084,58.593750
7085,58.593750
7086,58.593750
7087,58.593750
7088,56.640625
7089,56.640625
7090,56.640625
7091,56.640625
7092,54.687500
7093,54.687500
7094,54.687500
7095,52.734375
7096,52.734375
7097,52.734375
7098,52.734375
7099,50.781250
7100,50.781250
7101,50.781250
7102,48.828125
7103,48.828125
7104,46.875000
7105,46.875000
7106,46.875000
7107,44.921875
7108,42.968750
7109,42.968750
7110,42.968750
7111,41.015625
7112,41.015625
7113,39.062500
7114,37.109375
7115,37.109375
7116,37.109375
7117,35.156250
7118,33.203125
7119,33.203125
7120,31.250000
7121,31.250000
7122,29.296875
7123,25.390625
7124,25.390625
7125,25.390625
7126,23.437500
7127,23.437500
7128,21.484375
7129,19.531250
7130,19.531250
7131,17.578125
7132,15.625000
7133,13.671875
7134,13.671875
7135,11.718750
7136,9.765625
7137,7.812500
7138,5.859375
7139,5.859375
7140,3.906250
7141,1.953125
7142,0.000000
7143,0.000000
7144,-1.953125
7145,-3.906250
7146,-5.859375
7147,-5.859375
7148,-7.812500
7149,-9.765625
7150,-11.718750
7151,-11.718750
7152,-13.671875
7153,-15.625000
7154,-17.578125
7155,-15.625000
7156,-19.531250
7157,-21.484375
7158,-23.437500
7159,-25.390625
7160,-25.390625
7161,-27.343750
7162,-29.296875
7163,-31.250000
7164,-31.250000
7165,-33.203125
7166,-35.156250
7167,-37.109375
7168,-37.109375
7169,-39.062500
7170,-39.062500
7171,-42.968750
7172,-42.968750
7173,-44.921875
7174,-46.875000
7175,-46.875000
7176,-48.828125
7177,-48.828125
7178,-50.781250
7179,-50.781250
7180,-52.734375
7181,-54.687500
7182,-54.687500
7183,-56.640625
7184,-56.640625
7185,-58.593750
7186,-58.593750
7187,-60.546875
7188,-60.546875
7189,-62.500000
7190,-62.500000
7191,-64.453125
7192,-64.453125
7193,-66.406250
7194,-66.406250
7195,-66.406250
7196,-68.359375
7197,-68.359375
7198,-70.312500
7199,-70.312500
7200,-70.312500
7201,-70.312500
7202,-70.312500
7203,-72.265625
7204,-72.265625
7205,-72.265625
7206,-72.265625
7207,-74.218750
7208,-74.218750
7209,-74.218750
7210,-74.218750
7211,-74.218750
7212,-74.218750
7213,-76.171875
7214,-74.218750
7215,-74.218750
7216,-76.171875
7217,-76.171875
7218,-76.171875
7219,-76.171875
7220,-76.171875
7221,-76.171875
7222,-74.218750
7223,-76.171875
7224,-74.218750
7225,-74.218750
7226,-74.218750
7227,-74.218750
7228,-72.265625
7229,-72.265625
7230,-72.265625
7231,-72.265625
7232,-70.312500
7233,-70.312500
7234,-70.312500
7235,-70.312500
7236,-68.359375
7237,-68.359375
7238,-66.406250
7239,-66.406250
7240,-66.406250
7241,-64.453125
7242,-64.453125
7243,-62.500000
7244,-62.500000
7245,-60.546875
7246,-60.546875
7247,-60.546875
7248,-58.593750
7249,-56.640625
7250,-56.640625
7251,-54.687500
7252,-54.687500
7253,-52.734375
7254,-50.781250
7255,-50.781250
7256,-48.828125
7257,-46.875000
7258,-46.875000
7259,-44.921875
7260,-44.921875
7261,-42.968750
7262,-41.015625
7263,-41.015625
7264,-39.062500
7265,-39.062500
7266,-37.109375
7267,-35.156250
7268,-33.203125
7269,-33.203125
7270,-31.250000
7271,-29.296875
7272,-29.296875
7273,-27.343750
7274,-25.390625
7275,-23.437500
7276,-23.437500
7277,-19.531250
7278,-19.531250
7279,-17.578125
7280,-15.625000
7281,-13.671875
7282,-11.718750
7283,-11.718750
7284,-9.765625
7285,-9.765625
7286,-7.812500
7287,-5.859375
7288,-3.906250
7289,-3.906250
7290,-1.953125
7291,0.000000
7292,1.953125
7293,3.906250
7294,3.906250
7295,5.859375
7296,7.812500
7297,9.765625
7298,11.718750
7299,11.718750
7300,13.671875
7301,15.625000
7302,15.625000
7303,17.578125
7304,19.531250
7305,19.531250
7306,21.484375
7307,23.437500
7308,25.390625
7309,25.390625
7310,27.343750
7311,27.343750
7312,29.296875
7313,31.250000
7314,31.250000
7315,33.203125
7316,35.156250
7317,35.156250
7318,37.109375
7319,37.109375
7320,39.062500
7321,39.062500
7322,41.015625
7323,41.015625
7324,42.968750
7325,44.921875
7326,44.921875
7327,44.921875
7328,46.875000
7329,46.875000
7330,48.828125
7331,48.828125
7332,50.781250
7333,50.781250
7334,50.781250
7335,50.781250
7336,52.734375
7337,52.734375
7338,52.734375
7339,54.687500
7340,54.687500
7341,54.687500
7342,54.687500
7343,56.640625
7344,56.640625
7345,56.640625
7346,58.593750
7347,56.640625
7348,56.640625
7349,58.593750
7350,58.593750
7351,58.593750
7352,60.546875
7353,58.593750
7354,58.593750
7355,58.593750
7356,58.593750
7357,60.546875
7358,60.546875
7359,60.546875
7360,60.546875
7361,60.546875
7362,60.546875
7363,60.546875
7364,60.546875
7365,60.546875
7366,58.593750
7367,58.593750
7368,58.593750
7369,58.593750
7370,58.593750
7371,58.593750
7372,58.593750
7373,56.640625
7374,56.640625
7375,56.640625
7376,56.640625
7377,54.687500
7378,54.687500
7379,54.687500
7380,54.687500
7381,52.734375
7382,52.734375
7383,50.781250
7384,50.781250
7385,50.781250
7386,48.828125
7387,48.828125
7388,46.875000
7389,46.875000
7390,46.875000
7391,44.921875
7392,44.921875
7393,42.968750
7394,41.015625
7395,41.015625
7396,41.015625
7397,39.062500
7398,37.109375
7399,37.109375
7400,35.156250
7401,35.156250
7402,33.203125
7403,33.203125
7404,31.250000
7405,29.296875
7406,29.296875
7407,27.343750
7408,25.390625
7409,25.390625
7410,23.437500
7411,21.484375
7412,21.484375
7413,19.531250
7414,17.578125
7415,15.625000
7416,15.625000
7417,13.671875
7418,13.671875
7419,11.718750
7420,9.765625
7421,7.812500
7422,5.859375
7423,5.859375
7424,3.906250
7425,1.953125
7426,0.000000
7427,0.000000
7428,-3.906250
7429,-3.906250
7430,-5.859375
7431,-5.859375
7432,-7.812500
7433,-9.765625
7434,-9.765625
7435,-11.718750
7436,-13.671875
7437,-15.625000
7438,-15.625000
7439,-17.578125
7440,-19.531250
7441,-21.484375
7442,-23.437500
7443,-25.390625
7444,-25.390625
7445,-27.343750
7446,-29.296875
7447,-31.250000
7448,-31.250000
7449,-33.203125
7450,-35.156250
7451,-37.109375
7452,-37.109375
7453,-39.062500
7454,-39.062500
7455,-41.015625
7456,-42.968750
7457,-42.968750
7458,-44.921875
7459,-46.875000
7460,-48.828125
7461,-48.828125
7462,-50.781250
7463,-50.781250
7464,-52.734375
7465,-52.734375
7466,-54.687500
7467,-56.640625
7468,-56.640625
7469,-58.593750
7470,-58.593750
7471,-60.546875
7472,-62.500000
7473,-62.500000
7474,-62.500000
7475,-64.453125
7476,-64.453125
7477,-64.453125
7478,-66.406250
7479,-66.406250
7480,-68.359375
7481,-68.359375
7482,-68.359375
7483,-70.312500
7484,-70.312500
7485,-72.265625
7486,-72.265625
7487,-72.265625
7488,-72.265625
7489,-72.265625
7490,-72.265625
7491,-74.218750
7492,-74.218750
7493,-74.218750
7494,-74.218750
7495,-74.218750
7496,-76.171875
7497,-76.171875
7498,-76.171875
7499,-74.218750
7500,-74.218750
7501,-76.171875
7502,-74.218750
7503,-76.171875
7504,-74.218750
7505,-74.218750
7506,-74.218750
7507,-74.218750
7508,-74.218750
7509,-72.265625
7510,-74.218750
7511,-74.218750
7512,-74.218750
7513,-72.265625
7514,-72.265625
7515,-72.265625
7516,-70.312500
7517,-70.312500
7518,-70.312500
7519,-68.359375
7520,-68.359375
7521,-68.359375
7522,-66.406250
7523,-66.406250
7524,-64.453125
7525,-66.406250
7526,-64.453125
7527,-62.500000
7528,-62.500000
7529,-62.500000
7530,-60.546875
7531,-58.593750
7532,-58.593750
7533,-56.640625
7534,-56.640625
7535,-54.687500
7536,-54.687500
7537,-52.734375
7538,-52.734375
7539,-50.781250
7540,-50.781250
7541,-48.828125
7542,-46.875000
7543,-46.875000
7544,-44.921875
7545,-42.968750
7546,-41.015625
7547,-41.015625
7548,-39.062500
7549,-37.109375
7550,-37.109375
7551,-37.109375
7552,-35.156250
7553,-33.203125
7554,-31.250000
7555,-29.296875
7556,-27.343750
7557,-25.390625
7558,-25.390625
7559,-23.437500
7560,-23.437500
7561,-21.484375
7562,-19.531250
7563,-17.578125
7564,-15.625000
7565,-15.625000
7566,-13.671875
7567,-11.718750
7568,-9.765625
7569,-7.812500
7570,-7.812500
7571,-5.859375
7572,-3.906250
7573,-3.906250
7574,-1.953125
7575,0.000000
7576,1.953125
7577,3.906250
7578,3.906250
7579,5.859375
7580,7.812500
7581,9.765625
7582,9.765625
7583,11.718750
7584,13.671875
7585,15.625000
7586,15.625000
7587,17.578125
7588,19.531250
7589,19.531250
7590,21.484375
7591,23.437500
7592,23.437500
7593,25.390625
7594,27.343750
7595,27.343750
7596,29.296875
7597,31.250000
7598,31.250000
7599,33.203125
7600,33.203125
7601,35.156250
7602,37.109375
7603,37.109375
7604,39.062500
7605,39.062500
7606,41.015625
7607,41.015625
7608,42.968750
7609,42.968750
7610,42.968750
7611,46.875000
7612,44.921875
7613,46.875000
7614,46.875000
7615,48.828125
7616,48.828125
7617,48.828125
7618,50.781250
7619,50.781250
7620,52.734375
7621,52.734375
7622,52.734375
7623,54.687500
7624,54.687500
7625,56.640625
7626,54.687500
7627,56.640625
7628,56.640625
7629,56.640625
7630,58.593750
7631,58.593750
7632,58.593750
7633,58.593750
7634,58.593750
7635,58.593750
7636,60.546875
7637,58.593750
7638,60.546875
7639,60.546875
7640,60.546875
7641,60.546875
7642,60.546875
7643,60.546875
7644,60.546875
7645,60.546875
7646,60.546875
7647,58.593750
7648,60.546875
7649,60.546875
7650,60.546875
7651,60.546875
7652,58.593750
7653,58.593750
7654,58.593750
7655,58.593750
7656,58.593750
7657,58.593750
7658,56.640625
7659,56.640625
7660,54.687500
7661,54.687500
7662,54.687500
7663,54.687500
7664,54.687500
7665,52.734375
7666,52.734375
7667,50.781250
7668,50.781250
7669,50.781250
7670,48.828125
7671,48.828125
7672,46.875000
7673,46.875000
7674,46.875000
7675,44.921875
7676,42.968750
7677,42.968750
7678,42.968750
7679,41.015625
7680,41.015625
7681,39.062500
7682,39.062500
7683,37.109375
7684,37.109375
7685,35.156250
7686,35.156250
7687,33.203125
7688,31.250000
7689,29.296875
7690,29.296875
7691,27.343750
7692,27.343750
7693,25.390625
7694,25.390625
7695,21.484375
7696,21.484375
7697,19.531250
7698,19.531250
7699,17.578125
7700,15.625000
7701,13.671875
7702,11.718750
7703,11.718750
7704,9.765625
7705,7.812500
7706,7.812500
7707,5.859375
7708,3.906250
7709,3.906250
7710,1.953125
7711,0.000000
7712,-1.953125
7713,-3.906250
7714,-5.859375
7715,-5.859375
7716,-7.812500
7717,-9.765625
7718,-11.718750
7719,-11.718750
7720,-13.671875
7721,-15.625000
7722,-15.625000
7723,-17.578125
7724,-21.484375
7725,-21.484375
7726,-23.437500
7727,-25.390625
7728,-25.390625
7729,-27.343750
7730,-29.296875
7731,-29.296875
7732,-31.250000
7733,-33.203125
7734,-35.156250
7735,-35.156250
7736,-37.109375
7737,-39.062500
7738,-41.015625
7739,-41.015625
7740,-42.968750
7741,-44.921875
7742,-44.921875
7743,-46.875000
7744,-48.828125
7745,-48.828125
7746,-50.781250
7747,-50.781250
7748,-52.734375
7749,-54.687500
7750,-54.687500
7751,-56.640625
7752,-56.640625
7753,-58.593750
7754,-58.593750
7755,-60.546875
7756,-60.546875
7757,-62.500000
7758,-62.500000
7759,-62.500000
7760,-64.453125
7761,-66.406250
7762,-66.406250
7763,-68.359375
7764,-68.359375
7765,-68.359375
7766,-68.359375
7767,-70.312500
7768,-70.312500
7769,-70.312500
7770,-70.312500
7771,-72.265625
7772,-72.265625
7773,-72.265625
7774,-74.218750
7775,-74.218750
7776,-72.265625
7777,-74.218750
7778,-74.218750
7779,-76.171875
7780,-74.218750
7781,-74.218750
7782,-74.218750
7783,-76.171875
7784,-74.218750
7785,-76.171875
7786,-76.171875
7787,-76.171875
7788,-74.218750
7789,-76.171875
7790,-74.218750
7791,-74.218750
7792,-74.218750
7793,-74.218750
7794,-74.218750
7795,-74.218750
7796,-72.265625
7797,-72.265625
7798,-72.265625
7799,-72.265625
7800,-70.312500
7801,-70.312500
7802,-70.312500
7803,-70.312500
7804,-68.359375
7805,-68.359375
7806,-68.359375
7807,-66.406250
7808,-66.406250
7809,-66.406250
7810,-64.453125
7811,-64.453125
7812,-62.500000
7813,-62.500000
7814,-60.546875
7815,-60.546875
7816,-58.593750
7817,-56.640625
7818,-56.640625
7819,-56.640625
7820,-54.687500
7821,-52.734375
7822,-52.734375
7823,-50.781250
7824,-50.781250
7825,-48.828125
7826,-46.875000
7827,-44.921875
7828,-44.921875
7829,-42.968750
7830,-41.015625
7831,-41.015625
7832,-39.062500
7833,-39.062500
7834,-35.156250
7835,-35.156250
7836,-33.203125
7837,-33.203125
7838,-31.250000
7839,-29.296875
7840,-29.296875
7841,-27.343750
7842,-25.390625
7843,-23.437500
7844,-23.437500
7845,-21.484375
7846,-19.531250
7847,-17.578125
7848,-15.625000
7849,-13.671875
7850,-13.671875
7851,-11.718750
7852,-11.718750
7853,-9.765625
7854,-7.812500
7855,-5.859375
7856,-3.906250
7857,-1.953125
7858,-1.953125
7859,0.000000
7860,1.953125
7861,3.906250
7862,3.906250
7863,5.859375
7864,7.812500
7865,7.812500
7866,9.765625
7867,11.718750
7868,13.671875
7869,13.671875
7870,15.625000
7871,17.578125
7872,19.531250
7873,19.531250
7874,21.484375
7875,23.437500
7876,23.437500
7877,23.437500
7878,27.343750
7879,27.343750
7880,29.296875
7881,31.250000
7882,31.250000
7883,31.250000
7884,33.203125
7885,35.156250
7886,35.156250
7887,37.109375
7888,37.109375
7889,39.062500
7890,41.015625
7891,41.015625
7892,42.968750
7893,42.968750
7894,46.875000
7895,44.921875
7896,50.781250
7897,46.875000
7898,48.828125
7899,48.828125
7900,50.781250
7901,50.781250
7902,50.781250
7903,50.781250
7904,52.734375
7905,52.734375
7906,54.687500
7907,54.687500
7908,54.687500
7909,56.640625
7910,56.640625
7911,56.640625
7912,56.640625
7913,56.640625
7914,58.593750
7915,58.593750
7916,58.593750
7917,58.593750
7918,58.593750
7919,58.593750
7920,56.640625
7921,58.593750
7922,60.546875
7923,60.546875
7924,58.593750
7925,60.546875
7926,60.546875
7927,58.593750
7928,58.593750
7929,60.546875
7930,60.546875
7931,58.593750
7932,58.593750
7933,60.546875
7934,58.593750
7935,58.593750
7936,58.593750
7937,58.593750
7938,58.593750
7939,56.640625
7940,56.640625
7941,56.640625
7942,56.640625
7943,54.687500
7944,56.640625
7945,54.687500
7946,54.687500
7947,54.687500
7948,52.734375
7949,52.734375
7950,50.781250
7951,50.781250
7952,50.781250
7953,50.781250
7954,48.828125
7955,48.828125
7956,46.875000
7957,46.875000
7958,46.875000
7959,44.921875
7960,42.968750
7961,44.921875
7962,42.968750
7963,41.015625
7964,41.015625
7965,39.062500
7966,39.062500
7967,42.968750
7968,37.109375
7969,35.156250
7970,35.156250
7971,33.203125
7972,31.250000
7973,29.296875
7974,29.296875
7975,27.343750
7976,27.343750
7977,25.390625
7978,23.437500
7979,21.484375
7980,23.437500
7981,19.531250
7982,17.578125
7983,17.578125
7984,15.625000
7985,13.671875
7986,11.718750
7987,11.718750
7988,9.765625
7989,7.812500
7990,7.812500
7991,5.859375
7992,5.859375
7993,3.906250
7994,0.000000
7995,0.000000
7996,-1.953125
7997,-3.906250
7998,-5.859375
7999,-7.812500
8000,-7.812500
8001,-9.765625
8002,-11.718750
8003,-11.718750
8004,-13.671875
8005,-15.625000
8006,-15.625000
8007,-19.531250
8008,-19.531250
8009,-21.484375
8010,-23.437500
8011,-23.437500
8012,-25.390625
8013,-27.343750
8014,-29.296875
8015,-29.296875
8016,-31.250000
8017,-33.203125
8018,-33.203125
8019,-35.156250
8020,-37.109375
8021,-37.109375
8022,-39.062500
8023,-41.015625
8024,-42.968750
8025,-42.968750
8026,-44.921875
8027,-44.921875
8028,-46.875000
8029,-48.828125
8030,-48.828125
8031,-50.781250
8032,-52.734375
8033,-52.734375
8034,-54.687500
8035,-54.687500
8036,-56.640625
8037,-56.640625
8038,-58.593750
8039,-60.546875
8040,-60.546875
8041,-62.500000
8042,-62.500000
8043,-62.500000
8044,-64.453125
8045,-66.406250
8046,-64.453125
8047,-66.406250
8048,-70.312500
8049,-68.359375
8050,-68.359375
8051,-70.312500
8052,-70.312500
8053,-72.265625
8054,-72.265625
8055,-72.265625
8056,-72.265625
8057,-72.265625
8058,-74.218750
8059,-74.218750
8060,-74.218750
8061,-74.218750
8062,-74.218750
8063,-74.218750
8064,-74.218750
8065,-76.171875
8066,-76.171875
8067,-74.218750
8068,-74.218750
8069,-76.171875
8070,-76.171875
8071,-74.218750
8072,-72.265625
8073,-74.218750
8074,-74.218750
8075,-74.218750
8076,-74.218750
8077,-74.218750
8078,-74.218750
8079,-74.218750
8080,-74.218750
8081,-70.312500
8082,-72.265625
8083,-72.265625
8084,-72.265625
8085,-70.312500
8086,-68.359375
8087,-68.359375
8088,-68.359375
8089,-68.359375
8090,-66.406250
8091,-66.406250
8092,-66.406250
8093,-64.453125
8094,-64.453125
8095,-64.453125
8096,-62.500000
8097,-60.546875
8098,-60.546875
8099,-58.593750
8100,-56.640625
8101,-56.640625
8102,-56.640625
8103,-56.640625
8104,-54.687500
8105,-54.687500
8106,-52.734375
8107,-50.781250
8108,-50.781250
8109,-48.828125
8110,-46.875000
8111,-46.875000
8112,-44.921875
8113,-42.968750
8114,-42.968750
8115,-41.015625
8116,-39.062500
8117,-39.062500
8118,-37.109375
8119,-37.109375
8120,-35.156250
8121,-33.203125
8122,-31.250000
8123,-29.296875
8124,-27.343750
8125,-27.343750
8126,-25.390625
8127,-23.437500
8128,-23.437500
8129,-21.484375
8130,-19.531250
8131,-17.578125
8132,-15.625000
8133,-15.625000
8134,-13.671875
8135,-11.718750
8136,-11.718750
8137,-9.765625
8138,-7.812500
8139,-5.859375
8140,-3.906250
8141,-3.906250
8142,-1.953125
8143,0.000000
8144,1.953125
8145,3.906250
8146,3.906250
8147,5.859375
8148,5.859375
8149,7.812500
8150,9.765625
8151,11.718750
8152,11.718750
8153,15.625000
8154,15.625000
8155,17.578125
8156,19.531250
8157,19.531250
8158,21.484375
8159,21.484375
8160,25.390625
8161,25.390625
8162,27.343750
8163,29.296875
8164,29.296875
8165,31.250000
8166,31.250000
8167,33.203125
8168,33.203125
8169,35.156250
8170,35.156250
8171,37.109375
8172,39.062500
8173,39.062500
8174,41.015625
8175,41.015625
8176,41.015625
8177,42.968750
8178,44.921875
8179,44.921875
8180,44.921875
8181,46.875000
8182,46.875000
8183,48.828125
8184,48.828125
8185,50.781250
8186,50.781250
8187,50.781250
8188,52.734375
8189,52.734375
8190,52.734375
8191,54.687500
8192,54.687500
8193,54.687500
8194,54.687500
8195,54.687500
8196,56.640625
8197,56.640625
8198,56.640625
8199,58.593750
8200,58.593750
8201,58.593750
8202,58.593750
8203,58.593750
8204,58.593750
8205,60.546875
8206,58.593750
8207,58.593750
8208,60.546875
8209,60.546875
8210,60.546875
8211,60.546875
8212,60.546875
8213,60.546875
8214,60.546875
8215,60.546875
8216,60.546875
8217,58.593750
8218,60.546875
8219,58.593750
8220,58.593750
8221,58.593750
8222,58.593750
8223,58.593750
8224,58.593750
8225,56.640625
8226,56.640625
8227,56.640625
8228,56.640625
8229,54.687500
8230,54.687500
8231,54.687500
8232,52.734375
8233,52.734375
8234,52.734375
8235,52.734375
8236,50.781250
8237,50.781250
8238,46.875000
8239,48.828125
8240,48.828125
8241,46.875000
8242,46.875000
8243,44.921875
8244,44.921875
8245,42.968750
8246,42.968750
8247,41.015625
8248,41.015625
8249,39.062500
8250,39.062500
8251,37.109375
8252,37.109375
8253,35.156250
8254,35.156250
8255,31.250000
8256,31.250000
8257,29.296875
8258,29.296875
8259,27.343750
8260,27.343750
8261,25.390625
8262,23.437500
8263,23.437500
8264,21.484375
8265,21.484375
8266,19.531250
8267,17.578125
8268,15.625000
8269,13.671875
8270,13.671875
8271,11.718750
8272,9.765625
8273,9.765625
8274,7.812500
8275,3.906250
8276,5.859375
8277,3.906250
8278,1.953125
8279,0.000000
8280,-1.953125
8281,-3.906250
8282,-3.906250
8283,-5.859375
8284,-5.859375
8285,-7.812500
8286,-11.718750
8287,-11.718750
8288,-13.671875
8289,-15.625000
8290,-15.625000
8291,-17.578125
8292,-19.531250
8293,-21.484375
8294,-21.484375
8295,-23.437500
8296,-25.390625
8297,-27.343750
8298,-27.343750
8299,-29.296875
8300,-31.250000
8301,-33.203125
8302,-35.156250
8303,-37.109375
8304,-35.156250
8305,-39.062500
8306,-39.062500
8307,-41.015625
8308,-42.968750
8309,-44.921875
8310,-44.921875
8311,-46.875000
8312,-46.875000
8313,-48.828125
8314,-50.781250
8315,-50.781250
8316,-52.734375
8317,-52.734375
8318,-54.687500
8319,-56.640625
8320,-56.640625
8321,-56.640625
8322,-58.593750
8323,-60.546875
8324,-62.500000
8325,-62.500000
8326,-62.500000
8327,-64.453125
8328,-64.453125
8329,-66.406250
8330,-66.406250
8331,-66.406250
8332,-68.359375
8333,-68.359375
8334,-68.359375
8335,-70.312500
8336,-70.312500
8337,-72.265625
8338,-72.265625
8339,-72.265625
8340,-72.265625
8341,-72.265625
8342,-74.218750
8343,-74.218750
8344,-74.218750
8345,-72.265625
8346,-74.218750
8347,-74.218750
8348,-74.218750
8349,-74.218750
8350,-74.218750
8351,-76.171875
8352,-76.171875
8353,-74.218750
8354,-74.218750
8355,-74.218750
8356,-76.171875
8357,-74.218750
8358,-74.218750
8359,-74.218750
8360,-74.218750
8361,-74.218750
8362,-74.218750
8363,-74.218750
8364,-72.265625
8365,-72.265625
8366,-72.265625
8367,-72.265625
8368,-72.265625
8369,-70.312500
8370,-70.312500
8371,-70.312500
8372,-70.312500
8373,-68.359375
8374,-66.406250
8375,-66.406250
8376,-66.406250
8377,-66.406250
8378,-64.453125
8379,-64.453125
8380,-62.500000
8381,-62.500000
8382,-60.546875
8383,-60.546875
8384,-60.546875
8385,-58.593750
8386,-56.640625
8387,-56.640625
8388,-54.687500
8389,-52.734375
8390,-52.734375
8391,-50.781250
8392,-50.781250
8393,-48.828125
8394,-46.875000
8395,-46.875000
8396,-44.921875
8397,-42.968750
8398,-41.015625
8399,-41.015625
8400,-39.062500
8401,-39.062500
8402,-37.109375
8403,-35.156250
8404,-33.203125
8405,-33.203125
8406,-31.250000
8407,-29.296875
8408,-27.343750
8409,-25.390625
8410,-25.390625
8411,-23.437500
8412,-23.437500
8413,-21.484375
8414,-19.531250
8415,-17.578125
8416,-15.625000
8417,-15.625000
8418,-13.671875
8419,-11.718750
8420,-9.765625
8421,-7.812500
8422,-7.812500
8423,-5.859375
8424,-3.906250
8425,-3.906250
8426,-1.953125
8427,0.000000
8428,1.953125
8429,3.906250
8430,3.906250
8431,5.859375
8432,7.812500
8433,9.765625
8434,9.765625
8435,11.718750
8436,13.671875
8437,13.671875
8438,15.625000
8439,17.578125
8440,19.531250
8441,19.531250
8442,21.484375
8443,25.390625
8444,23.437500
8445,25.390625
8446,25.390625
8447,27.343750
8448,29.296875
8449,29.296875
8450,31.250000
8451,31.250000
8452,35.156250
8453,35.156250
8454,35.156250
8455,37.109375
8456,39.062500
8457,39.062500
8458,39.062500
8459,41.015625
8460,41.015625
8461,42.968750
8462,44.921875
8463,44.921875
8464,46.875000
8465,46.875000
8466,46.875000
8467,48.828125
8468,48.828125
8469,48.828125
8470,50.781250
8471,50.781250
8472,52.734375
8473,52.734375
8474,54.687500
8475,54.687500
8476,54.687500
8477,54.687500
8478,56.640625
8479,56.640625
8480,56.640625
8481,56.640625
8482,58.593750
8483,58.593750
8484,58.593750
8485,58.593750
8486,58.593750
8487,58.593750
8488,60.546875
8489,58.593750
8490,58.593750
8491,60.546875
8492,60.546875
8493,60.546875
8494,58.593750
8495,60.546875
8496,60.546875
8497,60.546875
8498,60.546875
8499,60.546875
8500,60.546875
8501,58.593750
8502,60.546875
8503,58.593750
8504,58.593750
8505,58.593750
8506,58.593750
8507,58.593750
8508,56.640625
8509,56.640625
8510,56.640625
8511,56.640625
8512,56.640625
8513,54.687500
8514,54.687500
8515,54.687500
8516,52.734375
8517,52.734375
8518,52.734375
8519,52.734375
8520,50.781250
8521,50.781250
8522,48.828125
8523,48.828125
8524,46.875000
8525,46.875000
8526,46.875000
8527,44.921875
8528,44.921875
8529,46.875000
8530,42.968750
8531,41.015625
8532,41.015625
8533,39.062500
8534,39.062500
8535,37.109375
8536,37.109375
8537,35.156250
8538,33.203125
8539,33.203125
8540,31.250000
8541,31.250000
8542,29.296875
8543,27.343750
8544,27.343750
8545,25.390625
8546,23.437500
8547,23.437500
8548,21.484375
8549,19.531250
8550,17.578125
8551,17.578125
8552,15.625000
8553,15.625000
8554,13.671875
8555,11.718750
8556,9.765625
8557,9.765625
8558,7.812500
8559,5.859375
8560,3.906250
8561,1.953125
8562,1.953125
8563,0.000000
8564,0.000000
8565,-3.906250
8566,-3.906250
8567,-5.859375
8568,-7.812500
8569,-9.765625
8570,-9.765625
8571,-11.718750
8572,-13.671875
8573,-15.625000
8574,-17.578125
8575,-17.578125
8576,-19.531250
8577,-21.484375
8578,-21.484375
8579,-23.437500
8580,-25.390625
8581,-27.343750
8582,-29.296875
8583,-31.250000
8584,-31.250000
8585,-33.203125
8586,-35.156250
8587,-35.156250
8588,-37.109375
8589,-37.109375
8590,-39.062500
8591,-41.015625
8592,-44.921875
8593,-42.968750
8594,-44.921875
8595,-46.875000
8596,-46.875000
8597,-48.828125
8598,-48.828125
8599,-50.781250
8600,-52.734375
8601,-52.734375
8602,-54.687500
8603,-54.687500
8604,-56.640625
8605,-56.640625
8606,-58.593750
8607,-60.546875
8608,-58.593750
8609,-60.546875
8610,-62.500000
8611,-62.500000
8612,-64.453125
8613,-64.453125
8614,-66.406250
8615,-66.406250
8616,-66.406250
8617,-68.359375
8618,-68.359375
8619,-68.359375
8620,-70.312500
8621,-70.312500
8622,-72.265625
8623,-72.265625
8624,-72.265625
8625,-72.265625
8626,-72.265625
8627,-74.218750
8628,-74.218750
8629,-74.218750
8630,-72.265625
8631,-74.218750
8632,-74.218750
8633,-76.171875
8634,-76.171875
8635,-80.078125
8636,-74.218750
8637,-76.171875
8638,-76.171875
8639,-74.218750
8640,-74.218750
8641,-74.218750
8642,-76.171875
8643,-74.218750
8644,-76.171875
8645,-74.218750
8646,-74.218750
8647,-74.218750
8648,-74.218750
8649,-70.312500
8650,-72.265625
8651,-72.265625
8652,-72.265625
8653,-72.265625
8654,-70.312500
8655,-70.312500
8656,-68.359375
8657,-68.359375
8658,-66.406250
8659,-66.406250
8660,-66.406250
8661,-64.453125
8662,-64.453125
8663,-62.500000
8664,-62.500000
8665,-62.500000
8666,-60.546875
8667,-60.546875
8668,-58.593750
8669,-56.640625
8670,-56.640625
8671,-54.687500
8672,-54.687500
8673,-52.734375
8674,-50.781250
8675,-50.781250
8676,-50.781250
8677,-48.828125
8678,-46.875000
8679,-46.875000
8680,-44.921875
8681,-42.968750
8682,-42.968750
8683,-41.015625
8684,-39.062500
8685,-39.062500
8686,-37.109375
8687,-35.156250
8688,-33.203125
8689,-33.203125
8690,-31.250000
8691,-31.250000
8692,-29.296875
8693,-27.343750
8694,-25.390625
8695,-23.437500
8696,-23.437500
8697,-21.484375
8698,-19.531250
8699,-19.531250
8700,-17.578125
8701,-15.625000
8702,-13.671875
8703,-11.718750
8704,-11.718750
8705,-9.765625
8706,-7.812500
8707,-5.859375
8708,-3.906250
8709,-1.953125
8710,-1.953125
8711,0.000000
8712,1.953125
8713,3.906250
8714,3.906250
8715,5.859375
8716,5.859375
8717,7.812500
8718,9.765625
8719,9.765625
8720,13.671875
8721,15.625000
8722,15.625000
8723,15.625000
8724,17.578125
8725,19.531250
8726,21.484375
8727,21.484375
8728,23.437500
8729,25.390625
8730,25.390625
8731,27.343750
8732,29.296875
8733,29.296875
8734,31.250000
8735,33.203125
8736,33.203125
8737,35.156250
8738,35.156250
8739,37.109375
8740,37.109375
8741,39.062500
8742,41.015625
8743,41.015625
8744,42.968750
8745,42.968750
8746,44.921875
8747,44.921875
8748,46.875000
8749,46.875000
8750,46.875000
8751,48.828125
8752,48.828125
8753,50.781250
8754,50.781250
8755,50.781250
8756,52.734375
8757,52.734375
8758,52.734375
8759,54.687500
8760,54.687500
8761,54.687500
8762,54.687500
8763,56.640625
8764,56.640625
8765,56.640625
8766,56.640625
8767,56.640625
8768,58.593750
8769,58.593750
8770,58.593750
8771,58.593750
8772,58.593750
8773,58.593750
8774,60.546875
8775,58.593750
8776,60.546875
8777,58.593750
8778,60.546875
8779,60.546875
8780,60.546875
8781,60.546875
8782,60.546875
8783,60.546875
8784,60.546875
8785,60.546875
8786,58.593750
8787,58.593750
8788,58.593750
8789,58.593750
8790,58.593750
8791,58.593750
8792,58.593750
8793,58.593750
8794,56.640625
8795,56.640625
8796,56.640625
8797,56.640625
8798,54.687500
8799,54.687500
8800,54.687500
8801,54.687500
8802,52.734375
8803,50.781250
8804,50.781250
8805,50.781250
8806,50.781250
8807,48.828125
8808,48.828125
8809,46.875000
8810,46.875000
8811,44.921875
8812,44.921875
8813,42.968750
8814,42.968750
8815,42.968750
8816,41.015625
8817,39.062500
8818,39.062500
8819,37.109375
8820,37.109375
8821,35.156250
8822,33.203125
8823,33.203125
8824,31.250000
8825,31.250000
8826,29.296875
8827,29.296875
8828,27.343750
8829,25.390625
8830,23.437500
8831,23.437500
8832,21.484375
8833,19.531250
8834,19.531250
8835,17.578125
8836,15.625000
8837,15.625000
8838,13.671875
8839,11.718750
8840,9.765625
8841,9.765625
8842,7.812500
8843,5.859375
8844,3.906250
8845,3.906250
8846,1.953125
8847,0.000000
8848,-1.953125
8849,-1.953125
8850,-3.906250
8851,-5.859375
8852,-7.812500
8853,-7.812500
8854,-7.812500
8855,-11.718750
8856,-13.671875
8857,-15.625000
8858,-15.625000
8859,-17.578125
8860,-19.531250
8861,-21.484375
8862,-21.484375
8863,-23.437500
8864,-25.390625
8865,-27.343750
8866,-27.343750
8867,-29.296875
8868,-31.250000
8869,-31.250000
8870,-33.203125
8871,-35.156250
8872,-37.109375
8873,-39.062500
8874,-39.062500
8875,-41.015625
8876,-42.968750
8877,-42.968750
8878,-44.921875
8879,-46.875000
8880,-46.875000
8881,-48.828125
8882,-48.828125
8883,-50.781250
8884,-52.734375
8885,-52.734375
8886,-54.687500
8887,-54.687500
8888,-56.640625
8889,-58.593750
8890,-58.593750
8891,-58.593750
8892,-60.546875
8893,-62.500000
8894,-62.500000
8895,-62.500000
8896,-64.453125
8897,-66.406250
8898,-66.406250
8899,-66.406250
8900,-68.359375
8901,-68.359375
8902,-68.359375
8903,-68.359375
8904,-70.312500
8905,-70.312500
8906,-72.265625
8907,-72.265625
8908,-72.265625
8909,-72.265625
8910,-74.218750
8911,-74.218750
8912,-76.171875
8913,-74.218750
8914,-74.218750
8915,-74.218750
8916,-74.218750
8917,-76.171875
8918,-74.218750
8919,-74.218750
8920,-74.218750
8921,-74.218750
8922,-74.218750
8923,-74.218750
8924,-74.218750
8925,-74.218750
8926,-74.218750
8927,-74.218750
8928,-74.218750
8929,-74.218750
8930,-74.218750
8931,-72.265625
8932,-72.265625
8933,-72.265625
8934,-72.265625
8935,-72.265625
8936,-72.265625
8937,-70.312500
8938,-70.312500
8939,-68.359375
8940,-68.359375
8941,-68.359375
8942,-68.359375
8943,-66.406250
8944,-66.406250
8945,-64.453125
8946,-64.453125
8947,-64.453125
8948,-62.500000
8949,-62.500000
8950,-60.546875
8951,-60.546875
8952,-58.593750
8953,-58.593750
8954,-56.640625
8955,-56.640625
8956,-54.687500
8957,-54.687500
8958,-52.734375
8959,-50.781250
8960,-52.734375
8961,-48.828125
8962,-48.828125
8963,-46.875000
8964,-44.921875
8965,-44.921875
8966,-42.968750
8967,-41.015625
8968,-41.015625
8969,-39.062500
8970,-37.109375
8971,-35.156250
8972,-35.156250
8973,-33.203125
8974,-31.250000
8975,-29.296875
8976,-29.296875
8977,-27.343750
8978,-25.390625
8979,-23.437500
8980,-21.484375
8981,-21.484375
8982,-19.531250
8983,-17.578125
8984,-17.578125
8985,-15.625000
8986,-13.671875
8987,-11.718750
8988,-9.765625
8989,-9.765625
8990,-7.812500
8991,-5.859375
8992,-3.906250
8993,-3.906250
8994,-1.953125
8995,0.000000
8996,1.953125
8997,1.953125
8998,3.906250
8999,5.859375
9000,7.812500
9001,7.812500
9002,9.765625
9003,11.718750
9004,13.671875
9005,13.671875
9006,15.625000
9007,17.578125
9008,17.578125
9009,19.531250
9010,21.484375
9011,23.437500
9012,23.437500
9013,25.390625
9014,25.390625
9015,27.343750
9016,29.296875
9017,29.296875
9018,31.250000
9019,33.203125
9020,33.203125
9021,31.250000
9022,35.156250
9023,37.109375
9024,37.109375
9025,39.062500
9026,39.062500
9027,41.015625
9028,41.015625
9029,42.968750
9030,42.968750
9031,44.921875
9032,46.875000
9033,46.875000
9034,46.875000
9035,48.828125
9036,48.828125
9037,50.781250
9038,48.828125
9039,50.781250
9040,52.734375
9041,52.734375
9042,54.687500
9043,54.687500
9044,54.687500
9045,54.687500
9046,56.640625
9047,54.687500
9048,56.640625
9049,58.593750
9050,58.593750
9051,58.593750
9052,58.593750
9053,58.593750
9054,58.593750
9055,60.546875
9056,58.593750
9057,58.593750
9058,60.546875
9059,60.546875
9060,60.546875
9061,60.546875
9062,58.593750
9063,60.546875
9064,60.546875
9065,60.546875
9066,60.546875
9067,60.546875
9068,60.546875
9069,60.546875
9070,60.546875
9071,60.546875
9072,58.593750
9073,58.593750
9074,58.593750
9075,58.593750
9076,58.593750
9077,56.640625
9078,56.640625
9079,56.640625
9080,56.640625
9081,54.687500
9082,54.687500
9083,54.687500
9084,54.687500
9085,52.734375
9086,52.734375
9087,50.781250
9088,50.781250
9089,48.828125
9090,48.828125
9091,48.828125
9092,48.828125
9093,46.875000
9094,46.875000
9095,44.921875
9096,44.921875
9097,42.968750
9098,42.968750
9099,42.968750
9100,41.015625
9101,39.062500
9102,39.062500
9103,37.109375
9104,37.109375
9105,35.156250
9106,35.156250
9107,33.203125
9108,31.250000
9109,31.250000
9110,29.296875
9111,29.296875
9112,27.343750
9113,25.390625
9114,23.437500
9115,23.437500
9116,21.484375
9117,19.531250
9118,19.531250
9119,17.578125
9120,17.578125
9121,15.625000
9122,13.671875
9123,11.718750
9124,11.718750
9125,9.765625
9126,7.812500
9127,5.859375
9128,5.859375
9129,3.906250
9130,1.953125
9131,0.000000
9132,0.000000
9133,-1.953125
9134,-3.906250
9135,-5.859375
9136,-7.812500
9137,-7.812500
9138,-9.765625
9139,-11.718750
9140,-11.718750
9141,-13.671875
9142,-17.578125
9143,-17.578125
9144,-19.531250
9145,-19.531250
9146,-21.484375
9147,-23.437500
9148,-25.390625
9149,-25.390625
9150,-29.296875
9151,-29.296875
9152,-31.250000
9153,-33.203125
9154,-33.203125
9155,-35.156250
9156,-37.109375
9157,-37.109375
9158,-39.062500
9159,-41.015625
9160,-42.968750
9161,-42.968750
9162,-44.921875
9163,-44.921875
9164,-46.875000
9165,-48.828125
9166,-50.781250
9167,-50.781250
9168,-52.734375
9169,-52.734375
9170,-52.734375
9171,-54.687500
9172,-56.640625
9173,-56.640625
9174,-58.593750
9175,-60.546875
9176,-60.546875
9177,-60.546875
9178,-62.500000
9179,-62.500000
9180,-64.453125
9181,-64.453125
9182,-68.359375
9183,-66.406250
9184,-66.406250
9185,-68.359375
9186,-68.359375
9187,-70.312500
9188,-70.312500
9189,-70.312500
9190,-70.312500
9191,-72.265625
9192,-72.265625
9193,-72.265625
9194,-72.265625
9195,-72.265625
9196,-72.265625
9197,-74.218750
9198,-74.218750
9199,-74.218750
9200,-74.218750
9201,-74.218750
9202,-76.171875
9203,-74.218750
9204,-74.218750
9205,-74.218750
9206,-76.171875
9207,-76.171875
9208,-74.218750
9209,-74.218750
9210,-74.218750
9211,-74.218750
9212,-74.218750
9213,-74.218750
9214,-74.218750
9215,-74.218750
9216,-72.265625
9217,-72.265625
9218,-72.265625
9219,-72.265625
9220,-72.265625
9221,-70.312500
9222,-70.312500
9223,-70.312500
9224,-72.265625
9225,-68.359375
9226,-66.406250
9227,-66.406250
9228,-66.406250
9229,-66.406250
9230,-64.453125
9231,-64.453125
9232,-62.500000
9233,-62.500000
9234,-60.546875
9235,-60.546875
9236,-58.593750
9237,-58.593750
9238,-58.593750
9239,-56.640625
9240,-54.687500
9241,-52.734375
9242,-52.734375
9243,-50.781250
9244,-50.781250
9245,-48.828125
9246,-46.875000
9247,-46.875000
9248,-44.921875
9249,-44.921875
9250,-42.968750
9251,-41.015625
9252,-39.062500
9253,-39.062500
9254,-37.109375
9255,-35.156250
9256,-35.156250
9257,-33.203125
9258,-31.250000
9259,-31.250000
9260,-29.296875
9261,-27.343750
9262,-25.390625
9263,-25.390625
9264,-23.437500
9265,-21.484375
9266,-19.531250
9267,-19.531250
9268,-15.625000
9269,-15.625000
9270,-13.671875
9271,-11.718750
9272,-9.765625
9273,-9.765625
9274,-7.812500
9275,-5.859375
9276,-5.859375
9277,-5.859375
9278,-1.953125
9279,-1.953125
9280,0.000000
9281,1.953125
9282,3.906250
9283,5.859375
9284,5.859375
9285,7.812500
9286,9.765625
9287,11.718750
9288,11.718750
9289,13.671875
9290,15.625000
9291,17.578125
9292,17.578125
9293,19.531250
9294,21.484375
9295,23.437500
9296,23.437500
9297,23.437500
9298,23.437500
9299,27.343750
9300,29.296875
9301,29.296875
9302,31.250000
9303,31.250000
9304,33.203125
9305,35.156250
9306,35.156250
9307,37.109375
9308,37.109375
9309,39.062500
9310,39.062500
9311,41.015625
9312,42.968750
9313,42.968750
9314,42.968750
9315,44.921875
9316,44.921875
9317,46.875000
9318,46.875000
9319,48.828125
9320,48.828125
9321,50.781250
9322,50.781250
9323,50.781250
9324,52.734375
9325,52.734375
9326,52.734375
9327,54.687500
9328,54.687500
9329,54.687500
9330,54.687500
9331,56.640625
9332,56.640625
9333,56.640625
9334,56.640625
9335,56.640625
9336,58.593750
9337,58.593750
9338,58.593750
9339,58.593750
9340,58.593750
9341,60.546875
9342,60.546875
9343,60.546875
9344,58.593750
9345,58.593750
9346,60.546875
9347,60.546875
9348,60.546875
9349,60.546875
9350,60.546875
9351,60.546875
9352,60.546875
9353,60.546875
9354,58.593750
9355,58.593750
9356,58.593750
9357,58.593750
9358,58.593750
9359,58.593750
9360,56.640625
9361,56.640625
9362,56.640625
9363,56.640625
9364,56.640625
9365,54.687500
9366,54.687500
9367,54.687500
9368,54.687500
9369,52.734375
9370,52.734375
9371,52.734375
9372,50.781250
9373,50.781250
9374,50.781250
9375,48.828125
9376,48.828125
9377,46.875000
9378,46.875000
9379,46.875000
9380,44.921875
9381,44.921875
9382,42.968750
9383,42.968750
9384,41.015625
9385,37.109375
9386,39.062500
9387,39.062500
9388,39.062500
9389,35.156250
9390,35.156250
9391,33.203125
9392,33.203125
9393,31.250000
9394,29.296875
9395,29.296875
9396,27.343750
9397,25.390625
9398,25.390625
9399,23.437500
9400,21.484375
9401,19.531250
9402,19.531250
9403,17.578125
9404,17.578125
9405,15.625000
9406,13.671875
9407,11.718750
9408,11.718750
9409,9.765625
9410,7.812500
9411,5.859375
9412,3.906250
9413,3.906250
9414,1.953125
9415,0.000000
9416,-1.953125
9417,-1.953125
9418,-3.906250
9419,-5.859375
9420,-5.859375
9421,-9.765625
9422,-9.765625
9423,-11.718750
9424,-11.718750
9425,-13.671875
9426,-15.625000
9427,-17.578125
9428,-19.531250
9429,-19.531250
9430,-21.484375
9431,-23.437500
9432,-25.390625
9433,-27.343750
9434,-27.343750
9435,-29.296875
9436,-31.250000
9437,-31.250000
9438,-33.203125
9439,-35.156250
9440,-37.109375
9441,-37.109375
9442,-39.062500
9443,-41.015625
9444,-41.015625
9445,-42.968750
9446,-44.921875
9447,-44.921875
9448,-46.875000
9449,-48.828125
9450,-48.828125
9451,-48.828125
9452,-50.781250
9453,-52.734375
9454,-54.687500
9455,-54.687500
9456,-56.640625
9457,-56.640625
9458,-58.593750
9459,-58.593750
9460,-58.593750
9461,-60.546875
9462,-62.500000
9463,-62.500000
9464,-64.453125
9465,-64.453125
9466,-66.406250
9467,-66.406250
9468,-66.406250
9469,-68.359375
9470,-68.359375
9471,-68.359375
9472,-70.312500
9473,-70.312500
9474,-72.265625
9475,-72.265625
9476,-72.265625
9477,-72.265625
9478,-74.218750
9479,-74.218750
9480,-74.218750
9481,-74.218750
9482,-74.218750
9483,-74.218750
9484,-76.171875
9485,-76.171875
9486,-76.171875
9487,-76.171875
9488,-76.171875
9489,-76.171875
9490,-76.171875
9491,-76.171875
9492,-76.171875
9493,-74.218750
9494,-76.171875
9495,-74.218750
9496,-74.218750
9497,-74.218750
9498,-74.218750
9499,-74.218750
9500,-72.265625
9501,-72.265625
9502,-72.265625
9503,-72.265625
9504,-70.312500
9505,-72.265625
9506,-70.312500
9507,-68.359375
9508,-68.359375
9509,-68.359375
9510,-68.359375
9511,-68.359375
9512,-68.359375
9513,-64.453125
9514,-64.453125
9515,-64.453125
9516,-62.500000
9517,-62.500000
9518,-60.546875
9519,-60.546875
9520,-58.593750
9521,-58.593750
9522,-56.640625
9523,-56.640625
9524,-54.687500
9525,-52.734375
9526,-52.734375
9527,-50.781250
9528,-50.781250
9529,-48.828125
9530,-48.828125
9531,-46.875000
9532,-44.921875
9533,-44.921875
9534,-42.968750
9535,-41.015625
9536,-41.015625
9537,-39.062500
9538,-37.109375
9539,-37.109375
9540,-35.156250
9541,-33.203125
9542,-31.250000
9543,-31.250000
9544,-29.296875
9545,-27.343750
9546,-27.343750
9547,-23.437500
9548,-23.437500
9549,-23.437500
9550,-19.531250
9551,-19.531250
9552,-17.578125
9553,-15.625000
9554,-15.625000
9555,-13.671875
9556,-9.765625
9557,-9.765625
9558,-7.812500
9559,-5.859375
9560,-5.859375
9561,-3.906250
9562,-1.953125
9563,0.000000
9564,0.000000
9565,1.953125
9566,3.906250
9567,3.906250
9568,5.859375
9569,7.812500
9570,9.765625
9571,11.718750
9572,11.718750
9573,13.671875
9574,15.625000
9575,17.578125
9576,17.578125
9577,19.531250
9578,21.484375
9579,23.437500
9580,23.437500
9581,25.390625
9582,27.343750
9583,27.343750
9584,29.296875
9585,29.296875
9586,31.250000
9587,33.203125
9588,33.203125
9589,35.156250
9590,35.156250
9591,37.109375
9592,37.109375
9593,39.062500
9594,41.015625
9595,41.015625
9596,42.968750
9597,42.968750
9598,42.968750
9599,44.921875
9600,44.921875
9601,46.875000
9602,46.875000
9603,48.828125
9604,48.828125
9605,48.828125
9606,50.781250
9607,50.781250
9608,52.734375
9609,52.734375
9610,52.734375
9611,54.687500
9612,54.687500
9613,54.687500
9614,56.640625
9615,54.687500
9616,56.640625
9617,56.640625
9618,56.640625
9619,56.640625
9620,58.593750
9621,58.593750
9622,58.593750
9623,58.593750
9624,58.593750
9625,58.593750
9626,58.593750
9627,60.546875
9628,60.546875
9629,60.546875
9630,60.546875
9631,58.593750
9632,62.500000
9633,60.546875
9634,60.546875
9635,60.546875
9636,60.546875
9637,60.546875
9638,60.546875
9639,58.593750
9640,58.593750
9641,60.546875
9642,58.593750
9643,58.593750
9644,58.593750
9645,58.593750
9646,56.640625
9647,56.640625
9648,56.640625
9649,54.687500
9650,54.687500
9651,54.687500
9652,54.687500
9653,52.734375
9654,54.687500
9655,52.734375
9656,50.781250
9657,50.781250
9658,50.781250
9659,48.828125
9660,48.828125
9661,46.875000
9662,46.875000
9663,44.921875
9664,44.921875
9665,44.921875
9666,42.968750
9667,41.015625
9668,41.015625
9669,39.062500
9670,39.062500
9671,37.109375
9672,37.109375
9673,35.156250
9674,33.203125
9675,33.203125
9676,33.203125
9677,29.296875
9678,29.296875
9679,27.343750
9680,27.343750
9681,25.390625
9682,23.437500
9683,23.437500
9684,23.437500
9685,21.484375
9686,19.531250
9687,19.531250
9688,15.625000
9689,15.625000
9690,13.671875
9691,11.718750
9692,11.718750
9693,9.765625
9694,7.812500
9695,5.859375
9696,5.859375
9697,3.906250
9698,1.953125
9699,1.953125
9700,0.000000
9701,-1.953125
9702,-3.906250
9703,-5.859375
9704,-5.859375
9705,-7.812500
9706,-9.765625
9707,-11.718750
9708,-11.718750
9709,-13.671875
9710,-15.625000
9711,-17.578125
9712,-19.531250
9713,-19.531250
9714,-21.484375
9715,-23.437500
9716,-25.390625
9717,-25.390625
9718,-25.390625
9719,-29.296875
9720,-31.250000
9721,-33.203125
9722,-33.203125
9723,-35.156250
9724,-37.109375
9725,-37.109375
9726,-39.062500
9727,-39.062500
9728,-41.015625
9729,-42.968750
9730,-44.921875
9731,-46.875000
9732,-46.875000
9733,-48.828125
9734,-48.828125
9735,-50.781250
9736,-50.781250
9737,-54.687500
9738,-54.687500
9739,-54.687500
9740,-56.640625
9741,-56.640625
9742,-58.593750
9743,-60.546875
9744,-60.546875
9745,-60.546875
9746,-62.500000
9747,-64.453125
9748,-64.453125
9749,-64.453125
9750,-66.406250
9751,-66.406250
9752,-66.406250
9753,-66.406250
9754,-68.359375
9755,-68.359375
9756,-70.312500
9757,-70.312500
9758,-70.312500
9759,-72.265625
9760,-70.312500
9761,-72.265625
9762,-72.265625
9763,-72.265625
9764,-74.218750
9765,-74.218750
9766,-74.218750
9767,-74.218750
9768,-74.218750
9769,-74.218750
9770,-76.171875
9771,-74.218750
9772,-74.218750
9773,-74.218750
9774,-74.218750
9775,-74.218750
9776,-74.218750
9777,-74.218750
9778,-74.218750
9779,-74.218750
9780,-74.218750
9781,-74.218750
9782,-74.218750
9783,-74.218750
9784,-72.265625
9785,-72.265625
9786,-72.265625
9787,-72.265625
9788,-70.312500
9789,-70.312500
9790,-70.312500
9791,-70.312500
9792,-70.312500
9793,-68.359375
9794,-68.359375
9795,-68.359375
9796,-64.453125
9797,-66.406250
9798,-64.453125
9799,-64.453125
9800,-62.500000
9801,-62.500000
9802,-60.546875
9803,-60.546875
9804,-60.546875
9805,-58.593750
9806,-56.640625
9807,-56.640625
9808,-54.687500
9809,-52.734375
9810,-52.734375
9811,-52.734375
9812,-50.781250
9813,-48.828125
9814,-48.828125
9815,-46.875000
9816,-46.875000
9817,-42.968750
9818,-41.015625
9819,-41.015625
9820,-41.015625
9821,-39.062500
9822,-37.109375
9823,-37.109375
9824,-35.156250
9825,-33.203125
9826,-31.250000
9827,-31.250000
9828,-29.296875
9829,-29.296875
9830,-25.390625
9831,-25.390625
9832,-23.437500
9833,-21.484375
9834,-19.531250
9835,-19.531250
9836,-17.578125
9837,-15.625000
9838,-13.671875
9839,-13.671875
9840,-9.765625
9841,-9.765625
9842,-7.812500
9843,-5.859375
9844,-3.906250
9845,-3.906250
9846,-1.953125
9847,0.000000
9848,0.000000
9849,3.906250
9850,3.906250
9851,5.859375
9852,5.859375
9853,7.812500
9854,7.812500
9855,9.765625
9856,11.718750
9857,13.671875
9858,15.625000
9859,15.625000
9860,17.578125
9861,17.578125
9862,19.531250
9863,21.484375
9864,23.437500
9865,23.437500
9866,25.390625
9867,21.484375
9868,27.343750
9869,29.296875
9870,31.250000
9871,31.250000
9872,33.203125
9873,33.203125
9874,35.156250
9875,35.156250
9876,37.109375
9877,39.062500
9878,39.062500
9879,41.015625
9880,41.015625
9881,42.968750
9882,42.968750
9883,44.921875
9884,44.921875
9885,46.875000
9886,46.875000
9887,48.828125
9888,48.828125
9889,48.828125
9890,50.781250
9891,50.781250
9892,52.734375
9893,52.734375
9894,52.734375
9895,54.687500
9896,54.687500
9897,54.687500
9898,56.640625
9899,56.640625
9900,56.640625
9901,56.640625
9902,58.593750
9903,58.593750
9904,58.593750
9905,58.593750
9906,58.593750
9907,58.593750
9908,60.546875
9909,60.546875
9910,60.546875
9911,60.546875
9912,60.546875
9913,60.546875
9914,60.546875
9915,60.546875
9916,60.546875
9917,60.546875
9918,60.546875
9919,58.593750
9920,58.593750
9921,60.546875
9922,60.546875
9923,58.593750
9924,58.593750
9925,58.593750
9926,58.593750
9927,58.593750
9928,56.640625
9929,56.640625
9930,56.640625
9931,56.640625
9932,56.640625
9933,54.687500
9934,54.687500
9935,54.687500
9936,54.687500
9937,52.734375
9938,52.734375
9939,52.734375
9940,50.781250
9941,50.781250
9942,50.781250
9943,48.828125
9944,48.828125
9945,48.828125
9946,46.875000
9947,44.921875
9948,44.921875
9949,44.921875
9950,41.015625
9951,42.968750
9952,41.015625
9953,41.015625
9954,39.062500
9955,39.062500
9956,37.109375
9957,37.109375
9958,35.156250
9959,33.203125
9960,33.203125
9961,31.250000
9962,31.250000
9963,29.296875
9964,27.343750
9965,25.390625
9966,25.390625
9967,23.437500
9968,23.437500
9969,21.484375
9970,19.531250
9971,17.578125
9972,17.578125
9973,15.625000
9974,13.671875
9975,13.671875
9976,11.718750
9977,9.765625
9978,9.765625
9979,7.812500
9980,5.859375
9981,3.906250
9982,1.953125
9983,1.953125
9984,0.000000
9985,-1.953125
9986,-3.906250
9987,-5.859375
9988,-5.859375
9989,-7.812500
9990,-9.765625
9991,-11.718750
9992,-13.671875
9993,-13.671875
9994,-15.625000
9995,-17.578125
9996,-19.531250
9997,-19.531250
9998,-21.484375
9999,-23.437500
10000,-25.390625
