Channel              :,CH1
Frequency            :,1.759kHz
Period               :,0.568ms
PK-PK                :,169.9mV
Probe attenuation    :,1X
Voltage per ADC value:,0.122070mV
Time interval        :,2.00000us

index,CH1_Voltage(mV)
1,52.734375
2,52.734375
3,52.734375
4,50.781250
5,50.781250
6,48.828125
7,46.875000
8,46.875000
9,44.921875
10,42.968750
11,42.968750
12,41.015625
13,39.062500
14,37.109375
15,37.109375
16,35.156250
17,33.203125
18,33.203125
19,31.250000
20,29.296875
21,25.390625
22,25.390625
23,23.437500
24,23.437500
25,19.531250
26,17.578125
27,17.578125
28,15.625000
29,13.671875
30,11.718750
31,9.765625
32,5.859375
33,7.812500
34,5.859375
35,3.906250
36,1.953125
37,0.000000
38,-1.953125
39,-3.906250
40,-5.859375
41,-7.812500
42,-9.765625
43,-11.718750
44,-13.671875
45,-15.625000
46,-17.578125
47,-17.578125
48,-19.531250
49,-21.484375
50,-23.437500
51,-27.343750
52,-27.343750
53,-29.296875
54,-31.250000
55,-33.203125
56,-35.156250
57,-37.109375
58,-37.109375
59,-39.062500
60,-41.015625
61,-42.968750
62,-44.921875
63,-46.875000
64,-48.828125
65,-48.828125
66,-50.781250
67,-52.734375
68,-54.687500
69,-56.640625
70,-56.640625
71,-58.593750
72,-60.546875
73,-60.546875
74,-62.500000
75,-64.453125
76,-66.406250
77,-66.406250
78,-68.359375
79,-70.312500
80,-70.312500
81,-72.265625
82,-72.265625
83,-74.218750
84,-74.218750
85,-76.171875
86,-78.125000
87,-78.125000
88,-78.125000
89,-80.078125
90,-80.078125
91,-82.031250
92,-83.984375
93,-83.984375
94,-83.984375
95,-83.984375
96,-85.937500
97,-85.937500
98,-85.937500
99,-87.890625
100,-87.890625
101,-87.890625
102,-87.890625
103,-87.890625
104,-89.843750
105,-89.843750
106,-89.843750
107,-89.843750
108,-89.843750
109,-89.843750
110,-89.843750
111,-89.843750
112,-89.843750
113,-89.843750
114,-89.843750
115,-89.843750
116,-89.843750
117,-87.890625
118,-87.890625
119,-87.890625
120,-87.890625
121,-87.890625
122,-85.937500
123,-85.937500
124,-85.937500
125,-83.984375
126,-83.984375
127,-83.984375
128,-82.031250
129,-82.031250
130,-82.031250
131,-80.078125
132,-80.078125
133,-78.125000
134,-76.171875
135,-76.171875
136,-76.171875
137,-74.218750
138,-74.218750
139,-72.265625
140,-70.312500
141,-70.312500
142,-68.359375
143,-68.359375
144,-66.406250
145,-64.453125
146,-62.500000
147,-62.500000
148,-60.546875
149,-58.593750
150,-58.593750
151,-56.640625
152,-54.687500
153,-52.734375
154,-52.734375
155,-48.828125
156,-48.828125
157,-46.875000
158,-44.921875
159,-42.968750
160,-42.968750
161,-41.015625
162,-39.062500
163,-37.109375
164,-33.203125
165,-31.250000
166,-27.343750
167,-29.296875
168,-27.343750
169,-25.390625
170,-23.437500
171,-21.484375
172,-19.531250
173,-17.578125
174,-17.578125
175,-15.625000
176,-13.671875
177,-11.718750
178,-9.765625
179,-7.812500
180,-5.859375
181,-3.906250
182,-3.906250
183,-1.953125
184,0.000000
185,3.906250
186,3.906250
187,7.812500
188,7.812500
189,9.765625
190,11.718750
191,13.671875
192,15.625000
193,17.578125
194,17.578125
195,21.484375
196,21.484375
197,23.437500
198,25.390625
199,27.343750
200,27.343750
201,31.250000
202,31.250000
203,33.203125
204,35.156250
205,37.109375
206,37.109375
207,39.062500
208,41.015625
209,41.015625
210,42.968750
211,44.921875
212,42.968750
213,46.875000
214,48.828125
215,48.828125
216,50.781250
217,50.781250
218,54.687500
219,54.687500
220,54.687500
221,56.640625
222,56.640625
223,56.640625
224,58.593750
225,60.546875
226,60.546875
227,62.500000
228,62.500000
229,62.500000
230,64.453125
231,66.406250
232,66.406250
233,66.406250
234,66.406250
235,68.359375
236,68.359375
237,68.359375
238,70.312500
239,70.312500
240,70.312500
241,70.312500
242,72.265625
243,72.265625
244,72.265625
245,72.265625
246,72.265625
247,72.265625
248,72.265625
249,72.265625
250,74.218750
251,74.218750
252,74.218750
253,74.218750
254,74.218750
255,74.218750
256,72.265625
257,74.218750
258,72.265625
259,72.265625
260,72.265625
261,72.265625
262,70.312500
263,72.265625
264,72.265625
265,70.312500
266,70.312500
267,68.359375
268,70.312500
269,70.312500
270,68.359375
271,66.406250
272,66.406250
273,66.406250
274,66.406250
275,64.453125
276,64.453125
277,62.500000
278,62.500000
279,60.546875
280,60.546875
281,58.593750
282,58.593750
283,56.640625
284,56.640625
285,54.687500
286,54.687500
287,52.734375
288,50.781250
289,50.781250
290,48.828125
291,46.875000
292,46.875000
293,44.921875
294,42.968750
295,42.968750
296,41.015625
297,39.062500
298,39.062500
299,35.156250
300,35.156250
301,33.203125
302,31.250000
303,29.296875
304,29.296875
305,27.343750
306,25.390625
307,23.437500
308,19.531250
309,21.484375
310,19.531250
311,17.578125
312,15.625000
313,13.671875
314,13.671875
315,11.718750
316,7.812500
317,7.812500
318,5.859375
319,3.906250
320,1.953125
321,0.000000
322,-1.953125
323,-3.906250
324,-5.859375
325,-7.812500
326,-9.765625
327,-11.718750
328,-13.671875
329,-15.625000
330,-21.484375
331,-17.578125
332,-19.531250
333,-21.484375
334,-23.437500
335,-25.390625
336,-27.343750
337,-29.296875
338,-31.250000
339,-33.203125
340,-35.156250
341,-35.156250
342,-37.109375
343,-39.062500
344,-41.015625
345,-42.968750
346,-46.875000
347,-48.828125
348,-48.828125
349,-50.781250
350,-50.781250
351,-52.734375
352,-54.687500
353,-56.640625
354,-56.640625
355,-58.593750
356,-60.546875
357,-62.500000
358,-64.453125
359,-64.453125
360,-66.406250
361,-66.406250
362,-68.359375
363,-70.312500
364,-72.265625
365,-72.265625
366,-74.218750
367,-74.218750
368,-76.171875
369,-78.125000
370,-78.125000
371,-80.078125
372,-80.078125
373,-80.078125
374,-80.078125
375,-82.031250
376,-83.984375
377,-83.984375
378,-83.984375
379,-85.937500
380,-85.937500
381,-85.937500
382,-87.890625
383,-87.890625
384,-87.890625
385,-87.890625
386,-89.843750
387,-89.843750
388,-89.843750
389,-87.890625
390,-89.843750
391,-89.843750
392,-89.843750
393,-89.843750
394,-89.843750
395,-89.843750
396,-89.843750
397,-89.843750
398,-89.843750
399,-89.843750
400,-89.843750
401,-89.843750
402,-87.890625
403,-87.890625
404,-87.890625
405,-87.890625
406,-87.890625
407,-85.937500
408,-85.937500
409,-85.937500
410,-83.984375
411,-83.984375
412,-83.984375
413,-82.031250
414,-82.031250
415,-82.031250
416,-80.078125
417,-80.078125
418,-80.078125
419,-76.171875
420,-76.171875
421,-76.171875
422,-74.218750
423,-72.265625
424,-70.312500
425,-70.312500
426,-70.312500
427,-68.359375
428,-66.406250
429,-66.406250
430,-64.453125
431,-62.500000
432,-60.546875
433,-60.546875
434,-58.593750
435,-56.640625
436,-54.687500
437,-54.687500
438,-52.734375
439,-50.781250
440,-48.828125
441,-46.875000
442,-46.875000
443,-44.921875
444,-41.015625
445,-39.062500
446,-39.062500
447,-37.109375
448,-35.156250
449,-33.203125
450,-31.250000
451,-29.296875
452,-27.343750
453,-25.390625
454,-23.437500
455,-23.437500
456,-21.484375
457,-19.531250
458,-17.578125
459,-15.625000
460,-13.671875
461,-11.718750
462,-9.765625
463,-7.812500
464,-5.859375
465,-3.906250
466,-1.953125
467,0.000000
468,1.953125
469,3.906250
470,3.906250
471,5.859375
472,7.812500
473,9.765625
474,11.718750
475,13.671875
476,15.625000
477,17.578125
478,19.531250
479,19.531250
480,21.484375
481,23.437500
482,23.437500
483,27.343750
484,27.343750
485,29.296875
486,31.250000
487,31.250000
488,33.203125
489,35.156250
490,37.109375
491,39.062500
492,41.015625
493,41.015625
494,44.921875
495,44.921875
496,44.921875
497,46.875000
498,48.828125
499,48.828125
500,50.781250
501,50.781250
502,50.781250
503,54.687500
504,54.687500
505,56.640625
506,56.640625
507,58.593750
508,60.546875
509,60.546875
510,62.500000
511,60.546875
512,62.500000
513,64.453125
514,64.453125
515,64.453125
516,66.406250
517,66.406250
518,68.359375
519,68.359375
520,72.265625
521,70.312500
522,70.312500
523,70.312500
524,72.265625
525,70.312500
526,72.265625
527,72.265625
528,72.265625
529,72.265625
530,76.171875
531,72.265625
532,72.265625
533,72.265625
534,74.218750
535,74.218750
536,74.218750
537,74.218750
538,74.218750
539,72.265625
540,72.265625
541,72.265625
542,72.265625
543,72.265625
544,72.265625
545,72.265625
546,72.265625
547,70.312500
548,70.312500
549,70.312500
550,70.312500
551,68.359375
552,68.359375
553,68.359375
554,68.359375
555,66.406250
556,66.406250
557,66.406250
558,64.453125
559,64.453125
560,62.500000
561,62.500000
562,62.500000
563,60.546875
564,60.546875
565,58.593750
566,58.593750
567,56.640625
568,54.687500
569,54.687500
570,54.687500
571,52.734375
572,50.781250
573,50.781250
574,48.828125
575,48.828125
576,46.875000
577,44.921875
578,42.968750
579,42.968750
580,41.015625
581,41.015625
582,39.062500
583,37.109375
584,35.156250
585,33.203125
586,31.250000
587,31.250000
588,29.296875
589,27.343750
590,25.390625
591,25.390625
592,23.437500
593,21.484375
594,19.531250
595,17.578125
596,15.625000
597,13.671875
598,11.718750
599,9.765625
600,9.765625
601,7.812500
602,5.859375
603,3.906250
604,1.953125
605,0.000000
606,-1.953125
607,-3.906250
608,-5.859375
609,-7.812500
610,-7.812500
611,-11.718750
612,-11.718750
613,-13.671875
614,-15.625000
615,-17.578125
616,-19.531250
617,-21.484375
618,-23.437500
619,-27.343750
620,-27.343750
621,-29.296875
622,-31.250000
623,-33.203125
624,-35.156250
625,-35.156250
626,-37.109375
627,-39.062500
628,-41.015625
629,-42.968750
630,-44.921875
631,-44.921875
632,-46.875000
633,-48.828125
634,-50.781250
635,-52.734375
636,-56.640625
637,-54.687500
638,-56.640625
639,-58.593750
640,-60.546875
641,-60.546875
642,-62.500000
643,-64.453125
644,-66.406250
645,-66.406250
646,-68.359375
647,-70.312500
648,-70.312500
649,-72.265625
650,-72.265625
651,-74.218750
652,-74.218750
653,-76.171875
654,-76.171875
655,-78.125000
656,-78.125000
657,-80.078125
658,-80.078125
659,-82.031250
660,-82.031250
661,-83.984375
662,-83.984375
663,-83.984375
664,-83.984375
665,-85.937500
666,-85.937500
667,-85.937500
668,-87.890625
669,-87.890625
670,-87.890625
671,-87.890625
672,-89.843750
673,-89.843750
674,-89.843750
675,-89.843750
676,-89.843750
677,-89.843750
678,-89.843750
679,-89.843750
680,-89.843750
681,-89.843750
682,-89.843750
683,-87.890625
684,-89.843750
685,-89.843750
686,-89.843750
687,-87.890625
688,-87.890625
689,-87.890625
690,-85.937500
691,-85.937500
692,-85.937500
693,-83.984375
694,-83.984375
695,-83.984375
696,-83.984375
697,-82.031250
698,-80.078125
699,-80.078125
700,-80.078125
701,-78.125000
702,-78.125000
703,-76.171875
704,-76.171875
705,-74.218750
706,-72.265625
707,-72.265625
708,-72.265625
709,-68.359375
710,-68.359375
711,-68.359375
712,-66.406250
713,-64.453125
714,-62.500000
715,-62.500000
716,-60.546875
717,-60.546875
718,-56.640625
719,-56.640625
720,-54.687500
721,-52.734375
722,-52.734375
723,-50.781250
724,-48.828125
725,-46.875000
726,-44.921875
727,-44.921875
728,-41.015625
729,-39.062500
730,-39.062500
731,-37.109375
732,-35.156250
733,-33.203125
734,-31.250000
735,-31.250000
736,-27.343750
737,-27.343750
738,-23.437500
739,-23.437500
740,-21.484375
741,-19.531250
742,-17.578125
743,-15.625000
744,-13.671875
745,-11.718750
746,-9.765625
747,-9.765625
748,-5.859375
749,-3.906250
750,-3.906250
751,-1.953125
752,0.000000
753,1.953125
754,5.859375
755,5.859375
756,7.812500
757,9.765625
758,11.718750
759,11.718750
760,13.671875
761,17.578125
762,19.531250
763,19.531250
764,21.484375
765,21.484375
766,25.390625
767,27.343750
768,27.343750
769,31.250000
770,31.250000
771,33.203125
772,35.156250
773,35.156250
774,37.109375
775,39.062500
776,41.015625
777,41.015625
778,42.968750
779,44.921875
780,44.921875
781,46.875000
782,48.828125
783,46.875000
784,50.781250
785,52.734375
786,52.734375
787,52.734375
788,54.687500
789,54.687500
790,56.640625
791,58.593750
792,58.593750
793,60.546875
794,60.546875
795,62.500000
796,62.500000
797,64.453125
798,64.453125
799,64.453125
800,66.406250
801,66.406250
802,68.359375
803,68.359375
804,68.359375
805,70.312500
806,70.312500
807,70.312500
808,70.312500
809,70.312500
810,70.312500
811,72.265625
812,72.265625
813,72.265625
814,72.265625
815,72.265625
816,72.265625
817,72.265625
818,72.265625
819,72.265625
820,74.218750
821,72.265625
822,72.265625
823,72.265625
824,74.218750
825,72.265625
826,72.265625
827,72.265625
828,72.265625
829,72.265625
830,70.312500
831,72.265625
832,70.312500
833,70.312500
834,70.312500
835,70.312500
836,70.312500
837,68.359375
838,68.359375
839,68.359375
840,66.406250
841,66.406250
842,66.406250
843,64.453125
844,64.453125
845,62.500000
846,62.500000
847,62.500000
848,60.546875
849,58.593750
850,58.593750
851,58.593750
852,56.640625
853,54.687500
854,54.687500
855,52.734375
856,50.781250
857,50.781250
858,48.828125
859,48.828125
860,46.875000
861,44.921875
862,44.921875
863,42.968750
864,41.015625
865,41.015625
866,39.062500
867,35.156250
868,35.156250
869,35.156250
870,33.203125
871,31.250000
872,29.296875
873,27.343750
874,25.390625
875,25.390625
876,23.437500
877,19.531250
878,19.531250
879,17.578125
880,15.625000
881,13.671875
882,13.671875
883,9.765625
884,9.765625
885,5.859375
886,5.859375
887,3.906250
888,1.953125
889,0.000000
890,-1.953125
891,-3.906250
892,-5.859375
893,-5.859375
894,-7.812500
895,-11.718750
896,-11.718750
897,-13.671875
898,-15.625000
899,-17.578125
900,-21.484375
901,-21.484375
902,-23.437500
903,-25.390625
904,-27.343750
905,-29.296875
906,-31.250000
907,-33.203125
908,-35.156250
909,-35.156250
910,-39.062500
911,-39.062500
912,-41.015625
913,-42.968750
914,-44.921875
915,-46.875000
916,-48.828125
917,-48.828125
918,-50.781250
919,-52.734375
920,-54.687500
921,-56.640625
922,-58.593750
923,-58.593750
924,-60.546875
925,-62.500000
926,-62.500000
927,-64.453125
928,-66.406250
929,-66.406250
930,-68.359375
931,-70.312500
932,-70.312500
933,-72.265625
934,-74.218750
935,-74.218750
936,-76.171875
937,-76.171875
938,-78.125000
939,-78.125000
940,-80.078125
941,-80.078125
942,-82.031250
943,-82.031250
944,-83.984375
945,-82.031250
946,-83.984375
947,-85.937500
948,-85.937500
949,-85.937500
950,-87.890625
951,-87.890625
952,-87.890625
953,-87.890625
954,-87.890625
955,-89.843750
956,-89.843750
957,-89.843750
958,-89.843750
959,-89.843750
960,-89.843750
961,-89.843750
962,-91.796875
963,-89.843750
964,-89.843750
965,-89.843750
966,-89.843750
967,-89.843750
968,-89.843750
969,-87.890625
970,-87.890625
971,-87.890625
972,-87.890625
973,-87.890625
974,-87.890625
975,-85.937500
976,-85.937500
977,-85.937500
978,-83.984375
979,-83.984375
980,-83.984375
981,-82.031250
982,-82.031250
983,-80.078125
984,-80.078125
985,-78.125000
986,-76.171875
987,-76.171875
988,-76.171875
989,-74.218750
990,-74.218750
991,-72.265625
992,-72.265625
993,-70.312500
994,-68.359375
995,-68.359375
996,-66.406250
997,-66.406250
998,-64.453125
999,-62.500000
1000,-60.546875
1001,-60.546875
1002,-58.593750
1003,-56.640625
1004,-56.640625
1005,-54.687500
1006,-52.734375
1007,-50.781250
1008,-50.781250
1009,-46.875000
1010,-44.921875
1011,-42.968750
1012,-42.968750
1013,-41.015625
1014,-39.062500
1015,-37.109375
1016,-35.156250
1017,-35.156250
1018,-31.250000
1019,-29.296875
1020,-27.343750
1021,-27.343750
1022,-25.390625
1023,-23.437500
1024,-21.484375
1025,-19.531250
1026,-17.578125
1027,-15.625000
1028,-13.671875
1029,-11.718750
1030,-9.765625
1031,-7.812500
1032,-5.859375
1033,-3.906250
1034,-3.906250
1035,-1.953125
1036,0.000000
1037,1.953125
1038,3.906250
1039,5.859375
1040,7.812500
1041,9.765625
1042,11.718750
1043,11.718750
1044,15.625000
1045,15.625000
1046,17.578125
1047,19.531250
1048,21.484375
1049,23.437500
1050,23.437500
1051,27.343750
1052,27.343750
1053,29.296875
1054,31.250000
1055,33.203125
1056,33.203125
1057,35.156250
1058,37.109375
1059,39.062500
1060,41.015625
1061,41.015625
1062,42.968750
1063,42.968750
1064,44.921875
1065,46.875000
1066,48.828125
1067,48.828125
1068,50.781250
1069,50.781250
1070,52.734375
1071,54.687500
1072,54.687500
1073,56.640625
1074,56.640625
1075,58.593750
1076,58.593750
1077,58.593750
1078,62.500000
1079,62.500000
1080,62.500000
1081,62.500000
1082,64.453125
1083,64.453125
1084,64.453125
1085,66.406250
1086,66.406250
1087,68.359375
1088,68.359375
1089,68.359375
1090,70.312500
1091,70.312500
1092,70.312500
1093,72.265625
1094,70.312500
1095,72.265625
1096,72.265625
1097,72.265625
1098,74.218750
1099,72.265625
1100,72.265625
1101,72.265625
1102,74.218750
1103,74.218750
1104,74.218750
1105,72.265625
1106,74.218750
1107,74.218750
1108,74.218750
1109,72.265625
1110,74.218750
1111,74.218750
1112,72.265625
1113,72.265625
1114,72.265625
1115,72.265625
1116,70.312500
1117,70.312500
1118,70.312500
1119,70.312500
1120,68.359375
1121,68.359375
1122,68.359375
1123,68.359375
1124,66.406250
1125,70.312500
1126,64.453125
1127,64.453125
1128,64.453125
1129,62.500000
1130,62.500000
1131,60.546875
1132,60.546875
1133,58.593750
1134,58.593750
1135,56.640625
1136,56.640625
1137,54.687500
1138,54.687500
1139,52.734375
1140,50.781250
1141,50.781250
1142,48.828125
1143,48.828125
1144,46.875000
1145,44.921875
1146,42.968750
1147,42.968750
1148,41.015625
1149,39.062500
1150,39.062500
1151,37.109375
1152,37.109375
1153,33.203125
1154,33.203125
1155,31.250000
1156,27.343750
1157,29.296875
1158,25.390625
1159,25.390625
1160,21.484375
1161,21.484375
1162,19.531250
1163,17.578125
1164,15.625000
1165,13.671875
1166,13.671875
1167,11.718750
1168,9.765625
1169,7.812500
1170,5.859375
1171,3.906250
1172,1.953125
1173,0.000000
1174,-1.953125
1175,-1.953125
1176,-5.859375
1177,-5.859375
1178,-7.812500
1179,-11.718750
1180,-11.718750
1181,-13.671875
1182,-15.625000
1183,-17.578125
1184,-19.531250
1185,-21.484375
1186,-23.437500
1187,-25.390625
1188,-27.343750
1189,-29.296875
1190,-29.296875
1191,-31.250000
1192,-33.203125
1193,-35.156250
1194,-37.109375
1195,-39.062500
1196,-41.015625
1197,-42.968750
1198,-44.921875
1199,-44.921875
1200,-46.875000
1201,-48.828125
1202,-50.781250
1203,-52.734375
1204,-54.687500
1205,-54.687500
1206,-56.640625
1207,-58.593750
1208,-60.546875
1209,-60.546875
1210,-64.453125
1211,-64.453125
1212,-66.406250
1213,-66.406250
1214,-68.359375
1215,-70.312500
1216,-70.312500
1217,-72.265625
1218,-74.218750
1219,-74.218750
1220,-76.171875
1221,-74.218750
1222,-76.171875
1223,-78.125000
1224,-78.125000
1225,-80.078125
1226,-80.078125
1227,-82.031250
1228,-82.031250
1229,-83.984375
1230,-83.984375
1231,-83.984375
1232,-85.937500
1233,-85.937500
1234,-85.937500
1235,-85.937500
1236,-87.890625
1237,-87.890625
1238,-87.890625
1239,-87.890625
1240,-87.890625
1241,-89.843750
1242,-89.843750
1243,-89.843750
1244,-87.890625
1245,-89.843750
1246,-89.843750
1247,-89.843750
1248,-89.843750
1249,-89.843750
1250,-89.843750
1251,-87.890625
1252,-89.843750
1253,-87.890625
1254,-87.890625
1255,-87.890625
1256,-87.890625
1257,-87.890625
1258,-87.890625
1259,-87.890625
1260,-85.937500
1261,-85.937500
1262,-85.937500
1263,-83.984375
1264,-83.984375
1265,-82.031250
1266,-82.031250
1267,-82.031250
1268,-80.078125
1269,-78.125000
1270,-78.125000
1271,-78.125000
1272,-76.171875
1273,-76.171875
1274,-74.218750
1275,-74.218750
1276,-72.265625
1277,-70.312500
1278,-68.359375
1279,-68.359375
1280,-66.406250
1281,-66.406250
1282,-64.453125
1283,-62.500000
1284,-60.546875
1285,-58.593750
1286,-58.593750
1287,-56.640625
1288,-54.687500
1289,-52.734375
1290,-52.734375
1291,-50.781250
1292,-48.828125
1293,-46.875000
1294,-44.921875
1295,-42.968750
1296,-42.968750
1297,-41.015625
1298,-39.062500
1299,-39.062500
1300,-35.156250
1301,-33.203125
1302,-31.250000
1303,-29.296875
1304,-27.343750
1305,-27.343750
1306,-25.390625
1307,-23.437500
1308,-21.484375
1309,-19.531250
1310,-17.578125
1311,-15.625000
1312,-13.671875
1313,-11.718750
1314,-11.718750
1315,-7.812500
1316,-5.859375
1317,-7.812500
1318,-3.906250
1319,-1.953125
1320,0.000000
1321,1.953125
1322,3.906250
1323,5.859375
1324,7.812500
1325,9.765625
1326,11.718750
1327,11.718750
1328,13.671875
1329,15.625000
1330,17.578125
1331,19.531250
1332,21.484375
1333,23.437500
1334,23.437500
1335,25.390625
1336,27.343750
1337,29.296875
1338,29.296875
1339,33.203125
1340,33.203125
1341,35.156250
1342,37.109375
1343,39.062500
1344,39.062500
1345,41.015625
1346,42.968750
1347,44.921875
1348,44.921875
1349,44.921875
1350,48.828125
1351,48.828125
1352,50.781250
1353,50.781250
1354,52.734375
1355,52.734375
1356,54.687500
1357,56.640625
1358,56.640625
1359,58.593750
1360,58.593750
1361,60.546875
1362,60.546875
1363,62.500000
1364,62.500000
1365,64.453125
1366,64.453125
1367,66.406250
1368,66.406250
1369,66.406250
1370,68.359375
1371,68.359375
1372,68.359375
1373,68.359375
1374,70.312500
1375,70.312500
1376,70.312500
1377,70.312500
1378,70.312500
1379,72.265625
1380,72.265625
1381,72.265625
1382,72.265625
1383,72.265625
1384,72.265625
1385,72.265625
1386,72.265625
1387,72.265625
1388,72.265625
1389,74.218750
1390,72.265625
1391,72.265625
1392,72.265625
1393,72.265625
1394,72.265625
1395,72.265625
1396,72.265625
1397,72.265625
1398,70.312500
1399,70.312500
1400,70.312500
1401,70.312500
1402,70.312500
1403,70.312500
1404,68.359375
1405,68.359375
1406,68.359375
1407,66.406250
1408,66.406250
1409,66.406250
1410,66.406250
1411,64.453125
1412,64.453125
1413,62.500000
1414,62.500000
1415,60.546875
1416,60.546875
1417,58.593750
1418,58.593750
1419,56.640625
1420,56.640625
1421,54.687500
1422,54.687500
1423,52.734375
1424,50.781250
1425,50.781250
1426,48.828125
1427,46.875000
1428,48.828125
1429,44.921875
1430,42.968750
1431,42.968750
1432,41.015625
1433,41.015625
1434,39.062500
1435,37.109375
1436,35.156250
1437,37.109375
1438,33.203125
1439,31.250000
1440,27.343750
1441,27.343750
1442,27.343750
1443,23.437500
1444,21.484375
1445,21.484375
1446,19.531250
1447,17.578125
1448,17.578125
1449,13.671875
1450,13.671875
1451,11.718750
1452,9.765625
1453,7.812500
1454,3.906250
1455,3.906250
1456,0.000000
1457,0.000000
1458,-1.953125
1459,-3.906250
1460,-5.859375
1461,-5.859375
1462,-9.765625
1463,-9.765625
1464,-11.718750
1465,-13.671875
1466,-15.625000
1467,-17.578125
1468,-19.531250
1469,-17.578125
1470,-23.437500
1471,-29.296875
1472,-27.343750
1473,-29.296875
1474,-31.250000
1475,-31.250000
1476,-33.203125
1477,-35.156250
1478,-42.968750
1479,-39.062500
1480,-41.015625
1481,-42.968750
1482,-44.921875
1483,-44.921875
1484,-46.875000
1485,-48.828125
1486,-50.781250
1487,-54.687500
1488,-52.734375
1489,-54.687500
1490,-56.640625
1491,-58.593750
1492,-60.546875
1493,-60.546875
1494,-62.500000
1495,-62.500000
1496,-66.406250
1497,-66.406250
1498,-68.359375
1499,-70.312500
1500,-70.312500
1501,-72.265625
1502,-74.218750
1503,-74.218750
1504,-76.171875
1505,-76.171875
1506,-78.125000
1507,-78.125000
1508,-80.078125
1509,-80.078125
1510,-80.078125
1511,-82.031250
1512,-82.031250
1513,-83.984375
1514,-83.984375
1515,-85.937500
1516,-85.937500
1517,-85.937500
1518,-87.890625
1519,-87.890625
1520,-87.890625
1521,-87.890625
1522,-87.890625
1523,-89.843750
1524,-87.890625
1525,-89.843750
1526,-89.843750
1527,-89.843750
1528,-91.796875
1529,-89.843750
1530,-89.843750
1531,-89.843750
1532,-89.843750
1533,-89.843750
1534,-89.843750
1535,-89.843750
1536,-89.843750
1537,-87.890625
1538,-89.843750
1539,-87.890625
1540,-87.890625
1541,-87.890625
1542,-87.890625
1543,-85.937500
1544,-85.937500
1545,-85.937500
1546,-85.937500
1547,-83.984375
1548,-83.984375
1549,-82.031250
1550,-82.031250
1551,-80.078125
1552,-80.078125
1553,-80.078125
1554,-78.125000
1555,-78.125000
1556,-76.171875
1557,-74.218750
1558,-74.218750
1559,-72.265625
1560,-72.265625
1561,-70.312500
1562,-70.312500
1563,-68.359375
1564,-66.406250
1565,-66.406250
1566,-64.453125
1567,-62.500000
1568,-60.546875
1569,-60.546875
1570,-58.593750
1571,-56.640625
1572,-54.687500
1573,-54.687500
1574,-52.734375
1575,-50.781250
1576,-48.828125
1577,-46.875000
1578,-46.875000
1579,-44.921875
1580,-42.968750
1581,-41.015625
1582,-39.062500
1583,-37.109375
1584,-35.156250
1585,-33.203125
1586,-31.250000
1587,-31.250000
1588,-27.343750
1589,-27.343750
1590,-25.390625
1591,-23.437500
1592,-23.437500
1593,-19.531250
1594,-17.578125
1595,-15.625000
1596,-15.625000
1597,-13.671875
1598,-11.718750
1599,-9.765625
1600,-7.812500
1601,-5.859375
1602,-3.906250
1603,-1.953125
1604,0.000000
1605,1.953125
1606,3.906250
1607,5.859375
1608,7.812500
1609,9.765625
1610,11.718750
1611,11.718750
1612,15.625000
1613,15.625000
1614,17.578125
1615,19.531250
1616,21.484375
1617,23.437500
1618,25.390625
1619,25.390625
1620,27.343750
1621,29.296875
1622,31.250000
1623,33.203125
1624,35.156250
1625,35.156250
1626,37.109375
1627,39.062500
1628,39.062500
1629,41.015625
1630,42.968750
1631,42.968750
1632,44.921875
1633,46.875000
1634,48.828125
1635,48.828125
1636,50.781250
1637,50.781250
1638,54.687500
1639,54.687500
1640,54.687500
1641,56.640625
1642,56.640625
1643,58.593750
1644,58.593750
1645,60.546875
1646,60.546875
1647,62.500000
1648,62.500000
1649,64.453125
1650,64.453125
1651,64.453125
1652,66.406250
1653,66.406250
1654,66.406250
1655,68.359375
1656,68.359375
1657,70.312500
1658,70.312500
1659,68.359375
1660,70.312500
1661,72.265625
1662,70.312500
1663,74.218750
1664,72.265625
1665,72.265625
1666,72.265625
1667,72.265625
1668,72.265625
1669,72.265625
1670,74.218750
1671,74.218750
1672,74.218750
1673,74.218750
1674,74.218750
1675,74.218750
1676,74.218750
1677,74.218750
1678,74.218750
1679,72.265625
1680,72.265625
1681,72.265625
1682,72.265625
1683,72.265625
1684,70.312500
1685,70.312500
1686,70.312500
1687,70.312500
1688,70.312500
1689,68.359375
1690,68.359375
1691,68.359375
1692,66.406250
1693,66.406250
1694,66.406250
1695,64.453125
1696,64.453125
1697,62.500000
1698,62.500000
1699,60.546875
1700,60.546875
1701,58.593750
1702,58.593750
1703,56.640625
1704,56.640625
1705,54.687500
1706,54.687500
1707,52.734375
1708,50.781250
1709,50.781250
1710,48.828125
1711,48.828125
1712,46.875000
1713,42.968750
1714,44.921875
1715,42.968750
1716,41.015625
1717,39.062500
1718,39.062500
1719,37.109375
1720,35.156250
1721,33.203125
1722,33.203125
1723,31.250000
1724,29.296875
1725,27.343750
1726,27.343750
1727,25.390625
1728,23.437500
1729,21.484375
1730,19.531250
1731,17.578125
1732,17.578125
1733,15.625000
1734,13.671875
1735,11.718750
1736,9.765625
1737,7.812500
1738,5.859375
1739,3.906250
1740,1.953125
1741,1.953125
1742,0.000000
1743,-1.953125
1744,-3.906250
1745,-5.859375
1746,-9.765625
1747,-9.765625
1748,-11.718750
1749,-13.671875
1750,-15.625000
1751,-17.578125
1752,-17.578125
1753,-19.531250
1754,-21.484375
1755,-25.390625
1756,-27.343750
1757,-27.343750
1758,-29.296875
1759,-31.250000
1760,-33.203125
1761,-35.156250
1762,-37.109375
1763,-39.062500
1764,-41.015625
1765,-41.015625
1766,-42.968750
1767,-44.921875
1768,-46.875000
1769,-48.828125
1770,-50.781250
1771,-52.734375
1772,-54.687500
1773,-54.687500
1774,-56.640625
1775,-58.593750
1776,-60.546875
1777,-62.500000
1778,-62.500000
1779,-64.453125
1780,-64.453125
1781,-66.406250
1782,-68.359375
1783,-70.312500
1784,-70.312500
1785,-70.312500
1786,-74.218750
1787,-74.218750
1788,-74.218750
1789,-76.171875
1790,-78.125000
1791,-76.171875
1792,-80.078125
1793,-80.078125
1794,-80.078125
1795,-82.031250
1796,-82.031250
1797,-83.984375
1798,-83.984375
1799,-83.984375
1800,-85.937500
1801,-85.937500
1802,-85.937500
1803,-85.937500
1804,-87.890625
1805,-87.890625
1806,-87.890625
1807,-87.890625
1808,-89.843750
1809,-89.843750
1810,-89.843750
1811,-89.843750
1812,-89.843750
1813,-89.843750
1814,-89.843750
1815,-89.843750
1816,-89.843750
1817,-89.843750
1818,-89.843750
1819,-89.843750
1820,-87.890625
1821,-87.890625
1822,-87.890625
1823,-87.890625
1824,-87.890625
1825,-87.890625
1826,-87.890625
1827,-85.937500
1828,-85.937500
1829,-85.937500
1830,-85.937500
1831,-83.984375
1832,-82.031250
1833,-82.031250
1834,-82.031250
1835,-82.031250
1836,-80.078125
1837,-80.078125
1838,-78.125000
1839,-78.125000
1840,-76.171875
1841,-76.171875
1842,-74.218750
1843,-74.218750
1844,-72.265625
1845,-70.312500
1846,-70.312500
1847,-68.359375
1848,-66.406250
1849,-66.406250
1850,-64.453125
1851,-62.500000
1852,-60.546875
1853,-60.546875
1854,-58.593750
1855,-58.593750
1856,-56.640625
1857,-54.687500
1858,-52.734375
1859,-50.781250
1860,-48.828125
1861,-48.828125
1862,-46.875000
1863,-44.921875
1864,-42.968750
1865,-41.015625
1866,-39.062500
1867,-37.109375
1868,-35.156250
1869,-33.203125
1870,-33.203125
1871,-31.250000
1872,-29.296875
1873,-27.343750
1874,-25.390625
1875,-23.437500
1876,-21.484375
1877,-19.531250
1878,-17.578125
1879,-17.578125
1880,-13.671875
1881,-13.671875
1882,-11.718750
1883,-9.765625
1884,-7.812500
1885,-5.859375
1886,-3.906250
1887,-1.953125
1888,0.000000
1889,1.953125
1890,3.906250
1891,5.859375
1892,5.859375
1893,7.812500
1894,9.765625
1895,13.671875
1896,13.671875
1897,15.625000
1898,17.578125
1899,17.578125
1900,15.625000
1901,21.484375
1902,23.437500
1903,25.390625
1904,27.343750
1905,29.296875
1906,31.250000
1907,31.250000
1908,33.203125
1909,35.156250
1910,37.109375
1911,37.109375
1912,39.062500
1913,41.015625
1914,41.015625
1915,42.968750
1916,42.968750
1917,46.875000
1918,46.875000
1919,48.828125
1920,50.781250
1921,50.781250
1922,52.734375
1923,52.734375
1924,54.687500
1925,56.640625
1926,56.640625
1927,56.640625
1928,58.593750
1929,58.593750
1930,60.546875
1931,60.546875
1932,62.500000
1933,62.500000
1934,64.453125
1935,64.453125
1936,66.406250
1937,66.406250
1938,68.359375
1939,68.359375
1940,68.359375
1941,68.359375
1942,70.312500
1943,70.312500
1944,70.312500
1945,70.312500
1946,70.312500
1947,72.265625
1948,72.265625
1949,72.265625
1950,70.312500
1951,72.265625
1952,72.265625
1953,72.265625
1954,72.265625
1955,74.218750
1956,74.218750
1957,72.265625
1958,74.218750
1959,74.218750
1960,72.265625
1961,74.218750
1962,72.265625
1963,72.265625
1964,72.265625
1965,72.265625
1966,72.265625
1967,72.265625
1968,70.312500
1969,70.312500
1970,70.312500
1971,70.312500
1972,68.359375
1973,68.359375
1974,68.359375
1975,66.406250
1976,66.406250
1977,66.406250
1978,64.453125
1979,64.453125
1980,62.500000
1981,62.500000
1982,62.500000
1983,60.546875
1984,60.546875
1985,58.593750
1986,58.593750
1987,56.640625
1988,54.687500
1989,56.640625
1990,54.687500
1991,52.734375
1992,52.734375
1993,50.781250
1994,50.781250
1995,46.875000
1996,46.875000
1997,44.921875
1998,44.921875
1999,42.968750
2000,41.015625
2001,41.015625
2002,39.062500
2003,37.109375
2004,37.109375
2005,35.156250
2006,33.203125
2007,31.250000
2008,29.296875
2009,29.296875
2010,27.343750
2011,25.390625
2012,23.437500
2013,21.484375
2014,21.484375
2015,19.531250
2016,15.625000
2017,15.625000
2018,13.671875
2019,11.718750
2020,9.765625
2021,7.812500
2022,5.859375
2023,3.906250
2024,1.953125
2025,0.000000
2026,0.000000
2027,-3.906250
2028,-3.906250
2029,-5.859375
2030,-7.812500
2031,-9.765625
2032,-11.718750
2033,-13.671875
2034,-15.625000
2035,-17.578125
2036,-19.531250
2037,-21.484375
2038,-23.437500
2039,-25.390625
2040,-25.390625
2041,-29.296875
2042,-31.250000
2043,-31.250000
2044,-33.203125
2045,-37.109375
2046,-37.109375
2047,-39.062500
2048,-41.015625
2049,-42.968750
2050,-44.921875
2051,-44.921875
2052,-46.875000
2053,-48.828125
2054,-50.781250
2055,-52.734375
2056,-52.734375
2057,-54.687500
2058,-56.640625
2059,-58.593750
2060,-58.593750
2061,-60.546875
2062,-62.500000
2063,-62.500000
2064,-64.453125
2065,-66.406250
2066,-68.359375
2067,-70.312500
2068,-70.312500
2069,-72.265625
2070,-72.265625
2071,-74.218750
2072,-74.218750
2073,-76.171875
2074,-76.171875
2075,-78.125000
2076,-80.078125
2077,-78.125000
2078,-82.031250
2079,-82.031250
2080,-82.031250
2081,-82.031250
2082,-83.984375
2083,-83.984375
2084,-83.984375
2085,-85.937500
2086,-87.890625
2087,-85.937500
2088,-87.890625
2089,-87.890625
2090,-87.890625
2091,-87.890625
2092,-89.843750
2093,-89.843750
2094,-89.843750
2095,-89.843750
2096,-89.843750
2097,-89.843750
2098,-89.843750
2099,-89.843750
2100,-87.890625
2101,-89.843750
2102,-89.843750
2103,-89.843750
2104,-89.843750
2105,-89.843750
2106,-87.890625
2107,-89.843750
2108,-87.890625
2109,-87.890625
2110,-87.890625
2111,-87.890625
2112,-85.937500
2113,-85.937500
2114,-85.937500
2115,-83.984375
2116,-83.984375
2117,-82.031250
2118,-82.031250
2119,-82.031250
2120,-80.078125
2121,-80.078125
2122,-78.125000
2123,-78.125000
2124,-78.125000
2125,-76.171875
2126,-74.218750
2127,-74.218750
2128,-72.265625
2129,-70.312500
2130,-70.312500
2131,-68.359375
2132,-66.406250
2133,-66.406250
2134,-64.453125
2135,-62.500000
2136,-62.500000
2137,-60.546875
2138,-58.593750
2139,-56.640625
2140,-56.640625
2141,-54.687500
2142,-52.734375
2143,-50.781250
2144,-50.781250
2145,-46.875000
2146,-46.875000
2147,-44.921875
2148,-42.968750
2149,-41.015625
2150,-39.062500
2151,-37.109375
2152,-35.156250
2153,-35.156250
2154,-33.203125
2155,-31.250000
2156,-29.296875
2157,-27.343750
2158,-25.390625
2159,-25.390625
2160,-21.484375
2161,-19.531250
2162,-17.578125
2163,-15.625000
2164,-13.671875
2165,-13.671875
2166,-9.765625
2167,-9.765625
2168,-7.812500
2169,-5.859375
2170,-3.906250
2171,-1.953125
2172,-1.953125
2173,1.953125
2174,3.906250
2175,5.859375
2176,7.812500
2177,7.812500
2178,9.765625
2179,11.718750
2180,13.671875
2181,15.625000
2182,17.578125
2183,17.578125
2184,21.484375
2185,23.437500
2186,23.437500
2187,25.390625
2188,27.343750
2189,29.296875
2190,31.250000
2191,33.203125
2192,33.203125
2193,35.156250
2194,37.109375
2195,37.109375
2196,39.062500
2197,41.015625
2198,42.968750
2199,42.968750
2200,44.921875
2201,48.828125
2202,46.875000
2203,48.828125
2204,50.781250
2205,50.781250
2206,52.734375
2207,54.687500
2208,54.687500
2209,54.687500
2210,56.640625
2211,56.640625
2212,58.593750
2213,60.546875
2214,62.500000
2215,62.500000
2216,62.500000
2217,64.453125
2218,64.453125
2219,64.453125
2220,66.406250
2221,66.406250
2222,66.406250
2223,68.359375
2224,70.312500
2225,68.359375
2226,70.312500
2227,70.312500
2228,70.312500
2229,70.312500
2230,70.312500
2231,72.265625
2232,72.265625
2233,72.265625
2234,72.265625
2235,72.265625
2236,72.265625
2237,72.265625
2238,72.265625
2239,72.265625
2240,74.218750
2241,72.265625
2242,74.218750
2243,72.265625
2244,72.265625
2245,74.218750
2246,72.265625
2247,72.265625
2248,74.218750
2249,72.265625
2250,72.265625
2251,68.359375
2252,70.312500
2253,74.218750
2254,70.312500
2255,70.312500
2256,70.312500
2257,68.359375
2258,68.359375
2259,66.406250
2260,66.406250
2261,66.406250
2262,66.406250
2263,64.453125
2264,64.453125
2265,64.453125
2266,62.500000
2267,62.500000
2268,60.546875
2269,60.546875
2270,58.593750
2271,58.593750
2272,56.640625
2273,54.687500
2274,54.687500
2275,52.734375
2276,52.734375
2277,50.781250
2278,50.781250
2279,48.828125
2280,46.875000
2281,44.921875
2282,44.921875
2283,42.968750
2284,41.015625
2285,41.015625
2286,39.062500
2287,37.109375
2288,37.109375
2289,33.203125
2290,33.203125
2291,31.250000
2292,29.296875
2293,27.343750
2294,27.343750
2295,25.390625
2296,23.437500
2297,21.484375
2298,19.531250
2299,17.578125
2300,15.625000
2301,15.625000
2302,13.671875
2303,9.765625
2304,9.765625
2305,7.812500
2306,5.859375
2307,3.906250
2308,1.953125
2309,0.000000
2310,-1.953125
2311,-3.906250
2312,-3.906250
2313,-7.812500
2314,-7.812500
2315,-9.765625
2316,-13.671875
2317,-13.671875
2318,-15.625000
2319,-17.578125
2320,-19.531250
2321,-21.484375
2322,-21.484375
2323,-25.390625
2324,-27.343750
2325,-27.343750
2326,-29.296875
2327,-31.250000
2328,-33.203125
2329,-35.156250
2330,-37.109375
2331,-39.062500
2332,-41.015625
2333,-41.015625
2334,-42.968750
2335,-46.875000
2336,-46.875000
2337,-48.828125
2338,-50.781250
2339,-52.734375
2340,-52.734375
2341,-54.687500
2342,-56.640625
2343,-58.593750
2344,-58.593750
2345,-60.546875
2346,-62.500000
2347,-64.453125
2348,-64.453125
2349,-66.406250
2350,-70.312500
2351,-68.359375
2352,-70.312500
2353,-72.265625
2354,-72.265625
2355,-74.218750
2356,-74.218750
2357,-76.171875
2358,-78.125000
2359,-78.125000
2360,-78.125000
2361,-80.078125
2362,-80.078125
2363,-82.031250
2364,-83.984375
2365,-83.984375
2366,-83.984375
2367,-85.937500
2368,-85.937500
2369,-85.937500
2370,-85.937500
2371,-89.843750
2372,-87.890625
2373,-87.890625
2374,-87.890625
2375,-89.843750
2376,-89.843750
2377,-89.843750
2378,-89.843750
2379,-89.843750
2380,-89.843750
2381,-89.843750
2382,-89.843750
2383,-89.843750
2384,-89.843750
2385,-89.843750
2386,-89.843750
2387,-89.843750
2388,-89.843750
2389,-87.890625
2390,-87.890625
2391,-89.843750
2392,-87.890625
2393,-87.890625
2394,-87.890625
2395,-87.890625
2396,-85.937500
2397,-85.937500
2398,-85.937500
2399,-83.984375
2400,-83.984375
2401,-82.031250
2402,-82.031250
2403,-80.078125
2404,-80.078125
2405,-80.078125
2406,-78.125000
2407,-78.125000
2408,-76.171875
2409,-76.171875
2410,-76.171875
2411,-74.218750
2412,-72.265625
2413,-70.312500
2414,-70.312500
2415,-68.359375
2416,-66.406250
2417,-66.406250
2418,-64.453125
2419,-64.453125
2420,-62.500000
2421,-60.546875
2422,-58.593750
2423,-58.593750
2424,-56.640625
2425,-54.687500
2426,-52.734375
2427,-52.734375
2428,-50.781250
2429,-48.828125
2430,-46.875000
2431,-44.921875
2432,-44.921875
2433,-41.015625
2434,-41.015625
2435,-39.062500
2436,-37.109375
2437,-35.156250
2438,-33.203125
2439,-31.250000
2440,-29.296875
2441,-27.343750
2442,-25.390625
2443,-23.437500
2444,-23.437500
2445,-21.484375
2446,-17.578125
2447,-15.625000
2448,-15.625000
2449,-13.671875
2450,-11.718750
2451,-9.765625
2452,-7.812500
2453,-7.812500
2454,-3.906250
2455,-1.953125
2456,0.000000
2457,1.953125
2458,1.953125
2459,5.859375
2460,7.812500
2461,7.812500
2462,9.765625
2463,11.718750
2464,13.671875
2465,15.625000
2466,17.578125
2467,17.578125
2468,19.531250
2469,21.484375
2470,25.390625
2471,25.390625
2472,27.343750
2473,29.296875
2474,29.296875
2475,31.250000
2476,33.203125
2477,35.156250
2478,37.109375
2479,37.109375
2480,39.062500
2481,41.015625
2482,42.968750
2483,42.968750
2484,44.921875
2485,44.921875
2486,46.875000
2487,48.828125
2488,48.828125
2489,50.781250
2490,50.781250
2491,52.734375
2492,54.687500
2493,54.687500
2494,54.687500
2495,56.640625
2496,58.593750
2497,58.593750
2498,60.546875
2499,60.546875
2500,62.500000
2501,62.500000
2502,64.453125
2503,64.453125
2504,66.406250
2505,66.406250
2506,66.406250
2507,66.406250
2508,68.359375
2509,68.359375
2510,68.359375
2511,70.312500
2512,70.312500
2513,70.312500
2514,70.312500
2515,70.312500
2516,72.265625
2517,72.265625
2518,72.265625
2519,72.265625
2520,72.265625
2521,72.265625
2522,72.265625
2523,72.265625
2524,72.265625
2525,74.218750
2526,72.265625
2527,72.265625
2528,70.312500
2529,74.218750
2530,72.265625
2531,72.265625
2532,72.265625
2533,72.265625
2534,72.265625
2535,72.265625
2536,72.265625
2537,70.312500
2538,70.312500
2539,70.312500
2540,70.312500
2541,68.359375
2542,68.359375
2543,68.359375
2544,66.406250
2545,66.406250
2546,66.406250
2547,64.453125
2548,64.453125
2549,62.500000
2550,62.500000
2551,60.546875
2552,60.546875
2553,60.546875
2554,58.593750
2555,60.546875
2556,56.640625
2557,54.687500
2558,54.687500
2559,52.734375
2560,52.734375
2561,50.781250
2562,48.828125
2563,48.828125
2564,46.875000
2565,44.921875
2566,44.921875
2567,42.968750
2568,41.015625
2569,41.015625
2570,39.062500
2571,37.109375
2572,35.156250
2573,35.156250
2574,33.203125
2575,31.250000
2576,31.250000
2577,29.296875
2578,27.343750
2579,25.390625
2580,23.437500
2581,23.437500
2582,19.531250
2583,19.531250
2584,17.578125
2585,15.625000
2586,13.671875
2587,11.718750
2588,9.765625
2589,7.812500
2590,5.859375
2591,3.906250
2592,3.906250
2593,0.000000
2594,0.000000
2595,-1.953125
2596,-3.906250
2597,-5.859375
2598,-7.812500
2599,-9.765625
2600,-11.718750
2601,-11.718750
2602,-15.625000
2603,-17.578125
2604,-17.578125
2605,-21.484375
2606,-21.484375
2607,-23.437500
2608,-25.390625
2609,-27.343750
2610,-29.296875
2611,-31.250000
2612,-35.156250
2613,-33.203125
2614,-37.109375
2615,-39.062500
2616,-39.062500
2617,-41.015625
2618,-42.968750
2619,-44.921875
2620,-46.875000
2621,-48.828125
2622,-50.781250
2623,-50.781250
2624,-52.734375
2625,-54.687500
2626,-56.640625
2627,-58.593750
2628,-60.546875
2629,-60.546875
2630,-62.500000
2631,-64.453125
2632,-66.406250
2633,-66.406250
2634,-68.359375
2635,-68.359375
2636,-70.312500
2637,-70.312500
2638,-72.265625
2639,-70.312500
2640,-74.218750
2641,-76.171875
2642,-76.171875
2643,-78.125000
2644,-78.125000
2645,-80.078125
2646,-80.078125
2647,-80.078125
2648,-82.031250
2649,-82.031250
2650,-83.984375
2651,-83.984375
2652,-85.937500
2653,-85.937500
2654,-85.937500
2655,-85.937500
2656,-87.890625
2657,-87.890625
2658,-87.890625
2659,-87.890625
2660,-89.843750
2661,-87.890625
2662,-89.843750
2663,-89.843750
2664,-89.843750
2665,-89.843750
2666,-91.796875
2667,-89.843750
2668,-89.843750
2669,-89.843750
2670,-89.843750
2671,-89.843750
2672,-89.843750
2673,-91.796875
2674,-87.890625
2675,-87.890625
2676,-87.890625
2677,-87.890625
2678,-87.890625
2679,-85.937500
2680,-85.937500
2681,-85.937500
2682,-85.937500
2683,-83.984375
2684,-83.984375
2685,-83.984375
2686,-82.031250
2687,-82.031250
2688,-80.078125
2689,-78.125000
2690,-78.125000
2691,-78.125000
2692,-76.171875
2693,-76.171875
2694,-74.218750
2695,-74.218750
2696,-72.265625
2697,-70.312500
2698,-70.312500
2699,-68.359375
2700,-68.359375
2701,-66.406250
2702,-64.453125
2703,-62.500000
2704,-62.500000
2705,-60.546875
2706,-58.593750
2707,-56.640625
2708,-56.640625
2709,-54.687500
2710,-52.734375
2711,-52.734375
2712,-48.828125
2713,-48.828125
2714,-46.875000
2715,-44.921875
2716,-42.968750
2717,-41.015625
2718,-39.062500
2719,-39.062500
2720,-37.109375
2721,-35.156250
2722,-33.203125
2723,-31.250000
2724,-29.296875
2725,-27.343750
2726,-27.343750
2727,-23.437500
2728,-21.484375
2729,-19.531250
2730,-19.531250
2731,-17.578125
2732,-15.625000
2733,-13.671875
2734,-11.718750
2735,-9.765625
2736,-7.812500
2737,-5.859375
2738,-3.906250
2739,-1.953125
2740,0.000000
2741,0.000000
2742,3.906250
2743,3.906250
2744,5.859375
2745,7.812500
2746,9.765625
2747,11.718750
2748,13.671875
2749,15.625000
2750,15.625000
2751,19.531250
2752,19.531250
2753,21.484375
2754,23.437500
2755,25.390625
2756,27.343750
2757,27.343750
2758,29.296875
2759,31.250000
2760,33.203125
2761,33.203125
2762,35.156250
2763,37.109375
2764,39.062500
2765,39.062500
2766,42.968750
2767,42.968750
2768,44.921875
2769,44.921875
2770,46.875000
2771,48.828125
2772,50.781250
2773,50.781250
2774,52.734375
2775,54.687500
2776,54.687500
2777,54.687500
2778,56.640625
2779,56.640625
2780,58.593750
2781,58.593750
2782,60.546875
2783,62.500000
2784,62.500000
2785,62.500000
2786,64.453125
2787,64.453125
2788,64.453125
2789,68.359375
2790,66.406250
2791,68.359375
2792,68.359375
2793,68.359375
2794,68.359375
2795,70.312500
2796,70.312500
2797,70.312500
2798,72.265625
2799,70.312500
2800,72.265625
2801,72.265625
2802,72.265625
2803,72.265625
2804,72.265625
2805,72.265625
2806,74.218750
2807,74.218750
2808,74.218750
2809,74.218750
2810,74.218750
2811,70.312500
2812,72.265625
2813,72.265625
2814,72.265625
2815,72.265625
2816,72.265625
2817,72.265625
2818,72.265625
2819,70.312500
2820,72.265625
2821,70.312500
2822,70.312500
2823,70.312500
2824,70.312500
2825,68.359375
2826,68.359375
2827,68.359375
2828,66.406250
2829,66.406250
2830,66.406250
2831,64.453125
2832,64.453125
2833,64.453125
2834,62.500000
2835,60.546875
2836,60.546875
2837,60.546875
2838,58.593750
2839,58.593750
2840,56.640625
2841,56.640625
2842,54.687500
2843,54.687500
2844,50.781250
2845,50.781250
2846,50.781250
2847,48.828125
2848,46.875000
2849,46.875000
2850,44.921875
2851,42.968750
2852,42.968750
2853,41.015625
2854,39.062500
2855,37.109375
2856,37.109375
2857,35.156250
2858,35.156250
2859,31.250000
2860,31.250000
2861,29.296875
2862,27.343750
2863,25.390625
2864,23.437500
2865,21.484375
2866,19.531250
2867,19.531250
2868,17.578125
2869,15.625000
2870,13.671875
2871,11.718750
2872,9.765625
2873,7.812500
2874,7.812500
2875,3.906250
2876,1.953125
2877,1.953125
2878,0.000000
2879,-1.953125
2880,-3.906250
2881,-5.859375
2882,-7.812500
2883,-9.765625
2884,-11.718750
2885,-13.671875
2886,-15.625000
2887,-17.578125
2888,-19.531250
2889,-21.484375
2890,-23.437500
2891,-25.390625
2892,-25.390625
2893,-29.296875
2894,-29.296875
2895,-31.250000
2896,-33.203125
2897,-35.156250
2898,-37.109375
2899,-39.062500
2900,-41.015625
2901,-41.015625
2902,-42.968750
2903,-44.921875
2904,-46.875000
2905,-48.828125
2906,-50.781250
2907,-50.781250
2908,-54.687500
2909,-54.687500
2910,-56.640625
2911,-58.593750
2912,-58.593750
2913,-60.546875
2914,-62.500000
2915,-64.453125
2916,-64.453125
2917,-66.406250
2918,-66.406250
2919,-68.359375
2920,-70.312500
2921,-72.265625
2922,-72.265625
2923,-74.218750
2924,-76.171875
2925,-76.171875
2926,-76.171875
2927,-78.125000
2928,-74.218750
2929,-80.078125
2930,-80.078125
2931,-82.031250
2932,-82.031250
2933,-83.984375
2934,-83.984375
2935,-85.937500
2936,-85.937500
2937,-85.937500
2938,-85.937500
2939,-87.890625
2940,-87.890625
2941,-87.890625
2942,-89.843750
2943,-89.843750
2944,-89.843750
2945,-87.890625
2946,-89.843750
2947,-89.843750
2948,-89.843750
2949,-89.843750
2950,-89.843750
2951,-89.843750
2952,-89.843750
2953,-91.796875
2954,-89.843750
2955,-89.843750
2956,-89.843750
2957,-89.843750
2958,-89.843750
2959,-87.890625
2960,-87.890625
2961,-87.890625
2962,-87.890625
2963,-87.890625
2964,-85.937500
2965,-85.937500
2966,-83.984375
2967,-83.984375
2968,-83.984375
2969,-82.031250
2970,-82.031250
2971,-80.078125
2972,-80.078125
2973,-80.078125
2974,-80.078125
2975,-78.125000
2976,-74.218750
2977,-76.171875
2978,-74.218750
2979,-74.218750
2980,-72.265625
2981,-72.265625
2982,-70.312500
2983,-68.359375
2984,-68.359375
2985,-68.359375
2986,-62.500000
2987,-64.453125
2988,-62.500000
2989,-60.546875
2990,-58.593750
2991,-62.500000
2992,-56.640625
2993,-54.687500
2994,-52.734375
2995,-52.734375
2996,-50.781250
2997,-48.828125
2998,-46.875000
2999,-44.921875
3000,-44.921875
3001,-42.968750
3002,-41.015625
3003,-39.062500
3004,-37.109375
3005,-35.156250
3006,-33.203125
3007,-31.250000
3008,-29.296875
3009,-29.296875
3010,-27.343750
3011,-25.390625
3012,-23.437500
3013,-21.484375
3014,-19.531250
3015,-17.578125
3016,-15.625000
3017,-13.671875
3018,-11.718750
3019,-9.765625
3020,-7.812500
3021,-5.859375
3022,-3.906250
3023,-3.906250
3024,0.000000
3025,1.953125
3026,3.906250
3027,3.906250
3028,5.859375
3029,11.718750
3030,9.765625
3031,11.718750
3032,11.718750
3033,13.671875
3034,15.625000
3035,19.531250
3036,19.531250
3037,21.484375
3038,23.437500
3039,25.390625
3040,27.343750
3041,27.343750
3042,29.296875
3043,31.250000
3044,33.203125
3045,35.156250
3046,35.156250
3047,37.109375
3048,39.062500
3049,41.015625
3050,42.968750
3051,42.968750
3052,44.921875
3053,44.921875
3054,46.875000
3055,48.828125
3056,48.828125
3057,50.781250
3058,50.781250
3059,52.734375
3060,54.687500
3061,54.687500
3062,58.593750
3063,56.640625
3064,58.593750
3065,56.640625
3066,60.546875
3067,60.546875
3068,60.546875
3069,62.500000
3070,62.500000
3071,62.500000
3072,68.359375
3073,68.359375
3074,66.406250
3075,66.406250
3076,68.359375
3077,68.359375
3078,68.359375
3079,68.359375
3080,68.359375
3081,70.312500
3082,70.312500
3083,72.265625
3084,70.312500
3085,72.265625
3086,72.265625
3087,72.265625
3088,72.265625
3089,74.218750
3090,72.265625
3091,72.265625
3092,74.218750
3093,72.265625
3094,72.265625
3095,74.218750
3096,72.265625
3097,74.218750
3098,72.265625
3099,72.265625
3100,72.265625
3101,72.265625
3102,72.265625
3103,72.265625
3104,72.265625
3105,72.265625
3106,70.312500
3107,70.312500
3108,70.312500
3109,70.312500
3110,68.359375
3111,68.359375
3112,66.406250
3113,66.406250
3114,66.406250
3115,64.453125
3116,64.453125
3117,64.453125
3118,62.500000
3119,62.500000
3120,60.546875
3121,60.546875
3122,58.593750
3123,58.593750
3124,56.640625
3125,56.640625
3126,54.687500
3127,52.734375
3128,52.734375
3129,50.781250
3130,48.828125
3131,48.828125
3132,46.875000
3133,44.921875
3134,44.921875
3135,42.968750
3136,42.968750
3137,41.015625
3138,39.062500
3139,37.109375
3140,35.156250
3141,35.156250
3142,33.203125
3143,31.250000
3144,29.296875
3145,29.296875
3146,27.343750
3147,25.390625
3148,23.437500
3149,21.484375
3150,19.531250
3151,17.578125
3152,17.578125
3153,15.625000
3154,13.671875
3155,11.718750
3156,9.765625
3157,9.765625
3158,5.859375
3159,5.859375
3160,3.906250
3161,1.953125
3162,0.000000
3163,-1.953125
3164,-3.906250
3165,-5.859375
3166,-7.812500
3167,-9.765625
3168,-9.765625
3169,-13.671875
3170,-15.625000
3171,-15.625000
3172,-17.578125
3173,-21.484375
3174,-21.484375
3175,-23.437500
3176,-25.390625
3177,-27.343750
3178,-29.296875
3179,-31.250000
3180,-33.203125
3181,-33.203125
3182,-35.156250
3183,-39.062500
3184,-39.062500
3185,-41.015625
3186,-42.968750
3187,-44.921875
3188,-46.875000
3189,-50.781250
3190,-50.781250
3191,-50.781250
3192,-52.734375
3193,-54.687500
3194,-54.687500
3195,-58.593750
3196,-58.593750
3197,-60.546875
3198,-62.500000
3199,-62.500000
3200,-64.453125
3201,-66.406250
3202,-68.359375
3203,-68.359375
3204,-70.312500
3205,-72.265625
3206,-72.265625
3207,-74.218750
3208,-74.218750
3209,-78.125000
3210,-76.171875
3211,-78.125000
3212,-80.078125
3213,-80.078125
3214,-80.078125
3215,-80.078125
3216,-82.031250
3217,-83.984375
3218,-83.984375
3219,-83.984375
3220,-83.984375
3221,-85.937500
3222,-85.937500
3223,-85.937500
3224,-87.890625
3225,-87.890625
3226,-87.890625
3227,-87.890625
3228,-85.937500
3229,-89.843750
3230,-89.843750
3231,-89.843750
3232,-89.843750
3233,-89.843750
3234,-89.843750
3235,-89.843750
3236,-89.843750
3237,-87.890625
3238,-89.843750
3239,-87.890625
3240,-89.843750
3241,-89.843750
3242,-89.843750
3243,-87.890625
3244,-87.890625
3245,-87.890625
3246,-87.890625
3247,-87.890625
3248,-85.937500
3249,-85.937500
3250,-83.984375
3251,-82.031250
3252,-83.984375
3253,-83.984375
3254,-82.031250
3255,-82.031250
3256,-80.078125
3257,-80.078125
3258,-80.078125
3259,-78.125000
3260,-78.125000
3261,-76.171875
3262,-74.218750
3263,-74.218750
3264,-72.265625
3265,-72.265625
3266,-70.312500
3267,-68.359375
3268,-68.359375
3269,-66.406250
3270,-64.453125
3271,-62.500000
3272,-62.500000
3273,-60.546875
3274,-58.593750
3275,-58.593750
3276,-56.640625
3277,-56.640625
3278,-52.734375
3279,-50.781250
3280,-50.781250
3281,-48.828125
3282,-46.875000
3283,-44.921875
3284,-42.968750
3285,-42.968750
3286,-41.015625
3287,-39.062500
3288,-37.109375
3289,-35.156250
3290,-33.203125
3291,-31.250000
3292,-29.296875
3293,-27.343750
3294,-27.343750
3295,-25.390625
3296,-21.484375
3297,-19.531250
3298,-19.531250
3299,-17.578125
3300,-15.625000
3301,-13.671875
3302,-13.671875
3303,-9.765625
3304,-7.812500
3305,-5.859375
3306,-3.906250
3307,-1.953125
3308,-1.953125
3309,1.953125
3310,1.953125
3311,3.906250
3312,5.859375
3313,7.812500
3314,9.765625
3315,11.718750
3316,13.671875
3317,15.625000
3318,15.625000
3319,17.578125
3320,19.531250
3321,21.484375
3322,23.437500
3323,25.390625
3324,25.390625
3325,27.343750
3326,29.296875
3327,31.250000
3328,33.203125
3329,33.203125
3330,35.156250
3331,37.109375
3332,39.062500
3333,39.062500
3334,41.015625
3335,42.968750
3336,44.921875
3337,44.921875
3338,46.875000
3339,46.875000
3340,48.828125
3341,50.781250
3342,50.781250
3343,52.734375
3344,52.734375
3345,54.687500
3346,56.640625
3347,56.640625
3348,58.593750
3349,58.593750
3350,60.546875
3351,60.546875
3352,62.500000
3353,62.500000
3354,64.453125
3355,64.453125
3356,64.453125
3357,66.406250
3358,66.406250
3359,66.406250
3360,68.359375
3361,68.359375
3362,70.312500
3363,70.312500
3364,70.312500
3365,70.312500
3366,70.312500
3367,70.312500
3368,72.265625
3369,72.265625
3370,72.265625
3371,72.265625
3372,74.218750
3373,74.218750
3374,72.265625
3375,74.218750
3376,74.218750
3377,72.265625
3378,74.218750
3379,74.218750
3380,74.218750
3381,72.265625
3382,72.265625
3383,72.265625
3384,72.265625
3385,70.312500
3386,72.265625
3387,72.265625
3388,70.312500
3389,70.312500
3390,70.312500
3391,70.312500
3392,68.359375
3393,68.359375
3394,68.359375
3395,68.359375
3396,66.406250
3397,66.406250
3398,66.406250
3399,64.453125
3400,64.453125
3401,62.500000
3402,62.500000
3403,60.546875
3404,60.546875
3405,58.593750
3406,58.593750
3407,58.593750
3408,56.640625
3409,54.687500
3410,54.687500
3411,54.687500
3412,52.734375
3413,50.781250
3414,50.781250
3415,48.828125
3416,46.875000
3417,46.875000
3418,44.921875
3419,42.968750
3420,41.015625
3421,41.015625
3422,39.062500
3423,39.062500
3424,37.109375
3425,35.156250
3426,33.203125
3427,33.203125
3428,35.156250
3429,29.296875
3430,25.390625
3431,25.390625
3432,25.390625
3433,23.437500
3434,19.531250
3435,19.531250
3436,17.578125
3437,15.625000
3438,13.671875
3439,11.718750
3440,9.765625
3441,7.812500
3442,7.812500
3443,5.859375
3444,3.906250
3445,5.859375
3446,1.953125
3447,-1.953125
3448,-3.906250
3449,-5.859375
3450,-7.812500
3451,-9.765625
3452,-11.718750
3453,-13.671875
3454,-15.625000
3455,-17.578125
3456,-19.531250
3457,-19.531250
3458,-23.437500
3459,-25.390625
3460,-25.390625
3461,-27.343750
3462,-29.296875
3463,-31.250000
3464,-33.203125
3465,-35.156250
3466,-37.109375
3467,-39.062500
3468,-41.015625
3469,-41.015625
3470,-42.968750
3471,-44.921875
3472,-46.875000
3473,-48.828125
3474,-48.828125
3475,-52.734375
3476,-52.734375
3477,-54.687500
3478,-56.640625
3479,-58.593750
3480,-58.593750
3481,-60.546875
3482,-62.500000
3483,-62.500000
3484,-64.453125
3485,-66.406250
3486,-66.406250
3487,-70.312500
3488,-70.312500
3489,-70.312500
3490,-72.265625
3491,-72.265625
3492,-74.218750
3493,-76.171875
3494,-76.171875
3495,-78.125000
3496,-76.171875
3497,-80.078125
3498,-80.078125
3499,-82.031250
3500,-82.031250
3501,-82.031250
3502,-83.984375
3503,-83.984375
3504,-85.937500
3505,-85.937500
3506,-85.937500
3507,-85.937500
3508,-87.890625
3509,-87.890625
3510,-87.890625
3511,-87.890625
3512,-87.890625
3513,-89.843750
3514,-89.843750
3515,-89.843750
3516,-89.843750
3517,-89.843750
3518,-89.843750
3519,-89.843750
3520,-89.843750
3521,-89.843750
3522,-89.843750
3523,-89.843750
3524,-89.843750
3525,-89.843750
3526,-89.843750
3527,-87.890625
3528,-87.890625
3529,-87.890625
3530,-87.890625
3531,-87.890625
3532,-85.937500
3533,-85.937500
3534,-85.937500
3535,-83.984375
3536,-83.984375
3537,-83.984375
3538,-83.984375
3539,-82.031250
3540,-80.078125
3541,-80.078125
3542,-78.125000
3543,-78.125000
3544,-78.125000
3545,-76.171875
3546,-76.171875
3547,-74.218750
3548,-72.265625
3549,-72.265625
3550,-70.312500
3551,-68.359375
3552,-68.359375
3553,-66.406250
3554,-66.406250
3555,-64.453125
3556,-62.500000
3557,-60.546875
3558,-58.593750
3559,-58.593750
3560,-56.640625
3561,-54.687500
3562,-52.734375
3563,-52.734375
3564,-50.781250
3565,-48.828125
3566,-46.875000
3567,-44.921875
3568,-44.921875
3569,-42.968750
3570,-41.015625
3571,-39.062500
3572,-37.109375
3573,-35.156250
3574,-33.203125
3575,-31.250000
3576,-31.250000
3577,-27.343750
3578,-27.343750
3579,-25.390625
3580,-23.437500
3581,-21.484375
3582,-19.531250
3583,-17.578125
3584,-15.625000
3585,-13.671875
3586,-11.718750
3587,-9.765625
3588,-9.765625
3589,-7.812500
3590,-3.906250
3591,-1.953125
3592,-1.953125
3593,0.000000
3594,0.000000
3595,3.906250
3596,5.859375
3597,7.812500
3598,9.765625
3599,11.718750
3600,13.671875
3601,13.671875
3602,17.578125
3603,19.531250
3604,19.531250
3605,21.484375
3606,23.437500
3607,25.390625
3608,27.343750
3609,27.343750
3610,29.296875
3611,31.250000
3612,33.203125
3613,35.156250
3614,35.156250
3615,37.109375
3616,39.062500
3617,41.015625
3618,41.015625
3619,42.968750
3620,42.968750
3621,44.921875
3622,46.875000
3623,48.828125
3624,48.828125
3625,50.781250
3626,52.734375
3627,52.734375
3628,54.687500
3629,56.640625
3630,56.640625
3631,58.593750
3632,58.593750
3633,58.593750
3634,60.546875
3635,60.546875
3636,62.500000
3637,64.453125
3638,64.453125
3639,64.453125
3640,66.406250
3641,66.406250
3642,66.406250
3643,66.406250
3644,68.359375
3645,68.359375
3646,68.359375
3647,68.359375
3648,70.312500
3649,70.312500
3650,70.312500
3651,72.265625
3652,72.265625
3653,72.265625
3654,72.265625
3655,72.265625
3656,72.265625
3657,72.265625
3658,72.265625
3659,72.265625
3660,74.218750
3661,72.265625
3662,72.265625
3663,74.218750
3664,72.265625
3665,72.265625
3666,72.265625
3667,72.265625
3668,72.265625
3669,72.265625
3670,72.265625
3671,72.265625
3672,72.265625
3673,70.312500
3674,70.312500
3675,70.312500
3676,70.312500
3677,68.359375
3678,68.359375
3679,68.359375
3680,68.359375
3681,66.406250
3682,66.406250
3683,64.453125
3684,64.453125
3685,64.453125
3686,62.500000
3687,62.500000
3688,60.546875
3689,58.593750
3690,58.593750
3691,58.593750
3692,56.640625
3693,56.640625
3694,54.687500
3695,54.687500
3696,52.734375
3697,50.781250
3698,50.781250
3699,48.828125
3700,48.828125
3701,46.875000
3702,44.921875
3703,42.968750
3704,42.968750
3705,41.015625
3706,39.062500
3707,39.062500
3708,37.109375
3709,35.156250
3710,35.156250
3711,33.203125
3712,31.250000
3713,29.296875
3714,27.343750
3715,27.343750
3716,23.437500
3717,21.484375
3718,21.484375
3719,19.531250
3720,17.578125
3721,15.625000
3722,13.671875
3723,11.718750
3724,9.765625
3725,9.765625
3726,7.812500
3727,5.859375
3728,3.906250
3729,1.953125
3730,0.000000
3731,-1.953125
3732,-3.906250
3733,-5.859375
3734,-7.812500
3735,-7.812500
3736,-11.718750
3737,-11.718750
3738,-13.671875
3739,-15.625000
3740,-17.578125
3741,-19.531250
3742,-21.484375
3743,-21.484375
3744,-25.390625
3745,-27.343750
3746,-27.343750
3747,-29.296875
3748,-31.250000
3749,-33.203125
3750,-35.156250
3751,-37.109375
3752,-39.062500
3753,-41.015625
3754,-42.968750
3755,-42.968750
3756,-44.921875
3757,-46.875000
3758,-48.828125
3759,-50.781250
3760,-52.734375
3761,-52.734375
3762,-54.687500
3763,-56.640625
3764,-58.593750
3765,-58.593750
3766,-62.500000
3767,-62.500000
3768,-64.453125
3769,-64.453125
3770,-66.406250
3771,-68.359375
3772,-70.312500
3773,-70.312500
3774,-72.265625
3775,-72.265625
3776,-74.218750
3777,-76.171875
3778,-76.171875
3779,-78.125000
3780,-78.125000
3781,-78.125000
3782,-80.078125
3783,-82.031250
3784,-82.031250
3785,-82.031250
3786,-83.984375
3787,-83.984375
3788,-83.984375
3789,-85.937500
3790,-85.937500
3791,-85.937500
3792,-85.937500
3793,-87.890625
3794,-87.890625
3795,-85.937500
3796,-87.890625
3797,-89.843750
3798,-89.843750
3799,-89.843750
3800,-89.843750
3801,-89.843750
3802,-89.843750
3803,-89.843750
3804,-89.843750
3805,-89.843750
3806,-89.843750
3807,-89.843750
3808,-89.843750
3809,-89.843750
3810,-87.890625
3811,-89.843750
3812,-87.890625
3813,-87.890625
3814,-87.890625
3815,-89.843750
3816,-85.937500
3817,-85.937500
3818,-85.937500
3819,-83.984375
3820,-83.984375
3821,-82.031250
3822,-82.031250
3823,-80.078125
3824,-80.078125
3825,-80.078125
3826,-78.125000
3827,-78.125000
3828,-78.125000
3829,-76.171875
3830,-74.218750
3831,-74.218750
3832,-72.265625
3833,-72.265625
3834,-70.312500
3835,-70.312500
3836,-68.359375
3837,-66.406250
3838,-64.453125
3839,-64.453125
3840,-62.500000
3841,-62.500000
3842,-60.546875
3843,-58.593750
3844,-56.640625
3845,-56.640625
3846,-54.687500
3847,-52.734375
3848,-50.781250
3849,-48.828125
3850,-48.828125
3851,-44.921875
3852,-42.968750
3853,-42.968750
3854,-41.015625
3855,-39.062500
3856,-39.062500
3857,-37.109375
3858,-33.203125
3859,-33.203125
3860,-31.250000
3861,-29.296875
3862,-25.390625
3863,-25.390625
3864,-23.437500
3865,-19.531250
3866,-19.531250
3867,-17.578125
3868,-15.625000
3869,-13.671875
3870,-11.718750
3871,-9.765625
3872,-9.765625
3873,-5.859375
3874,-5.859375
3875,-1.953125
3876,-1.953125
3877,0.000000
3878,1.953125
3879,3.906250
3880,5.859375
3881,9.765625
3882,9.765625
3883,11.718750
3884,11.718750
3885,13.671875
3886,15.625000
3887,17.578125
3888,19.531250
3889,21.484375
3890,23.437500
3891,23.437500
3892,27.343750
3893,27.343750
3894,27.343750
3895,31.250000
3896,31.250000
3897,35.156250
3898,35.156250
3899,37.109375
3900,39.062500
3901,39.062500
3902,41.015625
3903,42.968750
3904,42.968750
3905,44.921875
3906,46.875000
3907,46.875000
3908,48.828125
3909,50.781250
3910,50.781250
3911,52.734375
3912,52.734375
3913,54.687500
3914,56.640625
3915,56.640625
3916,58.593750
3917,58.593750
3918,60.546875
3919,60.546875
3920,62.500000
3921,62.500000
3922,64.453125
3923,64.453125
3924,64.453125
3925,62.500000
3926,66.406250
3927,68.359375
3928,68.359375
3929,68.359375
3930,68.359375
3931,70.312500
3932,68.359375
3933,70.312500
3934,70.312500
3935,70.312500
3936,72.265625
3937,72.265625
3938,72.265625
3939,72.265625
3940,72.265625
3941,72.265625
3942,74.218750
3943,72.265625
3944,74.218750
3945,74.218750
3946,72.265625
3947,74.218750
3948,72.265625
3949,74.218750
3950,74.218750
3951,72.265625
3952,72.265625
3953,72.265625
3954,72.265625
3955,72.265625
3956,70.312500
3957,70.312500
3958,70.312500
3959,68.359375
3960,68.359375
3961,70.312500
3962,66.406250
3963,68.359375
3964,68.359375
3965,66.406250
3966,66.406250
3967,66.406250
3968,64.453125
3969,64.453125
3970,62.500000
3971,62.500000
3972,60.546875
3973,60.546875
3974,60.546875
3975,58.593750
3976,56.640625
3977,56.640625
3978,56.640625
3979,54.687500
3980,52.734375
3981,54.687500
3982,50.781250
3983,48.828125
3984,46.875000
3985,44.921875
3986,44.921875
3987,44.921875
3988,42.968750
3989,41.015625
3990,39.062500
3991,39.062500
3992,37.109375
3993,35.156250
3994,33.203125
3995,33.203125
3996,31.250000
3997,29.296875
3998,27.343750
3999,25.390625
4000,25.390625
4001,23.437500
4002,21.484375
4003,19.531250
4004,17.578125
4005,15.625000
4006,13.671875
4007,13.671875
4008,9.765625
4009,9.765625
4010,7.812500
4011,5.859375
4012,3.906250
4013,1.953125
4014,0.000000
4015,-1.953125
4016,-3.906250
4017,-3.906250
4018,-5.859375
4019,-9.765625
4020,-11.718750
4021,-11.718750
4022,-13.671875
4023,-15.625000
4024,-19.531250
4025,-21.484375
4026,-21.484375
4027,-23.437500
4028,-23.437500
4029,-27.343750
4030,-29.296875
4031,-29.296875
4032,-31.250000
4033,-35.156250
4034,-37.109375
4035,-37.109375
4036,-39.062500
4037,-41.015625
4038,-42.968750
4039,-44.921875
4040,-46.875000
4041,-46.875000
4042,-50.781250
4043,-50.781250
4044,-52.734375
4045,-54.687500
4046,-56.640625
4047,-56.640625
4048,-58.593750
4049,-60.546875
4050,-62.500000
4051,-62.500000
4052,-64.453125
4053,-66.406250
4054,-68.359375
4055,-68.359375
4056,-70.312500
4057,-70.312500
4058,-72.265625
4059,-74.218750
4060,-74.218750
4061,-74.218750
4062,-76.171875
4063,-78.125000
4064,-78.125000
4065,-78.125000
4066,-80.078125
4067,-80.078125
4068,-82.031250
4069,-83.984375
4070,-83.984375
4071,-83.984375
4072,-83.984375
4073,-85.937500
4074,-85.937500
4075,-85.937500
4076,-85.937500
4077,-87.890625
4078,-87.890625
4079,-87.890625
4080,-87.890625
4081,-89.843750
4082,-89.843750
4083,-89.843750
4084,-89.843750
4085,-89.843750
4086,-89.843750
4087,-89.843750
4088,-89.843750
4089,-89.843750
4090,-89.843750
4091,-89.843750
4092,-89.843750
4093,-89.843750
4094,-87.890625
4095,-87.890625
4096,-87.890625
4097,-87.890625
4098,-87.890625
4099,-87.890625
4100,-85.937500
4101,-85.937500
4102,-87.890625
4103,-85.937500
4104,-83.984375
4105,-82.031250
4106,-82.031250
4107,-82.031250
4108,-80.078125
4109,-80.078125
4110,-78.125000
4111,-78.125000
4112,-78.125000
4113,-76.171875
4114,-76.171875
4115,-74.218750
4116,-72.265625
4117,-72.265625
4118,-70.312500
4119,-68.359375
4120,-68.359375
4121,-66.406250
4122,-66.406250
4123,-64.453125
4124,-62.500000
4125,-60.546875
4126,-58.593750
4127,-58.593750
4128,-56.640625
4129,-54.687500
4130,-52.734375
4131,-52.734375
4132,-50.781250
4133,-48.828125
4134,-46.875000
4135,-44.921875
4136,-42.968750
4137,-42.968750
4138,-41.015625
4139,-39.062500
4140,-37.109375
4141,-35.156250
4142,-33.203125
4143,-31.250000
4144,-29.296875
4145,-29.296875
4146,-27.343750
4147,-25.390625
4148,-21.484375
4149,-21.484375
4150,-19.531250
4151,-17.578125
4152,-15.625000
4153,-13.671875
4154,-11.718750
4155,-9.765625
4156,-7.812500
4157,-7.812500
4158,-5.859375
4159,-1.953125
4160,-1.953125
4161,0.000000
4162,1.953125
4163,3.906250
4164,5.859375
4165,5.859375
4166,9.765625
4167,11.718750
4168,13.671875
4169,13.671875
4170,15.625000
4171,17.578125
4172,19.531250
4173,21.484375
4174,23.437500
4175,23.437500
4176,25.390625
4177,27.343750
4178,29.296875
4179,29.296875
4180,31.250000
4181,33.203125
4182,35.156250
4183,37.109375
4184,37.109375
4185,39.062500
4186,41.015625
4187,42.968750
4188,44.921875
4189,44.921875
4190,46.875000
4191,46.875000
4192,48.828125
4193,50.781250
4194,52.734375
4195,52.734375
4196,54.687500
4197,54.687500
4198,56.640625
4199,56.640625
4200,58.593750
4201,60.546875
4202,60.546875
4203,62.500000
4204,62.500000
4205,62.500000
4206,64.453125
4207,64.453125
4208,66.406250
4209,66.406250
4210,66.406250
4211,68.359375
4212,68.359375
4213,68.359375
4214,70.312500
4215,68.359375
4216,70.312500
4217,70.312500
4218,70.312500
4219,72.265625
4220,72.265625
4221,70.312500
4222,72.265625
4223,74.218750
4224,72.265625
4225,74.218750
4226,72.265625
4227,72.265625
4228,74.218750
4229,74.218750
4230,74.218750
4231,74.218750
4232,72.265625
4233,72.265625
4234,72.265625
4235,72.265625
4236,72.265625
4237,72.265625
4238,72.265625
4239,72.265625
4240,72.265625
4241,70.312500
4242,70.312500
4243,70.312500
4244,70.312500
4245,68.359375
4246,68.359375
4247,68.359375
4248,68.359375
4249,64.453125
4250,66.406250
4251,64.453125
4252,64.453125
4253,64.453125
4254,62.500000
4255,62.500000
4256,60.546875
4257,60.546875
4258,60.546875
4259,58.593750
4260,56.640625
4261,56.640625
4262,54.687500
4263,54.687500
4264,52.734375
4265,52.734375
4266,50.781250
4267,48.828125
4268,46.875000
4269,46.875000
4270,44.921875
4271,44.921875
4272,42.968750
4273,41.015625
4274,41.015625
4275,39.062500
4276,37.109375
4277,35.156250
4278,35.156250
4279,33.203125
4280,31.250000
4281,29.296875
4282,27.343750
4283,27.343750
4284,23.437500
4285,23.437500
4286,21.484375
4287,19.531250
4288,19.531250
4289,17.578125
4290,13.671875
4291,13.671875
4292,11.718750
4293,9.765625
4294,7.812500
4295,5.859375
4296,3.906250
4297,1.953125
4298,0.000000
4299,-1.953125
4300,-3.906250
4301,-5.859375
4302,-5.859375
4303,-7.812500
4304,-9.765625
4305,-11.718750
4306,-13.671875
4307,-15.625000
4308,-17.578125
4309,-19.531250
4310,-21.484375
4311,-23.437500
4312,-25.390625
4313,-27.343750
4314,-29.296875
4315,-29.296875
4316,-31.250000
4317,-33.203125
4318,-35.156250
4319,-37.109375
4320,-39.062500
4321,-41.015625
4322,-42.968750
4323,-44.921875
4324,-46.875000
4325,-46.875000
4326,-48.828125
4327,-48.828125
4328,-50.781250
4329,-52.734375
4330,-54.687500
4331,-56.640625
4332,-58.593750
4333,-58.593750
4334,-60.546875
4335,-62.500000
4336,-64.453125
4337,-66.406250
4338,-68.359375
4339,-68.359375
4340,-68.359375
4341,-70.312500
4342,-72.265625
4343,-72.265625
4344,-74.218750
4345,-74.218750
4346,-76.171875
4347,-76.171875
4348,-78.125000
4349,-78.125000
4350,-80.078125
4351,-82.031250
4352,-80.078125
4353,-82.031250
4354,-83.984375
4355,-83.984375
4356,-83.984375
4357,-83.984375
4358,-85.937500
4359,-85.937500
4360,-87.890625
4361,-87.890625
4362,-87.890625
4363,-89.843750
4364,-87.890625
4365,-89.843750
4366,-89.843750
4367,-87.890625
4368,-89.843750
4369,-89.843750
4370,-89.843750
4371,-89.843750
4372,-89.843750
4373,-89.843750
4374,-89.843750
4375,-89.843750
4376,-89.843750
4377,-89.843750
4378,-89.843750
4379,-87.890625
4380,-87.890625
4381,-87.890625
4382,-85.937500
4383,-85.937500
4384,-85.937500
4385,-85.937500
4386,-85.937500
4387,-83.984375
4388,-83.984375
4389,-83.984375
4390,-82.031250
4391,-82.031250
4392,-82.031250
4393,-80.078125
4394,-78.125000
4395,-78.125000
4396,-78.125000
4397,-76.171875
4398,-76.171875
4399,-74.218750
4400,-72.265625
4401,-72.265625
4402,-70.312500
4403,-68.359375
4404,-68.359375
4405,-66.406250
4406,-66.406250
4407,-64.453125
4408,-62.500000
4409,-60.546875
4410,-60.546875
4411,-58.593750
4412,-56.640625
4413,-54.687500
4414,-52.734375
4415,-52.734375
4416,-50.781250
4417,-48.828125
4418,-48.828125
4419,-46.875000
4420,-44.921875
4421,-42.968750
4422,-41.015625
4423,-41.015625
4424,-37.109375
4425,-35.156250
4426,-35.156250
4427,-33.203125
4428,-31.250000
4429,-29.296875
4430,-27.343750
4431,-25.390625
4432,-23.437500
4433,-21.484375
4434,-21.484375
4435,-17.578125
4436,-17.578125
4437,-15.625000
4438,-13.671875
4439,-9.765625
4440,-9.765625
4441,-7.812500
4442,-5.859375
4443,-3.906250
4444,-1.953125
4445,0.000000
4446,1.953125
4447,3.906250
4448,3.906250
4449,7.812500
4450,7.812500
4451,9.765625
4452,11.718750
4453,13.671875
4454,15.625000
4455,17.578125
4456,19.531250
4457,21.484375
4458,21.484375
4459,23.437500
4460,25.390625
4461,27.343750
4462,29.296875
4463,31.250000
4464,31.250000
4465,33.203125
4466,35.156250
4467,33.203125
4468,39.062500
4469,39.062500
4470,41.015625
4471,42.968750
4472,44.921875
4473,44.921875
4474,46.875000
4475,48.828125
4476,48.828125
4477,50.781250
4478,50.781250
4479,52.734375
4480,54.687500
4481,54.687500
4482,56.640625
4483,56.640625
4484,58.593750
4485,58.593750
4486,60.546875
4487,60.546875
4488,60.546875
4489,62.500000
4490,62.500000
4491,64.453125
4492,64.453125
4493,64.453125
4494,66.406250
4495,66.406250
4496,66.406250
4497,68.359375
4498,68.359375
4499,70.312500
4500,70.312500
4501,70.312500
4502,70.312500
4503,70.312500
4504,70.312500
4505,72.265625
4506,72.265625
4507,72.265625
4508,72.265625
4509,72.265625
4510,74.218750
4511,72.265625
4512,74.218750
4513,72.265625
4514,74.218750
4515,72.265625
4516,72.265625
4517,72.265625
4518,74.218750
4519,74.218750
4520,72.265625
4521,72.265625
4522,72.265625
4523,72.265625
4524,70.312500
4525,72.265625
4526,70.312500
4527,70.312500
4528,70.312500
4529,70.312500
4530,68.359375
4531,68.359375
4532,68.359375
4533,66.406250
4534,66.406250
4535,64.453125
4536,64.453125
4537,64.453125
4538,62.500000
4539,60.546875
4540,60.546875
4541,60.546875
4542,60.546875
4543,58.593750
4544,56.640625
4545,54.687500
4546,56.640625
4547,54.687500
4548,52.734375
4549,50.781250
4550,50.781250
4551,48.828125
4552,48.828125
4553,46.875000
4554,44.921875
4555,44.921875
4556,42.968750
4557,41.015625
4558,39.062500
4559,39.062500
4560,37.109375
4561,35.156250
4562,33.203125
4563,33.203125
4564,31.250000
4565,29.296875
4566,27.343750
4567,25.390625
4568,25.390625
4569,21.484375
4570,21.484375
4571,19.531250
4572,17.578125
4573,15.625000
4574,13.671875
4575,13.671875
4576,11.718750
4577,9.765625
4578,9.765625
4579,5.859375
4580,3.906250
4581,3.906250
4582,0.000000
4583,0.000000
4584,-1.953125
4585,-3.906250
4586,-5.859375
4587,-7.812500
4588,-9.765625
4589,-11.718750
4590,-13.671875
4591,-15.625000
4592,-17.578125
4593,-19.531250
4594,-21.484375
4595,-23.437500
4596,-25.390625
4597,-27.343750
4598,-27.343750
4599,-29.296875
4600,-31.250000
4601,-33.203125
4602,-35.156250
4603,-37.109375
4604,-39.062500
4605,-41.015625
4606,-41.015625
4607,-42.968750
4608,-44.921875
4609,-46.875000
4610,-48.828125
4611,-48.828125
4612,-52.734375
4613,-52.734375
4614,-54.687500
4615,-56.640625
4616,-58.593750
4617,-58.593750
4618,-60.546875
4619,-62.500000
4620,-64.453125
4621,-64.453125
4622,-68.359375
4623,-70.312500
4624,-70.312500
4625,-70.312500
4626,-72.265625
4627,-74.218750
4628,-74.218750
4629,-76.171875
4630,-76.171875
4631,-76.171875
4632,-78.125000
4633,-78.125000
4634,-80.078125
4635,-80.078125
4636,-82.031250
4637,-83.984375
4638,-83.984375
4639,-83.984375
4640,-83.984375
4641,-85.937500
4642,-85.937500
4643,-85.937500
4644,-85.937500
4645,-87.890625
4646,-87.890625
4647,-87.890625
4648,-87.890625
4649,-89.843750
4650,-87.890625
4651,-87.890625
4652,-89.843750
4653,-89.843750
4654,-89.843750
4655,-89.843750
4656,-89.843750
4657,-89.843750
4658,-89.843750
4659,-89.843750
4660,-89.843750
4661,-89.843750
4662,-89.843750
4663,-87.890625
4664,-87.890625
4665,-87.890625
4666,-87.890625
4667,-85.937500
4668,-85.937500
4669,-85.937500
4670,-85.937500
4671,-83.984375
4672,-83.984375
4673,-83.984375
4674,-82.031250
4675,-82.031250
4676,-80.078125
4677,-80.078125
4678,-80.078125
4679,-78.125000
4680,-78.125000
4681,-76.171875
4682,-74.218750
4683,-74.218750
4684,-74.218750
4685,-72.265625
4686,-70.312500
4687,-70.312500
4688,-66.406250
4689,-66.406250
4690,-64.453125
4691,-64.453125
4692,-62.500000
4693,-56.640625
4694,-60.546875
4695,-58.593750
4696,-56.640625
4697,-56.640625
4698,-54.687500
4699,-52.734375
4700,-50.781250
4701,-48.828125
4702,-48.828125
4703,-46.875000
4704,-44.921875
4705,-42.968750
4706,-41.015625
4707,-39.062500
4708,-37.109375
4709,-35.156250
4710,-33.203125
4711,-33.203125
4712,-29.296875
4713,-27.343750
4714,-27.343750
4715,-25.390625
4716,-23.437500
4717,-21.484375
4718,-19.531250
4719,-17.578125
4720,-15.625000
4721,-13.671875
4722,-11.718750
4723,-9.765625
4724,-7.812500
4725,-5.859375
4726,-3.906250
4727,-3.906250
4728,-1.953125
4729,0.000000
4730,1.953125
4731,3.906250
4732,5.859375
4733,7.812500
4734,9.765625
4735,11.718750
4736,11.718750
4737,13.671875
4738,15.625000
4739,17.578125
4740,19.531250
4741,21.484375
4742,21.484375
4743,23.437500
4744,25.390625
4745,27.343750
4746,29.296875
4747,31.250000
4748,33.203125
4749,33.203125
4750,35.156250
4751,35.156250
4752,37.109375
4753,41.015625
4754,41.015625
4755,42.968750
4756,42.968750
4757,44.921875
4758,46.875000
4759,46.875000
4760,48.828125
4761,48.828125
4762,50.781250
4763,52.734375
4764,56.640625
4765,54.687500
4766,56.640625
4767,56.640625
4768,58.593750
4769,58.593750
4770,64.453125
4771,60.546875
4772,60.546875
4773,62.500000
4774,62.500000
4775,64.453125
4776,66.406250
4777,66.406250
4778,66.406250
4779,68.359375
4780,70.312500
4781,70.312500
4782,70.312500
4783,68.359375
4784,70.312500
4785,70.312500
4786,70.312500
4787,72.265625
4788,72.265625
4789,72.265625
4790,72.265625
4791,72.265625
4792,72.265625
4793,72.265625
4794,74.218750
4795,74.218750
4796,74.218750
4797,74.218750
4798,74.218750
4799,74.218750
4800,74.218750
4801,72.265625
4802,74.218750
4803,72.265625
4804,72.265625
4805,74.218750
4806,72.265625
4807,72.265625
4808,72.265625
4809,72.265625
4810,70.312500
4811,70.312500
4812,70.312500
4813,70.312500
4814,68.359375
4815,68.359375
4816,68.359375
4817,68.359375
4818,66.406250
4819,64.453125
4820,64.453125
4821,62.500000
4822,64.453125
4823,62.500000
4824,62.500000
4825,60.546875
4826,58.593750
4827,58.593750
4828,56.640625
4829,56.640625
4830,54.687500
4831,54.687500
4832,52.734375
4833,52.734375
4834,50.781250
4835,50.781250
4836,48.828125
4837,46.875000
4838,44.921875
4839,44.921875
4840,44.921875
4841,42.968750
4842,41.015625
4843,39.062500
4844,37.109375
4845,37.109375
4846,35.156250
4847,33.203125
4848,33.203125
4849,29.296875
4850,27.343750
4851,27.343750
4852,25.390625
4853,23.437500
4854,21.484375
4855,19.531250
4856,19.531250
4857,17.578125
4858,15.625000
4859,13.671875
4860,11.718750
4861,9.765625
4862,7.812500
4863,5.859375
4864,3.906250
4865,3.906250
4866,0.000000
4867,0.000000
4868,-1.953125
4869,-3.906250
4870,-5.859375
4871,-7.812500
4872,-9.765625
4873,-11.718750
4874,-13.671875
4875,-15.625000
4876,-17.578125
4877,-19.531250
4878,-19.531250
4879,-23.437500
4880,-25.390625
4881,-25.390625
4882,-29.296875
4883,-29.296875
4884,-31.250000
4885,-33.203125
4886,-35.156250
4887,-37.109375
4888,-39.062500
4889,-41.015625
4890,-42.968750
4891,-42.968750
4892,-44.921875
4893,-46.875000
4894,-48.828125
4895,-50.781250
4896,-52.734375
4897,-54.687500
4898,-54.687500
4899,-56.640625
4900,-56.640625
4901,-60.546875
4902,-60.546875
4903,-62.500000
4904,-62.500000
4905,-64.453125
4906,-66.406250
4907,-68.359375
4908,-68.359375
4909,-70.312500
4910,-70.312500
4911,-72.265625
4912,-74.218750
4913,-74.218750
4914,-76.171875
4915,-76.171875
4916,-78.125000
4917,-78.125000
4918,-80.078125
4919,-80.078125
4920,-80.078125
4921,-82.031250
4922,-82.031250
4923,-83.984375
4924,-83.984375
4925,-83.984375
4926,-85.937500
4927,-85.937500
4928,-87.890625
4929,-87.890625
4930,-87.890625
4931,-87.890625
4932,-87.890625
4933,-89.843750
4934,-89.843750
4935,-89.843750
4936,-89.843750
4937,-89.843750
4938,-89.843750
4939,-89.843750
4940,-89.843750
4941,-91.796875
4942,-89.843750
4943,-89.843750
4944,-89.843750
4945,-89.843750
4946,-89.843750
4947,-89.843750
4948,-87.890625
4949,-87.890625
4950,-87.890625
4951,-87.890625
4952,-85.937500
4953,-85.937500
4954,-85.937500
4955,-85.937500
4956,-83.984375
4957,-83.984375
4958,-82.031250
4959,-83.984375
4960,-82.031250
4961,-80.078125
4962,-80.078125
4963,-78.125000
4964,-78.125000
4965,-76.171875
4966,-76.171875
4967,-74.218750
4968,-72.265625
4969,-72.265625
4970,-70.312500
4971,-70.312500
4972,-68.359375
4973,-66.406250
4974,-66.406250
4975,-64.453125
4976,-62.500000
4977,-60.546875
4978,-60.546875
4979,-58.593750
4980,-56.640625
4981,-56.640625
4982,-54.687500
4983,-50.781250
4984,-50.781250
4985,-48.828125
4986,-48.828125
4987,-44.921875
4988,-44.921875
4989,-42.968750
4990,-41.015625
4991,-37.109375
4992,-39.062500
4993,-37.109375
4994,-35.156250
4995,-33.203125
4996,-31.250000
4997,-29.296875
4998,-27.343750
4999,-25.390625
5000,-23.437500
5001,-23.437500
5002,-21.484375
5003,-17.578125
5004,-17.578125
5005,-15.625000
5006,-13.671875
5007,-11.718750
5008,-9.765625
5009,-7.812500
5010,-5.859375
5011,-3.906250
5012,-3.906250
5013,0.000000
5014,1.953125
5015,3.906250
5016,3.906250
5017,5.859375
5018,7.812500
5019,9.765625
5020,11.718750
5021,13.671875
5022,15.625000
5023,15.625000
5024,21.484375
5025,19.531250
5026,21.484375
5027,23.437500
5028,25.390625
5029,27.343750
5030,29.296875
5031,31.250000
5032,31.250000
5033,33.203125
5034,35.156250
5035,35.156250
5036,39.062500
5037,39.062500
5038,41.015625
5039,42.968750
5040,42.968750
5041,44.921875
5042,46.875000
5043,46.875000
5044,48.828125
5045,48.828125
5046,50.781250
5047,52.734375
5048,54.687500
5049,54.687500
5050,54.687500
5051,56.640625
5052,58.593750
5053,58.593750
5054,60.546875
5055,60.546875
5056,60.546875
5057,62.500000
5058,64.453125
5059,64.453125
5060,64.453125
5061,64.453125
5062,66.406250
5063,66.406250
5064,68.359375
5065,68.359375
5066,68.359375
5067,68.359375
5068,70.312500
5069,70.312500
5070,70.312500
5071,70.312500
5072,70.312500
5073,72.265625
5074,72.265625
5075,72.265625
5076,72.265625
5077,72.265625
5078,72.265625
5079,72.265625
5080,72.265625
5081,72.265625
5082,72.265625
5083,76.171875
5084,74.218750
5085,74.218750
5086,72.265625
5087,72.265625
5088,70.312500
5089,72.265625
5090,72.265625
5091,72.265625
5092,72.265625
5093,72.265625
5094,72.265625
5095,70.312500
5096,70.312500
5097,70.312500
5098,68.359375
5099,68.359375
5100,68.359375
5101,66.406250
5102,66.406250
5103,64.453125
5104,66.406250
5105,64.453125
5106,62.500000
5107,62.500000
5108,62.500000
5109,60.546875
5110,60.546875
5111,58.593750
5112,56.640625
5113,56.640625
5114,56.640625
5115,54.687500
5116,54.687500
5117,52.734375
5118,50.781250
5119,50.781250
5120,48.828125
5121,46.875000
5122,46.875000
5123,44.921875
5124,42.968750
5125,42.968750
5126,41.015625
5127,39.062500
5128,39.062500
5129,35.156250
5130,33.203125
5131,33.203125
5132,31.250000
5133,29.296875
5134,27.343750
5135,27.343750
5136,25.390625
5137,23.437500
5138,21.484375
5139,19.531250
5140,19.531250
5141,17.578125
5142,15.625000
5143,13.671875
5144,11.718750
5145,9.765625
5146,7.812500
5147,7.812500
5148,3.906250
5149,1.953125
5150,1.953125
5151,0.000000
5152,-1.953125
5153,-3.906250
5154,-5.859375
5155,-7.812500
5156,-9.765625
5157,-11.718750
5158,-13.671875
5159,-15.625000
5160,-15.625000
5161,-17.578125
5162,-21.484375
5163,-23.437500
5164,-23.437500
5165,-25.390625
5166,-27.343750
5167,-29.296875
5168,-31.250000
5169,-33.203125
5170,-35.156250
5171,-37.109375
5172,-39.062500
5173,-39.062500
5174,-42.968750
5175,-42.968750
5176,-44.921875
5177,-46.875000
5178,-46.875000
5179,-50.781250
5180,-50.781250
5181,-52.734375
5182,-54.687500
5183,-56.640625
5184,-58.593750
5185,-58.593750
5186,-60.546875
5187,-62.500000
5188,-64.453125
5189,-64.453125
5190,-66.406250
5191,-68.359375
5192,-68.359375
5193,-70.312500
5194,-72.265625
5195,-72.265625
5196,-74.218750
5197,-74.218750
5198,-76.171875
5199,-76.171875
5200,-78.125000
5201,-78.125000
5202,-80.078125
5203,-80.078125
5204,-82.031250
5205,-82.031250
5206,-82.031250
5207,-83.984375
5208,-83.984375
5209,-83.984375
5210,-85.937500
5211,-85.937500
5212,-87.890625
5213,-85.937500
5214,-87.890625
5215,-87.890625
5216,-89.843750
5217,-87.890625
5218,-87.890625
5219,-87.890625
5220,-89.843750
5221,-89.843750
5222,-89.843750
5223,-89.843750
5224,-89.843750
5225,-89.843750
5226,-89.843750
5227,-89.843750
5228,-89.843750
5229,-89.843750
5230,-87.890625
5231,-87.890625
5232,-87.890625
5233,-87.890625
5234,-87.890625
5235,-85.937500
5236,-85.937500
5237,-85.937500
5238,-85.937500
5239,-83.984375
5240,-83.984375
5241,-83.984375
5242,-82.031250
5243,-82.031250
5244,-80.078125
5245,-80.078125
5246,-80.078125
5247,-78.125000
5248,-76.171875
5249,-76.171875
5250,-76.171875
5251,-74.218750
5252,-74.218750
5253,-72.265625
5254,-70.312500
5255,-70.312500
5256,-68.359375
5257,-66.406250
5258,-64.453125
5259,-64.453125
5260,-62.500000
5261,-62.500000
5262,-60.546875
5263,-58.593750
5264,-56.640625
5265,-56.640625
5266,-54.687500
5267,-52.734375
5268,-50.781250
5269,-48.828125
5270,-48.828125
5271,-46.875000
5272,-44.921875
5273,-42.968750
5274,-41.015625
5275,-41.015625
5276,-37.109375
5277,-35.156250
5278,-35.156250
5279,-33.203125
5280,-31.250000
5281,-27.343750
5282,-27.343750
5283,-25.390625
5284,-23.437500
5285,-21.484375
5286,-19.531250
5287,-17.578125
5288,-15.625000
5289,-15.625000
5290,-11.718750
5291,-11.718750
5292,-7.812500
5293,-7.812500
5294,-5.859375
5295,-3.906250
5296,0.000000
5297,0.000000
5298,1.953125
5299,3.906250
5300,5.859375
5301,7.812500
5302,9.765625
5303,11.718750
5304,11.718750
5305,13.671875
5306,15.625000
5307,17.578125
5308,19.531250
5309,21.484375
5310,23.437500
5311,25.390625
5312,25.390625
5313,27.343750
5314,29.296875
5315,31.250000
5316,31.250000
5317,33.203125
5318,35.156250
5319,37.109375
5320,39.062500
5321,39.062500
5322,41.015625
5323,41.015625
5324,42.968750
5325,44.921875
5326,46.875000
5327,46.875000
5328,48.828125
5329,48.828125
5330,50.781250
5331,52.734375
5332,52.734375
5333,54.687500
5334,54.687500
5335,56.640625
5336,58.593750
5337,58.593750
5338,58.593750
5339,60.546875
5340,60.546875
5341,62.500000
5342,62.500000
5343,64.453125
5344,64.453125
5345,64.453125
5346,66.406250
5347,66.406250
5348,68.359375
5349,68.359375
5350,66.406250
5351,70.312500
5352,70.312500
5353,70.312500
5354,72.265625
5355,70.312500
5356,70.312500
5357,72.265625
5358,72.265625
5359,74.218750
5360,72.265625
5361,72.265625
5362,72.265625
5363,74.218750
5364,74.218750
5365,74.218750
5366,72.265625
5367,74.218750
5368,74.218750
5369,74.218750
5370,74.218750
5371,72.265625
5372,72.265625
5373,72.265625
5374,72.265625
5375,72.265625
5376,72.265625
5377,70.312500
5378,70.312500
5379,70.312500
5380,70.312500
5381,70.312500
5382,68.359375
5383,66.406250
5384,68.359375
5385,66.406250
5386,66.406250
5387,64.453125
5388,64.453125
5389,64.453125
5390,62.500000
5391,62.500000
5392,62.500000
5393,60.546875
5394,58.593750
5395,58.593750
5396,58.593750
5397,56.640625
5398,54.687500
5399,54.687500
5400,52.734375
5401,50.781250
5402,50.781250
5403,50.781250
5404,46.875000
5405,46.875000
5406,46.875000
5407,44.921875
5408,42.968750
5409,41.015625
5410,41.015625
5411,39.062500
5412,39.062500
5413,35.156250
5414,35.156250
5415,33.203125
5416,31.250000
5417,29.296875
5418,27.343750
5419,27.343750
5420,25.390625
5421,23.437500
5422,21.484375
5423,21.484375
5424,19.531250
5425,17.578125
5426,15.625000
5427,13.671875
5428,11.718750
5429,9.765625
5430,7.812500
5431,7.812500
5432,5.859375
5433,3.906250
5434,1.953125
5435,0.000000
5436,-1.953125
5437,-3.906250
5438,-5.859375
5439,-7.812500
5440,-9.765625
5441,-11.718750
5442,-13.671875
5443,-15.625000
5444,-17.578125
5445,-21.484375
5446,-21.484375
5447,-23.437500
5448,-23.437500
5449,-25.390625
5450,-27.343750
5451,-29.296875
5452,-31.250000
5453,-33.203125
5454,-35.156250
5455,-37.109375
5456,-39.062500
5457,-41.015625
5458,-42.968750
5459,-42.968750
5460,-44.921875
5461,-46.875000
5462,-48.828125
5463,-50.781250
5464,-52.734375
5465,-52.734375
5466,-54.687500
5467,-56.640625
5468,-58.593750
5469,-58.593750
5470,-60.546875
5471,-62.500000
5472,-64.453125
5473,-64.453125
5474,-66.406250
5475,-68.359375
5476,-70.312500
5477,-70.312500
5478,-70.312500
5479,-72.265625
5480,-74.218750
5481,-74.218750
5482,-76.171875
5483,-76.171875
5484,-78.125000
5485,-78.125000
5486,-78.125000
5487,-80.078125
5488,-82.031250
5489,-82.031250
5490,-82.031250
5491,-82.031250
5492,-83.984375
5493,-85.937500
5494,-85.937500
5495,-85.937500
5496,-85.937500
5497,-87.890625
5498,-87.890625
5499,-87.890625
5500,-87.890625
5501,-87.890625
5502,-89.843750
5503,-89.843750
5504,-89.843750
5505,-89.843750
5506,-89.843750
5507,-89.843750
5508,-89.843750
5509,-89.843750
5510,-89.843750
5511,-89.843750
5512,-89.843750
5513,-89.843750
5514,-89.843750
5515,-87.890625
5516,-87.890625
5517,-87.890625
5518,-87.890625
5519,-87.890625
5520,-87.890625
5521,-85.937500
5522,-85.937500
5523,-85.937500
5524,-83.984375
5525,-83.984375
5526,-82.031250
5527,-82.031250
5528,-82.031250
5529,-80.078125
5530,-80.078125
5531,-78.125000
5532,-78.125000
5533,-78.125000
5534,-76.171875
5535,-74.218750
5536,-74.218750
5537,-72.265625
5538,-72.265625
5539,-70.312500
5540,-68.359375
5541,-68.359375
5542,-66.406250
5543,-66.406250
5544,-64.453125
5545,-62.500000
5546,-60.546875
5547,-58.593750
5548,-56.640625
5549,-52.734375
5550,-54.687500
5551,-52.734375
5552,-50.781250
5553,-50.781250
5554,-46.875000
5555,-46.875000
5556,-44.921875
5557,-42.968750
5558,-41.015625
5559,-37.109375
5560,-37.109375
5561,-35.156250
5562,-35.156250
5563,-33.203125
5564,-31.250000
5565,-29.296875
5566,-27.343750
5567,-25.390625
5568,-23.437500
5569,-23.437500
5570,-21.484375
5571,-17.578125
5572,-15.625000
5573,-15.625000
5574,-13.671875
5575,-11.718750
5576,-9.765625
5577,-7.812500
5578,-5.859375
5579,-3.906250
5580,-1.953125
5581,-1.953125
5582,0.000000
5583,1.953125
5584,3.906250
5585,5.859375
5586,7.812500
5587,9.765625
5588,11.718750
5589,13.671875
5590,15.625000
5591,17.578125
5592,17.578125
5593,19.531250
5594,21.484375
5595,23.437500
5596,25.390625
5597,27.343750
5598,27.343750
5599,29.296875
5600,31.250000
5601,33.203125
5602,33.203125
5603,37.109375
5604,37.109375
5605,39.062500
5606,41.015625
5607,41.015625
5608,42.968750
5609,44.921875
5610,44.921875
5611,46.875000
5612,48.828125
5613,50.781250
5614,50.781250
5615,52.734375
5616,52.734375
5617,54.687500
5618,56.640625
5619,56.640625
5620,58.593750
5621,58.593750
5622,60.546875
5623,60.546875
5624,62.500000
5625,62.500000
5626,62.500000
5627,64.453125
5628,64.453125
5629,66.406250
5630,66.406250
5631,66.406250
5632,68.359375
5633,68.359375
5634,68.359375
5635,70.312500
5636,70.312500
5637,70.312500
5638,70.312500
5639,70.312500
5640,70.312500
5641,72.265625
5642,72.265625
5643,72.265625
5644,72.265625
5645,72.265625
5646,74.218750
5647,74.218750
5648,72.265625
5649,74.218750
5650,72.265625
5651,74.218750
5652,72.265625
5653,74.218750
5654,72.265625
5655,72.265625
5656,72.265625
5657,72.265625
5658,72.265625
5659,72.265625
5660,72.265625
5661,72.265625
5662,70.312500
5663,70.312500
5664,70.312500
5665,70.312500
5666,68.359375
5667,68.359375
5668,68.359375
5669,68.359375
5670,66.406250
5671,66.406250
5672,64.453125
5673,64.453125
5674,62.500000
5675,62.500000
5676,62.500000
5677,60.546875
5678,60.546875
5679,60.546875
5680,58.593750
5681,56.640625
5682,56.640625
5683,54.687500
5684,52.734375
5685,52.734375
5686,50.781250
5687,50.781250
5688,48.828125
5689,48.828125
5690,46.875000
5691,44.921875
5692,42.968750
5693,42.968750
5694,41.015625
5695,39.062500
5696,37.109375
5697,37.109375
5698,35.156250
5699,37.109375
5700,31.250000
5701,29.296875
5702,29.296875
5703,27.343750
5704,27.343750
5705,23.437500
5706,21.484375
5707,21.484375
5708,19.531250
5709,15.625000
5710,15.625000
5711,13.671875
5712,11.718750
5713,11.718750
5714,7.812500
5715,5.859375
5716,5.859375
5717,3.906250
5718,1.953125
5719,0.000000
5720,-1.953125
5721,-3.906250
5722,-5.859375
5723,-7.812500
5724,-9.765625
5725,-11.718750
5726,-13.671875
5727,-13.671875
5728,-15.625000
5729,-17.578125
5730,-19.531250
5731,-19.531250
5732,-23.437500
5733,-25.390625
5734,-27.343750
5735,-29.296875
5736,-31.250000
5737,-33.203125
5738,-35.156250
5739,-37.109375
5740,-37.109375
5741,-39.062500
5742,-41.015625
5743,-42.968750
5744,-44.921875
5745,-44.921875
5746,-46.875000
5747,-48.828125
5748,-50.781250
5749,-52.734375
5750,-54.687500
5751,-54.687500
5752,-56.640625
5753,-58.593750
5754,-60.546875
5755,-60.546875
5756,-62.500000
5757,-62.500000
5758,-66.406250
5759,-66.406250
5760,-68.359375
5761,-68.359375
5762,-70.312500
5763,-72.265625
5764,-74.218750
5765,-74.218750
5766,-74.218750
5767,-76.171875
5768,-78.125000
5769,-80.078125
5770,-80.078125
5771,-80.078125
5772,-80.078125
5773,-82.031250
5774,-83.984375
5775,-83.984375
5776,-83.984375
5777,-85.937500
5778,-85.937500
5779,-85.937500
5780,-85.937500
5781,-87.890625
5782,-87.890625
5783,-87.890625
5784,-87.890625
5785,-87.890625
5786,-89.843750
5787,-89.843750
5788,-89.843750
5789,-89.843750
5790,-89.843750
5791,-89.843750
5792,-89.843750
5793,-89.843750
5794,-89.843750
5795,-89.843750
5796,-89.843750
5797,-89.843750
5798,-87.890625
5799,-87.890625
5800,-87.890625
5801,-87.890625
5802,-87.890625
5803,-87.890625
5804,-85.937500
5805,-85.937500
5806,-83.984375
5807,-83.984375
5808,-83.984375
5809,-83.984375
5810,-82.031250
5811,-82.031250
5812,-80.078125
5813,-78.125000
5814,-80.078125
5815,-78.125000
5816,-76.171875
5817,-76.171875
5818,-74.218750
5819,-74.218750
5820,-72.265625
5821,-72.265625
5822,-70.312500
5823,-68.359375
5824,-68.359375
5825,-66.406250
5826,-66.406250
5827,-64.453125
5828,-62.500000
5829,-62.500000
5830,-60.546875
5831,-58.593750
5832,-56.640625
5833,-56.640625
5834,-54.687500
5835,-52.734375
5836,-50.781250
5837,-48.828125
5838,-48.828125
5839,-46.875000
5840,-44.921875
5841,-42.968750
5842,-41.015625
5843,-39.062500
5844,-39.062500
5845,-37.109375
5846,-35.156250
5847,-33.203125
5848,-31.250000
5849,-29.296875
5850,-27.343750
5851,-25.390625
5852,-25.390625
5853,-21.484375
5854,-21.484375
5855,-19.531250
5856,-17.578125
5857,-15.625000
5858,-11.718750
5859,-11.718750
5860,-9.765625
5861,-7.812500
5862,-5.859375
5863,-3.906250
5864,-1.953125
5865,0.000000
5866,0.000000
5867,3.906250
5868,5.859375
5869,7.812500
5870,7.812500
5871,9.765625
5872,11.718750
5873,13.671875
5874,15.625000
5875,17.578125
5876,17.578125
5877,19.531250
5878,21.484375
5879,23.437500
5880,25.390625
5881,27.343750
5882,29.296875
5883,31.250000
5884,31.250000
5885,33.203125
5886,35.156250
5887,37.109375
5888,37.109375
5889,39.062500
5890,37.109375
5891,42.968750
5892,44.921875
5893,44.921875
5894,42.968750
5895,46.875000
5896,48.828125
5897,50.781250
5898,50.781250
5899,52.734375
5900,52.734375
5901,54.687500
5902,54.687500
5903,56.640625
5904,58.593750
5905,58.593750
5906,60.546875
5907,60.546875
5908,62.500000
5909,60.546875
5910,62.500000
5911,64.453125
5912,64.453125
5913,66.406250
5914,68.359375
5915,66.406250
5916,66.406250
5917,68.359375
5918,68.359375
5919,68.359375
5920,70.312500
5921,70.312500
5922,70.312500
5923,70.312500
5924,70.312500
5925,72.265625
5926,72.265625
5927,70.312500
5928,72.265625
5929,72.265625
5930,72.265625
5931,72.265625
5932,72.265625
5933,74.218750
5934,72.265625
5935,74.218750
5936,74.218750
5937,72.265625
5938,72.265625
5939,74.218750
5940,72.265625
5941,72.265625
5942,74.218750
5943,72.265625
5944,72.265625
5945,72.265625
5946,72.265625
5947,70.312500
5948,70.312500
5949,70.312500
5950,68.359375
5951,68.359375
5952,68.359375
5953,66.406250
5954,66.406250
5955,66.406250
5956,64.453125
5957,64.453125
5958,62.500000
5959,62.500000
5960,62.500000
5961,60.546875
5962,60.546875
5963,60.546875
5964,58.593750
5965,56.640625
5966,56.640625
5967,54.687500
5968,52.734375
5969,50.781250
5970,50.781250
5971,50.781250
5972,48.828125
5973,46.875000
5974,46.875000
5975,44.921875
5976,42.968750
5977,41.015625
5978,41.015625
5979,39.062500
5980,37.109375
5981,37.109375
5982,35.156250
5983,33.203125
5984,33.203125
5985,29.296875
5986,29.296875
5987,27.343750
5988,25.390625
5989,23.437500
5990,21.484375
5991,19.531250
5992,19.531250
5993,17.578125
5994,15.625000
5995,13.671875
5996,11.718750
5997,9.765625
5998,9.765625
5999,7.812500
6000,5.859375
6001,3.906250
6002,1.953125
6003,0.000000
6004,-1.953125
6005,-3.906250
6006,-5.859375
6007,-7.812500
6008,-9.765625
6009,-13.671875
6010,-13.671875
6011,-13.671875
6012,-15.625000
6013,-19.531250
6014,-19.531250
6015,-21.484375
6016,-23.437500
6017,-25.390625
6018,-27.343750
6019,-29.296875
6020,-31.250000
6021,-33.203125
6022,-33.203125
6023,-37.109375
6024,-39.062500
6025,-39.062500
6026,-41.015625
6027,-42.968750
6028,-44.921875
6029,-46.875000
6030,-48.828125
6031,-50.781250
6032,-52.734375
6033,-52.734375
6034,-54.687500
6035,-56.640625
6036,-56.640625
6037,-58.593750
6038,-60.546875
6039,-62.500000
6040,-64.453125
6041,-64.453125
6042,-64.453125
6043,-68.359375
6044,-68.359375
6045,-70.312500
6046,-72.265625
6047,-72.265625
6048,-72.265625
6049,-74.218750
6050,-76.171875
6051,-76.171875
6052,-78.125000
6053,-78.125000
6054,-80.078125
6055,-80.078125
6056,-82.031250
6057,-82.031250
6058,-82.031250
6059,-82.031250
6060,-83.984375
6061,-85.937500
6062,-85.937500
6063,-85.937500
6064,-85.937500
6065,-87.890625
6066,-87.890625
6067,-87.890625
6068,-87.890625
6069,-87.890625
6070,-89.843750
6071,-89.843750
6072,-89.843750
6073,-89.843750
6074,-89.843750
6075,-89.843750
6076,-89.843750
6077,-89.843750
6078,-89.843750
6079,-89.843750
6080,-89.843750
6081,-89.843750
6082,-87.890625
6083,-87.890625
6084,-87.890625
6085,-87.890625
6086,-87.890625
6087,-87.890625
6088,-85.937500
6089,-85.937500
6090,-85.937500
6091,-83.984375
6092,-83.984375
6093,-83.984375
6094,-82.031250
6095,-83.984375
6096,-82.031250
6097,-80.078125
6098,-80.078125
6099,-78.125000
6100,-80.078125
6101,-78.125000
6102,-76.171875
6103,-74.218750
6104,-72.265625
6105,-72.265625
6106,-72.265625
6107,-70.312500
6108,-68.359375
6109,-68.359375
6110,-66.406250
6111,-66.406250
6112,-62.500000
6113,-62.500000
6114,-62.500000
6115,-58.593750
6116,-58.593750
6117,-56.640625
6118,-54.687500
6119,-54.687500
6120,-52.734375
6121,-50.781250
6122,-48.828125
6123,-46.875000
6124,-44.921875
6125,-42.968750
6126,-41.015625
6127,-41.015625
6128,-39.062500
6129,-39.062500
6130,-35.156250
6131,-33.203125
6132,-31.250000
6133,-29.296875
6134,-29.296875
6135,-27.343750
6136,-25.390625
6137,-21.484375
6138,-21.484375
6139,-19.531250
6140,-17.578125
6141,-15.625000
6142,-13.671875
6143,-11.718750
6144,-9.765625
6145,-7.812500
6146,-5.859375
6147,-3.906250
6148,-1.953125
6149,0.000000
6150,1.953125
6151,1.953125
6152,5.859375
6153,5.859375
6154,7.812500
6155,9.765625
6156,11.718750
6157,13.671875
6158,15.625000
6159,17.578125
6160,19.531250
6161,19.531250
6162,21.484375
6163,23.437500
6164,25.390625
6165,27.343750
6166,27.343750
6167,29.296875
6168,31.250000
6169,33.203125
6170,35.156250
6171,37.109375
6172,37.109375
6173,39.062500
6174,39.062500
6175,41.015625
6176,42.968750
6177,44.921875
6178,44.921875
6179,46.875000
6180,48.828125
6181,48.828125
6182,50.781250
6183,52.734375
6184,52.734375
6185,52.734375
6186,54.687500
6187,56.640625
6188,58.593750
6189,58.593750
6190,58.593750
6191,60.546875
6192,60.546875
6193,62.500000
6194,64.453125
6195,64.453125
6196,64.453125
6197,66.406250
6198,66.406250
6199,66.406250
6200,66.406250
6201,68.359375
6202,68.359375
6203,70.312500
6204,70.312500
6205,70.312500
6206,70.312500
6207,70.312500
6208,72.265625
6209,72.265625
6210,72.265625
6211,72.265625
6212,72.265625
6213,74.218750
6214,74.218750
6215,74.218750
6216,74.218750
6217,74.218750
6218,74.218750
6219,74.218750
6220,74.218750
6221,74.218750
6222,74.218750
6223,72.265625
6224,72.265625
6225,72.265625
6226,72.265625
6227,72.265625
6228,72.265625
6229,72.265625
6230,68.359375
6231,70.312500
6232,70.312500
6233,70.312500
6234,68.359375
6235,68.359375
6236,68.359375
6237,66.406250
6238,66.406250
6239,64.453125
6240,66.406250
6241,64.453125
6242,64.453125
6243,62.500000
6244,62.500000
6245,60.546875
6246,60.546875
6247,58.593750
6248,58.593750
6249,56.640625
6250,56.640625
6251,54.687500
6252,54.687500
6253,52.734375
6254,52.734375
6255,50.781250
6256,48.828125
6257,48.828125
6258,46.875000
6259,44.921875
6260,44.921875
6261,44.921875
6262,41.015625
6263,39.062500
6264,39.062500
6265,37.109375
6266,35.156250
6267,33.203125
6268,33.203125
6269,31.250000
6270,29.296875
6271,29.296875
6272,25.390625
6273,23.437500
6274,23.437500
6275,21.484375
6276,19.531250
6277,17.578125
6278,15.625000
6279,15.625000
6280,13.671875
6281,11.718750
6282,9.765625
6283,7.812500
6284,5.859375
6285,3.906250
6286,1.953125
6287,0.000000
6288,-1.953125
6289,-3.906250
6290,-5.859375
6291,-7.812500
6292,-9.765625
6293,-9.765625
6294,-11.718750
6295,-13.671875
6296,-15.625000
6297,-17.578125
6298,-19.531250
6299,-21.484375
6300,-23.437500
6301,-25.390625
6302,-27.343750
6303,-29.296875
6304,-31.250000
6305,-31.250000
6306,-35.156250
6307,-35.156250
6308,-37.109375
6309,-39.062500
6310,-41.015625
6311,-42.968750
6312,-44.921875
6313,-46.875000
6314,-46.875000
6315,-48.828125
6316,-50.781250
6317,-52.734375
6318,-52.734375
6319,-56.640625
6320,-56.640625
6321,-58.593750
6322,-60.546875
6323,-60.546875
6324,-62.500000
6325,-64.453125
6326,-64.453125
6327,-66.406250
6328,-68.359375
6329,-68.359375
6330,-70.312500
6331,-72.265625
6332,-72.265625
6333,-74.218750
6334,-74.218750
6335,-76.171875
6336,-78.125000
6337,-78.125000
6338,-78.125000
6339,-80.078125
6340,-80.078125
6341,-82.031250
6342,-82.031250
6343,-82.031250
6344,-83.984375
6345,-83.984375
6346,-85.937500
6347,-85.937500
6348,-85.937500
6349,-87.890625
6350,-87.890625
6351,-87.890625
6352,-87.890625
6353,-87.890625
6354,-87.890625
6355,-89.843750
6356,-87.890625
6357,-89.843750
6358,-89.843750
6359,-89.843750
6360,-89.843750
6361,-89.843750
6362,-89.843750
6363,-89.843750
6364,-89.843750
6365,-89.843750
6366,-89.843750
6367,-89.843750
6368,-87.890625
6369,-87.890625
6370,-87.890625
6371,-87.890625
6372,-85.937500
6373,-85.937500
6374,-85.937500
6375,-85.937500
6376,-83.984375
6377,-83.984375
6378,-83.984375
6379,-82.031250
6380,-82.031250
6381,-80.078125
6382,-78.125000
6383,-78.125000
6384,-78.125000
6385,-76.171875
6386,-76.171875
6387,-74.218750
6388,-74.218750
6389,-72.265625
6390,-70.312500
6391,-70.312500
6392,-68.359375
6393,-68.359375
6394,-66.406250
6395,-64.453125
6396,-64.453125
6397,-62.500000
6398,-60.546875
6399,-58.593750
6400,-56.640625
6401,-56.640625
6402,-54.687500
6403,-52.734375
6404,-50.781250
6405,-48.828125
6406,-48.828125
6407,-46.875000
6408,-44.921875
6409,-42.968750
6410,-41.015625
6411,-39.062500
6412,-39.062500
6413,-37.109375
6414,-35.156250
6415,-35.156250
6416,-31.250000
6417,-29.296875
6418,-27.343750
6419,-27.343750
6420,-25.390625
6421,-23.437500
6422,-21.484375
6423,-19.531250
6424,-17.578125
6425,-15.625000
6426,-13.671875
6427,-11.718750
6428,-9.765625
6429,-7.812500
6430,-5.859375
6431,-5.859375
6432,-3.906250
6433,-1.953125
6434,0.000000
6435,1.953125
6436,3.906250
6437,5.859375
6438,7.812500
6439,9.765625
6440,11.718750
6441,13.671875
6442,15.625000
6443,15.625000
6444,17.578125
6445,19.531250
6446,21.484375
6447,23.437500
6448,25.390625
6449,25.390625
6450,29.296875
6451,29.296875
6452,31.250000
6453,33.203125
6454,33.203125
6455,37.109375
6456,39.062500
6457,39.062500
6458,41.015625
6459,41.015625
6460,42.968750
6461,44.921875
6462,44.921875
6463,46.875000
6464,48.828125
6465,48.828125
6466,50.781250
6467,50.781250
6468,52.734375
6469,54.687500
6470,54.687500
6471,56.640625
6472,56.640625
6473,58.593750
6474,58.593750
6475,60.546875
6476,60.546875
6477,62.500000
6478,62.500000
6479,64.453125
6480,64.453125
6481,66.406250
6482,64.453125
6483,66.406250
6484,66.406250
6485,68.359375
6486,68.359375
6487,68.359375
6488,68.359375
6489,70.312500
6490,70.312500
6491,70.312500
6492,72.265625
6493,72.265625
6494,72.265625
6495,72.265625
6496,72.265625
6497,72.265625
6498,72.265625
6499,72.265625
6500,72.265625
6501,74.218750
6502,74.218750
6503,74.218750
6504,72.265625
6505,74.218750
6506,72.265625
6507,72.265625
6508,72.265625
6509,72.265625
6510,72.265625
6511,74.218750
6512,72.265625
6513,70.312500
6514,70.312500
6515,70.312500
6516,70.312500
6517,70.312500
6518,70.312500
6519,68.359375
6520,68.359375
6521,66.406250
6522,66.406250
6523,66.406250
6524,64.453125
6525,64.453125
6526,62.500000
6527,62.500000
6528,62.500000
6529,62.500000
6530,60.546875
6531,60.546875
6532,58.593750
6533,56.640625
6534,56.640625
6535,54.687500
6536,54.687500
6537,52.734375
6538,52.734375
6539,50.781250
6540,48.828125
6541,48.828125
6542,46.875000
6543,44.921875
6544,42.968750
6545,44.921875
6546,41.015625
6547,39.062500
6548,37.109375
6549,37.109375
6550,35.156250
6551,33.203125
6552,33.203125
6553,31.250000
6554,29.296875
6555,27.343750
6556,25.390625
6557,25.390625
6558,21.484375
6559,21.484375
6560,19.531250
6561,17.578125
6562,13.671875
6563,13.671875
6564,11.718750
6565,9.765625
6566,7.812500
6567,5.859375
6568,5.859375
6569,3.906250
6570,1.953125
6571,0.000000
6572,-1.953125
6573,-3.906250
6574,-5.859375
6575,-7.812500
6576,-7.812500
6577,-11.718750
6578,-13.671875
6579,-13.671875
6580,-15.625000
6581,-17.578125
6582,-19.531250
6583,-21.484375
6584,-23.437500
6585,-25.390625
6586,-27.343750
6587,-29.296875
6588,-31.250000
6589,-31.250000
6590,-35.156250
6591,-35.156250
6592,-37.109375
6593,-39.062500
6594,-41.015625
6595,-42.968750
6596,-44.921875
6597,-44.921875
6598,-46.875000
6599,-48.828125
6600,-50.781250
6601,-52.734375
6602,-54.687500
6603,-54.687500
6604,-56.640625
6605,-58.593750
6606,-60.546875
6607,-60.546875
6608,-62.500000
6609,-64.453125
6610,-64.453125
6611,-66.406250
6612,-68.359375
6613,-70.312500
6614,-70.312500
6615,-70.312500
6616,-74.218750
6617,-74.218750
6618,-74.218750
6619,-76.171875
6620,-78.125000
6621,-78.125000
6622,-80.078125
6623,-80.078125
6624,-82.031250
6625,-82.031250
6626,-82.031250
6627,-83.984375
6628,-83.984375
6629,-83.984375
6630,-85.937500
6631,-85.937500
6632,-85.937500
6633,-87.890625
6634,-87.890625
6635,-87.890625
6636,-87.890625
6637,-87.890625
6638,-89.843750
6639,-87.890625
6640,-87.890625
6641,-87.890625
6642,-89.843750
6643,-89.843750
6644,-89.843750
6645,-89.843750
6646,-89.843750
6647,-87.890625
6648,-87.890625
6649,-89.843750
6650,-89.843750
6651,-89.843750
6652,-87.890625
6653,-87.890625
6654,-87.890625
6655,-85.937500
6656,-85.937500
6657,-85.937500
6658,-85.937500
6659,-83.984375
6660,-85.937500
6661,-83.984375
6662,-82.031250
6663,-82.031250
6664,-82.031250
6665,-80.078125
6666,-80.078125
6667,-78.125000
6668,-78.125000
6669,-76.171875
6670,-76.171875
6671,-74.218750
6672,-74.218750
6673,-74.218750
6674,-70.312500
6675,-68.359375
6676,-68.359375
6677,-68.359375
6678,-66.406250
6679,-66.406250
6680,-62.500000
6681,-62.500000
6682,-60.546875
6683,-58.593750
6684,-58.593750
6685,-56.640625
6686,-54.687500
6687,-52.734375
6688,-52.734375
6689,-50.781250
6690,-48.828125
6691,-46.875000
6692,-46.875000
6693,-44.921875
6694,-42.968750
6695,-41.015625
6696,-39.062500
6697,-37.109375
6698,-35.156250
6699,-33.203125
6700,-31.250000
6701,-31.250000
6702,-29.296875
6703,-27.343750
6704,-25.390625
6705,-21.484375
6706,-21.484375
6707,-19.531250
6708,-17.578125
6709,-13.671875
6710,-13.671875
6711,-11.718750
6712,-9.765625
6713,-9.765625
6714,-5.859375
6715,-5.859375
6716,-1.953125
6717,0.000000
6718,0.000000
6719,1.953125
6720,3.906250
6721,7.812500
6722,7.812500
6723,9.765625
6724,11.718750
6725,13.671875
6726,13.671875
6727,17.578125
6728,19.531250
6729,19.531250
6730,21.484375
6731,23.437500
6732,25.390625
6733,27.343750
6734,29.296875
6735,29.296875
6736,31.250000
6737,33.203125
6738,35.156250
6739,35.156250
6740,37.109375
6741,37.109375
6742,41.015625
6743,41.015625
6744,42.968750
6745,42.968750
6746,44.921875
6747,46.875000
6748,48.828125
6749,48.828125
6750,50.781250
6751,50.781250
6752,52.734375
6753,54.687500
6754,54.687500
6755,58.593750
6756,58.593750
6757,58.593750
6758,58.593750
6759,60.546875
6760,60.546875
6761,62.500000
6762,62.500000
6763,62.500000
6764,64.453125
6765,66.406250
6766,66.406250
6767,66.406250
6768,66.406250
6769,68.359375
6770,68.359375
6771,70.312500
6772,70.312500
6773,72.265625
6774,70.312500
6775,72.265625
6776,72.265625
6777,72.265625
6778,72.265625
6779,72.265625
6780,72.265625
6781,74.218750
6782,74.218750
6783,74.218750
6784,74.218750
6785,74.218750
6786,74.218750
6787,74.218750
6788,74.218750
6789,74.218750
6790,74.218750
6791,74.218750
6792,74.218750
6793,74.218750
6794,72.265625
6795,72.265625
6796,72.265625
6797,72.265625
6798,72.265625
6799,70.312500
6800,70.312500
6801,70.312500
6802,68.359375
6803,70.312500
6804,68.359375
6805,68.359375
6806,66.406250
6807,66.406250
6808,64.453125
6809,64.453125
6810,64.453125
6811,62.500000
6812,62.500000
6813,60.546875
6814,60.546875
6815,58.593750
6816,58.593750
6817,56.640625
6818,56.640625
6819,54.687500
6820,54.687500
6821,52.734375
6822,52.734375
6823,50.781250
6824,48.828125
6825,48.828125
6826,46.875000
6827,44.921875
6828,42.968750
6829,42.968750
6830,41.015625
6831,41.015625
6832,37.109375
6833,37.109375
6834,35.156250
6835,35.156250
6836,33.203125
6837,31.250000
6838,29.296875
6839,29.296875
6840,25.390625
6841,23.437500
6842,23.437500
6843,23.437500
6844,19.531250
6845,19.531250
6846,15.625000
6847,15.625000
6848,13.671875
6849,9.765625
6850,9.765625
6851,7.812500
6852,5.859375
6853,3.906250
6854,3.906250
6855,1.953125
6856,-1.953125
6857,-1.953125
6858,-5.859375
6859,-5.859375
6860,-7.812500
6861,-9.765625
6862,-11.718750
6863,-13.671875
6864,-15.625000
6865,-17.578125
6866,-19.531250
6867,-21.484375
6868,-23.437500
6869,-25.390625
6870,-27.343750
6871,-29.296875
6872,-29.296875
6873,-33.203125
6874,-33.203125
6875,-37.109375
6876,-37.109375
6877,-39.062500
6878,-41.015625
6879,-42.968750
6880,-42.968750
6881,-46.875000
6882,-46.875000
6883,-48.828125
6884,-50.781250
6885,-50.781250
6886,-52.734375
6887,-54.687500
6888,-56.640625
6889,-58.593750
6890,-58.593750
6891,-60.546875
6892,-60.546875
6893,-64.453125
6894,-64.453125
6895,-66.406250
6896,-68.359375
6897,-68.359375
6898,-70.312500
6899,-72.265625
6900,-72.265625
6901,-74.218750
6902,-74.218750
6903,-76.171875
6904,-76.171875
6905,-78.125000
6906,-78.125000
6907,-80.078125
6908,-80.078125
6909,-82.031250
6910,-82.031250
6911,-83.984375
6912,-83.984375
6913,-83.984375
6914,-85.937500
6915,-85.937500
6916,-85.937500
6917,-85.937500
6918,-87.890625
6919,-87.890625
6920,-87.890625
6921,-87.890625
6922,-87.890625
6923,-87.890625
6924,-89.843750
6925,-89.843750
6926,-89.843750
6927,-89.843750
6928,-89.843750
6929,-89.843750
6930,-89.843750
6931,-89.843750
6932,-89.843750
6933,-89.843750
6934,-89.843750
6935,-89.843750
6936,-87.890625
6937,-87.890625
6938,-87.890625
6939,-87.890625
6940,-87.890625
6941,-87.890625
6942,-85.937500
6943,-85.937500
6944,-85.937500
6945,-83.984375
6946,-82.031250
6947,-82.031250
6948,-82.031250
6949,-80.078125
6950,-80.078125
6951,-78.125000
6952,-78.125000
6953,-78.125000
6954,-76.171875
6955,-74.218750
6956,-74.218750
6957,-72.265625
6958,-72.265625
6959,-70.312500
6960,-70.312500
6961,-68.359375
6962,-66.406250
6963,-66.406250
6964,-62.500000
6965,-62.500000
6966,-60.546875
6967,-60.546875
6968,-58.593750
6969,-56.640625
6970,-54.687500
6971,-52.734375
6972,-52.734375
6973,-50.781250
6974,-48.828125
6975,-46.875000
6976,-44.921875
6977,-42.968750
6978,-41.015625
6979,-41.015625
6980,-39.062500
6981,-37.109375
6982,-35.156250
6983,-33.203125
6984,-33.203125
6985,-29.296875
6986,-29.296875
6987,-27.343750
6988,-25.390625
6989,-23.437500
6990,-21.484375
6991,-19.531250
6992,-17.578125
6993,-15.625000
6994,-13.671875
6995,-11.718750
6996,-9.765625
6997,-9.765625
6998,-5.859375
6999,-5.859375
7000,-3.906250
7001,-1.953125
7002,0.000000
7003,1.953125
7004,3.906250
7005,5.859375
7006,7.812500
7007,9.765625
7008,13.671875
7009,11.718750
7010,13.671875
7011,15.625000
7012,17.578125
7013,19.531250
7014,21.484375
7015,21.484375
7016,23.437500
7017,25.390625
7018,27.343750
7019,29.296875
7020,31.250000
7021,33.203125
7022,33.203125
7023,35.156250
7024,37.109375
7025,39.062500
7026,39.062500
7027,41.015625
7028,42.968750
7029,42.968750
7030,44.921875
7031,46.875000
7032,48.828125
7033,50.781250
7034,50.781250
7035,52.734375
7036,52.734375
7037,54.687500
7038,54.687500
7039,56.640625
7040,56.640625
7041,58.593750
7042,58.593750
7043,60.546875
7044,60.546875
7045,62.500000
7046,62.500000
7047,64.453125
7048,64.453125
7049,66.406250
7050,66.406250
7051,66.406250
7052,68.359375
7053,68.359375
7054,68.359375
7055,68.359375
7056,70.312500
7057,70.312500
7058,70.312500
7059,72.265625
7060,72.265625
7061,72.265625
7062,72.265625
7063,72.265625
7064,72.265625
7065,72.265625
7066,72.265625
7067,74.218750
7068,72.265625
7069,72.265625
7070,74.218750
7071,74.218750
7072,76.171875
7073,72.265625
7074,72.265625
7075,74.218750
7076,72.265625
7077,72.265625
7078,72.265625
7079,72.265625
7080,72.265625
7081,72.265625
7082,70.312500
7083,70.312500
7084,70.312500
7085,70.312500
7086,68.359375
7087,68.359375
7088,68.359375
7089,66.406250
7090,66.406250
7091,66.406250
7092,66.406250
7093,64.453125
7094,64.453125
7095,62.500000
7096,62.500000
7097,60.546875
7098,60.546875
7099,58.593750
7100,58.593750
7101,58.593750
7102,56.640625
7103,56.640625
7104,54.687500
7105,52.734375
7106,52.734375
7107,50.781250
7108,48.828125
7109,48.828125
7110,46.875000
7111,44.921875
7112,44.921875
7113,42.968750
7114,41.015625
7115,41.015625
7116,39.062500
7117,37.109375
7118,35.156250
7119,35.156250
7120,33.203125
7121,31.250000
7122,29.296875
7123,27.343750
7124,25.390625
7125,25.390625
7126,23.437500
7127,21.484375
7128,19.531250
7129,17.578125
7130,15.625000
7131,15.625000
7132,13.671875
7133,11.718750
7134,9.765625
7135,7.812500
7136,5.859375
7137,3.906250
7138,1.953125
7139,0.000000
7140,-1.953125
7141,-3.906250
7142,-5.859375
7143,-5.859375
7144,-7.812500
7145,-9.765625
7146,-11.718750
7147,-13.671875
7148,-15.625000
7149,-17.578125
7150,-19.531250
7151,-21.484375
7152,-23.437500
7153,-25.390625
7154,-27.343750
7155,-27.343750
7156,-29.296875
7157,-33.203125
7158,-35.156250
7159,-35.156250
7160,-37.109375
7161,-39.062500
7162,-41.015625
7163,-42.968750
7164,-42.968750
7165,-44.921875
7166,-46.875000
7167,-48.828125
7168,-50.781250
7169,-50.781250
7170,-54.687500
7171,-56.640625
7172,-56.640625
7173,-58.593750
7174,-58.593750
7175,-60.546875
7176,-62.500000
7177,-64.453125
7178,-64.453125
7179,-66.406250
7180,-68.359375
7181,-68.359375
7182,-70.312500
7183,-70.312500
7184,-72.265625
7185,-74.218750
7186,-74.218750
7187,-76.171875
7188,-76.171875
7189,-78.125000
7190,-78.125000
7191,-80.078125
7192,-82.031250
7193,-82.031250
7194,-82.031250
7195,-83.984375
7196,-83.984375
7197,-83.984375
7198,-85.937500
7199,-85.937500
7200,-85.937500
7201,-85.937500
7202,-87.890625
7203,-87.890625
7204,-87.890625
7205,-87.890625
7206,-87.890625
7207,-89.843750
7208,-89.843750
7209,-89.843750
7210,-89.843750
7211,-89.843750
7212,-89.843750
7213,-89.843750
7214,-89.843750
7215,-89.843750
7216,-89.843750
7217,-89.843750
7218,-89.843750
7219,-89.843750
7220,-89.843750
7221,-87.890625
7222,-87.890625
7223,-85.937500
7224,-85.937500
7225,-87.890625
7226,-85.937500
7227,-83.984375
7228,-83.984375
7229,-83.984375
7230,-82.031250
7231,-82.031250
7232,-82.031250
7233,-80.078125
7234,-80.078125
7235,-78.125000
7236,-78.125000
7237,-76.171875
7238,-76.171875
7239,-74.218750
7240,-74.218750
7241,-72.265625
7242,-70.312500
7243,-70.312500
7244,-68.359375
7245,-68.359375
7246,-66.406250
7247,-64.453125
7248,-64.453125
7249,-62.500000
7250,-60.546875
7251,-60.546875
7252,-56.640625
7253,-56.640625
7254,-54.687500
7255,-52.734375
7256,-52.734375
7257,-50.781250
7258,-48.828125
7259,-46.875000
7260,-44.921875
7261,-44.921875
7262,-42.968750
7263,-41.015625
7264,-39.062500
7265,-37.109375
7266,-35.156250
7267,-33.203125
7268,-33.203125
7269,-31.250000
7270,-27.343750
7271,-27.343750
7272,-25.390625
7273,-23.437500
7274,-21.484375
7275,-23.437500
7276,-19.531250
7277,-15.625000
7278,-13.671875
7279,-11.718750
7280,-9.765625
7281,-7.812500
7282,-7.812500
7283,-5.859375
7284,-1.953125
7285,-1.953125
7286,0.000000
7287,1.953125
7288,3.906250
7289,5.859375
7290,7.812500
7291,9.765625
7292,11.718750
7293,13.671875
7294,13.671875
7295,15.625000
7296,17.578125
7297,19.531250
7298,21.484375
7299,23.437500
7300,25.390625
7301,25.390625
7302,27.343750
7303,29.296875
7304,31.250000
7305,31.250000
7306,35.156250
7307,35.156250
7308,37.109375
7309,39.062500
7310,39.062500
7311,41.015625
7312,42.968750
7313,44.921875
7314,44.921875
7315,46.875000
7316,48.828125
7317,50.781250
7318,50.781250
7319,52.734375
7320,52.734375
7321,54.687500
7322,54.687500
7323,56.640625
7324,56.640625
7325,56.640625
7326,60.546875
7327,60.546875
7328,60.546875
7329,62.500000
7330,62.500000
7331,62.500000
7332,64.453125
7333,64.453125
7334,66.406250
7335,66.406250
7336,68.359375
7337,68.359375
7338,68.359375
7339,70.312500
7340,70.312500
7341,70.312500
7342,70.312500
7343,70.312500
7344,72.265625
7345,72.265625
7346,72.265625
7347,72.265625
7348,74.218750
7349,72.265625
7350,72.265625
7351,74.218750
7352,74.218750
7353,74.218750
7354,74.218750
7355,74.218750
7356,74.218750
7357,74.218750
7358,74.218750
7359,74.218750
7360,72.265625
7361,72.265625
7362,72.265625
7363,72.265625
7364,72.265625
7365,72.265625
7366,72.265625
7367,70.312500
7368,70.312500
7369,70.312500
7370,70.312500
7371,68.359375
7372,68.359375
7373,66.406250
7374,66.406250
7375,66.406250
7376,66.406250
7377,66.406250
7378,64.453125
7379,62.500000
7380,62.500000
7381,62.500000
7382,60.546875
7383,60.546875
7384,58.593750
7385,58.593750
7386,56.640625
7387,54.687500
7388,54.687500
7389,54.687500
7390,52.734375
7391,50.781250
7392,48.828125
7393,48.828125
7394,46.875000
7395,44.921875
7396,44.921875
7397,42.968750
7398,41.015625
7399,41.015625
7400,39.062500
7401,37.109375
7402,35.156250
7403,35.156250
7404,33.203125
7405,31.250000
7406,29.296875
7407,27.343750
7408,27.343750
7409,25.390625
7410,23.437500
7411,21.484375
7412,21.484375
7413,19.531250
7414,17.578125
7415,15.625000
7416,13.671875
7417,11.718750
7418,9.765625
7419,7.812500
7420,5.859375
7421,3.906250
7422,3.906250
7423,1.953125
7424,0.000000
7425,-3.906250
7426,-3.906250
7427,-5.859375
7428,-7.812500
7429,-9.765625
7430,-11.718750
7431,-13.671875
7432,-15.625000
7433,-17.578125
7434,-19.531250
7435,-19.531250
7436,-23.437500
7437,-25.390625
7438,-25.390625
7439,-27.343750
7440,-29.296875
7441,-31.250000
7442,-33.203125
7443,-35.156250
7444,-37.109375
7445,-39.062500
7446,-39.062500
7447,-42.968750
7448,-44.921875
7449,-44.921875
7450,-46.875000
7451,-48.828125
7452,-50.781250
7453,-52.734375
7454,-54.687500
7455,-54.687500
7456,-56.640625
7457,-58.593750
7458,-58.593750
7459,-60.546875
7460,-62.500000
7461,-62.500000
7462,-66.406250
7463,-66.406250
7464,-68.359375
7465,-70.312500
7466,-70.312500
7467,-70.312500
7468,-72.265625
7469,-74.218750
7470,-74.218750
7471,-76.171875
7472,-76.171875
7473,-78.125000
7474,-78.125000
7475,-80.078125
7476,-80.078125
7477,-82.031250
7478,-82.031250
7479,-82.031250
7480,-83.984375
7481,-83.984375
7482,-85.937500
7483,-85.937500
7484,-85.937500
7485,-87.890625
7486,-87.890625
7487,-87.890625
7488,-87.890625
7489,-87.890625
7490,-87.890625
7491,-93.750000
7492,-87.890625
7493,-89.843750
7494,-89.843750
7495,-89.843750
7496,-87.890625
7497,-89.843750
7498,-89.843750
7499,-89.843750
7500,-89.843750
7501,-87.890625
7502,-89.843750
7503,-87.890625
7504,-87.890625
7505,-87.890625
7506,-87.890625
7507,-87.890625
7508,-85.937500
7509,-85.937500
7510,-85.937500
7511,-85.937500
7512,-83.984375
7513,-83.984375
7514,-83.984375
7515,-82.031250
7516,-82.031250
7517,-82.031250
7518,-78.125000
7519,-80.078125
7520,-78.125000
7521,-76.171875
7522,-76.171875
7523,-76.171875
7524,-74.218750
7525,-74.218750
7526,-72.265625
7527,-70.312500
7528,-70.312500
7529,-66.406250
7530,-68.359375
7531,-66.406250
7532,-64.453125
7533,-62.500000
7534,-62.500000
7535,-60.546875
7536,-58.593750
7537,-56.640625
7538,-54.687500
7539,-54.687500
7540,-52.734375
7541,-50.781250
7542,-48.828125
7543,-46.875000
7544,-44.921875
7545,-44.921875
7546,-42.968750
7547,-41.015625
7548,-39.062500
7549,-37.109375
7550,-35.156250
7551,-33.203125
7552,-31.250000
7553,-31.250000
7554,-29.296875
7555,-27.343750
7556,-25.390625
7557,-23.437500
7558,-21.484375
7559,-19.531250
7560,-19.531250
7561,-15.625000
7562,-13.671875
7563,-11.718750
7564,-9.765625
7565,-9.765625
7566,-7.812500
7567,-5.859375
7568,-3.906250
7569,-1.953125
7570,0.000000
7571,1.953125
7572,3.906250
7573,3.906250
7574,7.812500
7575,9.765625
7576,11.718750
7577,11.718750
7578,13.671875
7579,15.625000
7580,17.578125
7581,19.531250
7582,19.531250
7583,21.484375
7584,23.437500
7585,25.390625
7586,27.343750
7587,29.296875
7588,31.250000
7589,31.250000
7590,33.203125
7591,35.156250
7592,37.109375
7593,37.109375
7594,39.062500
7595,41.015625
7596,42.968750
7597,44.921875
7598,44.921875
7599,44.921875
7600,46.875000
7601,48.828125
7602,50.781250
7603,50.781250
7604,52.734375
7605,54.687500
7606,54.687500
7607,54.687500
7608,56.640625
7609,58.593750
7610,58.593750
7611,58.593750
7612,60.546875
7613,62.500000
7614,62.500000
7615,64.453125
7616,64.453125
7617,66.406250
7618,66.406250
7619,66.406250
7620,66.406250
7621,68.359375
7622,68.359375
7623,68.359375
7624,68.359375
7625,70.312500
7626,70.312500
7627,72.265625
7628,72.265625
7629,72.265625
7630,72.265625
7631,72.265625
7632,72.265625
7633,74.218750
7634,72.265625
7635,74.218750
7636,72.265625
7637,74.218750
7638,74.218750
7639,74.218750
7640,70.312500
7641,74.218750
7642,74.218750
7643,74.218750
7644,74.218750
7645,72.265625
7646,72.265625
7647,72.265625
7648,72.265625
7649,72.265625
7650,70.312500
7651,70.312500
7652,70.312500
7653,70.312500
7654,68.359375
7655,68.359375
7656,66.406250
7657,66.406250
7658,68.359375
7659,66.406250
7660,66.406250
7661,64.453125
7662,64.453125
7663,64.453125
7664,62.500000
7665,60.546875
7666,60.546875
7667,60.546875
7668,58.593750
7669,56.640625
7670,56.640625
7671,54.687500
7672,54.687500
7673,52.734375
7674,52.734375
7675,50.781250
7676,50.781250
7677,48.828125
7678,46.875000
7679,46.875000
7680,48.828125
7681,42.968750
7682,42.968750
7683,39.062500
7684,39.062500
7685,37.109375
7686,35.156250
7687,35.156250
7688,33.203125
7689,31.250000
7690,29.296875
7691,29.296875
7692,27.343750
7693,25.390625
7694,23.437500
7695,21.484375
7696,19.531250
7697,19.531250
7698,17.578125
7699,15.625000
7700,13.671875
7701,13.671875
7702,9.765625
7703,7.812500
7704,5.859375
7705,5.859375
7706,3.906250
7707,1.953125
7708,0.000000
7709,-1.953125
7710,-3.906250
7711,-5.859375
7712,-7.812500
7713,-9.765625
7714,-13.671875
7715,-13.671875
7716,-15.625000
7717,-17.578125
7718,-19.531250
7719,-21.484375
7720,-21.484375
7721,-25.390625
7722,-25.390625
7723,-27.343750
7724,-31.250000
7725,-31.250000
7726,-33.203125
7727,-35.156250
7728,-37.109375
7729,-39.062500
7730,-41.015625
7731,-41.015625
7732,-42.968750
7733,-44.921875
7734,-46.875000
7735,-48.828125
7736,-50.781250
7737,-50.781250
7738,-52.734375
7739,-54.687500
7740,-56.640625
7741,-56.640625
7742,-58.593750
7743,-60.546875
7744,-62.500000
7745,-64.453125
7746,-64.453125
7747,-66.406250
7748,-66.406250
7749,-68.359375
7750,-70.312500
7751,-70.312500
7752,-72.265625
7753,-72.265625
7754,-74.218750
7755,-76.171875
7756,-76.171875
7757,-78.125000
7758,-78.125000
7759,-80.078125
7760,-80.078125
7761,-82.031250
7762,-82.031250
7763,-83.984375
7764,-83.984375
7765,-83.984375
7766,-83.984375
7767,-85.937500
7768,-85.937500
7769,-85.937500
7770,-85.937500
7771,-87.890625
7772,-87.890625
7773,-87.890625
7774,-87.890625
7775,-87.890625
7776,-89.843750
7777,-89.843750
7778,-89.843750
7779,-89.843750
7780,-89.843750
7781,-89.843750
7782,-89.843750
7783,-89.843750
7784,-89.843750
7785,-89.843750
7786,-87.890625
7787,-87.890625
7788,-87.890625
7789,-87.890625
7790,-87.890625
7791,-87.890625
7792,-85.937500
7793,-85.937500
7794,-85.937500
7795,-83.984375
7796,-83.984375
7797,-83.984375
7798,-82.031250
7799,-82.031250
7800,-80.078125
7801,-80.078125
7802,-80.078125
7803,-78.125000
7804,-78.125000
7805,-76.171875
7806,-76.171875
7807,-76.171875
7808,-72.265625
7809,-70.312500
7810,-70.312500
7811,-70.312500
7812,-68.359375
7813,-66.406250
7814,-68.359375
7815,-64.453125
7816,-64.453125
7817,-60.546875
7818,-60.546875
7819,-58.593750
7820,-58.593750
7821,-56.640625
7822,-54.687500
7823,-52.734375
7824,-50.781250
7825,-48.828125
7826,-48.828125
7827,-46.875000
7828,-44.921875
7829,-42.968750
7830,-41.015625
7831,-41.015625
7832,-39.062500
7833,-39.062500
7834,-35.156250
7835,-33.203125
7836,-31.250000
7837,-29.296875
7838,-29.296875
7839,-27.343750
7840,-25.390625
7841,-23.437500
7842,-21.484375
7843,-19.531250
7844,-17.578125
7845,-15.625000
7846,-13.671875
7847,-11.718750
7848,-9.765625
7849,-9.765625
7850,-5.859375
7851,-5.859375
7852,-1.953125
7853,-1.953125
7854,0.000000
7855,1.953125
7856,3.906250
7857,3.906250
7858,5.859375
7859,9.765625
7860,9.765625
7861,11.718750
7862,11.718750
7863,15.625000
7864,17.578125
7865,19.531250
7866,21.484375
7867,19.531250
7868,25.390625
7869,27.343750
7870,27.343750
7871,29.296875
7872,31.250000
7873,33.203125
7874,35.156250
7875,35.156250
7876,37.109375
7877,39.062500
7878,41.015625
7879,41.015625
7880,42.968750
7881,44.921875
7882,44.921875
7883,46.875000
7884,48.828125
7885,48.828125
7886,50.781250
7887,52.734375
7888,52.734375
7889,54.687500
7890,54.687500
7891,56.640625
7892,56.640625
7893,58.593750
7894,60.546875
7895,60.546875
7896,60.546875
7897,62.500000
7898,62.500000
7899,64.453125
7900,66.406250
7901,64.453125
7902,66.406250
7903,66.406250
7904,68.359375
7905,68.359375
7906,68.359375
7907,70.312500
7908,68.359375
7909,70.312500
7910,70.312500
7911,72.265625
7912,72.265625
7913,70.312500
7914,72.265625
7915,72.265625
7916,72.265625
7917,72.265625
7918,74.218750
7919,72.265625
7920,72.265625
7921,74.218750
7922,74.218750
7923,74.218750
7924,72.265625
7925,74.218750
7926,74.218750
7927,74.218750
7928,74.218750
7929,72.265625
7930,72.265625
7931,72.265625
7932,72.265625
7933,72.265625
7934,72.265625
7935,70.312500
7936,70.312500
7937,70.312500
7938,70.312500
7939,68.359375
7940,68.359375
7941,68.359375
7942,66.406250
7943,66.406250
7944,66.406250
7945,64.453125
7946,64.453125
7947,62.500000
7948,64.453125
7949,62.500000
7950,60.546875
7951,60.546875
7952,58.593750
7953,58.593750
7954,56.640625
7955,56.640625
7956,54.687500
7957,52.734375
7958,52.734375
7959,50.781250
7960,50.781250
7961,48.828125
7962,48.828125
7963,44.921875
7964,44.921875
7965,42.968750
7966,42.968750
7967,41.015625
7968,39.062500
7969,37.109375
7970,37.109375
7971,35.156250
7972,33.203125
7973,31.250000
7974,31.250000
7975,29.296875
7976,27.343750
7977,25.390625
7978,23.437500
7979,21.484375
7980,21.484375
7981,17.578125
7982,17.578125
7983,13.671875
7984,13.671875
7985,11.718750
7986,9.765625
7987,7.812500
7988,5.859375
7989,3.906250
7990,1.953125
7991,1.953125
7992,0.000000
7993,-1.953125
7994,-3.906250
7995,-5.859375
7996,-7.812500
7997,-9.765625
7998,-11.718750
7999,-13.671875
8000,-15.625000
8001,-17.578125
8002,-19.531250
8003,-21.484375
8004,-21.484375
8005,-23.437500
8006,-25.390625
8007,-27.343750
8008,-29.296875
8009,-31.250000
8010,-33.203125
8011,-35.156250
8012,-37.109375
8013,-39.062500
8014,-39.062500
8015,-42.968750
8016,-42.968750
8017,-44.921875
8018,-46.875000
8019,-48.828125
8020,-50.781250
8021,-50.781250
8022,-54.687500
8023,-54.687500
8024,-56.640625
8025,-56.640625
8026,-58.593750
8027,-60.546875
8028,-62.500000
8029,-62.500000
8030,-64.453125
8031,-66.406250
8032,-66.406250
8033,-70.312500
8034,-70.312500
8035,-70.312500
8036,-72.265625
8037,-74.218750
8038,-74.218750
8039,-76.171875
8040,-78.125000
8041,-78.125000
8042,-78.125000
8043,-80.078125
8044,-80.078125
8045,-82.031250
8046,-82.031250
8047,-82.031250
8048,-83.984375
8049,-85.937500
8050,-85.937500
8051,-85.937500
8052,-85.937500
8053,-83.984375
8054,-87.890625
8055,-87.890625
8056,-87.890625
8057,-87.890625
8058,-89.843750
8059,-87.890625
8060,-89.843750
8061,-89.843750
8062,-89.843750
8063,-89.843750
8064,-89.843750
8065,-89.843750
8066,-89.843750
8067,-87.890625
8068,-89.843750
8069,-89.843750
8070,-89.843750
8071,-87.890625
8072,-87.890625
8073,-87.890625
8074,-87.890625
8075,-87.890625
8076,-85.937500
8077,-85.937500
8078,-85.937500
8079,-85.937500
8080,-83.984375
8081,-83.984375
8082,-83.984375
8083,-82.031250
8084,-80.078125
8085,-80.078125
8086,-80.078125
8087,-80.078125
8088,-78.125000
8089,-78.125000
8090,-76.171875
8091,-76.171875
8092,-74.218750
8093,-72.265625
8094,-72.265625
8095,-70.312500
8096,-70.312500
8097,-68.359375
8098,-68.359375
8099,-66.406250
8100,-64.453125
8101,-62.500000
8102,-62.500000
8103,-62.500000
8104,-58.593750
8105,-58.593750
8106,-56.640625
8107,-54.687500
8108,-52.734375
8109,-52.734375
8110,-50.781250
8111,-48.828125
8112,-46.875000
8113,-44.921875
8114,-42.968750
8115,-41.015625
8116,-41.015625
8117,-37.109375
8118,-35.156250
8119,-35.156250
8120,-33.203125
8121,-31.250000
8122,-29.296875
8123,-27.343750
8124,-25.390625
8125,-23.437500
8126,-21.484375
8127,-19.531250
8128,-17.578125
8129,-15.625000
8130,-15.625000
8131,-13.671875
8132,-11.718750
8133,-9.765625
8134,-7.812500
8135,-5.859375
8136,-3.906250
8137,-1.953125
8138,0.000000
8139,1.953125
8140,1.953125
8141,5.859375
8142,7.812500
8143,9.765625
8144,9.765625
8145,11.718750
8146,13.671875
8147,15.625000
8148,17.578125
8149,19.531250
8150,21.484375
8151,21.484375
8152,23.437500
8153,27.343750
8154,27.343750
8155,27.343750
8156,29.296875
8157,31.250000
8158,33.203125
8159,35.156250
8160,35.156250
8161,37.109375
8162,39.062500
8163,41.015625
8164,42.968750
8165,42.968750
8166,44.921875
8167,46.875000
8168,46.875000
8169,48.828125
8170,48.828125
8171,50.781250
8172,52.734375
8173,52.734375
8174,52.734375
8175,54.687500
8176,56.640625
8177,58.593750
8178,58.593750
8179,58.593750
8180,64.453125
8181,60.546875
8182,62.500000
8183,62.500000
8184,64.453125
8185,64.453125
8186,64.453125
8187,66.406250
8188,66.406250
8189,68.359375
8190,68.359375
8191,68.359375
8192,70.312500
8193,70.312500
8194,70.312500
8195,70.312500
8196,72.265625
8197,72.265625
8198,72.265625
8199,72.265625
8200,72.265625
8201,74.218750
8202,74.218750
8203,72.265625
8204,74.218750
8205,74.218750
8206,74.218750
8207,74.218750
8208,74.218750
8209,72.265625
8210,72.265625
8211,74.218750
8212,74.218750
8213,74.218750
8214,74.218750
8215,72.265625
8216,72.265625
8217,72.265625
8218,72.265625
8219,70.312500
8220,70.312500
8221,70.312500
8222,68.359375
8223,70.312500
8224,68.359375
8225,68.359375
8226,68.359375
8227,66.406250
8228,66.406250
8229,64.453125
8230,64.453125
8231,62.500000
8232,62.500000
8233,62.500000
8234,60.546875
8235,60.546875
8236,58.593750
8237,58.593750
8238,56.640625
8239,54.687500
8240,54.687500
8241,54.687500
8242,52.734375
8243,50.781250
8244,48.828125
8245,48.828125
8246,46.875000
8247,46.875000
8248,44.921875
8249,42.968750
8250,41.015625
8251,41.015625
8252,39.062500
8253,39.062500
8254,37.109375
8255,35.156250
8256,33.203125
8257,31.250000
8258,31.250000
8259,29.296875
8260,27.343750
8261,25.390625
8262,23.437500
8263,23.437500
8264,21.484375
8265,19.531250
8266,17.578125
8267,15.625000
8268,13.671875
8269,11.718750
8270,9.765625
8271,7.812500
8272,7.812500
8273,5.859375
8274,3.906250
8275,1.953125
8276,0.000000
8277,-1.953125
8278,-3.906250
8279,-5.859375
8280,-5.859375
8281,-9.765625
8282,-11.718750
8283,-13.671875
8284,-15.625000
8285,-15.625000
8286,-19.531250
8287,-19.531250
8288,-21.484375
8289,-25.390625
8290,-25.390625
8291,-27.343750
8292,-29.296875
8293,-31.250000
8294,-33.203125
8295,-35.156250
8296,-37.109375
8297,-39.062500
8298,-41.015625
8299,-41.015625
8300,-42.968750
8301,-44.921875
8302,-46.875000
8303,-48.828125
8304,-50.781250
8305,-50.781250
8306,-52.734375
8307,-54.687500
8308,-56.640625
8309,-58.593750
8310,-58.593750
8311,-60.546875
8312,-60.546875
8313,-64.453125
8314,-64.453125
8315,-66.406250
8316,-68.359375
8317,-68.359375
8318,-70.312500
8319,-70.312500
8320,-70.312500
8321,-72.265625
8322,-74.218750
8323,-76.171875
8324,-76.171875
8325,-78.125000
8326,-80.078125
8327,-80.078125
8328,-80.078125
8329,-82.031250
8330,-82.031250
8331,-82.031250
8332,-83.984375
8333,-83.984375
8334,-83.984375
8335,-83.984375
8336,-85.937500
8337,-87.890625
8338,-87.890625
8339,-85.937500
8340,-87.890625
8341,-87.890625
8342,-87.890625
8343,-89.843750
8344,-87.890625
8345,-87.890625
8346,-89.843750
8347,-89.843750
8348,-89.843750
8349,-89.843750
8350,-89.843750
8351,-89.843750
8352,-89.843750
8353,-87.890625
8354,-89.843750
8355,-89.843750
8356,-89.843750
8357,-87.890625
8358,-87.890625
8359,-85.937500
8360,-87.890625
8361,-85.937500
8362,-85.937500
8363,-83.984375
8364,-85.937500
8365,-83.984375
8366,-82.031250
8367,-82.031250
8368,-82.031250
8369,-82.031250
8370,-80.078125
8371,-80.078125
8372,-78.125000
8373,-78.125000
8374,-76.171875
8375,-76.171875
8376,-74.218750
8377,-74.218750
8378,-72.265625
8379,-70.312500
8380,-70.312500
8381,-68.359375
8382,-66.406250
8383,-66.406250
8384,-64.453125
8385,-62.500000
8386,-60.546875
8387,-60.546875
8388,-58.593750
8389,-56.640625
8390,-54.687500
8391,-54.687500
8392,-52.734375
8393,-50.781250
8394,-48.828125
8395,-48.828125
8396,-46.875000
8397,-42.968750
8398,-42.968750
8399,-41.015625
8400,-39.062500
8401,-39.062500
8402,-35.156250
8403,-33.203125
8404,-33.203125
8405,-31.250000
8406,-29.296875
8407,-27.343750
8408,-25.390625
8409,-23.437500
8410,-21.484375
8411,-19.531250
8412,-19.531250
8413,-17.578125
8414,-15.625000
8415,-11.718750
8416,-11.718750
8417,-9.765625
8418,-7.812500
8419,-5.859375
8420,-3.906250
8421,-1.953125
8422,0.000000
8423,1.953125
8424,3.906250
8425,3.906250
8426,5.859375
8427,11.718750
8428,9.765625
8429,11.718750
8430,13.671875
8431,15.625000
8432,17.578125
8433,17.578125
8434,19.531250
8435,21.484375
8436,23.437500
8437,25.390625
8438,27.343750
8439,29.296875
8440,29.296875
8441,33.203125
8442,33.203125
8443,33.203125
8444,37.109375
8445,39.062500
8446,39.062500
8447,41.015625
8448,42.968750
8449,42.968750
8450,44.921875
8451,44.921875
8452,48.828125
8453,48.828125
8454,48.828125
8455,50.781250
8456,52.734375
8457,54.687500
8458,54.687500
8459,56.640625
8460,56.640625
8461,58.593750
8462,58.593750
8463,58.593750
8464,60.546875
8465,62.500000
8466,62.500000
8467,62.500000
8468,64.453125
8469,64.453125
8470,64.453125
8471,64.453125
8472,68.359375
8473,68.359375
8474,66.406250
8475,68.359375
8476,68.359375
8477,70.312500
8478,70.312500
8479,70.312500
8480,70.312500
8481,70.312500
8482,72.265625
8483,72.265625
8484,72.265625
8485,72.265625
8486,72.265625
8487,74.218750
8488,72.265625
8489,72.265625
8490,74.218750
8491,72.265625
8492,74.218750
8493,72.265625
8494,72.265625
8495,72.265625
8496,72.265625
8497,72.265625
8498,72.265625
8499,72.265625
8500,72.265625
8501,70.312500
8502,70.312500
8503,70.312500
8504,70.312500
8505,70.312500
8506,68.359375
8507,68.359375
8508,68.359375
8509,68.359375
8510,66.406250
8511,66.406250
8512,66.406250
8513,64.453125
8514,64.453125
8515,62.500000
8516,62.500000
8517,62.500000
8518,60.546875
8519,60.546875
8520,58.593750
8521,58.593750
8522,56.640625
8523,56.640625
8524,54.687500
8525,54.687500
8526,52.734375
8527,50.781250
8528,50.781250
8529,48.828125
8530,46.875000
8531,46.875000
8532,44.921875
8533,42.968750
8534,42.968750
8535,41.015625
8536,39.062500
8537,37.109375
8538,37.109375
8539,35.156250
8540,33.203125
8541,31.250000
8542,29.296875
8543,29.296875
8544,27.343750
8545,25.390625
8546,23.437500
8547,21.484375
8548,21.484375
8549,19.531250
8550,17.578125
8551,15.625000
8552,13.671875
8553,11.718750
8554,9.765625
8555,7.812500
8556,5.859375
8557,3.906250
8558,3.906250
8559,1.953125
8560,0.000000
8561,-1.953125
8562,-3.906250
8563,-5.859375
8564,-7.812500
8565,-9.765625
8566,-11.718750
8567,-11.718750
8568,-15.625000
8569,-15.625000
8570,-19.531250
8571,-19.531250
8572,-21.484375
8573,-23.437500
8574,-25.390625
8575,-27.343750
8576,-29.296875
8577,-31.250000
8578,-33.203125
8579,-35.156250
8580,-37.109375
8581,-39.062500
8582,-39.062500
8583,-41.015625
8584,-42.968750
8585,-44.921875
8586,-44.921875
8587,-46.875000
8588,-50.781250
8589,-50.781250
8590,-52.734375
8591,-54.687500
8592,-56.640625
8593,-56.640625
8594,-58.593750
8595,-60.546875
8596,-62.500000
8597,-62.500000
8598,-64.453125
8599,-66.406250
8600,-66.406250
8601,-68.359375
8602,-68.359375
8603,-70.312500
8604,-72.265625
8605,-74.218750
8606,-74.218750
8607,-76.171875
8608,-76.171875
8609,-78.125000
8610,-80.078125
8611,-80.078125
8612,-80.078125
8613,-80.078125
8614,-82.031250
8615,-82.031250
8616,-83.984375
8617,-83.984375
8618,-85.937500
8619,-85.937500
8620,-85.937500
8621,-85.937500
8622,-87.890625
8623,-87.890625
8624,-87.890625
8625,-87.890625
8626,-89.843750
8627,-89.843750
8628,-87.890625
8629,-89.843750
8630,-89.843750
8631,-89.843750
8632,-89.843750
8633,-89.843750
8634,-89.843750
8635,-89.843750
8636,-89.843750
8637,-89.843750
8638,-89.843750
8639,-89.843750
8640,-87.890625
8641,-87.890625
8642,-87.890625
8643,-87.890625
8644,-85.937500
8645,-85.937500
8646,-87.890625
8647,-85.937500
8648,-83.984375
8649,-83.984375
8650,-83.984375
8651,-83.984375
8652,-82.031250
8653,-82.031250
8654,-80.078125
8655,-80.078125
8656,-78.125000
8657,-78.125000
8658,-78.125000
8659,-76.171875
8660,-74.218750
8661,-74.218750
8662,-72.265625
8663,-70.312500
8664,-70.312500
8665,-68.359375
8666,-68.359375
8667,-66.406250
8668,-64.453125
8669,-62.500000
8670,-62.500000
8671,-60.546875
8672,-58.593750
8673,-56.640625
8674,-56.640625
8675,-54.687500
8676,-52.734375
8677,-52.734375
8678,-48.828125
8679,-48.828125
8680,-46.875000
8681,-44.921875
8682,-42.968750
8683,-41.015625
8684,-41.015625
8685,-39.062500
8686,-37.109375
8687,-35.156250
8688,-33.203125
8689,-31.250000
8690,-31.250000
8691,-27.343750
8692,-25.390625
8693,-23.437500
8694,-23.437500
8695,-21.484375
8696,-19.531250
8697,-17.578125
8698,-15.625000
8699,-13.671875
8700,-11.718750
8701,-9.765625
8702,-7.812500
8703,-5.859375
8704,-3.906250
8705,-1.953125
8706,-1.953125
8707,1.953125
8708,3.906250
8709,3.906250
8710,5.859375
8711,7.812500
8712,9.765625
8713,11.718750
8714,13.671875
8715,15.625000
8716,19.531250
8717,19.531250
8718,19.531250
8719,21.484375
8720,23.437500
8721,25.390625
8722,27.343750
8723,29.296875
8724,31.250000
8725,31.250000
8726,33.203125
8727,35.156250
8728,37.109375
8729,37.109375
8730,39.062500
8731,41.015625
8732,42.968750
8733,42.968750
8734,44.921875
8735,46.875000
8736,46.875000
8737,48.828125
8738,48.828125
8739,50.781250
8740,52.734375
8741,52.734375
8742,54.687500
8743,56.640625
8744,56.640625
8745,56.640625
8746,58.593750
8747,60.546875
8748,60.546875
8749,60.546875
8750,62.500000
8751,64.453125
8752,64.453125
8753,64.453125
8754,66.406250
8755,66.406250
8756,68.359375
8757,68.359375
8758,68.359375
8759,68.359375
8760,70.312500
8761,70.312500
8762,70.312500
8763,70.312500
8764,72.265625
8765,72.265625
8766,72.265625
8767,72.265625
8768,72.265625
8769,72.265625
8770,74.218750
8771,72.265625
8772,72.265625
8773,72.265625
8774,74.218750
8775,74.218750
8776,72.265625
8777,74.218750
8778,74.218750
8779,74.218750
8780,74.218750
8781,72.265625
8782,72.265625
8783,74.218750
8784,72.265625
8785,72.265625
8786,72.265625
8787,72.265625
8788,70.312500
8789,70.312500
8790,70.312500
8791,70.312500
8792,68.359375
8793,68.359375
8794,68.359375
8795,66.406250
8796,66.406250
8797,64.453125
8798,64.453125
8799,64.453125
8800,62.500000
8801,62.500000
8802,60.546875
8803,60.546875
8804,58.593750
8805,58.593750
8806,56.640625
8807,56.640625
8808,54.687500
8809,52.734375
8810,52.734375
8811,52.734375
8812,50.781250
8813,48.828125
8814,48.828125
8815,46.875000
8816,44.921875
8817,42.968750
8818,42.968750
8819,41.015625
8820,39.062500
8821,39.062500
8822,37.109375
8823,35.156250
8824,33.203125
8825,33.203125
8826,31.250000
8827,29.296875
8828,27.343750
8829,25.390625
8830,25.390625
8831,21.484375
8832,21.484375
8833,19.531250
8834,17.578125
8835,15.625000
8836,13.671875
8837,11.718750
8838,9.765625
8839,7.812500
8840,7.812500
8841,5.859375
8842,3.906250
8843,1.953125
8844,0.000000
8845,-1.953125
8846,-1.953125
8847,-5.859375
8848,-7.812500
8849,-7.812500
8850,-9.765625
8851,-11.718750
8852,-13.671875
8853,-15.625000
8854,-17.578125
8855,-19.531250
8856,-21.484375
8857,-23.437500
8858,-25.390625
8859,-27.343750
8860,-27.343750
8861,-31.250000
8862,-31.250000
8863,-35.156250
8864,-35.156250
8865,-37.109375
8866,-39.062500
8867,-41.015625
8868,-42.968750
8869,-44.921875
8870,-46.875000
8871,-48.828125
8872,-48.828125
8873,-50.781250
8874,-52.734375
8875,-54.687500
8876,-56.640625
8877,-56.640625
8878,-58.593750
8879,-60.546875
8880,-62.500000
8881,-62.500000
8882,-64.453125
8883,-66.406250
8884,-66.406250
8885,-70.312500
8886,-70.312500
8887,-70.312500
8888,-72.265625
8889,-74.218750
8890,-74.218750
8891,-76.171875
8892,-76.171875
8893,-78.125000
8894,-78.125000
8895,-80.078125
8896,-80.078125
8897,-82.031250
8898,-82.031250
8899,-83.984375
8900,-82.031250
8901,-83.984375
8902,-83.984375
8903,-85.937500
8904,-85.937500
8905,-85.937500
8906,-85.937500
8907,-87.890625
8908,-87.890625
8909,-87.890625
8910,-87.890625
8911,-87.890625
8912,-89.843750
8913,-89.843750
8914,-89.843750
8915,-87.890625
8916,-89.843750
8917,-89.843750
8918,-89.843750
8919,-89.843750
8920,-87.890625
8921,-89.843750
8922,-89.843750
8923,-87.890625
8924,-87.890625
8925,-87.890625
8926,-87.890625
8927,-87.890625
8928,-85.937500
8929,-85.937500
8930,-85.937500
8931,-85.937500
8932,-85.937500
8933,-83.984375
8934,-83.984375
8935,-82.031250
8936,-82.031250
8937,-82.031250
8938,-80.078125
8939,-80.078125
8940,-80.078125
8941,-78.125000
8942,-76.171875
8943,-76.171875
8944,-74.218750
8945,-74.218750
8946,-72.265625
8947,-70.312500
8948,-70.312500
8949,-68.359375
8950,-66.406250
8951,-66.406250
8952,-64.453125
8953,-62.500000
8954,-62.500000
8955,-60.546875
8956,-58.593750
8957,-60.546875
8958,-54.687500
8959,-54.687500
8960,-52.734375
8961,-50.781250
8962,-50.781250
8963,-48.828125
8964,-46.875000
8965,-44.921875
8966,-42.968750
8967,-42.968750
8968,-39.062500
8969,-39.062500
8970,-35.156250
8971,-35.156250
8972,-33.203125
8973,-31.250000
8974,-29.296875
8975,-27.343750
8976,-25.390625
8977,-25.390625
8978,-21.484375
8979,-21.484375
8980,-19.531250
8981,-17.578125
8982,-15.625000
8983,-11.718750
8984,-9.765625
8985,-9.765625
8986,-7.812500
8987,-5.859375
8988,-3.906250
8989,-1.953125
8990,0.000000
8991,1.953125
8992,1.953125
8993,3.906250
8994,5.859375
8995,7.812500
8996,9.765625
8997,11.718750
8998,13.671875
8999,15.625000
9000,17.578125
9001,17.578125
9002,19.531250
9003,21.484375
9004,23.437500
9005,25.390625
9006,27.343750
9007,27.343750
9008,29.296875
9009,31.250000
9010,33.203125
9011,35.156250
9012,35.156250
9013,37.109375
9014,39.062500
9015,39.062500
9016,41.015625
9017,42.968750
9018,44.921875
9019,44.921875
9020,46.875000
9021,52.734375
9022,48.828125
9023,50.781250
9024,52.734375
9025,52.734375
9026,52.734375
9027,54.687500
9028,56.640625
9029,56.640625
9030,58.593750
9031,58.593750
9032,60.546875
9033,60.546875
9034,62.500000
9035,62.500000
9036,64.453125
9037,64.453125
9038,66.406250
9039,66.406250
9040,66.406250
9041,72.265625
9042,68.359375
9043,68.359375
9044,70.312500
9045,70.312500
9046,70.312500
9047,72.265625
9048,70.312500
9049,72.265625
9050,72.265625
9051,72.265625
9052,72.265625
9053,72.265625
9054,72.265625
9055,72.265625
9056,72.265625
9057,72.265625
9058,72.265625
9059,72.265625
9060,72.265625
9061,72.265625
9062,74.218750
9063,72.265625
9064,72.265625
9065,72.265625
9066,72.265625
9067,72.265625
9068,72.265625
9069,70.312500
9070,70.312500
9071,72.265625
9072,70.312500
9073,70.312500
9074,68.359375
9075,68.359375
9076,68.359375
9077,68.359375
9078,66.406250
9079,66.406250
9080,64.453125
9081,64.453125
9082,64.453125
9083,62.500000
9084,62.500000
9085,62.500000
9086,60.546875
9087,58.593750
9088,58.593750
9089,58.593750
9090,56.640625
9091,54.687500
9092,58.593750
9093,52.734375
9094,52.734375
9095,50.781250
9096,50.781250
9097,46.875000
9098,46.875000
9099,46.875000
9100,44.921875
9101,44.921875
9102,42.968750
9103,41.015625
9104,39.062500
9105,39.062500
9106,37.109375
9107,35.156250
9108,33.203125
9109,33.203125
9110,31.250000
9111,29.296875
9112,27.343750
9113,25.390625
9114,23.437500
9115,21.484375
9116,21.484375
9117,19.531250
9118,17.578125
9119,15.625000
9120,13.671875
9121,11.718750
9122,9.765625
9123,7.812500
9124,7.812500
9125,5.859375
9126,1.953125
9127,1.953125
9128,0.000000
9129,-1.953125
9130,-3.906250
9131,-5.859375
9132,-7.812500
9133,-9.765625
9134,-9.765625
9135,-11.718750
9136,-15.625000
9137,-15.625000
9138,-19.531250
9139,-19.531250
9140,-23.437500
9141,-23.437500
9142,-25.390625
9143,-27.343750
9144,-29.296875
9145,-31.250000
9146,-33.203125
9147,-35.156250
9148,-35.156250
9149,-39.062500
9150,-39.062500
9151,-41.015625
9152,-42.968750
9153,-44.921875
9154,-46.875000
9155,-48.828125
9156,-50.781250
9157,-50.781250
9158,-52.734375
9159,-54.687500
9160,-56.640625
9161,-56.640625
9162,-58.593750
9163,-60.546875
9164,-62.500000
9165,-62.500000
9166,-64.453125
9167,-66.406250
9168,-66.406250
9169,-68.359375
9170,-68.359375
9171,-70.312500
9172,-72.265625
9173,-72.265625
9174,-74.218750
9175,-74.218750
9176,-76.171875
9177,-76.171875
9178,-78.125000
9179,-78.125000
9180,-80.078125
9181,-80.078125
9182,-82.031250
9183,-82.031250
9184,-83.984375
9185,-83.984375
9186,-83.984375
9187,-85.937500
9188,-85.937500
9189,-85.937500
9190,-85.937500
9191,-87.890625
9192,-87.890625
9193,-87.890625
9194,-87.890625
9195,-87.890625
9196,-89.843750
9197,-89.843750
9198,-89.843750
9199,-89.843750
9200,-89.843750
9201,-89.843750
9202,-89.843750
9203,-89.843750
9204,-89.843750
9205,-89.843750
9206,-89.843750
9207,-89.843750
9208,-87.890625
9209,-87.890625
9210,-87.890625
9211,-87.890625
9212,-87.890625
9213,-87.890625
9214,-85.937500
9215,-85.937500
9216,-85.937500
9217,-83.984375
9218,-83.984375
9219,-83.984375
9220,-82.031250
9221,-82.031250
9222,-80.078125
9223,-80.078125
9224,-80.078125
9225,-78.125000
9226,-76.171875
9227,-76.171875
9228,-74.218750
9229,-74.218750
9230,-72.265625
9231,-70.312500
9232,-68.359375
9233,-68.359375
9234,-68.359375
9235,-66.406250
9236,-64.453125
9237,-64.453125
9238,-62.500000
9239,-60.546875
9240,-58.593750
9241,-58.593750
9242,-56.640625
9243,-54.687500
9244,-52.734375
9245,-52.734375
9246,-50.781250
9247,-48.828125
9248,-46.875000
9249,-44.921875
9250,-42.968750
9251,-41.015625
9252,-41.015625
9253,-39.062500
9254,-37.109375
9255,-35.156250
9256,-33.203125
9257,-31.250000
9258,-29.296875
9259,-27.343750
9260,-25.390625
9261,-25.390625
9262,-23.437500
9263,-21.484375
9264,-17.578125
9265,-17.578125
9266,-15.625000
9267,-13.671875
9268,-11.718750
9269,-9.765625
9270,-7.812500
9271,-5.859375
9272,-3.906250
9273,-1.953125
9274,-1.953125
9275,0.000000
9276,1.953125
9277,3.906250
9278,5.859375
9279,5.859375
9280,9.765625
9281,11.718750
9282,11.718750
9283,15.625000
9284,15.625000
9285,19.531250
9286,19.531250
9287,21.484375
9288,23.437500
9289,25.390625
9290,27.343750
9291,27.343750
9292,29.296875
9293,31.250000
9294,33.203125
9295,35.156250
9296,35.156250
9297,37.109375
9298,39.062500
9299,41.015625
9300,41.015625
9301,44.921875
9302,42.968750
9303,44.921875
9304,46.875000
9305,48.828125
9306,48.828125
9307,50.781250
9308,50.781250
9309,52.734375
9310,54.687500
9311,54.687500
9312,56.640625
9313,56.640625
9314,58.593750
9315,60.546875
9316,60.546875
9317,62.500000
9318,62.500000
9319,62.500000
9320,64.453125
9321,64.453125
9322,66.406250
9323,66.406250
9324,66.406250
9325,68.359375
9326,68.359375
9327,68.359375
9328,68.359375
9329,70.312500
9330,70.312500
9331,70.312500
9332,70.312500
9333,72.265625
9334,72.265625
9335,72.265625
9336,72.265625
9337,72.265625
9338,72.265625
9339,72.265625
9340,72.265625
9341,74.218750
9342,72.265625
9343,74.218750
9344,74.218750
9345,74.218750
9346,72.265625
9347,74.218750
9348,74.218750
9349,74.218750
9350,72.265625
9351,72.265625
9352,72.265625
9353,72.265625
9354,72.265625
9355,72.265625
9356,72.265625
9357,70.312500
9358,70.312500
9359,70.312500
9360,70.312500
9361,70.312500
9362,68.359375
9363,68.359375
9364,66.406250
9365,66.406250
9366,64.453125
9367,64.453125
9368,62.500000
9369,62.500000
9370,60.546875
9371,60.546875
9372,60.546875
9373,58.593750
9374,56.640625
9375,56.640625
9376,54.687500
9377,54.687500
9378,50.781250
9379,52.734375
9380,50.781250
9381,48.828125
9382,48.828125
9383,46.875000
9384,46.875000
9385,42.968750
9386,42.968750
9387,41.015625
9388,41.015625
9389,39.062500
9390,37.109375
9391,35.156250
9392,35.156250
9393,33.203125
9394,31.250000
9395,29.296875
9396,29.296875
9397,25.390625
9398,25.390625
9399,23.437500
9400,21.484375
9401,19.531250
9402,17.578125
9403,15.625000
9404,13.671875
9405,13.671875
9406,9.765625
9407,9.765625
9408,5.859375
9409,5.859375
9410,3.906250
9411,3.906250
9412,0.000000
9413,-1.953125
9414,-3.906250
9415,-3.906250
9416,-5.859375
9417,-7.812500
9418,-11.718750
9419,-9.765625
9420,-13.671875
9421,-15.625000
9422,-17.578125
9423,-19.531250
9424,-21.484375
9425,-23.437500
9426,-25.390625
9427,-27.343750
9428,-29.296875
9429,-29.296875
9430,-31.250000
9431,-33.203125
9432,-35.156250
9433,-39.062500
9434,-39.062500
9435,-41.015625
9436,-42.968750
9437,-41.015625
9438,-44.921875
9439,-46.875000
9440,-48.828125
9441,-50.781250
9442,-50.781250
9443,-52.734375
9444,-56.640625
9445,-56.640625
9446,-58.593750
9447,-60.546875
9448,-60.546875
9449,-62.500000
9450,-64.453125
9451,-66.406250
9452,-66.406250
9453,-68.359375
9454,-70.312500
9455,-70.312500
9456,-72.265625
9457,-72.265625
9458,-74.218750
9459,-74.218750
9460,-76.171875
9461,-78.125000
9462,-78.125000
9463,-78.125000
9464,-80.078125
9465,-82.031250
9466,-82.031250
9467,-82.031250
9468,-83.984375
9469,-83.984375
9470,-83.984375
9471,-85.937500
9472,-85.937500
9473,-85.937500
9474,-87.890625
9475,-87.890625
9476,-87.890625
9477,-87.890625
9478,-87.890625
9479,-89.843750
9480,-89.843750
9481,-89.843750
9482,-87.890625
9483,-89.843750
9484,-89.843750
9485,-89.843750
9486,-89.843750
9487,-89.843750
9488,-89.843750
9489,-89.843750
9490,-89.843750
9491,-87.890625
9492,-87.890625
9493,-87.890625
9494,-87.890625
9495,-87.890625
9496,-87.890625
9497,-85.937500
9498,-85.937500
9499,-85.937500
9500,-83.984375
9501,-83.984375
9502,-83.984375
9503,-82.031250
9504,-82.031250
9505,-82.031250
9506,-82.031250
9507,-80.078125
9508,-78.125000
9509,-78.125000
9510,-78.125000
9511,-76.171875
9512,-74.218750
9513,-74.218750
9514,-72.265625
9515,-72.265625
9516,-70.312500
9517,-68.359375
9518,-68.359375
9519,-66.406250
9520,-64.453125
9521,-64.453125
9522,-62.500000
9523,-60.546875
9524,-60.546875
9525,-58.593750
9526,-56.640625
9527,-54.687500
9528,-54.687500
9529,-50.781250
9530,-50.781250
9531,-48.828125
9532,-46.875000
9533,-44.921875
9534,-42.968750
9535,-42.968750
9536,-39.062500
9537,-39.062500
9538,-37.109375
9539,-35.156250
9540,-33.203125
9541,-31.250000
9542,-31.250000
9543,-29.296875
9544,-27.343750
9545,-23.437500
9546,-23.437500
9547,-21.484375
9548,-19.531250
9549,-17.578125
9550,-15.625000
9551,-13.671875
9552,-11.718750
9553,-9.765625
9554,-7.812500
9555,-7.812500
9556,-5.859375
9557,-3.906250
9558,-1.953125
9559,0.000000
9560,1.953125
9561,3.906250
9562,5.859375
9563,7.812500
9564,11.718750
9565,11.718750
9566,11.718750
9567,15.625000
9568,15.625000
9569,19.531250
9570,19.531250
9571,21.484375
9572,23.437500
9573,25.390625
9574,25.390625
9575,27.343750
9576,29.296875
9577,31.250000
9578,33.203125
9579,33.203125
9580,35.156250
9581,37.109375
9582,39.062500
9583,41.015625
9584,41.015625
9585,42.968750
9586,44.921875
9587,44.921875
9588,46.875000
9589,46.875000
9590,48.828125
9591,50.781250
9592,50.781250
9593,52.734375
9594,54.687500
9595,56.640625
9596,56.640625
9597,56.640625
9598,58.593750
9599,58.593750
9600,60.546875
9601,60.546875
9602,62.500000
9603,62.500000
9604,64.453125
9605,64.453125
9606,64.453125
9607,66.406250
9608,66.406250
9609,68.359375
9610,68.359375
9611,68.359375
9612,68.359375
9613,68.359375
9614,70.312500
9615,70.312500
9616,70.312500
9617,72.265625
9618,72.265625
9619,72.265625
9620,72.265625
9621,72.265625
9622,72.265625
9623,72.265625
9624,74.218750
9625,72.265625
9626,74.218750
9627,72.265625
9628,74.218750
9629,74.218750
9630,72.265625
9631,74.218750
9632,72.265625
9633,72.265625
9634,72.265625
9635,72.265625
9636,72.265625
9637,72.265625
9638,70.312500
9639,70.312500
9640,70.312500
9641,70.312500
9642,70.312500
9643,70.312500
9644,68.359375
9645,68.359375
9646,68.359375
9647,66.406250
9648,66.406250
9649,64.453125
9650,64.453125
9651,64.453125
9652,62.500000
9653,62.500000
9654,60.546875
9655,62.500000
9656,58.593750
9657,58.593750
9658,56.640625
9659,56.640625
9660,54.687500
9661,52.734375
9662,52.734375
9663,50.781250
9664,50.781250
9665,48.828125
9666,48.828125
9667,46.875000
9668,44.921875
9669,44.921875
9670,42.968750
9671,41.015625
9672,41.015625
9673,37.109375
9674,37.109375
9675,35.156250
9676,33.203125
9677,33.203125
9678,31.250000
9679,29.296875
9680,27.343750
9681,25.390625
9682,25.390625
9683,23.437500
9684,21.484375
9685,19.531250
9686,19.531250
9687,15.625000
9688,15.625000
9689,13.671875
9690,11.718750
9691,9.765625
9692,7.812500
9693,5.859375
9694,3.906250
9695,1.953125
9696,0.000000
9697,-1.953125
9698,-3.906250
9699,-5.859375
9700,-7.812500
9701,-7.812500
9702,-11.718750
9703,-11.718750
9704,-13.671875
9705,-15.625000
9706,-17.578125
9707,-19.531250
9708,-21.484375
9709,-23.437500
9710,-25.390625
9711,-25.390625
9712,-27.343750
9713,-31.250000
9714,-33.203125
9715,-33.203125
9716,-35.156250
9717,-37.109375
9718,-39.062500
9719,-41.015625
9720,-42.968750
9721,-44.921875
9722,-44.921875
9723,-48.828125
9724,-48.828125
9725,-50.781250
9726,-52.734375
9727,-52.734375
9728,-54.687500
9729,-56.640625
9730,-58.593750
9731,-58.593750
9732,-60.546875
9733,-62.500000
9734,-64.453125
9735,-64.453125
9736,-66.406250
9737,-68.359375
9738,-70.312500
9739,-70.312500
9740,-72.265625
9741,-72.265625
9742,-74.218750
9743,-74.218750
9744,-76.171875
9745,-76.171875
9746,-78.125000
9747,-78.125000
9748,-80.078125
9749,-80.078125
9750,-82.031250
9751,-82.031250
9752,-82.031250
9753,-83.984375
9754,-83.984375
9755,-83.984375
9756,-85.937500
9757,-85.937500
9758,-85.937500
9759,-87.890625
9760,-87.890625
9761,-87.890625
9762,-87.890625
9763,-89.843750
9764,-89.843750
9765,-89.843750
9766,-87.890625
9767,-87.890625
9768,-89.843750
9769,-89.843750
9770,-89.843750
9771,-89.843750
9772,-89.843750
9773,-89.843750
9774,-87.890625
9775,-87.890625
9776,-89.843750
9777,-87.890625
9778,-87.890625
9779,-87.890625
9780,-87.890625
9781,-87.890625
9782,-85.937500
9783,-85.937500
9784,-83.984375
9785,-83.984375
9786,-83.984375
9787,-83.984375
9788,-82.031250
9789,-82.031250
9790,-82.031250
9791,-80.078125
9792,-78.125000
9793,-78.125000
9794,-76.171875
9795,-76.171875
9796,-76.171875
9797,-74.218750
9798,-72.265625
9799,-72.265625
9800,-70.312500
9801,-68.359375
9802,-68.359375
9803,-66.406250
9804,-64.453125
9805,-62.500000
9806,-62.500000
9807,-60.546875
9808,-58.593750
9809,-58.593750
9810,-56.640625
9811,-54.687500
9812,-52.734375
9813,-52.734375
9814,-48.828125
9815,-48.828125
9816,-46.875000
9817,-44.921875
9818,-44.921875
9819,-41.015625
9820,-41.015625
9821,-39.062500
9822,-37.109375
9823,-35.156250
9824,-33.203125
9825,-31.250000
9826,-29.296875
9827,-29.296875
9828,-25.390625
9829,-23.437500
9830,-23.437500
9831,-21.484375
9832,-19.531250
9833,-17.578125
9834,-15.625000
9835,-13.671875
9836,-11.718750
9837,-9.765625
9838,-9.765625
9839,-7.812500
9840,-5.859375
9841,-3.906250
9842,-1.953125
9843,1.953125
9844,1.953125
9845,3.906250
9846,5.859375
9847,7.812500
9848,9.765625
9849,11.718750
9850,13.671875
9851,13.671875
9852,15.625000
9853,17.578125
9854,19.531250
9855,21.484375
9856,23.437500
9857,23.437500
9858,25.390625
9859,27.343750
9860,29.296875
9861,31.250000
9862,33.203125
9863,35.156250
9864,35.156250
9865,37.109375
9866,39.062500
9867,41.015625
9868,41.015625
9869,42.968750
9870,44.921875
9871,46.875000
9872,46.875000
9873,48.828125
9874,48.828125
9875,50.781250
9876,50.781250
9877,54.687500
9878,54.687500
9879,54.687500
9880,56.640625
9881,56.640625
9882,58.593750
9883,58.593750
9884,60.546875
9885,62.500000
9886,62.500000
9887,64.453125
9888,64.453125
9889,64.453125
9890,66.406250
9891,66.406250
9892,66.406250
9893,68.359375
9894,68.359375
9895,68.359375
9896,70.312500
9897,68.359375
9898,70.312500
9899,70.312500
9900,70.312500
9901,72.265625
9902,72.265625
9903,72.265625
9904,72.265625
9905,72.265625
9906,72.265625
9907,72.265625
9908,74.218750
9909,74.218750
9910,74.218750
9911,74.218750
9912,74.218750
9913,72.265625
9914,72.265625
9915,74.218750
9916,72.265625
9917,72.265625
9918,72.265625
9919,74.218750
9920,72.265625
9921,72.265625
9922,72.265625
9923,72.265625
9924,70.312500
9925,70.312500
9926,70.312500
9927,70.312500
9928,68.359375
9929,68.359375
9930,68.359375
9931,68.359375
9932,66.406250
9933,66.406250
9934,64.453125
9935,64.453125
9936,62.500000
9937,62.500000
9938,62.500000
9939,60.546875
9940,60.546875
9941,58.593750
9942,58.593750
9943,56.640625
9944,56.640625
9945,54.687500
9946,54.687500
9947,52.734375
9948,50.781250
9949,48.828125
9950,48.828125
9951,46.875000
9952,46.875000
9953,42.968750
9954,42.968750
9955,41.015625
9956,41.015625
9957,39.062500
9958,37.109375
9959,37.109375
9960,35.156250
9961,33.203125
9962,31.250000
9963,29.296875
9964,27.343750
9965,27.343750
9966,25.390625
9967,23.437500
9968,21.484375
9969,19.531250
9970,17.578125
9971,17.578125
9972,15.625000
9973,13.671875
9974,11.718750
9975,7.812500
9976,7.812500
9977,5.859375
9978,3.906250
9979,1.953125
9980,1.953125
9981,-1.953125
9982,-3.906250
9983,-3.906250
9984,-5.859375
9985,-9.765625
9986,-9.765625
9987,-11.718750
9988,-13.671875
9989,-15.625000
9990,-17.578125
9991,-19.531250
9992,-21.484375
9993,-21.484375
9994,-27.343750
9995,-27.343750
9996,-27.343750
9997,-29.296875
9998,-33.203125
9999,-33.203125
10000,-35.156250
