Channel              :,CH1
Frequency            :,1.010kHz
Period               :,0.990ms
PK-PK                :,89.84mV
Probe attenuation    :,1X
Voltage per ADC value:,0.244141mV
Time interval        :,1.00000us

index,CH1_Voltage(mV)
1,-39.062500
2,-39.062500
3,-39.062500
4,-35.156250
5,-35.156250
6,-35.156250
7,-35.156250
8,-35.156250
9,-35.156250
10,-35.156250
11,-35.156250
12,-35.156250
13,-35.156250
14,-35.156250
15,-35.156250
16,-35.156250
17,-31.250000
18,-31.250000
19,-31.250000
20,-31.250000
21,-31.250000
22,-31.250000
23,-31.250000
24,-31.250000
25,-31.250000
26,-31.250000
27,-31.250000
28,-31.250000
29,-27.343750
30,-27.343750
31,-31.250000
32,-27.343750
33,-27.343750
34,-27.343750
35,-27.343750
36,-27.343750
37,-27.343750
38,-27.343750
39,-27.343750
40,-27.343750
41,-27.343750
42,-27.343750
43,-27.343750
44,-27.343750
45,-27.343750
46,-23.437500
47,-23.437500
48,-23.437500
49,-23.437500
50,-23.437500
51,-23.437500
52,-23.437500
53,-23.437500
54,-23.437500
55,-23.437500
56,-23.437500
57,-23.437500
58,-23.437500
59,-19.531250
60,-19.531250
61,-19.531250
62,-19.531250
63,-19.531250
64,-19.531250
65,-19.531250
66,-19.531250
67,-19.531250
68,-19.531250
69,-19.531250
70,-19.531250
71,-19.531250
72,-19.531250
73,-19.531250
74,-19.531250
75,-15.625000
76,-15.625000
77,-15.625000
78,-15.625000
79,-15.625000
80,-15.625000
81,-15.625000
82,-15.625000
83,-15.625000
84,-15.625000
85,-15.625000
86,-11.718750
87,-11.718750
88,-15.625000
89,-11.718750
90,-11.718750
91,-11.718750
92,-11.718750
93,-11.718750
94,-11.718750
95,-11.718750
96,-11.718750
97,-11.718750
98,-11.718750
99,-11.718750
100,-11.718750
101,-7.812500
102,-11.718750
103,-7.812500
104,-7.812500
105,-7.812500
106,-7.812500
107,-7.812500
108,-7.812500
109,-7.812500
110,-7.812500
111,-7.812500
112,-7.812500
113,-7.812500
114,-7.812500
115,-7.812500
116,-3.906250
117,-3.906250
118,-3.906250
119,-3.906250
120,-3.906250
121,-3.906250
122,-3.906250
123,-3.906250
124,-3.906250
125,-3.906250
126,-3.906250
127,-3.906250
128,0.000000
129,-3.906250
130,0.000000
131,0.000000
132,0.000000
133,0.000000
134,0.000000
135,0.000000
136,0.000000
137,0.000000
138,0.000000
139,0.000000
140,0.000000
141,0.000000
142,3.906250
143,3.906250
144,3.906250
145,3.906250
146,3.906250
147,3.906250
148,3.906250
149,3.906250
150,3.906250
151,3.906250
152,3.906250
153,3.906250
154,3.906250
155,3.906250
156,7.812500
157,7.812500
158,7.812500
159,3.906250
160,7.812500
161,7.812500
162,7.812500
163,7.812500
164,7.812500
165,7.812500
166,7.812500
167,7.812500
168,7.812500
169,7.812500
170,7.812500
171,7.812500
172,7.812500
173,7.812500
174,7.812500
175,7.812500
176,11.718750
177,11.718750
178,11.718750
179,11.718750
180,11.718750
181,11.718750
182,11.718750
183,11.718750
184,11.718750
185,11.718750
186,11.718750
187,11.718750
188,11.718750
189,11.718750
190,11.718750
191,11.718750
192,15.625000
193,15.625000
194,15.625000
195,15.625000
196,15.625000
197,15.625000
198,15.625000
199,15.625000
200,15.625000
201,15.625000
202,15.625000
203,15.625000
204,15.625000
205,15.625000
206,15.625000
207,15.625000
208,15.625000
209,15.625000
210,15.625000
211,15.625000
212,19.531250
213,19.531250
214,19.531250
215,19.531250
216,19.531250
217,19.531250
218,19.531250
219,19.531250
220,19.531250
221,19.531250
222,19.531250
223,19.531250
224,19.531250
225,19.531250
226,19.531250
227,19.531250
228,19.531250
229,19.531250
230,19.531250
231,19.531250
232,19.531250
233,19.531250
234,19.531250
235,19.531250
236,19.531250
237,19.531250
238,23.437500
239,19.531250
240,19.531250
241,23.437500
242,23.437500
243,23.437500
244,23.437500
245,23.437500
246,23.437500
247,23.437500
248,23.437500
249,23.437500
250,23.437500
251,23.437500
252,23.437500
253,23.437500
254,23.437500
255,23.437500
256,23.437500
257,23.437500
258,23.437500
259,23.437500
260,23.437500
261,23.437500
262,23.437500
263,23.437500
264,23.437500
265,23.437500
266,23.437500
267,23.437500
268,23.437500
269,23.437500
270,23.437500
271,23.437500
272,23.437500
273,23.437500
274,27.343750
275,27.343750
276,27.343750
277,23.437500
278,27.343750
279,27.343750
280,27.343750
281,27.343750
282,27.343750
283,27.343750
284,27.343750
285,27.343750
286,27.343750
287,27.343750
288,27.343750
289,27.343750
290,27.343750
291,27.343750
292,27.343750
293,27.343750
294,27.343750
295,27.343750
296,27.343750
297,27.343750
298,27.343750
299,27.343750
300,27.343750
301,27.343750
302,27.343750
303,27.343750
304,27.343750
305,27.343750
306,27.343750
307,27.343750
308,27.343750
309,27.343750
310,27.343750
311,27.343750
312,27.343750
313,27.343750
314,27.343750
315,27.343750
316,27.343750
317,27.343750
318,27.343750
319,27.343750
320,27.343750
321,27.343750
322,27.343750
323,27.343750
324,27.343750
325,27.343750
326,27.343750
327,27.343750
328,27.343750
329,27.343750
330,27.343750
331,27.343750
332,27.343750
333,27.343750
334,27.343750
335,27.343750
336,27.343750
337,27.343750
338,27.343750
339,27.343750
340,27.343750
341,27.343750
342,27.343750
343,27.343750
344,27.343750
345,27.343750
346,27.343750
347,27.343750
348,27.343750
349,27.343750
350,27.343750
351,27.343750
352,27.343750
353,27.343750
354,27.343750
355,27.343750
356,27.343750
357,27.343750
358,27.343750
359,27.343750
360,27.343750
361,27.343750
362,27.343750
363,27.343750
364,27.343750
365,27.343750
366,27.343750
367,27.343750
368,27.343750
369,27.343750
370,27.343750
371,27.343750
372,23.437500
373,23.437500
374,27.343750
375,23.437500
376,27.343750
377,27.343750
378,23.437500
379,23.437500
380,23.437500
381,23.437500
382,23.437500
383,23.437500
384,23.437500
385,23.437500
386,23.437500
387,23.437500
388,23.437500
389,23.437500
390,23.437500
391,23.437500
392,23.437500
393,23.437500
394,23.437500
395,23.437500
396,23.437500
397,23.437500
398,23.437500
399,23.437500
400,23.437500
401,23.437500
402,23.437500
403,23.437500
404,23.437500
405,23.437500
406,23.437500
407,23.437500
408,23.437500
409,23.437500
410,23.437500
411,23.437500
412,23.437500
413,23.437500
414,23.437500
415,23.437500
416,23.437500
417,23.437500
418,19.531250
419,19.531250
420,19.531250
421,19.531250
422,19.531250
423,19.531250
424,19.531250
425,19.531250
426,19.531250
427,19.531250
428,19.531250
429,19.531250
430,19.531250
431,19.531250
432,19.531250
433,19.531250
434,19.531250
435,19.531250
436,19.531250
437,19.531250
438,19.531250
439,19.531250
440,19.531250
441,19.531250
442,19.531250
443,19.531250
444,19.531250
445,19.531250
446,19.531250
447,19.531250
448,19.531250
449,15.625000
450,15.625000
451,15.625000
452,15.625000
453,15.625000
454,15.625000
455,15.625000
456,15.625000
457,15.625000
458,15.625000
459,15.625000
460,15.625000
461,15.625000
462,15.625000
463,15.625000
464,11.718750
465,15.625000
466,15.625000
467,15.625000
468,11.718750
469,11.718750
470,11.718750
471,11.718750
472,11.718750
473,11.718750
474,11.718750
475,11.718750
476,11.718750
477,11.718750
478,11.718750
479,11.718750
480,11.718750
481,11.718750
482,11.718750
483,11.718750
484,11.718750
485,7.812500
486,11.718750
487,7.812500
488,7.812500
489,7.812500
490,7.812500
491,7.812500
492,7.812500
493,7.812500
494,7.812500
495,7.812500
496,7.812500
497,7.812500
498,7.812500
499,7.812500
500,7.812500
501,3.906250
502,3.906250
503,7.812500
504,3.906250
505,3.906250
506,3.906250
507,3.906250
508,3.906250
509,3.906250
510,3.906250
511,3.906250
512,3.906250
513,3.906250
514,3.906250
515,3.906250
516,3.906250
517,3.906250
518,3.906250
519,3.906250
520,3.906250
521,0.000000
522,0.000000
523,0.000000
524,0.000000
525,0.000000
526,0.000000
527,0.000000
528,0.000000
529,0.000000
530,0.000000
531,0.000000
532,0.000000
533,0.000000
534,0.000000
535,0.000000
536,-3.906250
537,0.000000
538,0.000000
539,-3.906250
540,-3.906250
541,-3.906250
542,-3.906250
543,-3.906250
544,-3.906250
545,-3.906250
546,-3.906250
547,-3.906250
548,-3.906250
549,-3.906250
550,-3.906250
551,-3.906250
552,-3.906250
553,-7.812500
554,-3.906250
555,-3.906250
556,-7.812500
557,-7.812500
558,-7.812500
559,-7.812500
560,-7.812500
561,-7.812500
562,-7.812500
563,-7.812500
564,-7.812500
565,-7.812500
566,-7.812500
567,-11.718750
568,-7.812500
569,-7.812500
570,-7.812500
571,-11.718750
572,-11.718750
573,-11.718750
574,-11.718750
575,-11.718750
576,-11.718750
577,-11.718750
578,-11.718750
579,-11.718750
580,-11.718750
581,-11.718750
582,-11.718750
583,-11.718750
584,-11.718750
585,-11.718750
586,-15.625000
587,-15.625000
588,-15.625000
589,-15.625000
590,-15.625000
591,-15.625000
592,-15.625000
593,-15.625000
594,-15.625000
595,-15.625000
596,-15.625000
597,-15.625000
598,-15.625000
599,-15.625000
600,-19.531250
601,-19.531250
602,-19.531250
603,-19.531250
604,-19.531250
605,-19.531250
606,-19.531250
607,-19.531250
608,-19.531250
609,-19.531250
610,-19.531250
611,-19.531250
612,-19.531250
613,-19.531250
614,-19.531250
615,-23.437500
616,-23.437500
617,-19.531250
618,-23.437500
619,-23.437500
620,-23.437500
621,-23.437500
622,-23.437500
623,-23.437500
624,-23.437500
625,-23.437500
626,-23.437500
627,-23.437500
628,-23.437500
629,-23.437500
630,-27.343750
631,-27.343750
632,-27.343750
633,-27.343750
634,-27.343750
635,-23.437500
636,-27.343750
637,-27.343750
638,-27.343750
639,-27.343750
640,-27.343750
641,-27.343750
642,-27.343750
643,-27.343750
644,-27.343750
645,-27.343750
646,-31.250000
647,-31.250000
648,-31.250000
649,-31.250000
650,-31.250000
651,-31.250000
652,-31.250000
653,-31.250000
654,-31.250000
655,-31.250000
656,-31.250000
657,-31.250000
658,-31.250000
659,-31.250000
660,-31.250000
661,-35.156250
662,-35.156250
663,-35.156250
664,-31.250000
665,-35.156250
666,-35.156250
667,-35.156250
668,-35.156250
669,-35.156250
670,-35.156250
671,-35.156250
672,-35.156250
673,-35.156250
674,-35.156250
675,-35.156250
676,-35.156250
677,-35.156250
678,-35.156250
679,-35.156250
680,-39.062500
681,-39.062500
682,-39.062500
683,-39.062500
684,-39.062500
685,-39.062500
686,-39.062500
687,-39.062500
688,-39.062500
689,-39.062500
690,-39.062500
691,-39.062500
692,-39.062500
693,-39.062500
694,-39.062500
695,-39.062500
696,-42.968750
697,-39.062500
698,-42.968750
699,-42.968750
700,-42.968750
701,-42.968750
702,-42.968750
703,-42.968750
704,-42.968750
705,-42.968750
706,-42.968750
707,-42.968750
708,-42.968750
709,-42.968750
710,-42.968750
711,-42.968750
712,-42.968750
713,-46.875000
714,-46.875000
715,-46.875000
716,-46.875000
717,-46.875000
718,-46.875000
719,-46.875000
720,-46.875000
721,-46.875000
722,-46.875000
723,-46.875000
724,-46.875000
725,-46.875000
726,-46.875000
727,-46.875000
728,-46.875000
729,-46.875000
730,-46.875000
731,-50.781250
732,-50.781250
733,-50.781250
734,-50.781250
735,-50.781250
736,-50.781250
737,-50.781250
738,-50.781250
739,-50.781250
740,-50.781250
741,-50.781250
742,-50.781250
743,-50.781250
744,-50.781250
745,-50.781250
746,-50.781250
747,-50.781250
748,-50.781250
749,-50.781250
750,-50.781250
751,-50.781250
752,-50.781250
753,-50.781250
754,-54.687500
755,-54.687500
756,-50.781250
757,-50.781250
758,-54.687500
759,-54.687500
760,-54.687500
761,-54.687500
762,-54.687500
763,-54.687500
764,-54.687500
765,-54.687500
766,-54.687500
767,-54.687500
768,-54.687500
769,-54.687500
770,-54.687500
771,-54.687500
772,-54.687500
773,-54.687500
774,-54.687500
775,-54.687500
776,-54.687500
777,-54.687500
778,-54.687500
779,-54.687500
780,-54.687500
781,-54.687500
782,-54.687500
783,-54.687500
784,-54.687500
785,-54.687500
786,-54.687500
787,-54.687500
788,-54.687500
789,-54.687500
790,-54.687500
791,-58.593750
792,-54.687500
793,-54.687500
794,-58.593750
795,-58.593750
796,-54.687500
797,-54.687500
798,-54.687500
799,-58.593750
800,-58.593750
801,-58.593750
802,-58.593750
803,-58.593750
804,-58.593750
805,-54.687500
806,-54.687500
807,-54.687500
808,-58.593750
809,-58.593750
810,-58.593750
811,-58.593750
812,-58.593750
813,-58.593750
814,-58.593750
815,-58.593750
816,-58.593750
817,-58.593750
818,-58.593750
819,-58.593750
820,-58.593750
821,-58.593750
822,-58.593750
823,-58.593750
824,-58.593750
825,-58.593750
826,-58.593750
827,-58.593750
828,-58.593750
829,-58.593750
830,-58.593750
831,-58.593750
832,-58.593750
833,-58.593750
834,-58.593750
835,-58.593750
836,-58.593750
837,-58.593750
838,-58.593750
839,-58.593750
840,-58.593750
841,-58.593750
842,-58.593750
843,-58.593750
844,-58.593750
845,-58.593750
846,-58.593750
847,-58.593750
848,-58.593750
849,-58.593750
850,-58.593750
851,-58.593750
852,-58.593750
853,-58.593750
854,-58.593750
855,-58.593750
856,-58.593750
857,-58.593750
858,-58.593750
859,-58.593750
860,-58.593750
861,-58.593750
862,-58.593750
863,-58.593750
864,-58.593750
865,-58.593750
866,-58.593750
867,-58.593750
868,-58.593750
869,-58.593750
870,-58.593750
871,-58.593750
872,-54.687500
873,-58.593750
874,-58.593750
875,-58.593750
876,-54.687500
877,-58.593750
878,-54.687500
879,-54.687500
880,-54.687500
881,-54.687500
882,-54.687500
883,-54.687500
884,-58.593750
885,-54.687500
886,-54.687500
887,-54.687500
888,-54.687500
889,-54.687500
890,-54.687500
891,-54.687500
892,-54.687500
893,-54.687500
894,-54.687500
895,-54.687500
896,-54.687500
897,-54.687500
898,-54.687500
899,-54.687500
900,-54.687500
901,-54.687500
902,-54.687500
903,-54.687500
904,-54.687500
905,-54.687500
906,-54.687500
907,-54.687500
908,-54.687500
909,-54.687500
910,-54.687500
911,-54.687500
912,-50.781250
913,-50.781250
914,-50.781250
915,-50.781250
916,-50.781250
917,-50.781250
918,-50.781250
919,-50.781250
920,-50.781250
921,-50.781250
922,-50.781250
923,-50.781250
924,-50.781250
925,-50.781250
926,-50.781250
927,-50.781250
928,-50.781250
929,-50.781250
930,-50.781250
931,-50.781250
932,-50.781250
933,-50.781250
934,-50.781250
935,-46.875000
936,-46.875000
937,-46.875000
938,-46.875000
939,-46.875000
940,-46.875000
941,-46.875000
942,-46.875000
943,-46.875000
944,-46.875000
945,-46.875000
946,-46.875000
947,-46.875000
948,-46.875000
949,-46.875000
950,-46.875000
951,-46.875000
952,-46.875000
953,-46.875000
954,-46.875000
955,-46.875000
956,-46.875000
957,-42.968750
958,-42.968750
959,-42.968750
960,-42.968750
961,-42.968750
962,-42.968750
963,-42.968750
964,-42.968750
965,-42.968750
966,-42.968750
967,-42.968750
968,-42.968750
969,-42.968750
970,-42.968750
971,-42.968750
972,-42.968750
973,-42.968750
974,-39.062500
975,-39.062500
976,-39.062500
977,-39.062500
978,-39.062500
979,-39.062500
980,-39.062500
981,-39.062500
982,-39.062500
983,-39.062500
984,-39.062500
985,-39.062500
986,-39.062500
987,-39.062500
988,-39.062500
989,-39.062500
990,-39.062500
991,-35.156250
992,-35.156250
993,-35.156250
994,-35.156250
995,-35.156250
996,-35.156250
997,-35.156250
998,-35.156250
999,-35.156250
1000,-35.156250
1001,-35.156250
1002,-35.156250
1003,-35.156250
1004,-35.156250
1005,-35.156250
1006,-35.156250
1007,-35.156250
1008,-35.156250
1009,-31.250000
1010,-31.250000
1011,-31.250000
1012,-31.250000
1013,-31.250000
1014,-31.250000
1015,-31.250000
1016,-31.250000
1017,-31.250000
1018,-31.250000
1019,-31.250000
1020,-31.250000
1021,-31.250000
1022,-31.250000
1023,-31.250000
1024,-27.343750
1025,-27.343750
1026,-27.343750
1027,-27.343750
1028,-27.343750
1029,-27.343750
1030,-27.343750
1031,-27.343750
1032,-27.343750
1033,-27.343750
1034,-27.343750
1035,-23.437500
1036,-27.343750
1037,-23.437500
1038,-23.437500
1039,-23.437500
1040,-23.437500
1041,-23.437500
1042,-23.437500
1043,-23.437500
1044,-23.437500
1045,-23.437500
1046,-23.437500
1047,-23.437500
1048,-23.437500
1049,-19.531250
1050,-19.531250
1051,-23.437500
1052,-19.531250
1053,-19.531250
1054,-19.531250
1055,-19.531250
1056,-19.531250
1057,-19.531250
1058,-19.531250
1059,-19.531250
1060,-19.531250
1061,-19.531250
1062,-19.531250
1063,-15.625000
1064,-15.625000
1065,-15.625000
1066,-15.625000
1067,-15.625000
1068,-15.625000
1069,-15.625000
1070,-15.625000
1071,-15.625000
1072,-15.625000
1073,-15.625000
1074,-15.625000
1075,-15.625000
1076,-15.625000
1077,-15.625000
1078,-11.718750
1079,-11.718750
1080,-11.718750
1081,-11.718750
1082,-11.718750
1083,-11.718750
1084,-11.718750
1085,-11.718750
1086,-11.718750
1087,-11.718750
1088,-11.718750
1089,-11.718750
1090,-11.718750
1091,-7.812500
1092,-7.812500
1093,-7.812500
1094,-7.812500
1095,-7.812500
1096,-7.812500
1097,-7.812500
1098,-7.812500
1099,-7.812500
1100,-7.812500
1101,-7.812500
1102,-7.812500
1103,-7.812500
1104,-3.906250
1105,-3.906250
1106,-3.906250
1107,-3.906250
1108,-3.906250
1109,-3.906250
1110,-3.906250
1111,-3.906250
1112,-3.906250
1113,-3.906250
1114,-3.906250
1115,-3.906250
1116,-3.906250
1117,-3.906250
1118,-3.906250
1119,0.000000
1120,0.000000
1121,0.000000
1122,0.000000
1123,0.000000
1124,0.000000
1125,0.000000
1126,0.000000
1127,0.000000
1128,0.000000
1129,0.000000
1130,0.000000
1131,0.000000
1132,0.000000
1133,0.000000
1134,0.000000
1135,0.000000
1136,3.906250
1137,3.906250
1138,3.906250
1139,3.906250
1140,3.906250
1141,3.906250
1142,3.906250
1143,3.906250
1144,3.906250
1145,3.906250
1146,3.906250
1147,3.906250
1148,3.906250
1149,3.906250
1150,7.812500
1151,7.812500
1152,7.812500
1153,7.812500
1154,7.812500
1155,3.906250
1156,7.812500
1157,7.812500
1158,7.812500
1159,7.812500
1160,7.812500
1161,7.812500
1162,7.812500
1163,7.812500
1164,7.812500
1165,7.812500
1166,7.812500
1167,7.812500
1168,7.812500
1169,11.718750
1170,11.718750
1171,11.718750
1172,11.718750
1173,11.718750
1174,11.718750
1175,11.718750
1176,11.718750
1177,11.718750
1178,11.718750
1179,11.718750
1180,11.718750
1181,11.718750
1182,11.718750
1183,11.718750
1184,15.625000
1185,11.718750
1186,11.718750
1187,15.625000
1188,15.625000
1189,11.718750
1190,15.625000
1191,15.625000
1192,15.625000
1193,15.625000
1194,15.625000
1195,15.625000
1196,15.625000
1197,15.625000
1198,15.625000
1199,15.625000
1200,15.625000
1201,15.625000
1202,15.625000
1203,15.625000
1204,15.625000
1205,15.625000
1206,19.531250
1207,19.531250
1208,19.531250
1209,19.531250
1210,19.531250
1211,19.531250
1212,19.531250
1213,19.531250
1214,19.531250
1215,19.531250
1216,19.531250
1217,19.531250
1218,19.531250
1219,19.531250
1220,19.531250
1221,19.531250
1222,19.531250
1223,19.531250
1224,19.531250
1225,19.531250
1226,19.531250
1227,19.531250
1228,19.531250
1229,23.437500
1230,19.531250
1231,19.531250
1232,23.437500
1233,23.437500
1234,23.437500
1235,23.437500
1236,23.437500
1237,23.437500
1238,23.437500
1239,23.437500
1240,23.437500
1241,23.437500
1242,23.437500
1243,23.437500
1244,23.437500
1245,23.437500
1246,23.437500
1247,23.437500
1248,23.437500
1249,23.437500
1250,23.437500
1251,23.437500
1252,23.437500
1253,23.437500
1254,23.437500
1255,23.437500
1256,23.437500
1257,23.437500
1258,23.437500
1259,23.437500
1260,23.437500
1261,23.437500
1262,27.343750
1263,27.343750
1264,23.437500
1265,23.437500
1266,23.437500
1267,23.437500
1268,27.343750
1269,23.437500
1270,27.343750
1271,23.437500
1272,27.343750
1273,27.343750
1274,27.343750
1275,27.343750
1276,27.343750
1277,27.343750
1278,27.343750
1279,27.343750
1280,27.343750
1281,27.343750
1282,27.343750
1283,27.343750
1284,27.343750
1285,27.343750
1286,27.343750
1287,27.343750
1288,27.343750
1289,27.343750
1290,27.343750
1291,27.343750
1292,27.343750
1293,27.343750
1294,27.343750
1295,27.343750
1296,27.343750
1297,27.343750
1298,27.343750
1299,27.343750
1300,27.343750
1301,27.343750
1302,27.343750
1303,27.343750
1304,27.343750
1305,27.343750
1306,27.343750
1307,27.343750
1308,27.343750
1309,27.343750
1310,27.343750
1311,27.343750
1312,27.343750
1313,27.343750
1314,27.343750
1315,27.343750
1316,27.343750
1317,27.343750
1318,27.343750
1319,27.343750
1320,27.343750
1321,27.343750
1322,27.343750
1323,27.343750
1324,27.343750
1325,27.343750
1326,27.343750
1327,27.343750
1328,27.343750
1329,27.343750
1330,27.343750
1331,27.343750
1332,27.343750
1333,27.343750
1334,27.343750
1335,27.343750
1336,27.343750
1337,27.343750
1338,27.343750
1339,27.343750
1340,27.343750
1341,27.343750
1342,27.343750
1343,27.343750
1344,27.343750
1345,27.343750
1346,27.343750
1347,27.343750
1348,27.343750
1349,27.343750
1350,27.343750
1351,27.343750
1352,27.343750
1353,27.343750
1354,27.343750
1355,27.343750
1356,27.343750
1357,27.343750
1358,27.343750
1359,27.343750
1360,23.437500
1361,27.343750
1362,27.343750
1363,27.343750
1364,27.343750
1365,27.343750
1366,27.343750
1367,23.437500
1368,27.343750
1369,27.343750
1370,27.343750
1371,27.343750
1372,27.343750
1373,23.437500
1374,23.437500
1375,23.437500
1376,23.437500
1377,23.437500
1378,23.437500
1379,23.437500
1380,23.437500
1381,23.437500
1382,23.437500
1383,23.437500
1384,23.437500
1385,23.437500
1386,23.437500
1387,23.437500
1388,23.437500
1389,23.437500
1390,23.437500
1391,23.437500
1392,23.437500
1393,23.437500
1394,23.437500
1395,23.437500
1396,19.531250
1397,23.437500
1398,23.437500
1399,23.437500
1400,23.437500
1401,19.531250
1402,19.531250
1403,19.531250
1404,23.437500
1405,19.531250
1406,19.531250
1407,19.531250
1408,19.531250
1409,19.531250
1410,19.531250
1411,19.531250
1412,19.531250
1413,19.531250
1414,19.531250
1415,19.531250
1416,19.531250
1417,19.531250
1418,19.531250
1419,19.531250
1420,19.531250
1421,19.531250
1422,19.531250
1423,19.531250
1424,19.531250
1425,19.531250
1426,19.531250
1427,19.531250
1428,19.531250
1429,19.531250
1430,19.531250
1431,15.625000
1432,15.625000
1433,15.625000
1434,15.625000
1435,15.625000
1436,15.625000
1437,15.625000
1438,15.625000
1439,15.625000
1440,15.625000
1441,15.625000
1442,15.625000
1443,15.625000
1444,15.625000
1445,15.625000
1446,15.625000
1447,15.625000
1448,15.625000
1449,15.625000
1450,15.625000
1451,15.625000
1452,11.718750
1453,11.718750
1454,15.625000
1455,11.718750
1456,15.625000
1457,11.718750
1458,11.718750
1459,11.718750
1460,11.718750
1461,11.718750
1462,11.718750
1463,11.718750
1464,11.718750
1465,11.718750
1466,11.718750
1467,11.718750
1468,11.718750
1469,11.718750
1470,11.718750
1471,11.718750
1472,11.718750
1473,11.718750
1474,11.718750
1475,11.718750
1476,7.812500
1477,7.812500
1478,7.812500
1479,7.812500
1480,7.812500
1481,7.812500
1482,7.812500
1483,7.812500
1484,7.812500
1485,7.812500
1486,7.812500
1487,7.812500
1488,7.812500
1489,7.812500
1490,7.812500
1491,7.812500
1492,7.812500
1493,3.906250
1494,3.906250
1495,7.812500
1496,3.906250
1497,3.906250
1498,3.906250
1499,3.906250
1500,3.906250
1501,3.906250
1502,3.906250
1503,3.906250
1504,3.906250
1505,3.906250
1506,3.906250
1507,3.906250
1508,3.906250
1509,3.906250
1510,0.000000
1511,0.000000
1512,0.000000
1513,0.000000
1514,0.000000
1515,0.000000
1516,0.000000
1517,0.000000
1518,0.000000
1519,0.000000
1520,0.000000
1521,0.000000
1522,0.000000
1523,-3.906250
1524,-3.906250
1525,0.000000
1526,0.000000
1527,-3.906250
1528,-3.906250
1529,-3.906250
1530,-3.906250
1531,-3.906250
1532,-3.906250
1533,-3.906250
1534,-3.906250
1535,-3.906250
1536,-3.906250
1537,-3.906250
1538,-3.906250
1539,-7.812500
1540,-3.906250
1541,-7.812500
1542,-3.906250
1543,-7.812500
1544,-7.812500
1545,-7.812500
1546,-7.812500
1547,-7.812500
1548,-7.812500
1549,-7.812500
1550,-7.812500
1551,-7.812500
1552,-7.812500
1553,-7.812500
1554,-7.812500
1555,-7.812500
1556,-7.812500
1557,-7.812500
1558,-11.718750
1559,-11.718750
1560,-11.718750
1561,-11.718750
1562,-11.718750
1563,-11.718750
1564,-11.718750
1565,-11.718750
1566,-11.718750
1567,-11.718750
1568,-11.718750
1569,-11.718750
1570,-11.718750
1571,-11.718750
1572,-11.718750
1573,-15.625000
1574,-15.625000
1575,-15.625000
1576,-15.625000
1577,-15.625000
1578,-15.625000
1579,-15.625000
1580,-15.625000
1581,-15.625000
1582,-15.625000
1583,-15.625000
1584,-15.625000
1585,-15.625000
1586,-15.625000
1587,-19.531250
1588,-15.625000
1589,-15.625000
1590,-19.531250
1591,-19.531250
1592,-19.531250
1593,-19.531250
1594,-19.531250
1595,-19.531250
1596,-19.531250
1597,-19.531250
1598,-19.531250
1599,-19.531250
1600,-19.531250
1601,-19.531250
1602,-19.531250
1603,-19.531250
1604,-19.531250
1605,-23.437500
1606,-23.437500
1607,-23.437500
1608,-23.437500
1609,-23.437500
1610,-23.437500
1611,-23.437500
1612,-23.437500
1613,-23.437500
1614,-23.437500
1615,-23.437500
1616,-23.437500
1617,-23.437500
1618,-23.437500
1619,-23.437500
1620,-27.343750
1621,-27.343750
1622,-27.343750
1623,-27.343750
1624,-27.343750
1625,-27.343750
1626,-27.343750
1627,-27.343750
1628,-27.343750
1629,-27.343750
1630,-27.343750
1631,-27.343750
1632,-27.343750
1633,-27.343750
1634,-27.343750
1635,-31.250000
1636,-31.250000
1637,-31.250000
1638,-31.250000
1639,-31.250000
1640,-31.250000
1641,-31.250000
1642,-31.250000
1643,-31.250000
1644,-31.250000
1645,-31.250000
1646,-31.250000
1647,-31.250000
1648,-31.250000
1649,-31.250000
1650,-35.156250
1651,-35.156250
1652,-35.156250
1653,-35.156250
1654,-35.156250
1655,-35.156250
1656,-35.156250
1657,-35.156250
1658,-35.156250
1659,-35.156250
1660,-35.156250
1661,-35.156250
1662,-35.156250
1663,-35.156250
1664,-35.156250
1665,-35.156250
1666,-35.156250
1667,-39.062500
1668,-39.062500
1669,-39.062500
1670,-39.062500
1671,-39.062500
1672,-39.062500
1673,-39.062500
1674,-39.062500
1675,-39.062500
1676,-39.062500
1677,-39.062500
1678,-39.062500
1679,-39.062500
1680,-39.062500
1681,-39.062500
1682,-39.062500
1683,-39.062500
1684,-42.968750
1685,-42.968750
1686,-42.968750
1687,-42.968750
1688,-42.968750
1689,-42.968750
1690,-42.968750
1691,-42.968750
1692,-42.968750
1693,-42.968750
1694,-42.968750
1695,-42.968750
1696,-42.968750
1697,-42.968750
1698,-42.968750
1699,-42.968750
1700,-46.875000
1701,-42.968750
1702,-42.968750
1703,-42.968750
1704,-42.968750
1705,-46.875000
1706,-46.875000
1707,-46.875000
1708,-46.875000
1709,-46.875000
1710,-46.875000
1711,-46.875000
1712,-46.875000
1713,-46.875000
1714,-46.875000
1715,-46.875000
1716,-46.875000
1717,-46.875000
1718,-46.875000
1719,-46.875000
1720,-46.875000
1721,-46.875000
1722,-46.875000
1723,-46.875000
1724,-46.875000
1725,-46.875000
1726,-50.781250
1727,-46.875000
1728,-46.875000
1729,-50.781250
1730,-46.875000
1731,-50.781250
1732,-50.781250
1733,-46.875000
1734,-50.781250
1735,-50.781250
1736,-50.781250
1737,-50.781250
1738,-50.781250
1739,-50.781250
1740,-50.781250
1741,-50.781250
1742,-50.781250
1743,-50.781250
1744,-50.781250
1745,-50.781250
1746,-50.781250
1747,-50.781250
1748,-50.781250
1749,-50.781250
1750,-50.781250
1751,-50.781250
1752,-54.687500
1753,-54.687500
1754,-50.781250
1755,-50.781250
1756,-54.687500
1757,-54.687500
1758,-54.687500
1759,-54.687500
1760,-54.687500
1761,-54.687500
1762,-54.687500
1763,-54.687500
1764,-54.687500
1765,-54.687500
1766,-54.687500
1767,-54.687500
1768,-54.687500
1769,-54.687500
1770,-54.687500
1771,-54.687500
1772,-54.687500
1773,-54.687500
1774,-54.687500
1775,-54.687500
1776,-54.687500
1777,-54.687500
1778,-54.687500
1779,-54.687500
1780,-54.687500
1781,-54.687500
1782,-54.687500
1783,-54.687500
1784,-58.593750
1785,-54.687500
1786,-58.593750
1787,-54.687500
1788,-58.593750
1789,-58.593750
1790,-58.593750
1791,-54.687500
1792,-58.593750
1793,-58.593750
1794,-58.593750
1795,-58.593750
1796,-54.687500
1797,-58.593750
1798,-58.593750
1799,-58.593750
1800,-58.593750
1801,-58.593750
1802,-58.593750
1803,-58.593750
1804,-58.593750
1805,-58.593750
1806,-58.593750
1807,-58.593750
1808,-58.593750
1809,-58.593750
1810,-58.593750
1811,-58.593750
1812,-58.593750
1813,-58.593750
1814,-58.593750
1815,-58.593750
1816,-58.593750
1817,-58.593750
1818,-58.593750
1819,-58.593750
1820,-58.593750
1821,-58.593750
1822,-58.593750
1823,-58.593750
1824,-58.593750
1825,-58.593750
1826,-58.593750
1827,-58.593750
1828,-58.593750
1829,-58.593750
1830,-58.593750
1831,-58.593750
1832,-58.593750
1833,-58.593750
1834,-58.593750
1835,-58.593750
1836,-58.593750
1837,-58.593750
1838,-58.593750
1839,-58.593750
1840,-58.593750
1841,-58.593750
1842,-58.593750
1843,-58.593750
1844,-58.593750
1845,-58.593750
1846,-58.593750
1847,-58.593750
1848,-58.593750
1849,-58.593750
1850,-58.593750
1851,-58.593750
1852,-58.593750
1853,-58.593750
1854,-58.593750
1855,-58.593750
1856,-58.593750
1857,-58.593750
1858,-58.593750
1859,-58.593750
1860,-58.593750
1861,-58.593750
1862,-58.593750
1863,-58.593750
1864,-54.687500
1865,-54.687500
1866,-54.687500
1867,-54.687500
1868,-54.687500
1869,-54.687500
1870,-54.687500
1871,-54.687500
1872,-54.687500
1873,-54.687500
1874,-54.687500
1875,-54.687500
1876,-54.687500
1877,-54.687500
1878,-54.687500
1879,-54.687500
1880,-54.687500
1881,-54.687500
1882,-54.687500
1883,-54.687500
1884,-54.687500
1885,-54.687500
1886,-54.687500
1887,-54.687500
1888,-54.687500
1889,-54.687500
1890,-50.781250
1891,-54.687500
1892,-54.687500
1893,-54.687500
1894,-54.687500
1895,-54.687500
1896,-54.687500
1897,-54.687500
1898,-50.781250
1899,-54.687500
1900,-54.687500
1901,-50.781250
1902,-50.781250
1903,-54.687500
1904,-54.687500
1905,-50.781250
1906,-50.781250
1907,-50.781250
1908,-50.781250
1909,-50.781250
1910,-50.781250
1911,-50.781250
1912,-50.781250
1913,-50.781250
1914,-50.781250
1915,-50.781250
1916,-50.781250
1917,-50.781250
1918,-50.781250
1919,-50.781250
1920,-50.781250
1921,-50.781250
1922,-50.781250
1923,-50.781250
1924,-50.781250
1925,-46.875000
1926,-50.781250
1927,-46.875000
1928,-46.875000
1929,-46.875000
1930,-46.875000
1931,-46.875000
1932,-46.875000
1933,-46.875000
1934,-46.875000
1935,-46.875000
1936,-46.875000
1937,-46.875000
1938,-46.875000
1939,-46.875000
1940,-46.875000
1941,-46.875000
1942,-46.875000
1943,-46.875000
1944,-46.875000
1945,-46.875000
1946,-42.968750
1947,-42.968750
1948,-42.968750
1949,-42.968750
1950,-42.968750
1951,-42.968750
1952,-42.968750
1953,-42.968750
1954,-42.968750
1955,-42.968750
1956,-42.968750
1957,-42.968750
1958,-42.968750
1959,-42.968750
1960,-42.968750
1961,-42.968750
1962,-42.968750
1963,-42.968750
1964,-39.062500
1965,-39.062500
1966,-39.062500
1967,-39.062500
1968,-39.062500
1969,-39.062500
1970,-39.062500
1971,-39.062500
1972,-39.062500
1973,-39.062500
1974,-39.062500
1975,-39.062500
1976,-39.062500
1977,-39.062500
1978,-39.062500
1979,-39.062500
1980,-35.156250
1981,-35.156250
1982,-35.156250
1983,-35.156250
1984,-35.156250
1985,-35.156250
1986,-35.156250
1987,-35.156250
1988,-35.156250
1989,-35.156250
1990,-35.156250
1991,-35.156250
1992,-35.156250
1993,-35.156250
1994,-31.250000
1995,-31.250000
1996,-31.250000
1997,-31.250000
1998,-31.250000
1999,-31.250000
2000,-31.250000
2001,-31.250000
2002,-31.250000
2003,-31.250000
2004,-31.250000
2005,-31.250000
2006,-31.250000
2007,-31.250000
2008,-27.343750
2009,-27.343750
2010,-27.343750
2011,-27.343750
2012,-27.343750
2013,-27.343750
2014,-27.343750
2015,-27.343750
2016,-27.343750
2017,-27.343750
2018,-27.343750
2019,-27.343750
2020,-27.343750
2021,-27.343750
2022,-27.343750
2023,-27.343750
2024,-23.437500
2025,-27.343750
2026,-23.437500
2027,-23.437500
2028,-23.437500
2029,-23.437500
2030,-23.437500
2031,-23.437500
2032,-23.437500
2033,-23.437500
2034,-23.437500
2035,-23.437500
2036,-23.437500
2037,-23.437500
2038,-19.531250
2039,-19.531250
2040,-19.531250
2041,-19.531250
2042,-19.531250
2043,-19.531250
2044,-19.531250
2045,-19.531250
2046,-19.531250
2047,-19.531250
2048,-19.531250
2049,-19.531250
2050,-19.531250
2051,-19.531250
2052,-19.531250
2053,-19.531250
2054,-15.625000
2055,-19.531250
2056,-15.625000
2057,-15.625000
2058,-15.625000
2059,-15.625000
2060,-15.625000
2061,-15.625000
2062,-15.625000
2063,-15.625000
2064,-15.625000
2065,-15.625000
2066,-15.625000
2067,-11.718750
2068,-11.718750
2069,-15.625000
2070,-11.718750
2071,-11.718750
2072,-11.718750
2073,-11.718750
2074,-11.718750
2075,-11.718750
2076,-11.718750
2077,-11.718750
2078,-11.718750
2079,-11.718750
2080,-11.718750
2081,-7.812500
2082,-7.812500
2083,-7.812500
2084,-7.812500
2085,-7.812500
2086,-7.812500
2087,-7.812500
2088,-7.812500
2089,-7.812500
2090,-7.812500
2091,-7.812500
2092,-7.812500
2093,-7.812500
2094,-7.812500
2095,-3.906250
2096,-3.906250
2097,-3.906250
2098,-3.906250
2099,-3.906250
2100,-3.906250
2101,-3.906250
2102,-3.906250
2103,-3.906250
2104,-3.906250
2105,-3.906250
2106,-3.906250
2107,0.000000
2108,0.000000
2109,0.000000
2110,0.000000
2111,0.000000
2112,0.000000
2113,0.000000
2114,0.000000
2115,0.000000
2116,0.000000
2117,0.000000
2118,0.000000
2119,0.000000
2120,0.000000
2121,0.000000
2122,0.000000
2123,3.906250
2124,3.906250
2125,3.906250
2126,3.906250
2127,3.906250
2128,3.906250
2129,3.906250
2130,3.906250
2131,3.906250
2132,3.906250
2133,3.906250
2134,3.906250
2135,3.906250
2136,3.906250
2137,3.906250
2138,7.812500
2139,7.812500
2140,7.812500
2141,3.906250
2142,7.812500
2143,7.812500
2144,7.812500
2145,7.812500
2146,7.812500
2147,7.812500
2148,7.812500
2149,7.812500
2150,7.812500
2151,7.812500
2152,7.812500
2153,7.812500
2154,7.812500
2155,7.812500
2156,11.718750
2157,11.718750
2158,11.718750
2159,11.718750
2160,11.718750
2161,11.718750
2162,11.718750
2163,11.718750
2164,11.718750
2165,11.718750
2166,11.718750
2167,11.718750
2168,11.718750
2169,11.718750
2170,11.718750
2171,11.718750
2172,11.718750
2173,15.625000
2174,15.625000
2175,15.625000
2176,15.625000
2177,15.625000
2178,15.625000
2179,11.718750
2180,15.625000
2181,15.625000
2182,15.625000
2183,15.625000
2184,15.625000
2185,15.625000
2186,15.625000
2187,15.625000
2188,15.625000
2189,15.625000
2190,15.625000
2191,15.625000
2192,15.625000
2193,15.625000
2194,19.531250
2195,15.625000
2196,15.625000
2197,19.531250
2198,19.531250
2199,19.531250
2200,19.531250
2201,19.531250
2202,19.531250
2203,19.531250
2204,19.531250
2205,19.531250
2206,19.531250
2207,19.531250
2208,19.531250
2209,19.531250
2210,19.531250
2211,19.531250
2212,19.531250
2213,19.531250
2214,23.437500
2215,19.531250
2216,23.437500
2217,19.531250
2218,19.531250
2219,19.531250
2220,23.437500
2221,23.437500
2222,23.437500
2223,23.437500
2224,23.437500
2225,23.437500
2226,23.437500
2227,23.437500
2228,23.437500
2229,23.437500
2230,23.437500
2231,23.437500
2232,23.437500
2233,23.437500
2234,23.437500
2235,23.437500
2236,23.437500
2237,23.437500
2238,23.437500
2239,23.437500
2240,23.437500
2241,23.437500
2242,23.437500
2243,23.437500
2244,23.437500
2245,23.437500
2246,27.343750
2247,23.437500
2248,23.437500
2249,23.437500
2250,23.437500
2251,27.343750
2252,23.437500
2253,23.437500
2254,27.343750
2255,27.343750
2256,23.437500
2257,27.343750
2258,27.343750
2259,27.343750
2260,27.343750
2261,27.343750
2262,27.343750
2263,27.343750
2264,27.343750
2265,27.343750
2266,27.343750
2267,27.343750
2268,27.343750
2269,27.343750
2270,27.343750
2271,27.343750
2272,27.343750
2273,27.343750
2274,27.343750
2275,27.343750
2276,27.343750
2277,27.343750
2278,27.343750
2279,27.343750
2280,27.343750
2281,27.343750
2282,27.343750
2283,27.343750
2284,27.343750
2285,27.343750
2286,27.343750
2287,27.343750
2288,27.343750
2289,27.343750
2290,27.343750
2291,27.343750
2292,27.343750
2293,27.343750
2294,27.343750
2295,27.343750
2296,27.343750
2297,27.343750
2298,27.343750
2299,27.343750
2300,27.343750
2301,27.343750
2302,27.343750
2303,27.343750
2304,27.343750
2305,27.343750
2306,27.343750
2307,27.343750
2308,27.343750
2309,27.343750
2310,27.343750
2311,27.343750
2312,27.343750
2313,27.343750
2314,27.343750
2315,27.343750
2316,27.343750
2317,27.343750
2318,27.343750
2319,27.343750
2320,27.343750
2321,27.343750
2322,27.343750
2323,27.343750
2324,27.343750
2325,27.343750
2326,27.343750
2327,27.343750
2328,27.343750
2329,27.343750
2330,27.343750
2331,27.343750
2332,27.343750
2333,27.343750
2334,27.343750
2335,27.343750
2336,27.343750
2337,27.343750
2338,27.343750
2339,27.343750
2340,27.343750
2341,27.343750
2342,27.343750
2343,27.343750
2344,27.343750
2345,27.343750
2346,27.343750
2347,27.343750
2348,27.343750
2349,27.343750
2350,27.343750
2351,27.343750
2352,27.343750
2353,27.343750
2354,27.343750
2355,27.343750
2356,27.343750
2357,27.343750
2358,27.343750
2359,27.343750
2360,23.437500
2361,27.343750
2362,27.343750
2363,27.343750
2364,27.343750
2365,27.343750
2366,23.437500
2367,23.437500
2368,23.437500
2369,23.437500
2370,23.437500
2371,23.437500
2372,23.437500
2373,23.437500
2374,23.437500
2375,23.437500
2376,23.437500
2377,23.437500
2378,23.437500
2379,23.437500
2380,23.437500
2381,23.437500
2382,23.437500
2383,23.437500
2384,23.437500
2385,23.437500
2386,23.437500
2387,23.437500
2388,23.437500
2389,23.437500
2390,23.437500
2391,23.437500
2392,23.437500
2393,23.437500
2394,23.437500
2395,19.531250
2396,23.437500
2397,23.437500
2398,23.437500
2399,19.531250
2400,19.531250
2401,19.531250
2402,23.437500
2403,19.531250
2404,19.531250
2405,19.531250
2406,19.531250
2407,19.531250
2408,19.531250
2409,19.531250
2410,19.531250
2411,19.531250
2412,19.531250
2413,19.531250
2414,19.531250
2415,19.531250
2416,19.531250
2417,19.531250
2418,19.531250
2419,19.531250
2420,19.531250
2421,15.625000
2422,19.531250
2423,15.625000
2424,15.625000
2425,15.625000
2426,15.625000
2427,15.625000
2428,15.625000
2429,15.625000
2430,15.625000
2431,15.625000
2432,15.625000
2433,15.625000
2434,15.625000
2435,15.625000
2436,15.625000
2437,15.625000
2438,15.625000
2439,15.625000
2440,15.625000
2441,15.625000
2442,15.625000
2443,11.718750
2444,11.718750
2445,15.625000
2446,15.625000
2447,15.625000
2448,11.718750
2449,11.718750
2450,11.718750
2451,11.718750
2452,11.718750
2453,11.718750
2454,11.718750
2455,11.718750
2456,11.718750
2457,11.718750
2458,11.718750
2459,11.718750
2460,11.718750
2461,11.718750
2462,11.718750
2463,11.718750
2464,11.718750
2465,11.718750
2466,7.812500
2467,7.812500
2468,7.812500
2469,7.812500
2470,7.812500
2471,7.812500
2472,7.812500
2473,7.812500
2474,7.812500
2475,7.812500
2476,7.812500
2477,7.812500
2478,7.812500
2479,7.812500
2480,7.812500
2481,7.812500
2482,7.812500
2483,7.812500
2484,7.812500
2485,3.906250
2486,7.812500
2487,3.906250
2488,3.906250
2489,3.906250
2490,3.906250
2491,3.906250
2492,3.906250
2493,3.906250
2494,3.906250
2495,3.906250
2496,3.906250
2497,3.906250
2498,3.906250
2499,3.906250
2500,3.906250
2501,3.906250
2502,3.906250
2503,3.906250
2504,3.906250
2505,0.000000
2506,0.000000
2507,0.000000
2508,0.000000
2509,0.000000
2510,0.000000
2511,0.000000
2512,0.000000
2513,0.000000
2514,0.000000
2515,0.000000
2516,0.000000
2517,0.000000
2518,-3.906250
2519,-3.906250
2520,-3.906250
2521,-3.906250
2522,-3.906250
2523,-3.906250
2524,-3.906250
2525,-3.906250
2526,-3.906250
2527,-3.906250
2528,-3.906250
2529,-3.906250
2530,-3.906250
2531,-3.906250
2532,-3.906250
2533,-3.906250
2534,-3.906250
2535,-7.812500
2536,-7.812500
2537,-7.812500
2538,-7.812500
2539,-7.812500
2540,-7.812500
2541,-7.812500
2542,-7.812500
2543,-7.812500
2544,-7.812500
2545,-7.812500
2546,-7.812500
2547,-7.812500
2548,-7.812500
2549,-7.812500
2550,-7.812500
2551,-11.718750
2552,-11.718750
2553,-11.718750
2554,-11.718750
2555,-11.718750
2556,-11.718750
2557,-11.718750
2558,-11.718750
2559,-11.718750
2560,-11.718750
2561,-11.718750
2562,-11.718750
2563,-11.718750
2564,-15.625000
2565,-15.625000
2566,-15.625000
2567,-15.625000
2568,-15.625000
2569,-15.625000
2570,-15.625000
2571,-15.625000
2572,-15.625000
2573,-15.625000
2574,-15.625000
2575,-15.625000
2576,-15.625000
2577,-15.625000
2578,-15.625000
2579,-15.625000
2580,-19.531250
2581,-19.531250
2582,-19.531250
2583,-19.531250
2584,-19.531250
2585,-19.531250
2586,-19.531250
2587,-19.531250
2588,-19.531250
2589,-19.531250
2590,-19.531250
2591,-19.531250
2592,-19.531250
2593,-19.531250
2594,-19.531250
2595,-19.531250
2596,-19.531250
2597,-23.437500
2598,-23.437500
2599,-23.437500
2600,-23.437500
2601,-23.437500
2602,-23.437500
2603,-23.437500
2604,-23.437500
2605,-23.437500
2606,-23.437500
2607,-23.437500
2608,-23.437500
2609,-27.343750
2610,-23.437500
2611,-27.343750
2612,-27.343750
2613,-27.343750
2614,-27.343750
2615,-27.343750
2616,-27.343750
2617,-27.343750
2618,-27.343750
2619,-27.343750
2620,-27.343750
2621,-27.343750
2622,-27.343750
2623,-27.343750
2624,-27.343750
2625,-27.343750
2626,-31.250000
2627,-31.250000
2628,-31.250000
2629,-31.250000
2630,-31.250000
2631,-31.250000
2632,-31.250000
2633,-31.250000
2634,-31.250000
2635,-31.250000
2636,-31.250000
2637,-31.250000
2638,-31.250000
2639,-31.250000
2640,-31.250000
2641,-31.250000
2642,-35.156250
2643,-35.156250
2644,-35.156250
2645,-35.156250
2646,-35.156250
2647,-35.156250
2648,-35.156250
2649,-35.156250
2650,-35.156250
2651,-35.156250
2652,-35.156250
2653,-35.156250
2654,-35.156250
2655,-35.156250
2656,-35.156250
2657,-35.156250
2658,-35.156250
2659,-39.062500
2660,-39.062500
2661,-39.062500
2662,-39.062500
2663,-39.062500
2664,-39.062500
2665,-39.062500
2666,-39.062500
2667,-39.062500
2668,-39.062500
2669,-39.062500
2670,-39.062500
2671,-39.062500
2672,-39.062500
2673,-39.062500
2674,-42.968750
2675,-42.968750
2676,-42.968750
2677,-42.968750
2678,-42.968750
2679,-42.968750
2680,-42.968750
2681,-42.968750
2682,-42.968750
2683,-42.968750
2684,-42.968750
2685,-42.968750
2686,-42.968750
2687,-42.968750
2688,-42.968750
2689,-42.968750
2690,-42.968750
2691,-42.968750
2692,-42.968750
2693,-46.875000
2694,-42.968750
2695,-46.875000
2696,-46.875000
2697,-46.875000
2698,-46.875000
2699,-46.875000
2700,-46.875000
2701,-46.875000
2702,-46.875000
2703,-46.875000
2704,-46.875000
2705,-46.875000
2706,-46.875000
2707,-46.875000
2708,-46.875000
2709,-46.875000
2710,-46.875000
2711,-46.875000
2712,-46.875000
2713,-46.875000
2714,-46.875000
2715,-50.781250
2716,-50.781250
2717,-50.781250
2718,-50.781250
2719,-50.781250
2720,-50.781250
2721,-50.781250
2722,-50.781250
2723,-50.781250
2724,-50.781250
2725,-50.781250
2726,-50.781250
2727,-50.781250
2728,-50.781250
2729,-50.781250
2730,-50.781250
2731,-50.781250
2732,-50.781250
2733,-50.781250
2734,-50.781250
2735,-50.781250
2736,-50.781250
2737,-50.781250
2738,-50.781250
2739,-50.781250
2740,-50.781250
2741,-50.781250
2742,-54.687500
2743,-54.687500
2744,-54.687500
2745,-54.687500
2746,-54.687500
2747,-50.781250
2748,-54.687500
2749,-54.687500
2750,-54.687500
2751,-54.687500
2752,-54.687500
2753,-54.687500
2754,-54.687500
2755,-54.687500
2756,-54.687500
2757,-54.687500
2758,-54.687500
2759,-54.687500
2760,-54.687500
2761,-54.687500
2762,-54.687500
2763,-54.687500
2764,-54.687500
2765,-54.687500
2766,-54.687500
2767,-54.687500
2768,-54.687500
2769,-54.687500
2770,-54.687500
2771,-54.687500
2772,-54.687500
2773,-54.687500
2774,-54.687500
2775,-54.687500
2776,-54.687500
2777,-54.687500
2778,-54.687500
2779,-54.687500
2780,-54.687500
2781,-54.687500
2782,-54.687500
2783,-58.593750
2784,-58.593750
2785,-54.687500
2786,-54.687500
2787,-54.687500
2788,-58.593750
2789,-54.687500
2790,-54.687500
2791,-54.687500
2792,-54.687500
2793,-54.687500
2794,-58.593750
2795,-58.593750
2796,-58.593750
2797,-54.687500
2798,-54.687500
2799,-58.593750
2800,-58.593750
2801,-58.593750
2802,-58.593750
2803,-58.593750
2804,-58.593750
2805,-58.593750
2806,-58.593750
2807,-58.593750
2808,-58.593750
2809,-58.593750
2810,-58.593750
2811,-58.593750
2812,-58.593750
2813,-58.593750
2814,-58.593750
2815,-58.593750
2816,-58.593750
2817,-58.593750
2818,-58.593750
2819,-58.593750
2820,-58.593750
2821,-58.593750
2822,-58.593750
2823,-58.593750
2824,-58.593750
2825,-58.593750
2826,-58.593750
2827,-58.593750
2828,-58.593750
2829,-58.593750
2830,-58.593750
2831,-58.593750
2832,-58.593750
2833,-58.593750
2834,-58.593750
2835,-58.593750
2836,-54.687500
2837,-58.593750
2838,-58.593750
2839,-58.593750
2840,-58.593750
2841,-58.593750
2842,-58.593750
2843,-58.593750
2844,-58.593750
2845,-54.687500
2846,-58.593750
2847,-54.687500
2848,-54.687500
2849,-58.593750
2850,-54.687500
2851,-54.687500
2852,-58.593750
2853,-54.687500
2854,-54.687500
2855,-54.687500
2856,-54.687500
2857,-54.687500
2858,-54.687500
2859,-54.687500
2860,-54.687500
2861,-54.687500
2862,-54.687500
2863,-54.687500
2864,-54.687500
2865,-54.687500
2866,-54.687500
2867,-54.687500
2868,-54.687500
2869,-54.687500
2870,-54.687500
2871,-54.687500
2872,-54.687500
2873,-54.687500
2874,-54.687500
2875,-54.687500
2876,-54.687500
2877,-54.687500
2878,-54.687500
2879,-54.687500
2880,-54.687500
2881,-54.687500
2882,-54.687500
2883,-54.687500
2884,-54.687500
2885,-54.687500
2886,-50.781250
2887,-50.781250
2888,-50.781250
2889,-50.781250
2890,-54.687500
2891,-54.687500
2892,-50.781250
2893,-50.781250
2894,-50.781250
2895,-50.781250
2896,-50.781250
2897,-50.781250
2898,-50.781250
2899,-50.781250
2900,-50.781250
2901,-50.781250
2902,-50.781250
2903,-50.781250
2904,-50.781250
2905,-50.781250
2906,-50.781250
2907,-50.781250
2908,-50.781250
2909,-46.875000
2910,-50.781250
2911,-50.781250
2912,-50.781250
2913,-50.781250
2914,-46.875000
2915,-46.875000
2916,-50.781250
2917,-46.875000
2918,-46.875000
2919,-46.875000
2920,-46.875000
2921,-46.875000
2922,-46.875000
2923,-46.875000
2924,-46.875000
2925,-46.875000
2926,-46.875000
2927,-46.875000
2928,-46.875000
2929,-46.875000
2930,-46.875000
2931,-46.875000
2932,-46.875000
2933,-46.875000
2934,-46.875000
2935,-46.875000
2936,-46.875000
2937,-46.875000
2938,-42.968750
2939,-42.968750
2940,-42.968750
2941,-42.968750
2942,-42.968750
2943,-42.968750
2944,-42.968750
2945,-42.968750
2946,-42.968750
2947,-42.968750
2948,-42.968750
2949,-42.968750
2950,-42.968750
2951,-42.968750
2952,-39.062500
2953,-42.968750
2954,-39.062500
2955,-39.062500
2956,-42.968750
2957,-39.062500
2958,-39.062500
2959,-39.062500
2960,-39.062500
2961,-39.062500
2962,-39.062500
2963,-39.062500
2964,-39.062500
2965,-39.062500
2966,-39.062500
2967,-39.062500
2968,-39.062500
2969,-39.062500
2970,-39.062500
2971,-35.156250
2972,-35.156250
2973,-35.156250
2974,-35.156250
2975,-35.156250
2976,-35.156250
2977,-35.156250
2978,-35.156250
2979,-35.156250
2980,-35.156250
2981,-35.156250
2982,-35.156250
2983,-35.156250
2984,-35.156250
2985,-31.250000
2986,-31.250000
2987,-31.250000
2988,-35.156250
2989,-31.250000
2990,-31.250000
2991,-31.250000
2992,-31.250000
2993,-31.250000
2994,-31.250000
2995,-31.250000
2996,-31.250000
2997,-31.250000
2998,-31.250000
2999,-31.250000
3000,-27.343750
3001,-27.343750
3002,-27.343750
3003,-27.343750
3004,-27.343750
3005,-27.343750
3006,-27.343750
3007,-27.343750
3008,-27.343750
3009,-27.343750
3010,-27.343750
3011,-27.343750
3012,-27.343750
3013,-23.437500
3014,-23.437500
3015,-23.437500
3016,-23.437500
3017,-23.437500
3018,-23.437500
3019,-23.437500
3020,-23.437500
3021,-23.437500
3022,-23.437500
3023,-23.437500
3024,-23.437500
3025,-23.437500
3026,-19.531250
3027,-19.531250
3028,-19.531250
3029,-19.531250
3030,-19.531250
3031,-19.531250
3032,-19.531250
3033,-19.531250
3034,-19.531250
3035,-19.531250
3036,-19.531250
3037,-19.531250
3038,-19.531250
3039,-15.625000
3040,-15.625000
3041,-19.531250
3042,-19.531250
3043,-15.625000
3044,-15.625000
3045,-15.625000
3046,-15.625000
3047,-15.625000
3048,-15.625000
3049,-15.625000
3050,-15.625000
3051,-15.625000
3052,-15.625000
3053,-15.625000
3054,-11.718750
3055,-11.718750
3056,-11.718750
3057,-11.718750
3058,-11.718750
3059,-11.718750
3060,-11.718750
3061,-11.718750
3062,-11.718750
3063,-11.718750
3064,-11.718750
3065,-11.718750
3066,-7.812500
3067,-11.718750
3068,-11.718750
3069,-11.718750
3070,-7.812500
3071,-7.812500
3072,-7.812500
3073,-7.812500
3074,-7.812500
3075,-7.812500
3076,-7.812500
3077,-7.812500
3078,-7.812500
3079,-7.812500
3080,-7.812500
3081,-7.812500
3082,-7.812500
3083,-7.812500
3084,-3.906250
3085,-3.906250
3086,-3.906250
3087,-3.906250
3088,-3.906250
3089,-3.906250
3090,-3.906250
3091,-3.906250
3092,-3.906250
3093,-3.906250
3094,-3.906250
3095,-3.906250
3096,-3.906250
3097,-3.906250
3098,0.000000
3099,0.000000
3100,0.000000
3101,0.000000
3102,0.000000
3103,0.000000
3104,0.000000
3105,0.000000
3106,0.000000
3107,0.000000
3108,0.000000
3109,0.000000
3110,0.000000
3111,0.000000
3112,3.906250
3113,3.906250
3114,3.906250
3115,3.906250
3116,3.906250
3117,3.906250
3118,3.906250
3119,3.906250
3120,3.906250
3121,3.906250
3122,3.906250
3123,3.906250
3124,7.812500
3125,3.906250
3126,3.906250
3127,3.906250
3128,7.812500
3129,7.812500
3130,7.812500
3131,7.812500
3132,7.812500
3133,7.812500
3134,7.812500
3135,7.812500
3136,7.812500
3137,7.812500
3138,7.812500
3139,7.812500
3140,7.812500
3141,7.812500
3142,11.718750
3143,11.718750
3144,11.718750
3145,11.718750
3146,11.718750
3147,11.718750
3148,11.718750
3149,11.718750
3150,11.718750
3151,11.718750
3152,11.718750
3153,11.718750
3154,11.718750
3155,11.718750
3156,11.718750
3157,15.625000
3158,11.718750
3159,11.718750
3160,11.718750
3161,11.718750
3162,15.625000
3163,15.625000
3164,15.625000
3165,11.718750
3166,15.625000
3167,15.625000
3168,15.625000
3169,15.625000
3170,15.625000
3171,15.625000
3172,15.625000
3173,15.625000
3174,15.625000
3175,15.625000
3176,15.625000
3177,15.625000
3178,19.531250
3179,15.625000
3180,15.625000
3181,15.625000
3182,15.625000
3183,19.531250
3184,19.531250
3185,19.531250
3186,19.531250
3187,19.531250
3188,19.531250
3189,19.531250
3190,19.531250
3191,19.531250
3192,19.531250
3193,19.531250
3194,19.531250
3195,19.531250
3196,19.531250
3197,19.531250
3198,19.531250
3199,19.531250
3200,19.531250
3201,19.531250
3202,19.531250
3203,19.531250
3204,19.531250
3205,19.531250
3206,19.531250
3207,19.531250
3208,23.437500
3209,23.437500
3210,23.437500
3211,23.437500
3212,23.437500
3213,23.437500
3214,23.437500
3215,23.437500
3216,23.437500
3217,23.437500
3218,23.437500
3219,23.437500
3220,23.437500
3221,23.437500
3222,23.437500
3223,23.437500
3224,23.437500
3225,23.437500
3226,23.437500
3227,23.437500
3228,23.437500
3229,23.437500
3230,23.437500
3231,27.343750
3232,23.437500
3233,23.437500
3234,23.437500
3235,23.437500
3236,23.437500
3237,23.437500
3238,23.437500
3239,23.437500
3240,27.343750
3241,27.343750
3242,27.343750
3243,23.437500
3244,23.437500
3245,23.437500
3246,27.343750
3247,27.343750
3248,27.343750
3249,27.343750
3250,27.343750
3251,27.343750
3252,27.343750
3253,27.343750
3254,27.343750
3255,27.343750
3256,27.343750
3257,27.343750
3258,27.343750
3259,27.343750
3260,27.343750
3261,27.343750
3262,27.343750
3263,27.343750
3264,27.343750
3265,27.343750
3266,27.343750
3267,27.343750
3268,27.343750
3269,27.343750
3270,27.343750
3271,27.343750
3272,27.343750
3273,27.343750
3274,27.343750
3275,27.343750
3276,27.343750
3277,27.343750
3278,27.343750
3279,27.343750
3280,27.343750
3281,27.343750
3282,27.343750
3283,27.343750
3284,27.343750
3285,27.343750
3286,27.343750
3287,27.343750
3288,27.343750
3289,27.343750
3290,27.343750
3291,27.343750
3292,27.343750
3293,27.343750
3294,27.343750
3295,27.343750
3296,27.343750
3297,27.343750
3298,27.343750
3299,27.343750
3300,27.343750
3301,27.343750
3302,27.343750
3303,27.343750
3304,27.343750
3305,27.343750
3306,27.343750
3307,27.343750
3308,27.343750
3309,27.343750
3310,27.343750
3311,27.343750
3312,27.343750
3313,27.343750
3314,27.343750
3315,27.343750
3316,27.343750
3317,27.343750
3318,27.343750
3319,27.343750
3320,27.343750
3321,27.343750
3322,27.343750
3323,27.343750
3324,27.343750
3325,27.343750
3326,27.343750
3327,27.343750
3328,27.343750
3329,27.343750
3330,27.343750
3331,27.343750
3332,27.343750
3333,27.343750
3334,27.343750
3335,27.343750
3336,27.343750
3337,27.343750
3338,27.343750
3339,27.343750
3340,27.343750
3341,27.343750
3342,23.437500
3343,27.343750
3344,27.343750
3345,27.343750
3346,23.437500
3347,27.343750
3348,23.437500
3349,27.343750
3350,27.343750
3351,23.437500
3352,27.343750
3353,23.437500
3354,23.437500
3355,23.437500
3356,27.343750
3357,23.437500
3358,23.437500
3359,23.437500
3360,27.343750
3361,19.531250
3362,23.437500
3363,23.437500
3364,23.437500
3365,23.437500
3366,23.437500
3367,23.437500
3368,23.437500
3369,23.437500
3370,23.437500
3371,23.437500
3372,23.437500
3373,23.437500
3374,23.437500
3375,23.437500
3376,23.437500
3377,23.437500
3378,23.437500
3379,23.437500
3380,23.437500
3381,23.437500
3382,23.437500
3383,23.437500
3384,23.437500
3385,23.437500
3386,23.437500
3387,23.437500
3388,23.437500
3389,19.531250
3390,19.531250
3391,19.531250
3392,19.531250
3393,19.531250
3394,19.531250
3395,19.531250
3396,19.531250
3397,19.531250
3398,19.531250
3399,19.531250
3400,19.531250
3401,19.531250
3402,19.531250
3403,19.531250
3404,19.531250
3405,19.531250
3406,19.531250
3407,19.531250
3408,19.531250
3409,19.531250
3410,19.531250
3411,19.531250
3412,19.531250
3413,15.625000
3414,19.531250
3415,19.531250
3416,19.531250
3417,15.625000
3418,19.531250
3419,15.625000
3420,15.625000
3421,15.625000
3422,15.625000
3423,15.625000
3424,15.625000
3425,15.625000
3426,15.625000
3427,15.625000
3428,15.625000
3429,15.625000
3430,15.625000
3431,15.625000
3432,15.625000
3433,15.625000
3434,15.625000
3435,15.625000
3436,15.625000
3437,11.718750
3438,15.625000
3439,11.718750
3440,11.718750
3441,15.625000
3442,11.718750
3443,11.718750
3444,11.718750
3445,11.718750
3446,11.718750
3447,11.718750
3448,11.718750
3449,11.718750
3450,11.718750
3451,11.718750
3452,11.718750
3453,11.718750
3454,7.812500
3455,7.812500
3456,11.718750
3457,7.812500
3458,11.718750
3459,7.812500
3460,7.812500
3461,7.812500
3462,7.812500
3463,7.812500
3464,7.812500
3465,7.812500
3466,7.812500
3467,7.812500
3468,7.812500
3469,7.812500
3470,7.812500
3471,3.906250
3472,3.906250
3473,7.812500
3474,7.812500
3475,3.906250
3476,3.906250
3477,3.906250
3478,3.906250
3479,3.906250
3480,3.906250
3481,3.906250
3482,3.906250
3483,3.906250
3484,3.906250
3485,3.906250
3486,3.906250
3487,3.906250
3488,3.906250
3489,3.906250
3490,0.000000
3491,0.000000
3492,0.000000
3493,0.000000
3494,0.000000
3495,0.000000
3496,0.000000
3497,0.000000
3498,0.000000
3499,0.000000
3500,0.000000
3501,0.000000
3502,0.000000
3503,0.000000
3504,0.000000
3505,0.000000
3506,0.000000
3507,0.000000
3508,-3.906250
3509,-3.906250
3510,-3.906250
3511,-3.906250
3512,-3.906250
3513,-3.906250
3514,-3.906250
3515,-3.906250
3516,-3.906250
3517,-3.906250
3518,-3.906250
3519,-3.906250
3520,-3.906250
3521,-7.812500
3522,-3.906250
3523,-3.906250
3524,-7.812500
3525,-7.812500
3526,-7.812500
3527,-7.812500
3528,-7.812500
3529,-7.812500
3530,-7.812500
3531,-7.812500
3532,-7.812500
3533,-7.812500
3534,-7.812500
3535,-7.812500
3536,-7.812500
3537,-7.812500
3538,-11.718750
3539,-11.718750
3540,-11.718750
3541,-11.718750
3542,-11.718750
3543,-11.718750
3544,-11.718750
3545,-11.718750
3546,-11.718750
3547,-11.718750
3548,-11.718750
3549,-11.718750
3550,-11.718750
3551,-11.718750
3552,-11.718750
3553,-11.718750
3554,-11.718750
3555,-11.718750
3556,-15.625000
3557,-15.625000
3558,-15.625000
3559,-15.625000
3560,-15.625000
3561,-15.625000
3562,-15.625000
3563,-15.625000
3564,-15.625000
3565,-15.625000
3566,-15.625000
3567,-15.625000
3568,-15.625000
3569,-19.531250
3570,-19.531250
3571,-19.531250
3572,-19.531250
3573,-19.531250
3574,-19.531250
3575,-19.531250
3576,-19.531250
3577,-19.531250
3578,-19.531250
3579,-19.531250
3580,-19.531250
3581,-23.437500
3582,-19.531250
3583,-19.531250
3584,-23.437500
3585,-23.437500
3586,-23.437500
3587,-23.437500
3588,-23.437500
3589,-23.437500
3590,-23.437500
3591,-23.437500
3592,-23.437500
3593,-23.437500
3594,-23.437500
3595,-23.437500
3596,-23.437500
3597,-23.437500
3598,-27.343750
3599,-23.437500
3600,-27.343750
3601,-27.343750
3602,-27.343750
3603,-27.343750
3604,-27.343750
3605,-27.343750
3606,-27.343750
3607,-27.343750
3608,-27.343750
3609,-27.343750
3610,-27.343750
3611,-27.343750
3612,-27.343750
3613,-31.250000
3614,-31.250000
3615,-31.250000
3616,-31.250000
3617,-31.250000
3618,-31.250000
3619,-31.250000
3620,-31.250000
3621,-31.250000
3622,-31.250000
3623,-31.250000
3624,-31.250000
3625,-31.250000
3626,-31.250000
3627,-35.156250
3628,-31.250000
3629,-35.156250
3630,-35.156250
3631,-35.156250
3632,-35.156250
3633,-35.156250
3634,-35.156250
3635,-35.156250
3636,-35.156250
3637,-35.156250
3638,-35.156250
3639,-35.156250
3640,-35.156250
3641,-35.156250
3642,-35.156250
3643,-35.156250
3644,-39.062500
3645,-35.156250
3646,-35.156250
3647,-35.156250
3648,-39.062500
3649,-39.062500
3650,-39.062500
3651,-39.062500
3652,-39.062500
3653,-39.062500
3654,-39.062500
3655,-39.062500
3656,-39.062500
3657,-39.062500
3658,-39.062500
3659,-39.062500
3660,-39.062500
3661,-39.062500
3662,-39.062500
3663,-42.968750
3664,-42.968750
3665,-42.968750
3666,-42.968750
3667,-42.968750
3668,-42.968750
3669,-42.968750
3670,-42.968750
3671,-42.968750
3672,-42.968750
3673,-42.968750
3674,-42.968750
3675,-42.968750
3676,-42.968750
3677,-42.968750
3678,-42.968750
3679,-42.968750
3680,-42.968750
3681,-42.968750
3682,-42.968750
3683,-46.875000
3684,-46.875000
3685,-46.875000
3686,-46.875000
3687,-46.875000
3688,-46.875000
3689,-46.875000
3690,-46.875000
3691,-46.875000
3692,-46.875000
3693,-46.875000
3694,-46.875000
3695,-50.781250
3696,-46.875000
3697,-46.875000
3698,-46.875000
3699,-46.875000
3700,-46.875000
3701,-46.875000
3702,-46.875000
3703,-50.781250
3704,-46.875000
3705,-50.781250
3706,-50.781250
3707,-50.781250
3708,-50.781250
3709,-50.781250
3710,-50.781250
3711,-50.781250
3712,-50.781250
3713,-50.781250
3714,-50.781250
3715,-50.781250
3716,-50.781250
3717,-50.781250
3718,-50.781250
3719,-50.781250
3720,-50.781250
3721,-50.781250
3722,-50.781250
3723,-50.781250
3724,-50.781250
3725,-50.781250
3726,-50.781250
3727,-54.687500
3728,-54.687500
3729,-50.781250
3730,-50.781250
3731,-54.687500
3732,-54.687500
3733,-54.687500
3734,-54.687500
3735,-54.687500
3736,-54.687500
3737,-54.687500
3738,-54.687500
3739,-54.687500
3740,-54.687500
3741,-54.687500
3742,-54.687500
3743,-54.687500
3744,-54.687500
3745,-54.687500
3746,-54.687500
3747,-54.687500
3748,-54.687500
3749,-54.687500
3750,-54.687500
3751,-54.687500
3752,-54.687500
3753,-54.687500
3754,-54.687500
3755,-54.687500
3756,-54.687500
3757,-54.687500
3758,-54.687500
3759,-54.687500
3760,-54.687500
3761,-54.687500
3762,-54.687500
3763,-54.687500
3764,-58.593750
3765,-54.687500
3766,-54.687500
3767,-54.687500
3768,-58.593750
3769,-58.593750
3770,-58.593750
3771,-58.593750
3772,-58.593750
3773,-58.593750
3774,-58.593750
3775,-58.593750
3776,-58.593750
3777,-58.593750
3778,-58.593750
3779,-58.593750
3780,-58.593750
3781,-58.593750
3782,-58.593750
3783,-58.593750
3784,-54.687500
3785,-58.593750
3786,-58.593750
3787,-58.593750
3788,-58.593750
3789,-58.593750
3790,-58.593750
3791,-58.593750
3792,-58.593750
3793,-58.593750
3794,-58.593750
3795,-58.593750
3796,-58.593750
3797,-58.593750
3798,-58.593750
3799,-58.593750
3800,-58.593750
3801,-58.593750
3802,-58.593750
3803,-58.593750
3804,-58.593750
3805,-58.593750
3806,-58.593750
3807,-58.593750
3808,-58.593750
3809,-58.593750
3810,-58.593750
3811,-58.593750
3812,-58.593750
3813,-58.593750
3814,-58.593750
3815,-58.593750
3816,-58.593750
3817,-58.593750
3818,-58.593750
3819,-58.593750
3820,-58.593750
3821,-58.593750
3822,-58.593750
3823,-58.593750
3824,-58.593750
3825,-58.593750
3826,-58.593750
3827,-58.593750
3828,-58.593750
3829,-58.593750
3830,-58.593750
3831,-58.593750
3832,-58.593750
3833,-58.593750
3834,-58.593750
3835,-58.593750
3836,-54.687500
3837,-58.593750
3838,-58.593750
3839,-58.593750
3840,-58.593750
3841,-58.593750
3842,-58.593750
3843,-58.593750
3844,-54.687500
3845,-54.687500
3846,-54.687500
3847,-54.687500
3848,-54.687500
3849,-54.687500
3850,-54.687500
3851,-54.687500
3852,-54.687500
3853,-54.687500
3854,-54.687500
3855,-54.687500
3856,-54.687500
3857,-54.687500
3858,-54.687500
3859,-54.687500
3860,-54.687500
3861,-54.687500
3862,-54.687500
3863,-54.687500
3864,-54.687500
3865,-54.687500
3866,-54.687500
3867,-54.687500
3868,-54.687500
3869,-54.687500
3870,-54.687500
3871,-54.687500
3872,-54.687500
3873,-54.687500
3874,-54.687500
3875,-54.687500
3876,-54.687500
3877,-54.687500
3878,-54.687500
3879,-50.781250
3880,-54.687500
3881,-54.687500
3882,-50.781250
3883,-54.687500
3884,-54.687500
3885,-50.781250
3886,-50.781250
3887,-50.781250
3888,-50.781250
3889,-50.781250
3890,-50.781250
3891,-50.781250
3892,-50.781250
3893,-50.781250
3894,-50.781250
3895,-50.781250
3896,-50.781250
3897,-50.781250
3898,-46.875000
3899,-50.781250
3900,-50.781250
3901,-50.781250
3902,-50.781250
3903,-50.781250
3904,-50.781250
3905,-50.781250
3906,-46.875000
3907,-46.875000
3908,-46.875000
3909,-46.875000
3910,-46.875000
3911,-46.875000
3912,-46.875000
3913,-46.875000
3914,-46.875000
3915,-46.875000
3916,-46.875000
3917,-46.875000
3918,-46.875000
3919,-46.875000
3920,-46.875000
3921,-46.875000
3922,-42.968750
3923,-46.875000
3924,-42.968750
3925,-42.968750
3926,-42.968750
3927,-42.968750
3928,-42.968750
3929,-42.968750
3930,-42.968750
3931,-42.968750
3932,-42.968750
3933,-42.968750
3934,-42.968750
3935,-42.968750
3936,-42.968750
3937,-42.968750
3938,-42.968750
3939,-42.968750
3940,-42.968750
3941,-42.968750
3942,-42.968750
3943,-39.062500
3944,-39.062500
3945,-39.062500
3946,-39.062500
3947,-39.062500
3948,-39.062500
3949,-39.062500
3950,-39.062500
3951,-39.062500
3952,-39.062500
3953,-39.062500
3954,-39.062500
3955,-39.062500
3956,-39.062500
3957,-39.062500
3958,-39.062500
3959,-39.062500
3960,-35.156250
3961,-35.156250
3962,-35.156250
3963,-35.156250
3964,-35.156250
3965,-35.156250
3966,-35.156250
3967,-35.156250
3968,-35.156250
3969,-35.156250
3970,-35.156250
3971,-35.156250
3972,-35.156250
3973,-35.156250
3974,-35.156250
3975,-31.250000
3976,-31.250000
3977,-35.156250
3978,-31.250000
3979,-31.250000
3980,-31.250000
3981,-31.250000
3982,-31.250000
3983,-31.250000
3984,-31.250000
3985,-31.250000
3986,-31.250000
3987,-31.250000
3988,-31.250000
3989,-31.250000
3990,-31.250000
3991,-27.343750
3992,-27.343750
3993,-27.343750
3994,-27.343750
3995,-27.343750
3996,-27.343750
3997,-27.343750
3998,-27.343750
3999,-27.343750
4000,-27.343750
4001,-27.343750
4002,-27.343750
4003,-27.343750
4004,-27.343750
4005,-27.343750
4006,-23.437500
4007,-23.437500
4008,-23.437500
4009,-23.437500
4010,-23.437500
4011,-23.437500
4012,-23.437500
4013,-23.437500
4014,-23.437500
4015,-23.437500
4016,-23.437500
4017,-23.437500
4018,-23.437500
4019,-23.437500
4020,-19.531250
4021,-19.531250
4022,-19.531250
4023,-19.531250
4024,-19.531250
4025,-19.531250
4026,-19.531250
4027,-19.531250
4028,-19.531250
4029,-19.531250
4030,-19.531250
4031,-19.531250
4032,-15.625000
4033,-19.531250
4034,-15.625000
4035,-15.625000
4036,-15.625000
4037,-15.625000
4038,-15.625000
4039,-15.625000
4040,-15.625000
4041,-15.625000
4042,-15.625000
4043,-15.625000
4044,-15.625000
4045,-15.625000
4046,-11.718750
4047,-11.718750
4048,-11.718750
4049,-11.718750
4050,-11.718750
4051,-11.718750
4052,-11.718750
4053,-11.718750
4054,-11.718750
4055,-11.718750
4056,-7.812500
4057,-11.718750
4058,-7.812500
4059,-7.812500
4060,-7.812500
4061,-7.812500
4062,-7.812500
4063,-7.812500
4064,-7.812500
4065,-7.812500
4066,-7.812500
4067,-7.812500
4068,-7.812500
4069,-7.812500
4070,-7.812500
4071,-3.906250
4072,-3.906250
4073,-3.906250
4074,-3.906250
4075,-3.906250
4076,-3.906250
4077,-3.906250
4078,-3.906250
4079,-3.906250
4080,-3.906250
4081,-3.906250
4082,-3.906250
4083,-3.906250
4084,0.000000
4085,-3.906250
4086,-3.906250
4087,0.000000
4088,0.000000
4089,0.000000
4090,0.000000
4091,0.000000
4092,0.000000
4093,0.000000
4094,0.000000
4095,0.000000
4096,0.000000
4097,3.906250
4098,0.000000
4099,0.000000
4100,0.000000
4101,0.000000
4102,3.906250
4103,3.906250
4104,3.906250
4105,3.906250
4106,3.906250
4107,3.906250
4108,3.906250
4109,3.906250
4110,3.906250
4111,3.906250
4112,3.906250
4113,3.906250
4114,3.906250
4115,3.906250
4116,3.906250
4117,3.906250
4118,3.906250
4119,7.812500
4120,7.812500
4121,7.812500
4122,7.812500
4123,7.812500
4124,7.812500
4125,7.812500
4126,7.812500
4127,7.812500
4128,7.812500
4129,7.812500
4130,7.812500
4131,11.718750
4132,7.812500
4133,11.718750
4134,11.718750
4135,11.718750
4136,11.718750
4137,11.718750
4138,11.718750
4139,11.718750
4140,11.718750
4141,11.718750
4142,11.718750
4143,11.718750
4144,11.718750
4145,11.718750
4146,11.718750
4147,11.718750
4148,11.718750
4149,11.718750
4150,15.625000
4151,15.625000
4152,15.625000
4153,15.625000
4154,15.625000
4155,15.625000
4156,15.625000
4157,15.625000
4158,15.625000
4159,15.625000
4160,15.625000
4161,15.625000
4162,15.625000
4163,15.625000
4164,15.625000
4165,15.625000
4166,15.625000
4167,15.625000
4168,15.625000
4169,15.625000
4170,15.625000
4171,15.625000
4172,19.531250
4173,19.531250
4174,19.531250
4175,19.531250
4176,19.531250
4177,19.531250
4178,19.531250
4179,19.531250
4180,19.531250
4181,19.531250
4182,19.531250
4183,19.531250
4184,19.531250
4185,19.531250
4186,19.531250
4187,19.531250
4188,19.531250
4189,19.531250
4190,19.531250
4191,19.531250
4192,23.437500
4193,19.531250
4194,23.437500
4195,23.437500
4196,23.437500
4197,23.437500
4198,19.531250
4199,23.437500
4200,23.437500
4201,23.437500
4202,23.437500
4203,23.437500
4204,23.437500
4205,23.437500
4206,23.437500
4207,23.437500
4208,23.437500
4209,23.437500
4210,23.437500
4211,23.437500
4212,23.437500
4213,23.437500
4214,23.437500
4215,23.437500
4216,23.437500
4217,23.437500
4218,23.437500
4219,23.437500
4220,23.437500
4221,23.437500
4222,23.437500
4223,23.437500
4224,23.437500
4225,23.437500
4226,23.437500
4227,23.437500
4228,27.343750
4229,23.437500
4230,23.437500
4231,23.437500
4232,23.437500
4233,23.437500
4234,27.343750
4235,27.343750
4236,27.343750
4237,27.343750
4238,23.437500
4239,27.343750
4240,27.343750
4241,27.343750
4242,27.343750
4243,27.343750
4244,27.343750
4245,27.343750
4246,27.343750
4247,27.343750
4248,27.343750
4249,27.343750
4250,27.343750
4251,27.343750
4252,27.343750
4253,27.343750
4254,27.343750
4255,27.343750
4256,27.343750
4257,27.343750
4258,27.343750
4259,27.343750
4260,27.343750
4261,27.343750
4262,27.343750
4263,27.343750
4264,27.343750
4265,27.343750
4266,27.343750
4267,27.343750
4268,27.343750
4269,27.343750
4270,27.343750
4271,27.343750
4272,27.343750
4273,27.343750
4274,27.343750
4275,27.343750
4276,27.343750
4277,27.343750
4278,27.343750
4279,27.343750
4280,27.343750
4281,27.343750
4282,27.343750
4283,27.343750
4284,27.343750
4285,27.343750
4286,27.343750
4287,27.343750
4288,27.343750
4289,27.343750
4290,27.343750
4291,27.343750
4292,27.343750
4293,27.343750
4294,27.343750
4295,27.343750
4296,27.343750
4297,27.343750
4298,27.343750
4299,27.343750
4300,27.343750
4301,27.343750
4302,27.343750
4303,27.343750
4304,27.343750
4305,27.343750
4306,27.343750
4307,27.343750
4308,27.343750
4309,27.343750
4310,27.343750
4311,27.343750
4312,27.343750
4313,27.343750
4314,27.343750
4315,27.343750
4316,27.343750
4317,27.343750
4318,27.343750
4319,27.343750
4320,27.343750
4321,27.343750
4322,27.343750
4323,27.343750
4324,27.343750
4325,27.343750
4326,27.343750
4327,27.343750
4328,27.343750
4329,27.343750
4330,27.343750
4331,27.343750
4332,27.343750
4333,27.343750
4334,23.437500
4335,27.343750
4336,27.343750
4337,27.343750
4338,27.343750
4339,23.437500
4340,23.437500
4341,23.437500
4342,23.437500
4343,23.437500
4344,23.437500
4345,23.437500
4346,23.437500
4347,23.437500
4348,23.437500
4349,23.437500
4350,23.437500
4351,23.437500
4352,23.437500
4353,23.437500
4354,23.437500
4355,23.437500
4356,23.437500
4357,23.437500
4358,23.437500
4359,23.437500
4360,23.437500
4361,23.437500
4362,23.437500
4363,23.437500
4364,23.437500
4365,23.437500
4366,23.437500
4367,23.437500
4368,23.437500
4369,23.437500
4370,19.531250
4371,19.531250
4372,19.531250
4373,19.531250
4374,23.437500
4375,19.531250
4376,19.531250
4377,19.531250
4378,19.531250
4379,19.531250
4380,19.531250
4381,19.531250
4382,19.531250
4383,19.531250
4384,19.531250
4385,19.531250
4386,19.531250
4387,19.531250
4388,19.531250
4389,19.531250
4390,19.531250
4391,19.531250
4392,19.531250
4393,19.531250
4394,19.531250
4395,19.531250
4396,19.531250
4397,19.531250
4398,15.625000
4399,15.625000
4400,15.625000
4401,15.625000
4402,15.625000
4403,15.625000
4404,15.625000
4405,15.625000
4406,15.625000
4407,15.625000
4408,15.625000
4409,15.625000
4410,15.625000
4411,15.625000
4412,15.625000
4413,15.625000
4414,15.625000
4415,15.625000
4416,15.625000
4417,15.625000
4418,15.625000
4419,15.625000
4420,15.625000
4421,15.625000
4422,15.625000
4423,11.718750
4424,11.718750
4425,11.718750
4426,11.718750
4427,11.718750
4428,11.718750
4429,11.718750
4430,11.718750
4431,11.718750
4432,11.718750
4433,11.718750
4434,11.718750
4435,11.718750
4436,11.718750
4437,11.718750
4438,11.718750
4439,11.718750
4440,11.718750
4441,11.718750
4442,7.812500
4443,7.812500
4444,7.812500
4445,11.718750
4446,7.812500
4447,7.812500
4448,7.812500
4449,7.812500
4450,7.812500
4451,7.812500
4452,7.812500
4453,7.812500
4454,7.812500
4455,7.812500
4456,7.812500
4457,7.812500
4458,7.812500
4459,7.812500
4460,3.906250
4461,3.906250
4462,7.812500
4463,3.906250
4464,3.906250
4465,3.906250
4466,3.906250
4467,3.906250
4468,3.906250
4469,3.906250
4470,3.906250
4471,3.906250
4472,3.906250
4473,3.906250
4474,3.906250
4475,3.906250
4476,3.906250
4477,3.906250
4478,3.906250
4479,0.000000
4480,0.000000
4481,0.000000
4482,0.000000
4483,0.000000
4484,0.000000
4485,0.000000
4486,0.000000
4487,0.000000
4488,0.000000
4489,0.000000
4490,0.000000
4491,0.000000
4492,0.000000
4493,0.000000
4494,0.000000
4495,0.000000
4496,-3.906250
4497,-3.906250
4498,-3.906250
4499,-3.906250
4500,-3.906250
4501,-3.906250
4502,-3.906250
4503,-3.906250
4504,-3.906250
4505,-3.906250
4506,-3.906250
4507,-3.906250
4508,-3.906250
4509,-7.812500
4510,-3.906250
4511,-3.906250
4512,-7.812500
4513,-7.812500
4514,-7.812500
4515,-7.812500
4516,-7.812500
4517,-7.812500
4518,-7.812500
4519,-7.812500
4520,-7.812500
4521,-7.812500
4522,-7.812500
4523,-7.812500
4524,-7.812500
4525,-7.812500
4526,-11.718750
4527,-11.718750
4528,-11.718750
4529,-11.718750
4530,-11.718750
4531,-11.718750
4532,-11.718750
4533,-11.718750
4534,-11.718750
4535,-11.718750
4536,-11.718750
4537,-11.718750
4538,-11.718750
4539,-11.718750
4540,-11.718750
4541,-11.718750
4542,-11.718750
4543,-11.718750
4544,-15.625000
4545,-15.625000
4546,-15.625000
4547,-15.625000
4548,-15.625000
4549,-15.625000
4550,-15.625000
4551,-15.625000
4552,-15.625000
4553,-15.625000
4554,-15.625000
4555,-15.625000
4556,-15.625000
4557,-19.531250
4558,-19.531250
4559,-19.531250
4560,-19.531250
4561,-19.531250
4562,-19.531250
4563,-19.531250
4564,-19.531250
4565,-19.531250
4566,-19.531250
4567,-19.531250
4568,-19.531250
4569,-19.531250
4570,-19.531250
4571,-19.531250
4572,-23.437500
4573,-23.437500
4574,-23.437500
4575,-23.437500
4576,-23.437500
4577,-23.437500
4578,-23.437500
4579,-23.437500
4580,-23.437500
4581,-23.437500
4582,-23.437500
4583,-23.437500
4584,-23.437500
4585,-23.437500
4586,-27.343750
4587,-23.437500
4588,-27.343750
4589,-27.343750
4590,-27.343750
4591,-27.343750
4592,-27.343750
4593,-27.343750
4594,-27.343750
4595,-27.343750
4596,-27.343750
4597,-27.343750
4598,-27.343750
4599,-27.343750
4600,-27.343750
4601,-31.250000
4602,-27.343750
4603,-31.250000
4604,-31.250000
4605,-31.250000
4606,-31.250000
4607,-31.250000
4608,-31.250000
4609,-31.250000
4610,-31.250000
4611,-31.250000
4612,-31.250000
4613,-31.250000
4614,-31.250000
4615,-31.250000
4616,-31.250000
4617,-35.156250
4618,-35.156250
4619,-35.156250
4620,-35.156250
4621,-35.156250
4622,-35.156250
4623,-35.156250
4624,-35.156250
4625,-35.156250
4626,-35.156250
4627,-39.062500
4628,-35.156250
4629,-35.156250
4630,-35.156250
4631,-35.156250
4632,-39.062500
4633,-39.062500
4634,-35.156250
4635,-39.062500
4636,-39.062500
4637,-39.062500
4638,-39.062500
4639,-39.062500
4640,-39.062500
4641,-39.062500
4642,-39.062500
4643,-39.062500
4644,-39.062500
4645,-39.062500
4646,-39.062500
4647,-42.968750
4648,-39.062500
4649,-42.968750
4650,-39.062500
4651,-42.968750
4652,-42.968750
4653,-42.968750
4654,-42.968750
4655,-42.968750
4656,-42.968750
4657,-42.968750
4658,-42.968750
4659,-42.968750
4660,-42.968750
4661,-42.968750
4662,-42.968750
4663,-42.968750
4664,-42.968750
4665,-42.968750
4666,-42.968750
4667,-46.875000
4668,-46.875000
4669,-46.875000
4670,-46.875000
4671,-46.875000
4672,-46.875000
4673,-46.875000
4674,-46.875000
4675,-46.875000
4676,-46.875000
4677,-46.875000
4678,-46.875000
4679,-46.875000
4680,-46.875000
4681,-46.875000
4682,-46.875000
4683,-46.875000
4684,-46.875000
4685,-46.875000
4686,-46.875000
4687,-46.875000
4688,-50.781250
4689,-46.875000
4690,-46.875000
4691,-50.781250
4692,-50.781250
4693,-50.781250
4694,-50.781250
4695,-50.781250
4696,-50.781250
4697,-50.781250
4698,-50.781250
4699,-50.781250
4700,-50.781250
4701,-50.781250
4702,-50.781250
4703,-50.781250
4704,-50.781250
4705,-50.781250
4706,-50.781250
4707,-50.781250
4708,-50.781250
4709,-50.781250
4710,-50.781250
4711,-54.687500
4712,-50.781250
4713,-50.781250
4714,-50.781250
4715,-54.687500
4716,-54.687500
4717,-54.687500
4718,-54.687500
4719,-54.687500
4720,-54.687500
4721,-54.687500
4722,-54.687500
4723,-54.687500
4724,-54.687500
4725,-54.687500
4726,-54.687500
4727,-54.687500
4728,-54.687500
4729,-54.687500
4730,-54.687500
4731,-54.687500
4732,-54.687500
4733,-54.687500
4734,-54.687500
4735,-54.687500
4736,-54.687500
4737,-54.687500
4738,-54.687500
4739,-54.687500
4740,-54.687500
4741,-54.687500
4742,-54.687500
4743,-54.687500
4744,-54.687500
4745,-54.687500
4746,-58.593750
4747,-54.687500
4748,-58.593750
4749,-58.593750
4750,-54.687500
4751,-54.687500
4752,-54.687500
4753,-58.593750
4754,-54.687500
4755,-58.593750
4756,-58.593750
4757,-58.593750
4758,-58.593750
4759,-58.593750
4760,-58.593750
4761,-58.593750
4762,-58.593750
4763,-58.593750
4764,-58.593750
4765,-58.593750
4766,-58.593750
4767,-58.593750
4768,-58.593750
4769,-58.593750
4770,-58.593750
4771,-58.593750
4772,-58.593750
4773,-58.593750
4774,-58.593750
4775,-58.593750
4776,-58.593750
4777,-58.593750
4778,-58.593750
4779,-58.593750
4780,-58.593750
4781,-58.593750
4782,-58.593750
4783,-58.593750
4784,-58.593750
4785,-58.593750
4786,-58.593750
4787,-58.593750
4788,-58.593750
4789,-58.593750
4790,-58.593750
4791,-58.593750
4792,-58.593750
4793,-58.593750
4794,-58.593750
4795,-58.593750
4796,-58.593750
4797,-58.593750
4798,-58.593750
4799,-58.593750
4800,-58.593750
4801,-58.593750
4802,-58.593750
4803,-58.593750
4804,-58.593750
4805,-58.593750
4806,-58.593750
4807,-58.593750
4808,-58.593750
4809,-58.593750
4810,-58.593750
4811,-58.593750
4812,-58.593750
4813,-58.593750
4814,-58.593750
4815,-58.593750
4816,-58.593750
4817,-58.593750
4818,-58.593750
4819,-58.593750
4820,-58.593750
4821,-58.593750
4822,-54.687500
4823,-58.593750
4824,-58.593750
4825,-58.593750
4826,-58.593750
4827,-58.593750
4828,-58.593750
4829,-58.593750
4830,-58.593750
4831,-54.687500
4832,-54.687500
4833,-54.687500
4834,-54.687500
4835,-54.687500
4836,-54.687500
4837,-54.687500
4838,-54.687500
4839,-54.687500
4840,-54.687500
4841,-54.687500
4842,-54.687500
4843,-54.687500
4844,-54.687500
4845,-54.687500
4846,-54.687500
4847,-54.687500
4848,-54.687500
4849,-54.687500
4850,-54.687500
4851,-54.687500
4852,-54.687500
4853,-54.687500
4854,-54.687500
4855,-54.687500
4856,-54.687500
4857,-54.687500
4858,-54.687500
4859,-54.687500
4860,-54.687500
4861,-54.687500
4862,-54.687500
4863,-54.687500
4864,-50.781250
4865,-54.687500
4866,-54.687500
4867,-54.687500
4868,-54.687500
4869,-54.687500
4870,-50.781250
4871,-50.781250
4872,-50.781250
4873,-50.781250
4874,-50.781250
4875,-50.781250
4876,-50.781250
4877,-50.781250
4878,-50.781250
4879,-50.781250
4880,-50.781250
4881,-50.781250
4882,-50.781250
4883,-50.781250
4884,-50.781250
4885,-50.781250
4886,-50.781250
4887,-50.781250
4888,-50.781250
4889,-50.781250
4890,-50.781250
4891,-50.781250
4892,-50.781250
4893,-50.781250
4894,-46.875000
4895,-46.875000
4896,-46.875000
4897,-46.875000
4898,-46.875000
4899,-46.875000
4900,-46.875000
4901,-46.875000
4902,-46.875000
4903,-46.875000
4904,-46.875000
4905,-46.875000
4906,-46.875000
4907,-46.875000
4908,-46.875000
4909,-46.875000
4910,-46.875000
4911,-46.875000
4912,-46.875000
4913,-46.875000
4914,-46.875000
4915,-46.875000
4916,-46.875000
4917,-46.875000
4918,-42.968750
4919,-42.968750
4920,-42.968750
4921,-42.968750
4922,-42.968750
4923,-42.968750
4924,-42.968750
4925,-42.968750
4926,-42.968750
4927,-42.968750
4928,-42.968750
4929,-42.968750
4930,-42.968750
4931,-42.968750
4932,-42.968750
4933,-42.968750
4934,-39.062500
4935,-42.968750
4936,-39.062500
4937,-39.062500
4938,-39.062500
4939,-39.062500
4940,-39.062500
4941,-39.062500
4942,-39.062500
4943,-39.062500
4944,-39.062500
4945,-39.062500
4946,-39.062500
4947,-35.156250
4948,-35.156250
4949,-35.156250
4950,-35.156250
4951,-35.156250
4952,-35.156250
4953,-35.156250
4954,-35.156250
4955,-35.156250
4956,-35.156250
4957,-35.156250
4958,-35.156250
4959,-35.156250
4960,-35.156250
4961,-35.156250
4962,-35.156250
4963,-31.250000
4964,-31.250000
4965,-31.250000
4966,-31.250000
4967,-31.250000
4968,-31.250000
4969,-31.250000
4970,-31.250000
4971,-31.250000
4972,-31.250000
4973,-31.250000
4974,-31.250000
4975,-31.250000
4976,-27.343750
4977,-27.343750
4978,-27.343750
4979,-27.343750
4980,-27.343750
4981,-27.343750
4982,-27.343750
4983,-27.343750
4984,-27.343750
4985,-27.343750
4986,-23.437500
4987,-27.343750
4988,-27.343750
4989,-27.343750
4990,-27.343750
4991,-27.343750
4992,-27.343750
4993,-23.437500
4994,-23.437500
4995,-23.437500
4996,-23.437500
4997,-23.437500
4998,-23.437500
4999,-23.437500
5000,-23.437500
5001,-23.437500
5002,-23.437500
5003,-23.437500
5004,-23.437500
5005,-23.437500
5006,-23.437500
5007,-23.437500
5008,-23.437500
5009,-19.531250
5010,-15.625000
5011,-19.531250
5012,-19.531250
5013,-19.531250
5014,-19.531250
5015,-19.531250
5016,-19.531250
5017,-19.531250
5018,-19.531250
5019,-19.531250
5020,-15.625000
5021,-15.625000
5022,-15.625000
5023,-15.625000
5024,-15.625000
5025,-15.625000
5026,-15.625000
5027,-15.625000
5028,-15.625000
5029,-15.625000
5030,-15.625000
5031,-15.625000
5032,-15.625000
5033,-15.625000
5034,-15.625000
5035,-15.625000
5036,-11.718750
5037,-15.625000
5038,-11.718750
5039,-11.718750
5040,-11.718750
5041,-11.718750
5042,-11.718750
5043,-11.718750
5044,-11.718750
5045,-11.718750
5046,-11.718750
5047,-11.718750
5048,-11.718750
5049,-11.718750
5050,-11.718750
5051,-11.718750
5052,-7.812500
5053,-7.812500
5054,-7.812500
5055,-7.812500
5056,-7.812500
5057,-7.812500
5058,-7.812500
5059,-7.812500
5060,-7.812500
5061,-7.812500
5062,-7.812500
5063,-7.812500
5064,-3.906250
5065,-3.906250
5066,-3.906250
5067,-3.906250
5068,-3.906250
5069,-3.906250
5070,-3.906250
5071,-3.906250
5072,-3.906250
5073,-3.906250
5074,-3.906250
5075,-3.906250
5076,-3.906250
5077,-3.906250
5078,-3.906250
5079,-3.906250
5080,0.000000
5081,0.000000
5082,0.000000
5083,0.000000
5084,0.000000
5085,0.000000
5086,0.000000
5087,0.000000
5088,0.000000
5089,0.000000
5090,0.000000
5091,0.000000
5092,3.906250
5093,3.906250
5094,3.906250
5095,3.906250
5096,3.906250
5097,3.906250
5098,3.906250
5099,3.906250
5100,3.906250
5101,3.906250
5102,3.906250
5103,3.906250
5104,3.906250
5105,3.906250
5106,7.812500
5107,7.812500
5108,7.812500
5109,7.812500
5110,7.812500
5111,7.812500
5112,7.812500
5113,7.812500
5114,7.812500
5115,7.812500
5116,7.812500
5117,7.812500
5118,7.812500
5119,7.812500
5120,7.812500
5121,7.812500
5122,7.812500
5123,11.718750
5124,11.718750
5125,11.718750
5126,11.718750
5127,11.718750
5128,11.718750
5129,11.718750
5130,11.718750
5131,11.718750
5132,11.718750
5133,11.718750
5134,11.718750
5135,11.718750
5136,11.718750
5137,11.718750
5138,11.718750
5139,11.718750
5140,15.625000
5141,15.625000
5142,15.625000
5143,11.718750
5144,15.625000
5145,15.625000
5146,15.625000
5147,15.625000
5148,15.625000
5149,15.625000
5150,15.625000
5151,15.625000
5152,15.625000
5153,15.625000
5154,15.625000
5155,15.625000
5156,15.625000
5157,15.625000
5158,15.625000
5159,15.625000
5160,15.625000
5161,15.625000
5162,19.531250
5163,19.531250
5164,19.531250
5165,19.531250
5166,19.531250
5167,19.531250
5168,19.531250
5169,19.531250
5170,19.531250
5171,19.531250
5172,19.531250
5173,19.531250
5174,19.531250
5175,19.531250
5176,19.531250
5177,19.531250
5178,19.531250
5179,19.531250
5180,19.531250
5181,23.437500
5182,19.531250
5183,19.531250
5184,19.531250
5185,23.437500
5186,23.437500
5187,23.437500
5188,23.437500
5189,19.531250
5190,23.437500
5191,23.437500
5192,23.437500
5193,23.437500
5194,23.437500
5195,23.437500
5196,23.437500
5197,23.437500
5198,23.437500
5199,23.437500
5200,23.437500
5201,23.437500
5202,23.437500
5203,23.437500
5204,23.437500
5205,23.437500
5206,23.437500
5207,23.437500
5208,23.437500
5209,23.437500
5210,23.437500
5211,23.437500
5212,27.343750
5213,23.437500
5214,23.437500
5215,27.343750
5216,23.437500
5217,27.343750
5218,27.343750
5219,23.437500
5220,27.343750
5221,27.343750
5222,27.343750
5223,27.343750
5224,27.343750
5225,27.343750
5226,27.343750
5227,27.343750
5228,27.343750
5229,27.343750
5230,27.343750
5231,27.343750
5232,27.343750
5233,27.343750
5234,27.343750
5235,27.343750
5236,27.343750
5237,27.343750
5238,27.343750
5239,27.343750
5240,27.343750
5241,27.343750
5242,27.343750
5243,27.343750
5244,27.343750
5245,27.343750
5246,27.343750
5247,27.343750
5248,27.343750
5249,31.250000
5250,27.343750
5251,27.343750
5252,27.343750
5253,27.343750
5254,27.343750
5255,27.343750
5256,27.343750
5257,27.343750
5258,27.343750
5259,27.343750
5260,27.343750
5261,27.343750
5262,27.343750
5263,27.343750
5264,27.343750
5265,27.343750
5266,27.343750
5267,27.343750
5268,27.343750
5269,27.343750
5270,27.343750
5271,27.343750
5272,27.343750
5273,27.343750
5274,27.343750
5275,27.343750
5276,27.343750
5277,27.343750
5278,27.343750
5279,27.343750
5280,27.343750
5281,27.343750
5282,27.343750
5283,27.343750
5284,27.343750
5285,27.343750
5286,27.343750
5287,27.343750
5288,23.437500
5289,27.343750
5290,27.343750
5291,27.343750
5292,27.343750
5293,27.343750
5294,27.343750
5295,23.437500
5296,27.343750
5297,27.343750
5298,27.343750
5299,27.343750
5300,27.343750
5301,27.343750
5302,27.343750
5303,27.343750
5304,27.343750
5305,27.343750
5306,23.437500
5307,27.343750
5308,27.343750
5309,27.343750
5310,27.343750
5311,27.343750
5312,27.343750
5313,27.343750
5314,27.343750
5315,27.343750
5316,27.343750
5317,23.437500
5318,27.343750
5319,27.343750
5320,31.250000
5321,27.343750
5322,23.437500
5323,23.437500
5324,27.343750
5325,23.437500
5326,27.343750
5327,23.437500
5328,23.437500
5329,23.437500
5330,23.437500
5331,23.437500
5332,23.437500
5333,23.437500
5334,23.437500
5335,23.437500
5336,23.437500
5337,23.437500
5338,23.437500
5339,23.437500
5340,23.437500
5341,23.437500
5342,23.437500
5343,23.437500
5344,23.437500
5345,23.437500
5346,23.437500
5347,23.437500
5348,23.437500
5349,23.437500
5350,23.437500
5351,23.437500
5352,23.437500
5353,23.437500
5354,23.437500
5355,23.437500
5356,23.437500
5357,23.437500
5358,19.531250
5359,23.437500
5360,23.437500
5361,23.437500
5362,23.437500
5363,23.437500
5364,23.437500
5365,19.531250
5366,19.531250
5367,19.531250
5368,19.531250
5369,19.531250
5370,19.531250
5371,19.531250
5372,19.531250
5373,19.531250
5374,19.531250
5375,19.531250
5376,19.531250
5377,19.531250
5378,19.531250
5379,19.531250
5380,19.531250
5381,19.531250
5382,19.531250
5383,19.531250
5384,19.531250
5385,19.531250
5386,19.531250
5387,19.531250
5388,19.531250
5389,19.531250
5390,19.531250
5391,15.625000
5392,15.625000
5393,15.625000
5394,15.625000
5395,15.625000
5396,15.625000
5397,15.625000
5398,15.625000
5399,15.625000
5400,15.625000
5401,15.625000
5402,15.625000
5403,15.625000
5404,15.625000
5405,15.625000
5406,15.625000
5407,11.718750
5408,15.625000
5409,11.718750
5410,15.625000
5411,15.625000
5412,15.625000
5413,11.718750
5414,11.718750
5415,11.718750
5416,11.718750
5417,11.718750
5418,11.718750
5419,11.718750
5420,11.718750
5421,11.718750
5422,11.718750
5423,11.718750
5424,11.718750
5425,11.718750
5426,11.718750
5427,11.718750
5428,11.718750
5429,11.718750
5430,11.718750
5431,7.812500
5432,7.812500
5433,7.812500
5434,7.812500
5435,7.812500
5436,7.812500
5437,7.812500
5438,7.812500
5439,7.812500
5440,7.812500
5441,7.812500
5442,7.812500
5443,7.812500
5444,7.812500
5445,7.812500
5446,7.812500
5447,7.812500
5448,7.812500
5449,3.906250
5450,7.812500
5451,3.906250
5452,3.906250
5453,3.906250
5454,3.906250
5455,3.906250
5456,3.906250
5457,3.906250
5458,3.906250
5459,3.906250
5460,3.906250
5461,3.906250
5462,3.906250
5463,3.906250
5464,3.906250
5465,3.906250
5466,3.906250
5467,0.000000
5468,0.000000
5469,0.000000
5470,0.000000
5471,0.000000
5472,0.000000
5473,0.000000
5474,0.000000
5475,0.000000
5476,0.000000
5477,0.000000
5478,0.000000
5479,0.000000
5480,0.000000
5481,0.000000
5482,0.000000
5483,0.000000
5484,0.000000
5485,-3.906250
5486,-3.906250
5487,-3.906250
5488,-3.906250
5489,-3.906250
5490,-3.906250
5491,-3.906250
5492,-3.906250
5493,-3.906250
5494,-3.906250
5495,-3.906250
5496,-3.906250
5497,-3.906250
5498,-3.906250
5499,-7.812500
5500,-3.906250
5501,-3.906250
5502,-7.812500
5503,-7.812500
5504,-7.812500
5505,-7.812500
5506,-7.812500
5507,-7.812500
5508,-7.812500
5509,-7.812500
5510,-7.812500
5511,-7.812500
5512,-7.812500
5513,-7.812500
5514,-7.812500
5515,-7.812500
5516,-11.718750
5517,-11.718750
5518,-11.718750
5519,-11.718750
5520,-11.718750
5521,-11.718750
5522,-11.718750
5523,-11.718750
5524,-11.718750
5525,-11.718750
5526,-11.718750
5527,-11.718750
5528,-11.718750
5529,-15.625000
5530,-15.625000
5531,-15.625000
5532,-15.625000
5533,-15.625000
5534,-15.625000
5535,-15.625000
5536,-15.625000
5537,-15.625000
5538,-15.625000
5539,-15.625000
5540,-15.625000
5541,-15.625000
5542,-15.625000
5543,-15.625000
5544,-15.625000
5545,-19.531250
5546,-19.531250
5547,-19.531250
5548,-19.531250
5549,-19.531250
5550,-19.531250
5551,-19.531250
5552,-19.531250
5553,-19.531250
5554,-19.531250
5555,-19.531250
5556,-19.531250
5557,-23.437500
5558,-19.531250
5559,-19.531250
5560,-19.531250
5561,-23.437500
5562,-23.437500
5563,-23.437500
5564,-23.437500
5565,-23.437500
5566,-23.437500
5567,-23.437500
5568,-23.437500
5569,-23.437500
5570,-23.437500
5571,-23.437500
5572,-23.437500
5573,-23.437500
5574,-23.437500
5575,-23.437500
5576,-27.343750
5577,-27.343750
5578,-27.343750
5579,-27.343750
5580,-27.343750
5581,-27.343750
5582,-27.343750
5583,-27.343750
5584,-27.343750
5585,-27.343750
5586,-27.343750
5587,-27.343750
5588,-27.343750
5589,-27.343750
5590,-27.343750
5591,-27.343750
5592,-27.343750
5593,-31.250000
5594,-31.250000
5595,-31.250000
5596,-31.250000
5597,-31.250000
5598,-31.250000
5599,-31.250000
5600,-31.250000
5601,-31.250000
5602,-31.250000
5603,-31.250000
5604,-31.250000
5605,-31.250000
5606,-31.250000
5607,-31.250000
5608,-31.250000
5609,-35.156250
5610,-35.156250
5611,-35.156250
5612,-35.156250
5613,-35.156250
5614,-35.156250
5615,-35.156250
5616,-35.156250
5617,-35.156250
5618,-35.156250
5619,-35.156250
5620,-35.156250
5621,-35.156250
5622,-35.156250
5623,-39.062500
5624,-35.156250
5625,-39.062500
5626,-35.156250
5627,-39.062500
5628,-39.062500
5629,-39.062500
5630,-39.062500
5631,-39.062500
5632,-39.062500
5633,-39.062500
5634,-39.062500
5635,-39.062500
5636,-39.062500
5637,-39.062500
5638,-39.062500
5639,-39.062500
5640,-39.062500
5641,-39.062500
5642,-39.062500
5643,-42.968750
5644,-39.062500
5645,-42.968750
5646,-42.968750
5647,-42.968750
5648,-42.968750
5649,-42.968750
5650,-42.968750
5651,-42.968750
5652,-42.968750
5653,-42.968750
5654,-42.968750
5655,-42.968750
5656,-42.968750
5657,-42.968750
5658,-42.968750
5659,-42.968750
5660,-42.968750
5661,-46.875000
5662,-46.875000
5663,-46.875000
5664,-46.875000
5665,-46.875000
5666,-46.875000
5667,-46.875000
5668,-46.875000
5669,-46.875000
5670,-46.875000
5671,-46.875000
5672,-46.875000
5673,-46.875000
5674,-46.875000
5675,-46.875000
5676,-46.875000
5677,-46.875000
5678,-46.875000
5679,-46.875000
5680,-50.781250
5681,-50.781250
5682,-50.781250
5683,-50.781250
5684,-50.781250
5685,-50.781250
5686,-50.781250
5687,-50.781250
5688,-50.781250
5689,-50.781250
5690,-50.781250
5691,-50.781250
5692,-50.781250
5693,-50.781250
5694,-50.781250
5695,-50.781250
5696,-50.781250
5697,-50.781250
5698,-50.781250
5699,-50.781250
5700,-50.781250
5701,-50.781250
5702,-50.781250
5703,-50.781250
5704,-50.781250
5705,-54.687500
5706,-50.781250
5707,-54.687500
5708,-54.687500
5709,-54.687500
5710,-54.687500
5711,-54.687500
5712,-54.687500
5713,-54.687500
5714,-54.687500
5715,-54.687500
5716,-54.687500
5717,-54.687500
5718,-54.687500
5719,-54.687500
5720,-54.687500
5721,-54.687500
5722,-54.687500
5723,-54.687500
5724,-54.687500
5725,-54.687500
5726,-54.687500
5727,-54.687500
5728,-54.687500
5729,-54.687500
5730,-54.687500
5731,-54.687500
5732,-54.687500
5733,-54.687500
5734,-54.687500
5735,-54.687500
5736,-54.687500
5737,-54.687500
5738,-54.687500
5739,-58.593750
5740,-58.593750
5741,-54.687500
5742,-54.687500
5743,-54.687500
5744,-58.593750
5745,-58.593750
5746,-54.687500
5747,-58.593750
5748,-54.687500
5749,-58.593750
5750,-58.593750
5751,-58.593750
5752,-58.593750
5753,-54.687500
5754,-58.593750
5755,-58.593750
5756,-58.593750
5757,-58.593750
5758,-58.593750
5759,-58.593750
5760,-58.593750
5761,-58.593750
5762,-58.593750
5763,-58.593750
5764,-58.593750
5765,-58.593750
5766,-62.500000
5767,-58.593750
5768,-58.593750
5769,-58.593750
5770,-58.593750
5771,-58.593750
5772,-58.593750
5773,-58.593750
5774,-58.593750
5775,-58.593750
5776,-58.593750
5777,-58.593750
5778,-58.593750
5779,-58.593750
5780,-58.593750
5781,-58.593750
5782,-58.593750
5783,-58.593750
5784,-58.593750
5785,-58.593750
5786,-58.593750
5787,-58.593750
5788,-58.593750
5789,-58.593750
5790,-58.593750
5791,-58.593750
5792,-58.593750
5793,-58.593750
5794,-58.593750
5795,-58.593750
5796,-58.593750
5797,-58.593750
5798,-54.687500
5799,-58.593750
5800,-58.593750
5801,-54.687500
5802,-58.593750
5803,-58.593750
5804,-58.593750
5805,-58.593750
5806,-58.593750
5807,-58.593750
5808,-58.593750
5809,-58.593750
5810,-58.593750
5811,-58.593750
5812,-58.593750
5813,-58.593750
5814,-58.593750
5815,-58.593750
5816,-58.593750
5817,-58.593750
5818,-58.593750
5819,-58.593750
5820,-54.687500
5821,-58.593750
5822,-54.687500
5823,-58.593750
5824,-58.593750
5825,-58.593750
5826,-58.593750
5827,-58.593750
5828,-54.687500
5829,-54.687500
5830,-58.593750
5831,-58.593750
5832,-54.687500
5833,-54.687500
5834,-54.687500
5835,-54.687500
5836,-54.687500
5837,-54.687500
5838,-54.687500
5839,-54.687500
5840,-54.687500
5841,-54.687500
5842,-54.687500
5843,-54.687500
5844,-54.687500
5845,-54.687500
5846,-54.687500
5847,-54.687500
5848,-54.687500
5849,-54.687500
5850,-54.687500
5851,-54.687500
5852,-54.687500
5853,-54.687500
5854,-54.687500
5855,-54.687500
5856,-50.781250
5857,-54.687500
5858,-50.781250
5859,-50.781250
5860,-50.781250
5861,-50.781250
5862,-50.781250
5863,-54.687500
5864,-50.781250
5865,-50.781250
5866,-50.781250
5867,-50.781250
5868,-50.781250
5869,-50.781250
5870,-50.781250
5871,-50.781250
5872,-50.781250
5873,-50.781250
5874,-50.781250
5875,-50.781250
5876,-50.781250
5877,-46.875000
5878,-50.781250
5879,-50.781250
5880,-50.781250
5881,-50.781250
5882,-50.781250
5883,-46.875000
5884,-46.875000
5885,-46.875000
5886,-46.875000
5887,-46.875000
5888,-46.875000
5889,-46.875000
5890,-46.875000
5891,-46.875000
5892,-46.875000
5893,-46.875000
5894,-46.875000
5895,-46.875000
5896,-46.875000
5897,-46.875000
5898,-46.875000
5899,-46.875000
5900,-46.875000
5901,-46.875000
5902,-46.875000
5903,-46.875000
5904,-42.968750
5905,-46.875000
5906,-42.968750
5907,-46.875000
5908,-42.968750
5909,-42.968750
5910,-42.968750
5911,-42.968750
5912,-42.968750
5913,-42.968750
5914,-42.968750
5915,-42.968750
5916,-42.968750
5917,-42.968750
5918,-42.968750
5919,-42.968750
5920,-39.062500
5921,-42.968750
5922,-39.062500
5923,-39.062500
5924,-39.062500
5925,-39.062500
5926,-39.062500
5927,-39.062500
5928,-39.062500
5929,-39.062500
5930,-39.062500
5931,-39.062500
5932,-39.062500
5933,-39.062500
5934,-39.062500
5935,-39.062500
5936,-39.062500
5937,-39.062500
5938,-39.062500
5939,-35.156250
5940,-35.156250
5941,-35.156250
5942,-35.156250
5943,-35.156250
5944,-35.156250
5945,-35.156250
5946,-35.156250
5947,-35.156250
5948,-35.156250
5949,-35.156250
5950,-35.156250
5951,-35.156250
5952,-35.156250
5953,-31.250000
5954,-31.250000
5955,-31.250000
5956,-31.250000
5957,-31.250000
5958,-31.250000
5959,-31.250000
5960,-31.250000
5961,-31.250000
5962,-31.250000
5963,-31.250000
5964,-31.250000
5965,-31.250000
5966,-31.250000
5967,-31.250000
5968,-27.343750
5969,-27.343750
5970,-27.343750
5971,-27.343750
5972,-27.343750
5973,-27.343750
5974,-27.343750
5975,-27.343750
5976,-27.343750
5977,-27.343750
5978,-23.437500
5979,-27.343750
5980,-27.343750
5981,-27.343750
5982,-23.437500
5983,-23.437500
5984,-23.437500
5985,-23.437500
5986,-23.437500
5987,-23.437500
5988,-23.437500
5989,-23.437500
5990,-23.437500
5991,-23.437500
5992,-19.531250
5993,-23.437500
5994,-19.531250
5995,-19.531250
5996,-19.531250
5997,-19.531250
5998,-19.531250
5999,-19.531250
6000,-19.531250
6001,-19.531250
6002,-19.531250
6003,-19.531250
6004,-19.531250
6005,-19.531250
6006,-19.531250
6007,-15.625000
6008,-15.625000
6009,-15.625000
6010,-15.625000
6011,-15.625000
6012,-15.625000
6013,-15.625000
6014,-15.625000
6015,-15.625000
6016,-15.625000
6017,-15.625000
6018,-15.625000
6019,-15.625000
6020,-11.718750
6021,-15.625000
6022,-11.718750
6023,-11.718750
6024,-11.718750
6025,-11.718750
6026,-11.718750
6027,-11.718750
6028,-11.718750
6029,-11.718750
6030,-11.718750
6031,-11.718750
6032,-11.718750
6033,-11.718750
6034,-11.718750
6035,-7.812500
6036,-7.812500
6037,-7.812500
6038,-7.812500
6039,-7.812500
6040,-7.812500
6041,-7.812500
6042,-7.812500
6043,-7.812500
6044,-7.812500
6045,-7.812500
6046,-7.812500
6047,-7.812500
6048,-3.906250
6049,-3.906250
6050,-3.906250
6051,-3.906250
6052,-3.906250
6053,-3.906250
6054,-3.906250
6055,-3.906250
6056,-3.906250
6057,-3.906250
6058,-3.906250
6059,-3.906250
6060,-3.906250
6061,-3.906250
6062,-3.906250
6063,0.000000
6064,0.000000
6065,0.000000
6066,0.000000
6067,0.000000
6068,0.000000
6069,0.000000
6070,0.000000
6071,0.000000
6072,0.000000
6073,0.000000
6074,0.000000
6075,0.000000
6076,0.000000
6077,0.000000
6078,0.000000
6079,3.906250
6080,3.906250
6081,3.906250
6082,0.000000
6083,3.906250
6084,3.906250
6085,0.000000
6086,3.906250
6087,3.906250
6088,3.906250
6089,3.906250
6090,3.906250
6091,3.906250
6092,3.906250
6093,7.812500
6094,3.906250
6095,7.812500
6096,7.812500
6097,7.812500
6098,3.906250
6099,7.812500
6100,7.812500
6101,7.812500
6102,7.812500
6103,7.812500
6104,7.812500
6105,7.812500
6106,7.812500
6107,7.812500
6108,7.812500
6109,7.812500
6110,11.718750
6111,7.812500
6112,11.718750
6113,11.718750
6114,11.718750
6115,11.718750
6116,11.718750
6117,11.718750
6118,11.718750
6119,11.718750
6120,11.718750
6121,11.718750
6122,11.718750
6123,11.718750
6124,11.718750
6125,11.718750
6126,11.718750
6127,11.718750
6128,15.625000
6129,15.625000
6130,15.625000
6131,15.625000
6132,15.625000
6133,15.625000
6134,15.625000
6135,15.625000
6136,15.625000
6137,15.625000
6138,15.625000
6139,15.625000
6140,15.625000
6141,15.625000
6142,15.625000
6143,15.625000
6144,15.625000
6145,15.625000
6146,15.625000
6147,19.531250
6148,19.531250
6149,19.531250
6150,19.531250
6151,19.531250
6152,19.531250
6153,19.531250
6154,19.531250
6155,19.531250
6156,19.531250
6157,19.531250
6158,19.531250
6159,19.531250
6160,19.531250
6161,19.531250
6162,19.531250
6163,19.531250
6164,19.531250
6165,19.531250
6166,19.531250
6167,19.531250
6168,19.531250
6169,19.531250
6170,19.531250
6171,23.437500
6172,23.437500
6173,23.437500
6174,23.437500
6175,23.437500
6176,23.437500
6177,23.437500
6178,23.437500
6179,23.437500
6180,23.437500
6181,23.437500
6182,23.437500
6183,23.437500
6184,23.437500
6185,23.437500
6186,23.437500
6187,23.437500
6188,23.437500
6189,23.437500
6190,23.437500
6191,23.437500
6192,23.437500
6193,23.437500
6194,23.437500
6195,23.437500
6196,23.437500
6197,23.437500
6198,23.437500
6199,23.437500
6200,23.437500
6201,27.343750
6202,23.437500
6203,23.437500
6204,23.437500
6205,27.343750
6206,23.437500
6207,23.437500
6208,27.343750
6209,27.343750
6210,27.343750
6211,27.343750
6212,27.343750
6213,27.343750
6214,27.343750
6215,27.343750
6216,27.343750
6217,27.343750
6218,27.343750
6219,27.343750
6220,27.343750
6221,27.343750
6222,27.343750
6223,27.343750
6224,27.343750
6225,27.343750
6226,27.343750
6227,27.343750
6228,27.343750
6229,27.343750
6230,27.343750
6231,27.343750
6232,27.343750
6233,27.343750
6234,27.343750
6235,27.343750
6236,27.343750
6237,27.343750
6238,27.343750
6239,27.343750
6240,27.343750
6241,27.343750
6242,27.343750
6243,27.343750
6244,27.343750
6245,27.343750
6246,27.343750
6247,27.343750
6248,27.343750
6249,27.343750
6250,27.343750
6251,27.343750
6252,27.343750
6253,27.343750
6254,27.343750
6255,27.343750
6256,27.343750
6257,27.343750
6258,27.343750
6259,27.343750
6260,27.343750
6261,27.343750
6262,27.343750
6263,27.343750
6264,27.343750
6265,27.343750
6266,27.343750
6267,27.343750
6268,27.343750
6269,27.343750
6270,27.343750
6271,27.343750
6272,31.250000
6273,27.343750
6274,27.343750
6275,27.343750
6276,27.343750
6277,31.250000
6278,27.343750
6279,27.343750
6280,27.343750
6281,27.343750
6282,27.343750
6283,27.343750
6284,27.343750
6285,27.343750
6286,27.343750
6287,27.343750
6288,27.343750
6289,27.343750
6290,27.343750
6291,27.343750
6292,27.343750
6293,27.343750
6294,27.343750
6295,27.343750
6296,27.343750
6297,27.343750
6298,27.343750
6299,27.343750
6300,27.343750
6301,27.343750
6302,27.343750
6303,27.343750
6304,27.343750
6305,27.343750
6306,27.343750
6307,27.343750
6308,27.343750
6309,27.343750
6310,27.343750
6311,27.343750
6312,27.343750
6313,27.343750
6314,27.343750
6315,27.343750
6316,27.343750
6317,23.437500
6318,23.437500
6319,27.343750
6320,27.343750
6321,27.343750
6322,23.437500
6323,23.437500
6324,23.437500
6325,23.437500
6326,23.437500
6327,23.437500
6328,23.437500
6329,23.437500
6330,23.437500
6331,23.437500
6332,23.437500
6333,23.437500
6334,23.437500
6335,23.437500
6336,23.437500
6337,23.437500
6338,23.437500
6339,23.437500
6340,23.437500
6341,23.437500
6342,23.437500
6343,23.437500
6344,23.437500
6345,23.437500
6346,23.437500
6347,23.437500
6348,23.437500
6349,23.437500
6350,23.437500
6351,19.531250
6352,23.437500
6353,23.437500
6354,23.437500
6355,19.531250
6356,23.437500
6357,19.531250
6358,19.531250
6359,19.531250
6360,19.531250
6361,19.531250
6362,19.531250
6363,19.531250
6364,19.531250
6365,19.531250
6366,19.531250
6367,19.531250
6368,19.531250
6369,19.531250
6370,19.531250
6371,19.531250
6372,19.531250
6373,19.531250
6374,19.531250
6375,19.531250
6376,19.531250
6377,19.531250
6378,19.531250
6379,19.531250
6380,19.531250
6381,15.625000
6382,15.625000
6383,19.531250
6384,15.625000
6385,15.625000
6386,15.625000
6387,15.625000
6388,15.625000
6389,15.625000
6390,15.625000
6391,15.625000
6392,15.625000
6393,15.625000
6394,15.625000
6395,15.625000
6396,15.625000
6397,15.625000
6398,15.625000
6399,15.625000
6400,15.625000
6401,11.718750
6402,15.625000
6403,15.625000
6404,15.625000
6405,11.718750
6406,11.718750
6407,11.718750
6408,11.718750
6409,11.718750
6410,11.718750
6411,11.718750
6412,11.718750
6413,11.718750
6414,11.718750
6415,11.718750
6416,11.718750
6417,11.718750
6418,11.718750
6419,11.718750
6420,7.812500
6421,7.812500
6422,7.812500
6423,7.812500
6424,7.812500
6425,7.812500
6426,7.812500
6427,7.812500
6428,7.812500
6429,7.812500
6430,7.812500
6431,7.812500
6432,7.812500
6433,7.812500
6434,7.812500
6435,7.812500
6436,7.812500
6437,3.906250
6438,7.812500
6439,3.906250
6440,3.906250
6441,3.906250
6442,3.906250
6443,3.906250
6444,3.906250
6445,3.906250
6446,3.906250
6447,3.906250
6448,3.906250
6449,3.906250
6450,3.906250
6451,3.906250
6452,3.906250
6453,3.906250
6454,3.906250
6455,0.000000
6456,3.906250
6457,3.906250
6458,3.906250
6459,0.000000
6460,0.000000
6461,0.000000
6462,0.000000
6463,0.000000
6464,0.000000
6465,0.000000
6466,0.000000
6467,0.000000
6468,0.000000
6469,0.000000
6470,0.000000
6471,0.000000
6472,-3.906250
6473,-3.906250
6474,-3.906250
6475,-3.906250
6476,-3.906250
6477,-3.906250
6478,-3.906250
6479,-3.906250
6480,-3.906250
6481,-3.906250
6482,-3.906250
6483,-3.906250
6484,-3.906250
6485,-3.906250
6486,-3.906250
6487,-7.812500
6488,-3.906250
6489,-7.812500
6490,-7.812500
6491,-7.812500
6492,-3.906250
6493,-7.812500
6494,-7.812500
6495,-7.812500
6496,-7.812500
6497,-7.812500
6498,-7.812500
6499,-11.718750
6500,-7.812500
6501,-7.812500
6502,-7.812500
6503,-7.812500
6504,-7.812500
6505,-7.812500
6506,-11.718750
6507,-11.718750
6508,-11.718750
6509,-11.718750
6510,-11.718750
6511,-11.718750
6512,-11.718750
6513,-11.718750
6514,-11.718750
6515,-11.718750
6516,-11.718750
6517,-11.718750
6518,-11.718750
6519,-11.718750
6520,-11.718750
6521,-15.625000
6522,-15.625000
6523,-15.625000
6524,-15.625000
6525,-15.625000
6526,-15.625000
6527,-15.625000
6528,-15.625000
6529,-15.625000
6530,-15.625000
6531,-15.625000
6532,-15.625000
6533,-15.625000
6534,-15.625000
6535,-15.625000
6536,-15.625000
6537,-19.531250
6538,-19.531250
6539,-19.531250
6540,-19.531250
6541,-19.531250
6542,-19.531250
6543,-19.531250
6544,-19.531250
6545,-19.531250
6546,-19.531250
6547,-19.531250
6548,-19.531250
6549,-19.531250
6550,-23.437500
6551,-19.531250
6552,-23.437500
6553,-23.437500
6554,-23.437500
6555,-23.437500
6556,-23.437500
6557,-23.437500
6558,-23.437500
6559,-23.437500
6560,-23.437500
6561,-23.437500
6562,-23.437500
6563,-23.437500
6564,-27.343750
6565,-27.343750
6566,-27.343750
6567,-27.343750
6568,-27.343750
6569,-27.343750
6570,-27.343750
6571,-27.343750
6572,-27.343750
6573,-27.343750
6574,-27.343750
6575,-27.343750
6576,-27.343750
6577,-27.343750
6578,-31.250000
6579,-31.250000
6580,-27.343750
6581,-27.343750
6582,-27.343750
6583,-31.250000
6584,-31.250000
6585,-31.250000
6586,-31.250000
6587,-31.250000
6588,-31.250000
6589,-31.250000
6590,-31.250000
6591,-31.250000
6592,-31.250000
6593,-31.250000
6594,-31.250000
6595,-35.156250
6596,-35.156250
6597,-31.250000
6598,-35.156250
6599,-35.156250
6600,-35.156250
6601,-35.156250
6602,-35.156250
6603,-35.156250
6604,-35.156250
6605,-35.156250
6606,-35.156250
6607,-35.156250
6608,-35.156250
6609,-35.156250
6610,-35.156250
6611,-39.062500
6612,-39.062500
6613,-39.062500
6614,-39.062500
6615,-39.062500
6616,-39.062500
6617,-39.062500
6618,-39.062500
6619,-39.062500
6620,-39.062500
6621,-39.062500
6622,-39.062500
6623,-39.062500
6624,-39.062500
6625,-39.062500
6626,-39.062500
6627,-39.062500
6628,-39.062500
6629,-42.968750
6630,-39.062500
6631,-39.062500
6632,-42.968750
6633,-42.968750
6634,-42.968750
6635,-42.968750
6636,-42.968750
6637,-42.968750
6638,-42.968750
6639,-42.968750
6640,-42.968750
6641,-42.968750
6642,-42.968750
6643,-42.968750
6644,-42.968750
6645,-42.968750
6646,-42.968750
6647,-42.968750
6648,-42.968750
6649,-42.968750
6650,-42.968750
6651,-42.968750
6652,-46.875000
6653,-46.875000
6654,-46.875000
6655,-46.875000
6656,-46.875000
6657,-46.875000
6658,-46.875000
6659,-46.875000
6660,-46.875000
6661,-46.875000
6662,-46.875000
6663,-46.875000
6664,-46.875000
6665,-46.875000
6666,-46.875000
6667,-46.875000
6668,-46.875000
6669,-46.875000
6670,-46.875000
6671,-46.875000
6672,-50.781250
6673,-50.781250
6674,-50.781250
6675,-50.781250
6676,-50.781250
6677,-50.781250
6678,-50.781250
6679,-50.781250
6680,-50.781250
6681,-50.781250
6682,-50.781250
6683,-50.781250
6684,-50.781250
6685,-50.781250
6686,-50.781250
6687,-50.781250
6688,-50.781250
6689,-50.781250
6690,-50.781250
6691,-50.781250
6692,-50.781250
6693,-50.781250
6694,-54.687500
6695,-50.781250
6696,-50.781250
6697,-50.781250
6698,-50.781250
6699,-50.781250
6700,-54.687500
6701,-54.687500
6702,-54.687500
6703,-54.687500
6704,-54.687500
6705,-54.687500
6706,-54.687500
6707,-54.687500
6708,-54.687500
6709,-54.687500
6710,-54.687500
6711,-54.687500
6712,-54.687500
6713,-54.687500
6714,-54.687500
6715,-54.687500
6716,-54.687500
6717,-54.687500
6718,-54.687500
6719,-54.687500
6720,-54.687500
6721,-54.687500
6722,-54.687500
6723,-54.687500
6724,-54.687500
6725,-54.687500
6726,-54.687500
6727,-54.687500
6728,-54.687500
6729,-54.687500
6730,-54.687500
6731,-54.687500
6732,-58.593750
6733,-58.593750
6734,-58.593750
6735,-58.593750
6736,-54.687500
6737,-58.593750
6738,-58.593750
6739,-58.593750
6740,-54.687500
6741,-58.593750
6742,-58.593750
6743,-58.593750
6744,-58.593750
6745,-58.593750
6746,-58.593750
6747,-58.593750
6748,-58.593750
6749,-58.593750
6750,-58.593750
6751,-58.593750
6752,-58.593750
6753,-54.687500
6754,-58.593750
6755,-58.593750
6756,-58.593750
6757,-58.593750
6758,-58.593750
6759,-58.593750
6760,-58.593750
6761,-58.593750
6762,-58.593750
6763,-58.593750
6764,-58.593750
6765,-58.593750
6766,-58.593750
6767,-58.593750
6768,-58.593750
6769,-54.687500
6770,-58.593750
6771,-58.593750
6772,-58.593750
6773,-58.593750
6774,-58.593750
6775,-58.593750
6776,-58.593750
6777,-58.593750
6778,-58.593750
6779,-58.593750
6780,-58.593750
6781,-58.593750
6782,-58.593750
6783,-58.593750
6784,-58.593750
6785,-58.593750
6786,-58.593750
6787,-58.593750
6788,-58.593750
6789,-58.593750
6790,-58.593750
6791,-58.593750
6792,-58.593750
6793,-58.593750
6794,-58.593750
6795,-54.687500
6796,-54.687500
6797,-58.593750
6798,-58.593750
6799,-58.593750
6800,-58.593750
6801,-58.593750
6802,-58.593750
6803,-54.687500
6804,-58.593750
6805,-58.593750
6806,-54.687500
6807,-58.593750
6808,-58.593750
6809,-58.593750
6810,-54.687500
6811,-54.687500
6812,-54.687500
6813,-54.687500
6814,-54.687500
6815,-54.687500
6816,-54.687500
6817,-54.687500
6818,-54.687500
6819,-54.687500
6820,-54.687500
6821,-54.687500
6822,-54.687500
6823,-54.687500
6824,-54.687500
6825,-54.687500
6826,-54.687500
6827,-54.687500
6828,-54.687500
6829,-54.687500
6830,-54.687500
6831,-54.687500
6832,-54.687500
6833,-54.687500
6834,-54.687500
6835,-54.687500
6836,-54.687500
6837,-54.687500
6838,-54.687500
6839,-54.687500
6840,-54.687500
6841,-54.687500
6842,-54.687500
6843,-54.687500
6844,-54.687500
6845,-54.687500
6846,-54.687500
6847,-50.781250
6848,-50.781250
6849,-50.781250
6850,-50.781250
6851,-50.781250
6852,-50.781250
6853,-50.781250
6854,-50.781250
6855,-50.781250
6856,-50.781250
6857,-50.781250
6858,-50.781250
6859,-50.781250
6860,-50.781250
6861,-50.781250
6862,-50.781250
6863,-50.781250
6864,-50.781250
6865,-50.781250
6866,-50.781250
6867,-50.781250
6868,-50.781250
6869,-50.781250
6870,-54.687500
6871,-50.781250
6872,-46.875000
6873,-46.875000
6874,-46.875000
6875,-46.875000
6876,-46.875000
6877,-46.875000
6878,-46.875000
6879,-46.875000
6880,-46.875000
6881,-46.875000
6882,-46.875000
6883,-46.875000
6884,-46.875000
6885,-46.875000
6886,-46.875000
6887,-46.875000
6888,-42.968750
6889,-46.875000
6890,-46.875000
6891,-46.875000
6892,-46.875000
6893,-42.968750
6894,-42.968750
6895,-42.968750
6896,-42.968750
6897,-42.968750
6898,-42.968750
6899,-42.968750
6900,-42.968750
6901,-42.968750
6902,-42.968750
6903,-42.968750
6904,-42.968750
6905,-42.968750
6906,-42.968750
6907,-42.968750
6908,-42.968750
6909,-42.968750
6910,-39.062500
6911,-39.062500
6912,-39.062500
6913,-39.062500
6914,-39.062500
6915,-39.062500
6916,-39.062500
6917,-39.062500
6918,-39.062500
6919,-39.062500
6920,-39.062500
6921,-39.062500
6922,-39.062500
6923,-39.062500
6924,-39.062500
6925,-39.062500
6926,-35.156250
6927,-35.156250
6928,-35.156250
6929,-35.156250
6930,-35.156250
6931,-35.156250
6932,-35.156250
6933,-35.156250
6934,-35.156250
6935,-35.156250
6936,-35.156250
6937,-35.156250
6938,-35.156250
6939,-35.156250
6940,-31.250000
6941,-35.156250
6942,-31.250000
6943,-31.250000
6944,-31.250000
6945,-31.250000
6946,-31.250000
6947,-31.250000
6948,-31.250000
6949,-31.250000
6950,-31.250000
6951,-31.250000
6952,-31.250000
6953,-31.250000
6954,-27.343750
6955,-27.343750
6956,-31.250000
6957,-31.250000
6958,-27.343750
6959,-27.343750
6960,-27.343750
6961,-27.343750
6962,-27.343750
6963,-27.343750
6964,-27.343750
6965,-27.343750
6966,-27.343750
6967,-27.343750
6968,-27.343750
6969,-23.437500
6970,-23.437500
6971,-27.343750
6972,-23.437500
6973,-23.437500
6974,-23.437500
6975,-23.437500
6976,-23.437500
6977,-23.437500
6978,-23.437500
6979,-23.437500
6980,-23.437500
6981,-23.437500
6982,-23.437500
6983,-23.437500
6984,-19.531250
6985,-19.531250
6986,-19.531250
6987,-19.531250
6988,-19.531250
6989,-19.531250
6990,-19.531250
6991,-19.531250
6992,-19.531250
6993,-19.531250
6994,-19.531250
6995,-19.531250
6996,-19.531250
6997,-19.531250
6998,-15.625000
6999,-15.625000
7000,-15.625000
7001,-15.625000
7002,-15.625000
7003,-15.625000
7004,-15.625000
7005,-15.625000
7006,-15.625000
7007,-15.625000
7008,-15.625000
7009,-15.625000
7010,-11.718750
7011,-11.718750
7012,-11.718750
7013,-11.718750
7014,-11.718750
7015,-11.718750
7016,-11.718750
7017,-11.718750
7018,-11.718750
7019,-11.718750
7020,-11.718750
7021,-11.718750
7022,-7.812500
7023,-11.718750
7024,-7.812500
7025,-7.812500
7026,-7.812500
7027,-7.812500
7028,-7.812500
7029,-7.812500
7030,-7.812500
7031,-7.812500
7032,-7.812500
7033,-7.812500
7034,-7.812500
7035,-7.812500
7036,-7.812500
7037,-3.906250
7038,-3.906250
7039,-3.906250
7040,-3.906250
7041,-3.906250
7042,-3.906250
7043,-3.906250
7044,-3.906250
7045,-3.906250
7046,-3.906250
7047,-3.906250
7048,-3.906250
7049,-3.906250
7050,-3.906250
7051,-3.906250
7052,0.000000
7053,-3.906250
7054,0.000000
7055,0.000000
7056,0.000000
7057,0.000000
7058,0.000000
7059,0.000000
7060,0.000000
7061,0.000000
7062,0.000000
7063,0.000000
7064,0.000000
7065,0.000000
7066,3.906250
7067,3.906250
7068,3.906250
7069,3.906250
7070,3.906250
7071,3.906250
7072,3.906250
7073,3.906250
7074,3.906250
7075,3.906250
7076,3.906250
7077,3.906250
7078,3.906250
7079,3.906250
7080,3.906250
7081,7.812500
7082,7.812500
7083,7.812500
7084,7.812500
7085,7.812500
7086,7.812500
7087,7.812500
7088,7.812500
7089,7.812500
7090,7.812500
7091,7.812500
7092,7.812500
7093,7.812500
7094,7.812500
7095,7.812500
7096,7.812500
7097,11.718750
7098,11.718750
7099,11.718750
7100,11.718750
7101,11.718750
7102,11.718750
7103,11.718750
7104,11.718750
7105,11.718750
7106,11.718750
7107,11.718750
7108,11.718750
7109,11.718750
7110,11.718750
7111,11.718750
7112,11.718750
7113,11.718750
7114,11.718750
7115,11.718750
7116,11.718750
7117,15.625000
7118,15.625000
7119,15.625000
7120,15.625000
7121,15.625000
7122,15.625000
7123,15.625000
7124,15.625000
7125,15.625000
7126,15.625000
7127,15.625000
7128,15.625000
7129,15.625000
7130,15.625000
7131,15.625000
7132,15.625000
7133,15.625000
7134,15.625000
7135,15.625000
7136,19.531250
7137,19.531250
7138,19.531250
7139,19.531250
7140,19.531250
7141,19.531250
7142,19.531250
7143,19.531250
7144,19.531250
7145,19.531250
7146,19.531250
7147,19.531250
7148,19.531250
7149,19.531250
7150,19.531250
7151,19.531250
7152,19.531250
7153,19.531250
7154,19.531250
7155,19.531250
7156,19.531250
7157,19.531250
7158,19.531250
7159,19.531250
7160,23.437500
7161,19.531250
7162,23.437500
7163,23.437500
7164,23.437500
7165,23.437500
7166,23.437500
7167,23.437500
7168,23.437500
7169,23.437500
7170,23.437500
7171,23.437500
7172,23.437500
7173,23.437500
7174,23.437500
7175,23.437500
7176,23.437500
7177,23.437500
7178,23.437500
7179,23.437500
7180,23.437500
7181,23.437500
7182,23.437500
7183,23.437500
7184,23.437500
7185,23.437500
7186,23.437500
7187,23.437500
7188,27.343750
7189,23.437500
7190,23.437500
7191,27.343750
7192,23.437500
7193,27.343750
7194,27.343750
7195,27.343750
7196,27.343750
7197,27.343750
7198,27.343750
7199,27.343750
7200,27.343750
7201,27.343750
7202,27.343750
7203,27.343750
7204,27.343750
7205,27.343750
7206,27.343750
7207,27.343750
7208,27.343750
7209,27.343750
7210,27.343750
7211,27.343750
7212,27.343750
7213,27.343750
7214,27.343750
7215,27.343750
7216,27.343750
7217,27.343750
7218,27.343750
7219,27.343750
7220,27.343750
7221,27.343750
7222,27.343750
7223,27.343750
7224,27.343750
7225,27.343750
7226,27.343750
7227,27.343750
7228,27.343750
7229,27.343750
7230,27.343750
7231,27.343750
7232,27.343750
7233,27.343750
7234,27.343750
7235,27.343750
7236,27.343750
7237,27.343750
7238,27.343750
7239,27.343750
7240,27.343750
7241,27.343750
7242,27.343750
7243,27.343750
7244,27.343750
7245,27.343750
7246,27.343750
7247,27.343750
7248,27.343750
7249,27.343750
7250,27.343750
7251,27.343750
7252,27.343750
7253,27.343750
7254,27.343750
7255,27.343750
7256,27.343750
7257,27.343750
7258,27.343750
7259,27.343750
7260,27.343750
7261,27.343750
7262,27.343750
7263,27.343750
7264,27.343750
7265,27.343750
7266,27.343750
7267,27.343750
7268,27.343750
7269,27.343750
7270,27.343750
7271,27.343750
7272,27.343750
7273,27.343750
7274,27.343750
7275,27.343750
7276,27.343750
7277,27.343750
7278,27.343750
7279,27.343750
7280,27.343750
7281,27.343750
7282,27.343750
7283,27.343750
7284,27.343750
7285,27.343750
7286,27.343750
7287,27.343750
7288,27.343750
7289,27.343750
7290,27.343750
7291,27.343750
7292,27.343750
7293,27.343750
7294,27.343750
7295,27.343750
7296,27.343750
7297,27.343750
7298,27.343750
7299,27.343750
7300,27.343750
7301,27.343750
7302,27.343750
7303,27.343750
7304,27.343750
7305,27.343750
7306,27.343750
7307,23.437500
7308,27.343750
7309,23.437500
7310,27.343750
7311,27.343750
7312,23.437500
7313,23.437500
7314,23.437500
7315,23.437500
7316,27.343750
7317,23.437500
7318,23.437500
7319,23.437500
7320,23.437500
7321,23.437500
7322,23.437500
7323,23.437500
7324,23.437500
7325,23.437500
7326,23.437500
7327,23.437500
7328,23.437500
7329,23.437500
7330,23.437500
7331,23.437500
7332,23.437500
7333,23.437500
7334,23.437500
7335,23.437500
7336,23.437500
7337,23.437500
7338,23.437500
7339,23.437500
7340,23.437500
7341,23.437500
7342,23.437500
7343,23.437500
7344,19.531250
7345,19.531250
7346,19.531250
7347,19.531250
7348,19.531250
7349,19.531250
7350,19.531250
7351,19.531250
7352,19.531250
7353,19.531250
7354,19.531250
7355,19.531250
7356,19.531250
7357,19.531250
7358,19.531250
7359,19.531250
7360,19.531250
7361,19.531250
7362,19.531250
7363,19.531250
7364,15.625000
7365,19.531250
7366,19.531250
7367,15.625000
7368,15.625000
7369,15.625000
7370,15.625000
7371,15.625000
7372,15.625000
7373,15.625000
7374,15.625000
7375,15.625000
7376,15.625000
7377,15.625000
7378,15.625000
7379,15.625000
7380,15.625000
7381,15.625000
7382,15.625000
7383,15.625000
7384,15.625000
7385,15.625000
7386,15.625000
7387,15.625000
7388,15.625000
7389,11.718750
7390,11.718750
7391,11.718750
7392,11.718750
7393,11.718750
7394,11.718750
7395,11.718750
7396,11.718750
7397,11.718750
7398,11.718750
7399,11.718750
7400,11.718750
7401,11.718750
7402,11.718750
7403,11.718750
7404,11.718750
7405,11.718750
7406,11.718750
7407,11.718750
7408,11.718750
7409,7.812500
7410,11.718750
7411,7.812500
7412,7.812500
7413,7.812500
7414,7.812500
7415,7.812500
7416,7.812500
7417,7.812500
7418,7.812500
7419,7.812500
7420,7.812500
7421,7.812500
7422,7.812500
7423,7.812500
7424,7.812500
7425,7.812500
7426,7.812500
7427,7.812500
7428,3.906250
7429,3.906250
7430,3.906250
7431,3.906250
7432,3.906250
7433,3.906250
7434,3.906250
7435,3.906250
7436,3.906250
7437,3.906250
7438,3.906250
7439,3.906250
7440,3.906250
7441,3.906250
7442,3.906250
7443,3.906250
7444,3.906250
7445,0.000000
7446,3.906250
7447,0.000000
7448,0.000000
7449,0.000000
7450,0.000000
7451,0.000000
7452,0.000000
7453,0.000000
7454,0.000000
7455,0.000000
7456,0.000000
7457,0.000000
7458,0.000000
7459,0.000000
7460,0.000000
7461,0.000000
7462,0.000000
7463,-3.906250
7464,-3.906250
7465,-3.906250
7466,-3.906250
7467,-3.906250
7468,-3.906250
7469,-3.906250
7470,-3.906250
7471,-3.906250
7472,-3.906250
7473,-3.906250
7474,-3.906250
7475,-3.906250
7476,-7.812500
7477,-7.812500
7478,-7.812500
7479,-7.812500
7480,-7.812500
7481,-7.812500
7482,-7.812500
7483,-7.812500
7484,-7.812500
7485,-7.812500
7486,-7.812500
7487,-7.812500
7488,-7.812500
7489,-7.812500
7490,-11.718750
7491,-11.718750
7492,-11.718750
7493,-11.718750
7494,-11.718750
7495,-11.718750
7496,-11.718750
7497,-11.718750
7498,-11.718750
7499,-11.718750
7500,-11.718750
7501,-11.718750
7502,-11.718750
7503,-11.718750
7504,-11.718750
7505,-11.718750
7506,-15.625000
7507,-15.625000
7508,-15.625000
7509,-15.625000
7510,-15.625000
7511,-15.625000
7512,-15.625000
7513,-15.625000
7514,-15.625000
7515,-15.625000
7516,-15.625000
7517,-15.625000
7518,-15.625000
7519,-19.531250
7520,-15.625000
7521,-19.531250
7522,-19.531250
7523,-19.531250
7524,-19.531250
7525,-19.531250
7526,-19.531250
7527,-19.531250
7528,-19.531250
7529,-19.531250
7530,-19.531250
7531,-19.531250
7532,-19.531250
7533,-19.531250
7534,-19.531250
7535,-23.437500
7536,-19.531250
7537,-23.437500
7538,-23.437500
7539,-23.437500
7540,-23.437500
7541,-23.437500
7542,-23.437500
7543,-23.437500
7544,-23.437500
7545,-23.437500
7546,-23.437500
7547,-23.437500
7548,-23.437500
7549,-23.437500
7550,-23.437500
7551,-23.437500
7552,-27.343750
7553,-27.343750
7554,-27.343750
7555,-27.343750
7556,-27.343750
7557,-27.343750
7558,-27.343750
7559,-27.343750
7560,-27.343750
7561,-27.343750
7562,-27.343750
7563,-27.343750
7564,-27.343750
7565,-27.343750
7566,-27.343750
7567,-27.343750
7568,-31.250000
7569,-27.343750
7570,-31.250000
7571,-31.250000
7572,-31.250000
7573,-31.250000
7574,-31.250000
7575,-31.250000
7576,-31.250000
7577,-31.250000
7578,-31.250000
7579,-31.250000
7580,-31.250000
7581,-31.250000
7582,-31.250000
7583,-31.250000
7584,-35.156250
7585,-35.156250
7586,-35.156250
7587,-35.156250
7588,-35.156250
7589,-35.156250
7590,-35.156250
7591,-35.156250
7592,-35.156250
7593,-35.156250
7594,-35.156250
7595,-35.156250
7596,-35.156250
7597,-35.156250
7598,-35.156250
7599,-35.156250
7600,-35.156250
7601,-39.062500
7602,-39.062500
7603,-39.062500
7604,-35.156250
7605,-39.062500
7606,-39.062500
7607,-39.062500
7608,-39.062500
7609,-39.062500
7610,-39.062500
7611,-39.062500
7612,-39.062500
7613,-39.062500
7614,-39.062500
7615,-39.062500
7616,-39.062500
7617,-39.062500
7618,-42.968750
7619,-42.968750
7620,-42.968750
7621,-42.968750
7622,-42.968750
7623,-42.968750
7624,-42.968750
7625,-42.968750
7626,-42.968750
7627,-42.968750
7628,-42.968750
7629,-42.968750
7630,-42.968750
7631,-42.968750
7632,-42.968750
7633,-42.968750
7634,-42.968750
7635,-42.968750
7636,-42.968750
7637,-46.875000
7638,-46.875000
7639,-46.875000
7640,-46.875000
7641,-46.875000
7642,-46.875000
7643,-46.875000
7644,-46.875000
7645,-46.875000
7646,-46.875000
7647,-46.875000
7648,-46.875000
7649,-46.875000
7650,-46.875000
7651,-46.875000
7652,-46.875000
7653,-46.875000
7654,-46.875000
7655,-46.875000
7656,-46.875000
7657,-46.875000
7658,-50.781250
7659,-46.875000
7660,-46.875000
7661,-50.781250
7662,-46.875000
7663,-50.781250
7664,-50.781250
7665,-50.781250
7666,-50.781250
7667,-50.781250
7668,-50.781250
7669,-50.781250
7670,-50.781250
7671,-50.781250
7672,-50.781250
7673,-50.781250
7674,-50.781250
7675,-50.781250
7676,-50.781250
7677,-50.781250
7678,-50.781250
7679,-50.781250
7680,-54.687500
7681,-50.781250
7682,-50.781250
7683,-50.781250
7684,-50.781250
7685,-54.687500
7686,-54.687500
7687,-54.687500
7688,-54.687500
7689,-54.687500
7690,-54.687500
7691,-54.687500
7692,-54.687500
7693,-54.687500
7694,-54.687500
7695,-54.687500
7696,-54.687500
7697,-54.687500
7698,-54.687500
7699,-54.687500
7700,-54.687500
7701,-54.687500
7702,-54.687500
7703,-54.687500
7704,-54.687500
7705,-54.687500
7706,-54.687500
7707,-54.687500
7708,-54.687500
7709,-54.687500
7710,-54.687500
7711,-54.687500
7712,-58.593750
7713,-54.687500
7714,-54.687500
7715,-54.687500
7716,-58.593750
7717,-54.687500
7718,-54.687500
7719,-58.593750
7720,-58.593750
7721,-54.687500
7722,-58.593750
7723,-58.593750
7724,-58.593750
7725,-58.593750
7726,-54.687500
7727,-58.593750
7728,-58.593750
7729,-58.593750
7730,-58.593750
7731,-58.593750
7732,-58.593750
7733,-58.593750
7734,-58.593750
7735,-58.593750
7736,-58.593750
7737,-58.593750
7738,-58.593750
7739,-58.593750
7740,-58.593750
7741,-58.593750
7742,-58.593750
7743,-58.593750
7744,-58.593750
7745,-58.593750
7746,-58.593750
7747,-58.593750
7748,-58.593750
7749,-58.593750
7750,-58.593750
7751,-58.593750
7752,-58.593750
7753,-58.593750
7754,-58.593750
7755,-58.593750
7756,-58.593750
7757,-58.593750
7758,-58.593750
7759,-58.593750
7760,-58.593750
7761,-58.593750
7762,-58.593750
7763,-58.593750
7764,-58.593750
7765,-58.593750
7766,-58.593750
7767,-58.593750
7768,-58.593750
7769,-58.593750
7770,-58.593750
7771,-58.593750
7772,-58.593750
7773,-58.593750
7774,-58.593750
7775,-58.593750
7776,-58.593750
7777,-58.593750
7778,-58.593750
7779,-58.593750
7780,-58.593750
7781,-58.593750
7782,-58.593750
7783,-58.593750
7784,-58.593750
7785,-58.593750
7786,-58.593750
7787,-58.593750
7788,-58.593750
7789,-58.593750
7790,-54.687500
7791,-58.593750
7792,-58.593750
7793,-58.593750
7794,-58.593750
7795,-54.687500
7796,-54.687500
7797,-54.687500
7798,-54.687500
7799,-54.687500
7800,-54.687500
7801,-58.593750
7802,-54.687500
7803,-54.687500
7804,-54.687500
7805,-54.687500
7806,-54.687500
7807,-54.687500
7808,-54.687500
7809,-54.687500
7810,-54.687500
7811,-54.687500
7812,-54.687500
7813,-54.687500
7814,-54.687500
7815,-54.687500
7816,-54.687500
7817,-54.687500
7818,-54.687500
7819,-54.687500
7820,-54.687500
7821,-54.687500
7822,-54.687500
7823,-54.687500
7824,-54.687500
7825,-54.687500
7826,-54.687500
7827,-54.687500
7828,-54.687500
7829,-54.687500
7830,-50.781250
7831,-54.687500
7832,-54.687500
7833,-54.687500
7834,-50.781250
7835,-50.781250
7836,-50.781250
7837,-50.781250
7838,-54.687500
7839,-50.781250
7840,-50.781250
7841,-50.781250
7842,-50.781250
7843,-50.781250
7844,-50.781250
7845,-50.781250
7846,-50.781250
7847,-50.781250
7848,-50.781250
7849,-50.781250
7850,-50.781250
7851,-50.781250
7852,-50.781250
7853,-50.781250
7854,-50.781250
7855,-50.781250
7856,-50.781250
7857,-50.781250
7858,-50.781250
7859,-50.781250
7860,-46.875000
7861,-46.875000
7862,-46.875000
7863,-46.875000
7864,-46.875000
7865,-46.875000
7866,-46.875000
7867,-46.875000
7868,-46.875000
7869,-46.875000
7870,-46.875000
7871,-46.875000
7872,-46.875000
7873,-46.875000
7874,-46.875000
7875,-46.875000
7876,-46.875000
7877,-46.875000
7878,-46.875000
7879,-46.875000
7880,-46.875000
7881,-46.875000
7882,-46.875000
7883,-42.968750
7884,-42.968750
7885,-42.968750
7886,-42.968750
7887,-46.875000
7888,-42.968750
7889,-42.968750
7890,-42.968750
7891,-42.968750
7892,-42.968750
7893,-42.968750
7894,-42.968750
7895,-42.968750
7896,-42.968750
7897,-42.968750
7898,-42.968750
7899,-42.968750
7900,-39.062500
7901,-39.062500
7902,-39.062500
7903,-39.062500
7904,-39.062500
7905,-39.062500
7906,-39.062500
7907,-39.062500
7908,-39.062500
7909,-39.062500
7910,-39.062500
7911,-39.062500
7912,-39.062500
7913,-39.062500
7914,-39.062500
7915,-39.062500
7916,-39.062500
7917,-35.156250
7918,-35.156250
7919,-35.156250
7920,-35.156250
7921,-35.156250
7922,-35.156250
7923,-35.156250
7924,-35.156250
7925,-35.156250
7926,-35.156250
7927,-35.156250
7928,-35.156250
7929,-35.156250
7930,-31.250000
7931,-31.250000
7932,-31.250000
7933,-31.250000
7934,-31.250000
7935,-31.250000
7936,-31.250000
7937,-31.250000
7938,-31.250000
7939,-31.250000
7940,-31.250000
7941,-31.250000
7942,-31.250000
7943,-31.250000
7944,-27.343750
7945,-27.343750
7946,-27.343750
7947,-27.343750
7948,-27.343750
7949,-27.343750
7950,-27.343750
7951,-27.343750
7952,-27.343750
7953,-27.343750
7954,-27.343750
7955,-27.343750
7956,-27.343750
7957,-23.437500
7958,-27.343750
7959,-27.343750
7960,-23.437500
7961,-23.437500
7962,-23.437500
7963,-23.437500
7964,-23.437500
7965,-23.437500
7966,-23.437500
7967,-23.437500
7968,-23.437500
7969,-23.437500
7970,-23.437500
7971,-23.437500
7972,-23.437500
7973,-23.437500
7974,-19.531250
7975,-19.531250
7976,-19.531250
7977,-19.531250
7978,-19.531250
7979,-19.531250
7980,-19.531250
7981,-19.531250
7982,-19.531250
7983,-19.531250
7984,-19.531250
7985,-19.531250
7986,-15.625000
7987,-19.531250
7988,-19.531250
7989,-15.625000
7990,-15.625000
7991,-15.625000
7992,-15.625000
7993,-15.625000
7994,-15.625000
7995,-15.625000
7996,-15.625000
7997,-15.625000
7998,-15.625000
7999,-15.625000
8000,-15.625000
8001,-15.625000
8002,-11.718750
8003,-11.718750
8004,-15.625000
8005,-11.718750
8006,-11.718750
8007,-11.718750
8008,-11.718750
8009,-11.718750
8010,-11.718750
8011,-11.718750
8012,-11.718750
8013,-7.812500
8014,-11.718750
8015,-11.718750
8016,-7.812500
8017,-7.812500
8018,-7.812500
8019,-7.812500
8020,-7.812500
8021,-7.812500
8022,-7.812500
8023,-7.812500
8024,-7.812500
8025,-7.812500
8026,-7.812500
8027,-7.812500
8028,-7.812500
8029,-3.906250
8030,-3.906250
8031,-3.906250
8032,-3.906250
8033,-3.906250
8034,-3.906250
8035,-3.906250
8036,-3.906250
8037,-3.906250
8038,-3.906250
8039,0.000000
8040,-3.906250
8041,0.000000
8042,0.000000
8043,0.000000
8044,0.000000
8045,0.000000
8046,0.000000
8047,0.000000
8048,0.000000
8049,0.000000
8050,0.000000
8051,0.000000
8052,0.000000
8053,0.000000
8054,0.000000
8055,0.000000
8056,3.906250
8057,3.906250
8058,3.906250
8059,3.906250
8060,3.906250
8061,3.906250
8062,3.906250
8063,3.906250
8064,3.906250
8065,3.906250
8066,3.906250
8067,3.906250
8068,3.906250
8069,3.906250
8070,3.906250
8071,3.906250
8072,3.906250
8073,3.906250
8074,7.812500
8075,7.812500
8076,7.812500
8077,7.812500
8078,7.812500
8079,7.812500
8080,7.812500
8081,7.812500
8082,7.812500
8083,7.812500
8084,7.812500
8085,7.812500
8086,7.812500
8087,7.812500
8088,11.718750
8089,11.718750
8090,11.718750
8091,11.718750
8092,11.718750
8093,11.718750
8094,11.718750
8095,11.718750
8096,11.718750
8097,11.718750
8098,11.718750
8099,11.718750
8100,11.718750
8101,11.718750
8102,11.718750
8103,11.718750
8104,11.718750
8105,15.625000
8106,15.625000
8107,11.718750
8108,11.718750
8109,15.625000
8110,15.625000
8111,15.625000
8112,15.625000
8113,15.625000
8114,15.625000
8115,15.625000
8116,15.625000
8117,15.625000
8118,15.625000
8119,15.625000
8120,15.625000
8121,15.625000
8122,15.625000
8123,15.625000
8124,15.625000
8125,15.625000
8126,15.625000
8127,15.625000
8128,15.625000
8129,19.531250
8130,19.531250
8131,19.531250
8132,19.531250
8133,19.531250
8134,19.531250
8135,19.531250
8136,19.531250
8137,19.531250
8138,19.531250
8139,19.531250
8140,19.531250
8141,19.531250
8142,19.531250
8143,19.531250
8144,19.531250
8145,19.531250
8146,19.531250
8147,19.531250
8148,19.531250
8149,19.531250
8150,19.531250
8151,19.531250
8152,19.531250
8153,19.531250
8154,23.437500
8155,23.437500
8156,23.437500
8157,23.437500
8158,23.437500
8159,19.531250
8160,23.437500
8161,23.437500
8162,23.437500
8163,23.437500
8164,23.437500
8165,23.437500
8166,23.437500
8167,23.437500
8168,23.437500
8169,23.437500
8170,23.437500
8171,23.437500
8172,23.437500
8173,23.437500
8174,23.437500
8175,23.437500
8176,23.437500
8177,23.437500
8178,23.437500
8179,23.437500
8180,23.437500
8181,23.437500
8182,23.437500
8183,23.437500
8184,23.437500
8185,23.437500
8186,27.343750
8187,27.343750
8188,23.437500
8189,27.343750
8190,23.437500
8191,27.343750
8192,27.343750
8193,27.343750
8194,27.343750
8195,27.343750
8196,27.343750
8197,27.343750
8198,27.343750
8199,27.343750
8200,27.343750
8201,27.343750
8202,27.343750
8203,27.343750
8204,27.343750
8205,27.343750
8206,27.343750
8207,27.343750
8208,27.343750
8209,27.343750
8210,27.343750
8211,27.343750
8212,27.343750
8213,27.343750
8214,27.343750
8215,27.343750
8216,27.343750
8217,27.343750
8218,27.343750
8219,27.343750
8220,27.343750
8221,27.343750
8222,27.343750
8223,27.343750
8224,27.343750
8225,27.343750
8226,27.343750
8227,27.343750
8228,27.343750
8229,27.343750
8230,27.343750
8231,27.343750
8232,27.343750
8233,27.343750
8234,27.343750
8235,27.343750
8236,27.343750
8237,27.343750
8238,27.343750
8239,27.343750
8240,27.343750
8241,27.343750
8242,27.343750
8243,27.343750
8244,27.343750
8245,27.343750
8246,27.343750
8247,27.343750
8248,27.343750
8249,27.343750
8250,27.343750
8251,27.343750
8252,27.343750
8253,27.343750
8254,27.343750
8255,27.343750
8256,27.343750
8257,27.343750
8258,27.343750
8259,27.343750
8260,27.343750
8261,27.343750
8262,27.343750
8263,27.343750
8264,27.343750
8265,27.343750
8266,27.343750
8267,27.343750
8268,27.343750
8269,27.343750
8270,27.343750
8271,27.343750
8272,27.343750
8273,27.343750
8274,27.343750
8275,27.343750
8276,27.343750
8277,27.343750
8278,27.343750
8279,27.343750
8280,27.343750
8281,27.343750
8282,27.343750
8283,27.343750
8284,27.343750
8285,27.343750
8286,27.343750
8287,27.343750
8288,27.343750
8289,23.437500
8290,27.343750
8291,23.437500
8292,23.437500
8293,23.437500
8294,23.437500
8295,23.437500
8296,27.343750
8297,23.437500
8298,23.437500
8299,23.437500
8300,23.437500
8301,23.437500
8302,23.437500
8303,23.437500
8304,23.437500
8305,23.437500
8306,23.437500
8307,23.437500
8308,23.437500
8309,23.437500
8310,23.437500
8311,23.437500
8312,23.437500
8313,23.437500
8314,23.437500
8315,23.437500
8316,23.437500
8317,23.437500
8318,23.437500
8319,23.437500
8320,23.437500
8321,23.437500
8322,23.437500
8323,23.437500
8324,23.437500
8325,23.437500
8326,23.437500
8327,23.437500
8328,23.437500
8329,19.531250
8330,23.437500
8331,19.531250
8332,23.437500
8333,23.437500
8334,19.531250
8335,19.531250
8336,19.531250
8337,19.531250
8338,19.531250
8339,19.531250
8340,19.531250
8341,19.531250
8342,19.531250
8343,19.531250
8344,19.531250
8345,19.531250
8346,19.531250
8347,19.531250
8348,19.531250
8349,19.531250
8350,19.531250
8351,19.531250
8352,19.531250
8353,19.531250
8354,19.531250
8355,15.625000
8356,15.625000
8357,19.531250
8358,19.531250
8359,15.625000
8360,15.625000
8361,15.625000
8362,15.625000
8363,15.625000
8364,15.625000
8365,15.625000
8366,15.625000
8367,15.625000
8368,15.625000
8369,15.625000
8370,15.625000
8371,15.625000
8372,15.625000
8373,11.718750
8374,15.625000
8375,15.625000
8376,15.625000
8377,15.625000
8378,11.718750
8379,11.718750
8380,11.718750
8381,11.718750
8382,11.718750
8383,11.718750
8384,11.718750
8385,11.718750
8386,11.718750
8387,11.718750
8388,11.718750
8389,11.718750
8390,11.718750
8391,11.718750
8392,11.718750
8393,11.718750
8394,11.718750
8395,11.718750
8396,11.718750
8397,7.812500
8398,11.718750
8399,11.718750
8400,7.812500
8401,7.812500
8402,3.906250
8403,7.812500
8404,7.812500
8405,11.718750
8406,7.812500
8407,7.812500
8408,3.906250
8409,7.812500
8410,7.812500
8411,11.718750
8412,7.812500
8413,7.812500
8414,11.718750
8415,3.906250
8416,3.906250
8417,3.906250
8418,3.906250
8419,3.906250
8420,3.906250
8421,3.906250
8422,3.906250
8423,7.812500
8424,3.906250
8425,3.906250
8426,3.906250
8427,3.906250
8428,3.906250
8429,3.906250
8430,3.906250
8431,3.906250
8432,0.000000
8433,0.000000
8434,3.906250
8435,3.906250
8436,0.000000
8437,0.000000
8438,0.000000
8439,0.000000
8440,0.000000
8441,0.000000
8442,0.000000
8443,0.000000
8444,0.000000
8445,0.000000
8446,0.000000
8447,0.000000
8448,-3.906250
8449,-3.906250
8450,0.000000
8451,-3.906250
8452,-3.906250
8453,-3.906250
8454,-3.906250
8455,-3.906250
8456,-3.906250
8457,-3.906250
8458,-3.906250
8459,-3.906250
8460,-3.906250
8461,-3.906250
8462,-3.906250
8463,-3.906250
8464,-3.906250
8465,-3.906250
8466,-7.812500
8467,-3.906250
8468,-7.812500
8469,-7.812500
8470,-7.812500
8471,-7.812500
8472,-7.812500
8473,-7.812500
8474,-7.812500
8475,-7.812500
8476,-7.812500
8477,-7.812500
8478,-7.812500
8479,-7.812500
8480,-7.812500
8481,-7.812500
8482,-11.718750
8483,-11.718750
8484,-11.718750
8485,-11.718750
8486,-11.718750
8487,-11.718750
8488,-11.718750
8489,-11.718750
8490,-11.718750
8491,-11.718750
8492,-11.718750
8493,-11.718750
8494,-11.718750
8495,-15.625000
8496,-15.625000
8497,-15.625000
8498,-15.625000
8499,-15.625000
8500,-15.625000
8501,-15.625000
8502,-15.625000
8503,-15.625000
8504,-15.625000
8505,-15.625000
8506,-11.718750
8507,-15.625000
8508,-15.625000
8509,-15.625000
8510,-15.625000
8511,-15.625000
8512,-19.531250
8513,-19.531250
8514,-19.531250
8515,-19.531250
8516,-19.531250
8517,-19.531250
8518,-19.531250
8519,-19.531250
8520,-19.531250
8521,-19.531250
8522,-19.531250
8523,-19.531250
8524,-19.531250
8525,-19.531250
8526,-23.437500
8527,-23.437500
8528,-23.437500
8529,-23.437500
8530,-23.437500
8531,-23.437500
8532,-23.437500
8533,-23.437500
8534,-23.437500
8535,-23.437500
8536,-23.437500
8537,-23.437500
8538,-27.343750
8539,-27.343750
8540,-27.343750
8541,-27.343750
8542,-27.343750
8543,-27.343750
8544,-27.343750
8545,-27.343750
8546,-27.343750
8547,-27.343750
8548,-27.343750
8549,-27.343750
8550,-27.343750
8551,-27.343750
8552,-27.343750
8553,-27.343750
8554,-31.250000
8555,-27.343750
8556,-31.250000
8557,-31.250000
8558,-31.250000
8559,-31.250000
8560,-31.250000
8561,-31.250000
8562,-31.250000
8563,-31.250000
8564,-31.250000
8565,-31.250000
8566,-31.250000
8567,-31.250000
8568,-31.250000
8569,-35.156250
8570,-31.250000
8571,-31.250000
8572,-35.156250
8573,-35.156250
8574,-35.156250
8575,-35.156250
8576,-35.156250
8577,-35.156250
8578,-35.156250
8579,-35.156250
8580,-35.156250
8581,-35.156250
8582,-35.156250
8583,-35.156250
8584,-35.156250
8585,-39.062500
8586,-35.156250
8587,-35.156250
8588,-35.156250
8589,-39.062500
8590,-39.062500
8591,-39.062500
8592,-39.062500
8593,-39.062500
8594,-39.062500
8595,-39.062500
8596,-39.062500
8597,-39.062500
8598,-39.062500
8599,-39.062500
8600,-39.062500
8601,-39.062500
8602,-39.062500
8603,-39.062500
8604,-39.062500
8605,-42.968750
8606,-39.062500
8607,-42.968750
8608,-42.968750
8609,-42.968750
8610,-42.968750
8611,-42.968750
8612,-42.968750
8613,-42.968750
8614,-42.968750
8615,-42.968750
8616,-42.968750
8617,-42.968750
8618,-42.968750
8619,-42.968750
8620,-42.968750
8621,-42.968750
8622,-42.968750
8623,-46.875000
8624,-42.968750
8625,-46.875000
8626,-46.875000
8627,-46.875000
8628,-46.875000
8629,-46.875000
8630,-46.875000
8631,-46.875000
8632,-46.875000
8633,-46.875000
8634,-46.875000
8635,-46.875000
8636,-46.875000
8637,-46.875000
8638,-46.875000
8639,-46.875000
8640,-46.875000
8641,-46.875000
8642,-46.875000
8643,-46.875000
8644,-50.781250
8645,-50.781250
8646,-46.875000
8647,-50.781250
8648,-50.781250
8649,-50.781250
8650,-50.781250
8651,-50.781250
8652,-50.781250
8653,-50.781250
8654,-50.781250
8655,-50.781250
8656,-50.781250
8657,-50.781250
8658,-50.781250
8659,-50.781250
8660,-50.781250
8661,-50.781250
8662,-50.781250
8663,-50.781250
8664,-50.781250
8665,-54.687500
8666,-54.687500
8667,-54.687500
8668,-50.781250
8669,-54.687500
8670,-54.687500
8671,-50.781250
8672,-50.781250
8673,-54.687500
8674,-50.781250
8675,-54.687500
8676,-54.687500
8677,-54.687500
8678,-54.687500
8679,-54.687500
8680,-54.687500
8681,-54.687500
8682,-54.687500
8683,-54.687500
8684,-54.687500
8685,-54.687500
8686,-54.687500
8687,-54.687500
8688,-54.687500
8689,-54.687500
8690,-54.687500
8691,-54.687500
8692,-54.687500
8693,-54.687500
8694,-54.687500
8695,-54.687500
8696,-54.687500
8697,-54.687500
8698,-54.687500
8699,-54.687500
8700,-54.687500
8701,-54.687500
8702,-54.687500
8703,-54.687500
8704,-54.687500
8705,-54.687500
8706,-54.687500
8707,-54.687500
8708,-54.687500
8709,-54.687500
8710,-58.593750
8711,-54.687500
8712,-54.687500
8713,-58.593750
8714,-58.593750
8715,-58.593750
8716,-58.593750
8717,-54.687500
8718,-54.687500
8719,-58.593750
8720,-58.593750
8721,-58.593750
8722,-58.593750
8723,-58.593750
8724,-58.593750
8725,-58.593750
8726,-58.593750
8727,-58.593750
8728,-54.687500
8729,-58.593750
8730,-54.687500
8731,-58.593750
8732,-58.593750
8733,-58.593750
8734,-58.593750
8735,-58.593750
8736,-58.593750
8737,-58.593750
8738,-58.593750
8739,-58.593750
8740,-58.593750
8741,-58.593750
8742,-58.593750
8743,-58.593750
8744,-58.593750
8745,-58.593750
8746,-58.593750
8747,-58.593750
8748,-58.593750
8749,-58.593750
8750,-58.593750
8751,-58.593750
8752,-58.593750
8753,-58.593750
8754,-58.593750
8755,-58.593750
8756,-58.593750
8757,-58.593750
8758,-58.593750
8759,-58.593750
8760,-58.593750
8761,-58.593750
8762,-58.593750
8763,-58.593750
8764,-58.593750
8765,-58.593750
8766,-58.593750
8767,-58.593750
8768,-58.593750
8769,-58.593750
8770,-58.593750
8771,-58.593750
8772,-58.593750
8773,-58.593750
8774,-58.593750
8775,-58.593750
8776,-58.593750
8777,-58.593750
8778,-58.593750
8779,-58.593750
8780,-58.593750
8781,-58.593750
8782,-58.593750
8783,-58.593750
8784,-58.593750
8785,-58.593750
8786,-58.593750
8787,-58.593750
8788,-58.593750
8789,-58.593750
8790,-54.687500
8791,-58.593750
8792,-54.687500
8793,-54.687500
8794,-54.687500
8795,-54.687500
8796,-58.593750
8797,-54.687500
8798,-54.687500
8799,-54.687500
8800,-54.687500
8801,-54.687500
8802,-54.687500
8803,-54.687500
8804,-54.687500
8805,-54.687500
8806,-54.687500
8807,-54.687500
8808,-54.687500
8809,-54.687500
8810,-54.687500
8811,-54.687500
8812,-54.687500
8813,-54.687500
8814,-54.687500
8815,-54.687500
8816,-54.687500
8817,-54.687500
8818,-54.687500
8819,-54.687500
8820,-54.687500
8821,-54.687500
8822,-54.687500
8823,-50.781250
8824,-54.687500
8825,-54.687500
8826,-50.781250
8827,-50.781250
8828,-50.781250
8829,-50.781250
8830,-50.781250
8831,-50.781250
8832,-50.781250
8833,-50.781250
8834,-50.781250
8835,-50.781250
8836,-50.781250
8837,-50.781250
8838,-50.781250
8839,-50.781250
8840,-50.781250
8841,-50.781250
8842,-46.875000
8843,-50.781250
8844,-50.781250
8845,-50.781250
8846,-50.781250
8847,-50.781250
8848,-46.875000
8849,-46.875000
8850,-46.875000
8851,-46.875000
8852,-46.875000
8853,-46.875000
8854,-46.875000
8855,-46.875000
8856,-46.875000
8857,-46.875000
8858,-46.875000
8859,-46.875000
8860,-46.875000
8861,-46.875000
8862,-46.875000
8863,-46.875000
8864,-46.875000
8865,-46.875000
8866,-46.875000
8867,-46.875000
8868,-42.968750
8869,-42.968750
8870,-42.968750
8871,-42.968750
8872,-42.968750
8873,-42.968750
8874,-42.968750
8875,-42.968750
8876,-42.968750
8877,-42.968750
8878,-42.968750
8879,-42.968750
8880,-42.968750
8881,-42.968750
8882,-42.968750
8883,-42.968750
8884,-39.062500
8885,-42.968750
8886,-42.968750
8887,-39.062500
8888,-39.062500
8889,-39.062500
8890,-39.062500
8891,-39.062500
8892,-39.062500
8893,-39.062500
8894,-39.062500
8895,-39.062500
8896,-39.062500
8897,-39.062500
8898,-39.062500
8899,-39.062500
8900,-39.062500
8901,-39.062500
8902,-39.062500
8903,-39.062500
8904,-35.156250
8905,-35.156250
8906,-35.156250
8907,-35.156250
8908,-35.156250
8909,-35.156250
8910,-35.156250
8911,-35.156250
8912,-35.156250
8913,-35.156250
8914,-35.156250
8915,-35.156250
8916,-35.156250
8917,-35.156250
8918,-35.156250
8919,-35.156250
8920,-31.250000
8921,-31.250000
8922,-31.250000
8923,-31.250000
8924,-31.250000
8925,-31.250000
8926,-31.250000
8927,-31.250000
8928,-31.250000
8929,-31.250000
8930,-31.250000
8931,-31.250000
8932,-31.250000
8933,-31.250000
8934,-31.250000
8935,-27.343750
8936,-27.343750
8937,-27.343750
8938,-27.343750
8939,-27.343750
8940,-27.343750
8941,-27.343750
8942,-27.343750
8943,-27.343750
8944,-27.343750
8945,-27.343750
8946,-27.343750
8947,-27.343750
8948,-23.437500
8949,-27.343750
8950,-27.343750
8951,-23.437500
8952,-23.437500
8953,-23.437500
8954,-23.437500
8955,-23.437500
8956,-23.437500
8957,-23.437500
8958,-23.437500
8959,-23.437500
8960,-23.437500
8961,-23.437500
8962,-23.437500
8963,-23.437500
8964,-19.531250
8965,-19.531250
8966,-19.531250
8967,-19.531250
8968,-19.531250
8969,-19.531250
8970,-19.531250
8971,-19.531250
8972,-19.531250
8973,-19.531250
8974,-19.531250
8975,-19.531250
8976,-15.625000
8977,-15.625000
8978,-15.625000
8979,-15.625000
8980,-15.625000
8981,-15.625000
8982,-15.625000
8983,-15.625000
8984,-15.625000
8985,-15.625000
8986,-15.625000
8987,-15.625000
8988,-15.625000
8989,-11.718750
8990,-11.718750
8991,-11.718750
8992,-11.718750
8993,-11.718750
8994,-11.718750
8995,-11.718750
8996,-11.718750
8997,-11.718750
8998,-11.718750
8999,-11.718750
9000,-11.718750
9001,-11.718750
9002,-7.812500
9003,-7.812500
9004,-7.812500
9005,-7.812500
9006,-7.812500
9007,-7.812500
9008,-7.812500
9009,-7.812500
9010,-7.812500
9011,-7.812500
9012,-7.812500
9013,-7.812500
9014,-7.812500
9015,-7.812500
9016,-7.812500
9017,-3.906250
9018,-7.812500
9019,-3.906250
9020,-3.906250
9021,-3.906250
9022,-3.906250
9023,-3.906250
9024,-3.906250
9025,-3.906250
9026,-3.906250
9027,-3.906250
9028,-3.906250
9029,-3.906250
9030,-3.906250
9031,-3.906250
9032,-3.906250
9033,0.000000
9034,0.000000
9035,0.000000
9036,0.000000
9037,0.000000
9038,0.000000
9039,0.000000
9040,0.000000
9041,0.000000
9042,0.000000
9043,0.000000
9044,0.000000
9045,0.000000
9046,0.000000
9047,0.000000
9048,0.000000
9049,0.000000
9050,3.906250
9051,3.906250
9052,3.906250
9053,3.906250
9054,3.906250
9055,3.906250
9056,3.906250
9057,3.906250
9058,3.906250
9059,3.906250
9060,3.906250
9061,3.906250
9062,3.906250
9063,3.906250
9064,7.812500
9065,7.812500
9066,7.812500
9067,7.812500
9068,7.812500
9069,7.812500
9070,7.812500
9071,7.812500
9072,7.812500
9073,7.812500
9074,7.812500
9075,7.812500
9076,7.812500
9077,7.812500
9078,7.812500
9079,7.812500
9080,7.812500
9081,11.718750
9082,11.718750
9083,11.718750
9084,11.718750
9085,11.718750
9086,11.718750
9087,11.718750
9088,11.718750
9089,11.718750
9090,11.718750
9091,11.718750
9092,11.718750
9093,11.718750
9094,11.718750
9095,11.718750
9096,15.625000
9097,15.625000
9098,15.625000
9099,15.625000
9100,15.625000
9101,15.625000
9102,15.625000
9103,15.625000
9104,15.625000
9105,15.625000
9106,15.625000
9107,15.625000
9108,15.625000
9109,15.625000
9110,15.625000
9111,15.625000
9112,15.625000
9113,15.625000
9114,15.625000
9115,15.625000
9116,19.531250
9117,19.531250
9118,19.531250
9119,19.531250
9120,19.531250
9121,19.531250
9122,19.531250
9123,19.531250
9124,19.531250
9125,19.531250
9126,19.531250
9127,19.531250
9128,19.531250
9129,19.531250
9130,19.531250
9131,19.531250
9132,19.531250
9133,19.531250
9134,19.531250
9135,19.531250
9136,19.531250
9137,19.531250
9138,19.531250
9139,23.437500
9140,23.437500
9141,19.531250
9142,23.437500
9143,23.437500
9144,23.437500
9145,23.437500
9146,23.437500
9147,23.437500
9148,23.437500
9149,23.437500
9150,23.437500
9151,23.437500
9152,23.437500
9153,23.437500
9154,23.437500
9155,23.437500
9156,23.437500
9157,23.437500
9158,23.437500
9159,23.437500
9160,23.437500
9161,23.437500
9162,23.437500
9163,23.437500
9164,23.437500
9165,23.437500
9166,23.437500
9167,23.437500
9168,23.437500
9169,23.437500
9170,23.437500
9171,23.437500
9172,27.343750
9173,27.343750
9174,23.437500
9175,23.437500
9176,23.437500
9177,27.343750
9178,27.343750
9179,23.437500
9180,23.437500
9181,27.343750
9182,27.343750
9183,27.343750
9184,27.343750
9185,27.343750
9186,27.343750
9187,23.437500
9188,27.343750
9189,27.343750
9190,27.343750
9191,27.343750
9192,27.343750
9193,27.343750
9194,27.343750
9195,27.343750
9196,27.343750
9197,27.343750
9198,27.343750
9199,27.343750
9200,27.343750
9201,27.343750
9202,27.343750
9203,27.343750
9204,27.343750
9205,27.343750
9206,27.343750
9207,27.343750
9208,27.343750
9209,27.343750
9210,27.343750
9211,27.343750
9212,27.343750
9213,27.343750
9214,27.343750
9215,27.343750
9216,27.343750
9217,27.343750
9218,27.343750
9219,27.343750
9220,27.343750
9221,27.343750
9222,27.343750
9223,27.343750
9224,27.343750
9225,27.343750
9226,27.343750
9227,27.343750
9228,27.343750
9229,27.343750
9230,27.343750
9231,27.343750
9232,27.343750
9233,27.343750
9234,27.343750
9235,27.343750
9236,27.343750
9237,27.343750
9238,27.343750
9239,27.343750
9240,27.343750
9241,27.343750
9242,27.343750
9243,27.343750
9244,27.343750
9245,27.343750
9246,27.343750
9247,27.343750
9248,27.343750
9249,27.343750
9250,27.343750
9251,27.343750
9252,27.343750
9253,27.343750
9254,27.343750
9255,27.343750
9256,27.343750
9257,27.343750
9258,27.343750
9259,27.343750
9260,27.343750
9261,27.343750
9262,27.343750
9263,27.343750
9264,27.343750
9265,27.343750
9266,27.343750
9267,27.343750
9268,27.343750
9269,27.343750
9270,27.343750
9271,27.343750
9272,27.343750
9273,27.343750
9274,23.437500
9275,23.437500
9276,23.437500
9277,27.343750
9278,27.343750
9279,27.343750
9280,23.437500
9281,27.343750
9282,27.343750
9283,23.437500
9284,23.437500
9285,23.437500
9286,23.437500
9287,23.437500
9288,23.437500
9289,23.437500
9290,23.437500
9291,23.437500
9292,23.437500
9293,23.437500
9294,23.437500
9295,23.437500
9296,23.437500
9297,23.437500
9298,23.437500
9299,23.437500
9300,23.437500
9301,23.437500
9302,23.437500
9303,23.437500
9304,23.437500
9305,23.437500
9306,23.437500
9307,23.437500
9308,23.437500
9309,23.437500
9310,23.437500
9311,23.437500
9312,23.437500
9313,19.531250
9314,23.437500
9315,19.531250
9316,19.531250
9317,23.437500
9318,23.437500
9319,19.531250
9320,19.531250
9321,19.531250
9322,19.531250
9323,19.531250
9324,19.531250
9325,19.531250
9326,19.531250
9327,19.531250
9328,19.531250
9329,19.531250
9330,19.531250
9331,19.531250
9332,19.531250
9333,19.531250
9334,19.531250
9335,19.531250
9336,19.531250
9337,19.531250
9338,19.531250
9339,19.531250
9340,19.531250
9341,19.531250
9342,19.531250
9343,15.625000
9344,19.531250
9345,19.531250
9346,15.625000
9347,15.625000
9348,15.625000
9349,15.625000
9350,19.531250
9351,15.625000
9352,15.625000
9353,15.625000
9354,15.625000
9355,15.625000
9356,15.625000
9357,15.625000
9358,15.625000
9359,15.625000
9360,15.625000
9361,15.625000
9362,15.625000
9363,15.625000
9364,15.625000
9365,15.625000
9366,15.625000
9367,15.625000
9368,15.625000
9369,15.625000
9370,15.625000
9371,11.718750
9372,11.718750
9373,11.718750
9374,11.718750
9375,11.718750
9376,11.718750
9377,11.718750
9378,11.718750
9379,11.718750
9380,11.718750
9381,11.718750
9382,11.718750
9383,11.718750
9384,11.718750
9385,11.718750
9386,11.718750
9387,11.718750
9388,11.718750
9389,11.718750
9390,11.718750
9391,7.812500
9392,7.812500
9393,7.812500
9394,7.812500
9395,7.812500
9396,7.812500
9397,7.812500
9398,7.812500
9399,7.812500
9400,7.812500
9401,7.812500
9402,7.812500
9403,7.812500
9404,3.906250
9405,7.812500
9406,7.812500
9407,7.812500
9408,3.906250
9409,3.906250
9410,3.906250
9411,3.906250
9412,3.906250
9413,3.906250
9414,3.906250
9415,3.906250
9416,3.906250
9417,3.906250
9418,3.906250
9419,3.906250
9420,3.906250
9421,3.906250
9422,0.000000
9423,0.000000
9424,3.906250
9425,0.000000
9426,0.000000
9427,0.000000
9428,0.000000
9429,0.000000
9430,0.000000
9431,0.000000
9432,0.000000
9433,0.000000
9434,0.000000
9435,0.000000
9436,0.000000
9437,-3.906250
9438,-3.906250
9439,-3.906250
9440,-3.906250
9441,-3.906250
9442,-3.906250
9443,-3.906250
9444,-3.906250
9445,-3.906250
9446,-3.906250
9447,-3.906250
9448,-3.906250
9449,-3.906250
9450,-3.906250
9451,-3.906250
9452,-3.906250
9453,-3.906250
9454,-3.906250
9455,-3.906250
9456,-7.812500
9457,-3.906250
9458,-7.812500
9459,-7.812500
9460,-7.812500
9461,-7.812500
9462,-7.812500
9463,-7.812500
9464,-7.812500
9465,-7.812500
9466,-7.812500
9467,-7.812500
9468,-7.812500
9469,-7.812500
9470,-7.812500
9471,-11.718750
9472,-7.812500
9473,-7.812500
9474,-7.812500
9475,-11.718750
9476,-11.718750
9477,-11.718750
9478,-11.718750
9479,-11.718750
9480,-11.718750
9481,-11.718750
9482,-11.718750
9483,-11.718750
9484,-11.718750
9485,-11.718750
9486,-11.718750
9487,-15.625000
9488,-15.625000
9489,-15.625000
9490,-15.625000
9491,-15.625000
9492,-15.625000
9493,-15.625000
9494,-15.625000
9495,-15.625000
9496,-15.625000
9497,-15.625000
9498,-15.625000
9499,-15.625000
9500,-15.625000
9501,-15.625000
9502,-15.625000
9503,-19.531250
9504,-19.531250
9505,-19.531250
9506,-19.531250
9507,-19.531250
9508,-19.531250
9509,-19.531250
9510,-19.531250
9511,-19.531250
9512,-19.531250
9513,-19.531250
9514,-19.531250
9515,-19.531250
9516,-19.531250
9517,-23.437500
9518,-23.437500
9519,-19.531250
9520,-23.437500
9521,-23.437500
9522,-23.437500
9523,-23.437500
9524,-23.437500
9525,-23.437500
9526,-23.437500
9527,-23.437500
9528,-23.437500
9529,-23.437500
9530,-23.437500
9531,-23.437500
9532,-23.437500
9533,-27.343750
9534,-27.343750
9535,-27.343750
9536,-27.343750
9537,-27.343750
9538,-27.343750
9539,-27.343750
9540,-27.343750
9541,-27.343750
9542,-27.343750
9543,-27.343750
9544,-27.343750
9545,-27.343750
9546,-27.343750
9547,-31.250000
9548,-31.250000
9549,-31.250000
9550,-27.343750
9551,-31.250000
9552,-31.250000
9553,-31.250000
9554,-31.250000
9555,-31.250000
9556,-31.250000
9557,-31.250000
9558,-31.250000
9559,-31.250000
9560,-31.250000
9561,-35.156250
9562,-31.250000
9563,-35.156250
9564,-35.156250
9565,-35.156250
9566,-35.156250
9567,-35.156250
9568,-35.156250
9569,-35.156250
9570,-35.156250
9571,-35.156250
9572,-35.156250
9573,-35.156250
9574,-35.156250
9575,-35.156250
9576,-35.156250
9577,-39.062500
9578,-39.062500
9579,-35.156250
9580,-39.062500
9581,-39.062500
9582,-39.062500
9583,-39.062500
9584,-39.062500
9585,-39.062500
9586,-39.062500
9587,-39.062500
9588,-39.062500
9589,-39.062500
9590,-39.062500
9591,-39.062500
9592,-39.062500
9593,-42.968750
9594,-39.062500
9595,-42.968750
9596,-39.062500
9597,-42.968750
9598,-42.968750
9599,-42.968750
9600,-42.968750
9601,-42.968750
9602,-42.968750
9603,-42.968750
9604,-42.968750
9605,-42.968750
9606,-42.968750
9607,-42.968750
9608,-42.968750
9609,-42.968750
9610,-42.968750
9611,-42.968750
9612,-42.968750
9613,-42.968750
9614,-42.968750
9615,-46.875000
9616,-42.968750
9617,-46.875000
9618,-42.968750
9619,-46.875000
9620,-46.875000
9621,-46.875000
9622,-46.875000
9623,-46.875000
9624,-46.875000
9625,-46.875000
9626,-46.875000
9627,-46.875000
9628,-46.875000
9629,-46.875000
9630,-46.875000
9631,-46.875000
9632,-46.875000
9633,-46.875000
9634,-46.875000
9635,-46.875000
9636,-46.875000
9637,-46.875000
9638,-46.875000
9639,-50.781250
9640,-50.781250
9641,-50.781250
9642,-50.781250
9643,-50.781250
9644,-50.781250
9645,-50.781250
9646,-50.781250
9647,-50.781250
9648,-50.781250
9649,-50.781250
9650,-50.781250
9651,-50.781250
9652,-50.781250
9653,-50.781250
9654,-50.781250
9655,-50.781250
9656,-50.781250
9657,-50.781250
9658,-50.781250
9659,-50.781250
9660,-50.781250
9661,-50.781250
9662,-50.781250
9663,-50.781250
9664,-50.781250
9665,-54.687500
9666,-54.687500
9667,-54.687500
9668,-54.687500
9669,-54.687500
9670,-54.687500
9671,-54.687500
9672,-54.687500
9673,-54.687500
9674,-54.687500
9675,-54.687500
9676,-54.687500
9677,-54.687500
9678,-54.687500
9679,-54.687500
9680,-54.687500
9681,-54.687500
9682,-54.687500
9683,-54.687500
9684,-54.687500
9685,-54.687500
9686,-54.687500
9687,-54.687500
9688,-54.687500
9689,-58.593750
9690,-54.687500
9691,-54.687500
9692,-54.687500
9693,-58.593750
9694,-58.593750
9695,-58.593750
9696,-54.687500
9697,-58.593750
9698,-54.687500
9699,-58.593750
9700,-58.593750
9701,-58.593750
9702,-54.687500
9703,-58.593750
9704,-58.593750
9705,-58.593750
9706,-58.593750
9707,-58.593750
9708,-58.593750
9709,-58.593750
9710,-58.593750
9711,-58.593750
9712,-58.593750
9713,-58.593750
9714,-58.593750
9715,-58.593750
9716,-58.593750
9717,-58.593750
9718,-58.593750
9719,-58.593750
9720,-58.593750
9721,-58.593750
9722,-58.593750
9723,-58.593750
9724,-58.593750
9725,-58.593750
9726,-58.593750
9727,-58.593750
9728,-58.593750
9729,-58.593750
9730,-58.593750
9731,-58.593750
9732,-58.593750
9733,-58.593750
9734,-58.593750
9735,-58.593750
9736,-58.593750
9737,-58.593750
9738,-58.593750
9739,-58.593750
9740,-58.593750
9741,-58.593750
9742,-58.593750
9743,-58.593750
9744,-58.593750
9745,-58.593750
9746,-58.593750
9747,-58.593750
9748,-58.593750
9749,-58.593750
9750,-58.593750
9751,-54.687500
9752,-58.593750
9753,-58.593750
9754,-58.593750
9755,-58.593750
9756,-58.593750
9757,-58.593750
9758,-58.593750
9759,-58.593750
9760,-58.593750
9761,-54.687500
9762,-58.593750
9763,-54.687500
9764,-54.687500
9765,-58.593750
9766,-54.687500
9767,-54.687500
9768,-58.593750
9769,-58.593750
9770,-58.593750
9771,-54.687500
9772,-54.687500
9773,-54.687500
9774,-54.687500
9775,-54.687500
9776,-54.687500
9777,-54.687500
9778,-54.687500
9779,-54.687500
9780,-54.687500
9781,-54.687500
9782,-54.687500
9783,-54.687500
9784,-54.687500
9785,-54.687500
9786,-54.687500
9787,-54.687500
9788,-54.687500
9789,-54.687500
9790,-54.687500
9791,-54.687500
9792,-54.687500
9793,-54.687500
9794,-54.687500
9795,-54.687500
9796,-54.687500
9797,-54.687500
9798,-54.687500
9799,-54.687500
9800,-54.687500
9801,-54.687500
9802,-54.687500
9803,-54.687500
9804,-54.687500
9805,-54.687500
9806,-54.687500
9807,-54.687500
9808,-54.687500
9809,-54.687500
9810,-50.781250
9811,-54.687500
9812,-54.687500
9813,-50.781250
9814,-50.781250
9815,-54.687500
9816,-50.781250
9817,-50.781250
9818,-50.781250
9819,-50.781250
9820,-50.781250
9821,-50.781250
9822,-50.781250
9823,-50.781250
9824,-50.781250
9825,-50.781250
9826,-50.781250
9827,-50.781250
9828,-50.781250
9829,-50.781250
9830,-50.781250
9831,-50.781250
9832,-50.781250
9833,-50.781250
9834,-50.781250
9835,-50.781250
9836,-50.781250
9837,-46.875000
9838,-50.781250
9839,-50.781250
9840,-46.875000
9841,-46.875000
9842,-46.875000
9843,-46.875000
9844,-46.875000
9845,-46.875000
9846,-46.875000
9847,-46.875000
9848,-46.875000
9849,-46.875000
9850,-46.875000
9851,-46.875000
9852,-46.875000
9853,-46.875000
9854,-42.968750
9855,-46.875000
9856,-46.875000
9857,-46.875000
9858,-42.968750
9859,-42.968750
9860,-42.968750
9861,-42.968750
9862,-42.968750
9863,-42.968750
9864,-42.968750
9865,-42.968750
9866,-42.968750
9867,-42.968750
9868,-42.968750
9869,-42.968750
9870,-42.968750
9871,-42.968750
9872,-42.968750
9873,-42.968750
9874,-42.968750
9875,-39.062500
9876,-39.062500
9877,-42.968750
9878,-39.062500
9879,-39.062500
9880,-39.062500
9881,-39.062500
9882,-39.062500
9883,-39.062500
9884,-39.062500
9885,-39.062500
9886,-39.062500
9887,-39.062500
9888,-39.062500
9889,-39.062500
9890,-35.156250
9891,-35.156250
9892,-35.156250
9893,-35.156250
9894,-35.156250
9895,-35.156250
9896,-35.156250
9897,-35.156250
9898,-35.156250
9899,-35.156250
9900,-35.156250
9901,-35.156250
9902,-35.156250
9903,-35.156250
9904,-35.156250
9905,-35.156250
9906,-31.250000
9907,-35.156250
9908,-35.156250
9909,-31.250000
9910,-31.250000
9911,-31.250000
9912,-31.250000
9913,-31.250000
9914,-31.250000
9915,-31.250000
9916,-31.250000
9917,-31.250000
9918,-27.343750
9919,-31.250000
9920,-31.250000
9921,-31.250000
9922,-31.250000
9923,-27.343750
9924,-27.343750
9925,-27.343750
9926,-27.343750
9927,-27.343750
9928,-27.343750
9929,-27.343750
9930,-27.343750
9931,-27.343750
9932,-27.343750
9933,-27.343750
9934,-27.343750
9935,-23.437500
9936,-27.343750
9937,-23.437500
9938,-23.437500
9939,-23.437500
9940,-23.437500
9941,-23.437500
9942,-23.437500
9943,-23.437500
9944,-23.437500
9945,-23.437500
9946,-23.437500
9947,-23.437500
9948,-23.437500
9949,-19.531250
9950,-19.531250
9951,-19.531250
9952,-19.531250
9953,-19.531250
9954,-23.437500
9955,-19.531250
9956,-19.531250
9957,-23.437500
9958,-19.531250
9959,-19.531250
9960,-15.625000
9961,-19.531250
9962,-19.531250
9963,-15.625000
9964,-15.625000
9965,-15.625000
9966,-15.625000
9967,-15.625000
9968,-15.625000
9969,-15.625000
9970,-15.625000
9971,-15.625000
9972,-15.625000
9973,-15.625000
9974,-15.625000
9975,-15.625000
9976,-15.625000
9977,-11.718750
9978,-11.718750
9979,-11.718750
9980,-11.718750
9981,-11.718750
9982,-11.718750
9983,-11.718750
9984,-11.718750
9985,-11.718750
9986,-11.718750
9987,-11.718750
9988,-11.718750
9989,-7.812500
9990,-7.812500
9991,-7.812500
9992,-3.906250
9993,-7.812500
9994,-7.812500
9995,-7.812500
9996,-7.812500
9997,-7.812500
9998,-7.812500
9999,-7.812500
10000,-7.812500
