Channel              :,CH1
Frequency            :,1.771kHz
Period               :,0.565ms
PK-PK                :,197.3mV
Probe attenuation    :,1X
Voltage per ADC value:,0.122070mV
Time interval        :,2.00000us

index,CH1_Voltage(mV)
1,87.890625
2,87.890625
3,87.890625
4,85.937500
5,85.937500
6,85.937500
7,85.937500
8,85.937500
9,83.984375
10,83.984375
11,83.984375
12,83.984375
13,83.984375
14,82.031250
15,82.031250
16,82.031250
17,80.078125
18,80.078125
19,78.125000
20,78.125000
21,78.125000
22,76.171875
23,74.218750
24,74.218750
25,72.265625
26,72.265625
27,70.312500
28,70.312500
29,68.359375
30,66.406250
31,66.406250
32,64.453125
33,64.453125
34,62.500000
35,60.546875
36,58.593750
37,58.593750
38,56.640625
39,54.687500
40,52.734375
41,50.781250
42,50.781250
43,48.828125
44,46.875000
45,44.921875
46,42.968750
47,41.015625
48,39.062500
49,39.062500
50,35.156250
51,33.203125
52,33.203125
53,29.296875
54,27.343750
55,25.390625
56,23.437500
57,21.484375
58,19.531250
59,17.578125
60,15.625000
61,13.671875
62,11.718750
63,9.765625
64,7.812500
65,5.859375
66,1.953125
67,0.000000
68,-1.953125
69,-3.906250
70,-5.859375
71,-7.812500
72,-9.765625
73,-11.718750
74,-13.671875
75,-17.578125
76,-19.531250
77,-21.484375
78,-23.437500
79,-25.390625
80,-27.343750
81,-29.296875
82,-33.203125
83,-35.156250
84,-35.156250
85,-39.062500
86,-41.015625
87,-42.968750
88,-44.921875
89,-46.875000
90,-48.828125
91,-50.781250
92,-52.734375
93,-54.687500
94,-56.640625
95,-58.593750
96,-60.546875
97,-62.500000
98,-64.453125
99,-66.406250
100,-68.359375
101,-70.312500
102,-72.265625
103,-72.265625
104,-76.171875
105,-76.171875
106,-78.125000
107,-80.078125
108,-82.031250
109,-82.031250
110,-83.984375
111,-85.937500
112,-85.937500
113,-87.890625
114,-89.843750
115,-89.843750
116,-91.796875
117,-93.750000
118,-93.750000
119,-95.703125
120,-95.703125
121,-97.656250
122,-97.656250
123,-99.609375
124,-99.609375
125,-101.562500
126,-101.562500
127,-103.515625
128,-103.515625
129,-103.515625
130,-103.515625
131,-103.515625
132,-105.468750
133,-105.468750
134,-105.468750
135,-105.468750
136,-105.468750
137,-105.468750
138,-107.421875
139,-107.421875
140,-107.421875
141,-105.468750
142,-105.468750
143,-105.468750
144,-105.468750
145,-105.468750
146,-105.468750
147,-105.468750
148,-105.468750
149,-103.515625
150,-103.515625
151,-103.515625
152,-101.562500
153,-101.562500
154,-101.562500
155,-99.609375
156,-99.609375
157,-97.656250
158,-97.656250
159,-95.703125
160,-95.703125
161,-93.750000
162,-93.750000
163,-91.796875
164,-89.843750
165,-89.843750
166,-89.843750
167,-87.890625
168,-85.937500
169,-83.984375
170,-82.031250
171,-82.031250
172,-80.078125
173,-78.125000
174,-76.171875
175,-74.218750
176,-74.218750
177,-72.265625
178,-70.312500
179,-68.359375
180,-66.406250
181,-64.453125
182,-62.500000
183,-60.546875
184,-58.593750
185,-56.640625
186,-54.687500
187,-52.734375
188,-50.781250
189,-48.828125
190,-46.875000
191,-44.921875
192,-42.968750
193,-41.015625
194,-39.062500
195,-37.109375
196,-35.156250
197,-31.250000
198,-29.296875
199,-27.343750
200,-25.390625
201,-23.437500
202,-19.531250
203,-19.531250
204,-17.578125
205,-15.625000
206,-13.671875
207,-11.718750
208,-7.812500
209,-5.859375
210,-3.906250
211,-1.953125
212,0.000000
213,1.953125
214,3.906250
215,5.859375
216,7.812500
217,9.765625
218,13.671875
219,13.671875
220,17.578125
221,19.531250
222,21.484375
223,23.437500
224,27.343750
225,27.343750
226,29.296875
227,31.250000
228,33.203125
229,35.156250
230,37.109375
231,39.062500
232,41.015625
233,42.968750
234,42.968750
235,44.921875
236,46.875000
237,48.828125
238,50.781250
239,52.734375
240,52.734375
241,54.687500
242,56.640625
243,58.593750
244,58.593750
245,60.546875
246,62.500000
247,64.453125
248,66.406250
249,66.406250
250,68.359375
251,68.359375
252,70.312500
253,72.265625
254,72.265625
255,74.218750
256,74.218750
257,76.171875
258,76.171875
259,76.171875
260,78.125000
261,78.125000
262,80.078125
263,80.078125
264,80.078125
265,82.031250
266,82.031250
267,82.031250
268,83.984375
269,83.984375
270,83.984375
271,83.984375
272,85.937500
273,85.937500
274,85.937500
275,85.937500
276,85.937500
277,85.937500
278,87.890625
279,85.937500
280,85.937500
281,85.937500
282,87.890625
283,85.937500
284,85.937500
285,85.937500
286,85.937500
287,85.937500
288,85.937500
289,85.937500
290,85.937500
291,83.984375
292,83.984375
293,83.984375
294,83.984375
295,82.031250
296,82.031250
297,82.031250
298,82.031250
299,80.078125
300,80.078125
301,78.125000
302,78.125000
303,78.125000
304,76.171875
305,76.171875
306,74.218750
307,74.218750
308,72.265625
309,70.312500
310,70.312500
311,68.359375
312,68.359375
313,66.406250
314,64.453125
315,64.453125
316,62.500000
317,60.546875
318,60.546875
319,58.593750
320,56.640625
321,54.687500
322,54.687500
323,50.781250
324,50.781250
325,48.828125
326,46.875000
327,44.921875
328,42.968750
329,41.015625
330,39.062500
331,37.109375
332,37.109375
333,33.203125
334,31.250000
335,29.296875
336,29.296875
337,27.343750
338,23.437500
339,21.484375
340,19.531250
341,19.531250
342,15.625000
343,13.671875
344,11.718750
345,9.765625
346,7.812500
347,5.859375
348,3.906250
349,1.953125
350,0.000000
351,-1.953125
352,-3.906250
353,-7.812500
354,-9.765625
355,-11.718750
356,-13.671875
357,-15.625000
358,-17.578125
359,-19.531250
360,-21.484375
361,-23.437500
362,-25.390625
363,-27.343750
364,-31.250000
365,-33.203125
366,-35.156250
367,-37.109375
368,-39.062500
369,-41.015625
370,-42.968750
371,-44.921875
372,-46.875000
373,-50.781250
374,-50.781250
375,-52.734375
376,-54.687500
377,-56.640625
378,-58.593750
379,-62.500000
380,-62.500000
381,-64.453125
382,-66.406250
383,-68.359375
384,-70.312500
385,-72.265625
386,-74.218750
387,-76.171875
388,-76.171875
389,-78.125000
390,-80.078125
391,-82.031250
392,-83.984375
393,-85.937500
394,-85.937500
395,-87.890625
396,-87.890625
397,-89.843750
398,-91.796875
399,-91.796875
400,-93.750000
401,-93.750000
402,-95.703125
403,-97.656250
404,-97.656250
405,-99.609375
406,-99.609375
407,-99.609375
408,-101.562500
409,-101.562500
410,-101.562500
411,-103.515625
412,-103.515625
413,-103.515625
414,-103.515625
415,-103.515625
416,-105.468750
417,-105.468750
418,-105.468750
419,-105.468750
420,-105.468750
421,-105.468750
422,-105.468750
423,-105.468750
424,-105.468750
425,-105.468750
426,-105.468750
427,-105.468750
428,-105.468750
429,-105.468750
430,-103.515625
431,-103.515625
432,-103.515625
433,-101.562500
434,-101.562500
435,-101.562500
436,-99.609375
437,-99.609375
438,-99.609375
439,-97.656250
440,-97.656250
441,-95.703125
442,-95.703125
443,-93.750000
444,-93.750000
445,-91.796875
446,-91.796875
447,-89.843750
448,-87.890625
449,-87.890625
450,-85.937500
451,-83.984375
452,-82.031250
453,-82.031250
454,-80.078125
455,-78.125000
456,-78.125000
457,-76.171875
458,-74.218750
459,-72.265625
460,-70.312500
461,-68.359375
462,-66.406250
463,-64.453125
464,-62.500000
465,-60.546875
466,-58.593750
467,-56.640625
468,-54.687500
469,-54.687500
470,-50.781250
471,-48.828125
472,-48.828125
473,-44.921875
474,-42.968750
475,-41.015625
476,-39.062500
477,-37.109375
478,-35.156250
479,-33.203125
480,-31.250000
481,-29.296875
482,-25.390625
483,-23.437500
484,-21.484375
485,-19.531250
486,-17.578125
487,-15.625000
488,-13.671875
489,-11.718750
490,-7.812500
491,-5.859375
492,-3.906250
493,-1.953125
494,0.000000
495,1.953125
496,3.906250
497,5.859375
498,7.812500
499,9.765625
500,11.718750
501,13.671875
502,17.578125
503,17.578125
504,19.531250
505,23.437500
506,25.390625
507,27.343750
508,29.296875
509,31.250000
510,31.250000
511,35.156250
512,37.109375
513,39.062500
514,41.015625
515,41.015625
516,42.968750
517,44.921875
518,46.875000
519,48.828125
520,50.781250
521,52.734375
522,54.687500
523,54.687500
524,56.640625
525,58.593750
526,60.546875
527,60.546875
528,62.500000
529,62.500000
530,64.453125
531,66.406250
532,66.406250
533,68.359375
534,70.312500
535,70.312500
536,72.265625
537,72.265625
538,74.218750
539,76.171875
540,76.171875
541,76.171875
542,78.125000
543,78.125000
544,80.078125
545,80.078125
546,82.031250
547,82.031250
548,82.031250
549,82.031250
550,83.984375
551,83.984375
552,85.937500
553,85.937500
554,85.937500
555,85.937500
556,85.937500
557,85.937500
558,85.937500
559,85.937500
560,87.890625
561,87.890625
562,87.890625
563,87.890625
564,87.890625
565,87.890625
566,85.937500
567,85.937500
568,85.937500
569,87.890625
570,85.937500
571,85.937500
572,85.937500
573,85.937500
574,85.937500
575,83.984375
576,83.984375
577,83.984375
578,82.031250
579,82.031250
580,82.031250
581,80.078125
582,80.078125
583,80.078125
584,78.125000
585,78.125000
586,76.171875
587,76.171875
588,74.218750
589,74.218750
590,72.265625
591,72.265625
592,70.312500
593,68.359375
594,68.359375
595,66.406250
596,66.406250
597,64.453125
598,62.500000
599,60.546875
600,60.546875
601,58.593750
602,56.640625
603,54.687500
604,52.734375
605,52.734375
606,50.781250
607,48.828125
608,46.875000
609,44.921875
610,42.968750
611,42.968750
612,41.015625
613,39.062500
614,37.109375
615,35.156250
616,33.203125
617,31.250000
618,29.296875
619,27.343750
620,25.390625
621,23.437500
622,21.484375
623,19.531250
624,17.578125
625,15.625000
626,13.671875
627,9.765625
628,9.765625
629,5.859375
630,3.906250
631,1.953125
632,0.000000
633,-1.953125
634,-3.906250
635,-5.859375
636,-9.765625
637,-9.765625
638,-11.718750
639,-15.625000
640,-17.578125
641,-19.531250
642,-21.484375
643,-23.437500
644,-25.390625
645,-29.296875
646,-31.250000
647,-33.203125
648,-35.156250
649,-37.109375
650,-39.062500
651,-42.968750
652,-42.968750
653,-44.921875
654,-46.875000
655,-48.828125
656,-50.781250
657,-52.734375
658,-56.640625
659,-56.640625
660,-58.593750
661,-62.500000
662,-62.500000
663,-64.453125
664,-66.406250
665,-70.312500
666,-70.312500
667,-72.265625
668,-74.218750
669,-76.171875
670,-78.125000
671,-78.125000
672,-80.078125
673,-82.031250
674,-83.984375
675,-83.984375
676,-85.937500
677,-87.890625
678,-89.843750
679,-89.843750
680,-91.796875
681,-93.750000
682,-93.750000
683,-93.750000
684,-95.703125
685,-97.656250
686,-97.656250
687,-97.656250
688,-99.609375
689,-99.609375
690,-101.562500
691,-101.562500
692,-103.515625
693,-103.515625
694,-103.515625
695,-103.515625
696,-103.515625
697,-105.468750
698,-105.468750
699,-105.468750
700,-107.421875
701,-105.468750
702,-107.421875
703,-107.421875
704,-105.468750
705,-105.468750
706,-105.468750
707,-105.468750
708,-105.468750
709,-105.468750
710,-105.468750
711,-105.468750
712,-105.468750
713,-103.515625
714,-103.515625
715,-103.515625
716,-103.515625
717,-101.562500
718,-101.562500
719,-99.609375
720,-99.609375
721,-99.609375
722,-97.656250
723,-97.656250
724,-95.703125
725,-95.703125
726,-93.750000
727,-93.750000
728,-91.796875
729,-89.843750
730,-89.843750
731,-87.890625
732,-85.937500
733,-83.984375
734,-83.984375
735,-82.031250
736,-82.031250
737,-80.078125
738,-78.125000
739,-76.171875
740,-74.218750
741,-72.265625
742,-70.312500
743,-68.359375
744,-68.359375
745,-66.406250
746,-64.453125
747,-60.546875
748,-60.546875
749,-58.593750
750,-56.640625
751,-54.687500
752,-50.781250
753,-50.781250
754,-48.828125
755,-46.875000
756,-44.921875
757,-41.015625
758,-39.062500
759,-37.109375
760,-35.156250
761,-33.203125
762,-31.250000
763,-29.296875
764,-27.343750
765,-25.390625
766,-21.484375
767,-21.484375
768,-19.531250
769,-15.625000
770,-13.671875
771,-11.718750
772,-9.765625
773,-7.812500
774,-5.859375
775,-3.906250
776,0.000000
777,0.000000
778,1.953125
779,5.859375
780,7.812500
781,9.765625
782,11.718750
783,13.671875
784,15.625000
785,17.578125
786,19.531250
787,21.484375
788,23.437500
789,25.390625
790,27.343750
791,29.296875
792,31.250000
793,33.203125
794,35.156250
795,37.109375
796,39.062500
797,41.015625
798,42.968750
799,44.921875
800,46.875000
801,48.828125
802,48.828125
803,50.781250
804,52.734375
805,54.687500
806,56.640625
807,56.640625
808,58.593750
809,60.546875
810,62.500000
811,62.500000
812,64.453125
813,64.453125
814,66.406250
815,68.359375
816,70.312500
817,70.312500
818,72.265625
819,72.265625
820,74.218750
821,74.218750
822,76.171875
823,78.125000
824,78.125000
825,78.125000
826,80.078125
827,80.078125
828,80.078125
829,82.031250
830,82.031250
831,82.031250
832,83.984375
833,83.984375
834,83.984375
835,83.984375
836,85.937500
837,85.937500
838,85.937500
839,85.937500
840,85.937500
841,85.937500
842,87.890625
843,85.937500
844,85.937500
845,87.890625
846,87.890625
847,87.890625
848,85.937500
849,85.937500
850,85.937500
851,85.937500
852,85.937500
853,85.937500
854,85.937500
855,83.984375
856,83.984375
857,83.984375
858,83.984375
859,82.031250
860,82.031250
861,82.031250
862,82.031250
863,80.078125
864,80.078125
865,80.078125
866,78.125000
867,78.125000
868,76.171875
869,76.171875
870,74.218750
871,74.218750
872,72.265625
873,72.265625
874,70.312500
875,70.312500
876,68.359375
877,66.406250
878,66.406250
879,64.453125
880,62.500000
881,62.500000
882,60.546875
883,58.593750
884,56.640625
885,56.640625
886,54.687500
887,52.734375
888,50.781250
889,48.828125
890,48.828125
891,46.875000
892,44.921875
893,42.968750
894,41.015625
895,39.062500
896,37.109375
897,35.156250
898,33.203125
899,31.250000
900,29.296875
901,27.343750
902,25.390625
903,23.437500
904,21.484375
905,19.531250
906,17.578125
907,15.625000
908,13.671875
909,11.718750
910,9.765625
911,7.812500
912,3.906250
913,1.953125
914,0.000000
915,-1.953125
916,-3.906250
917,-5.859375
918,-7.812500
919,-11.718750
920,-11.718750
921,-13.671875
922,-15.625000
923,-19.531250
924,-21.484375
925,-23.437500
926,-25.390625
927,-27.343750
928,-29.296875
929,-31.250000
930,-33.203125
931,-35.156250
932,-39.062500
933,-41.015625
934,-42.968750
935,-44.921875
936,-46.875000
937,-48.828125
938,-50.781250
939,-52.734375
940,-54.687500
941,-56.640625
942,-58.593750
943,-60.546875
944,-62.500000
945,-64.453125
946,-66.406250
947,-68.359375
948,-70.312500
949,-72.265625
950,-72.265625
951,-74.218750
952,-76.171875
953,-78.125000
954,-78.125000
955,-80.078125
956,-82.031250
957,-83.984375
958,-85.937500
959,-87.890625
960,-87.890625
961,-89.843750
962,-89.843750
963,-91.796875
964,-93.750000
965,-93.750000
966,-95.703125
967,-95.703125
968,-97.656250
969,-99.609375
970,-99.609375
971,-99.609375
972,-99.609375
973,-101.562500
974,-101.562500
975,-103.515625
976,-103.515625
977,-105.468750
978,-103.515625
979,-103.515625
980,-105.468750
981,-105.468750
982,-105.468750
983,-105.468750
984,-105.468750
985,-105.468750
986,-105.468750
987,-105.468750
988,-105.468750
989,-107.421875
990,-105.468750
991,-105.468750
992,-105.468750
993,-105.468750
994,-105.468750
995,-103.515625
996,-103.515625
997,-103.515625
998,-101.562500
999,-101.562500
1000,-101.562500
1001,-99.609375
1002,-99.609375
1003,-99.609375
1004,-97.656250
1005,-97.656250
1006,-95.703125
1007,-95.703125
1008,-93.750000
1009,-91.796875
1010,-91.796875
1011,-89.843750
1012,-89.843750
1013,-87.890625
1014,-85.937500
1015,-83.984375
1016,-83.984375
1017,-82.031250
1018,-80.078125
1019,-80.078125
1020,-78.125000
1021,-76.171875
1022,-74.218750
1023,-72.265625
1024,-70.312500
1025,-70.312500
1026,-68.359375
1027,-66.406250
1028,-64.453125
1029,-62.500000
1030,-60.546875
1031,-58.593750
1032,-56.640625
1033,-54.687500
1034,-52.734375
1035,-50.781250
1036,-48.828125
1037,-46.875000
1038,-44.921875
1039,-42.968750
1040,-41.015625
1041,-39.062500
1042,-37.109375
1043,-35.156250
1044,-31.250000
1045,-29.296875
1046,-27.343750
1047,-27.343750
1048,-23.437500
1049,-21.484375
1050,-19.531250
1051,-17.578125
1052,-15.625000
1053,-13.671875
1054,-11.718750
1055,-7.812500
1056,-5.859375
1057,-3.906250
1058,-1.953125
1059,0.000000
1060,1.953125
1061,5.859375
1062,5.859375
1063,9.765625
1064,11.718750
1065,13.671875
1066,15.625000
1067,17.578125
1068,19.531250
1069,21.484375
1070,23.437500
1071,25.390625
1072,27.343750
1073,29.296875
1074,31.250000
1075,33.203125
1076,35.156250
1077,37.109375
1078,39.062500
1079,41.015625
1080,42.968750
1081,44.921875
1082,44.921875
1083,46.875000
1084,48.828125
1085,50.781250
1086,52.734375
1087,54.687500
1088,56.640625
1089,56.640625
1090,58.593750
1091,60.546875
1092,60.546875
1093,62.500000
1094,64.453125
1095,64.453125
1096,66.406250
1097,68.359375
1098,68.359375
1099,70.312500
1100,72.265625
1101,72.265625
1102,74.218750
1103,74.218750
1104,76.171875
1105,76.171875
1106,76.171875
1107,78.125000
1108,78.125000
1109,80.078125
1110,80.078125
1111,82.031250
1112,82.031250
1113,82.031250
1114,83.984375
1115,83.984375
1116,83.984375
1117,83.984375
1118,83.984375
1119,85.937500
1120,85.937500
1121,85.937500
1122,85.937500
1123,85.937500
1124,85.937500
1125,85.937500
1126,87.890625
1127,85.937500
1128,85.937500
1129,87.890625
1130,85.937500
1131,87.890625
1132,87.890625
1133,85.937500
1134,85.937500
1135,85.937500
1136,85.937500
1137,85.937500
1138,83.984375
1139,83.984375
1140,83.984375
1141,83.984375
1142,83.984375
1143,82.031250
1144,82.031250
1145,82.031250
1146,80.078125
1147,80.078125
1148,78.125000
1149,78.125000
1150,78.125000
1151,76.171875
1152,74.218750
1153,72.265625
1154,72.265625
1155,72.265625
1156,70.312500
1157,70.312500
1158,68.359375
1159,66.406250
1160,66.406250
1161,64.453125
1162,62.500000
1163,62.500000
1164,60.546875
1165,58.593750
1166,58.593750
1167,56.640625
1168,54.687500
1169,52.734375
1170,50.781250
1171,50.781250
1172,46.875000
1173,46.875000
1174,44.921875
1175,42.968750
1176,41.015625
1177,39.062500
1178,37.109375
1179,35.156250
1180,33.203125
1181,31.250000
1182,29.296875
1183,29.296875
1184,25.390625
1185,23.437500
1186,21.484375
1187,19.531250
1188,17.578125
1189,15.625000
1190,13.671875
1191,11.718750
1192,9.765625
1193,7.812500
1194,5.859375
1195,3.906250
1196,1.953125
1197,-1.953125
1198,-3.906250
1199,-5.859375
1200,-7.812500
1201,-9.765625
1202,-11.718750
1203,-13.671875
1204,-15.625000
1205,-17.578125
1206,-19.531250
1207,-23.437500
1208,-23.437500
1209,-27.343750
1210,-29.296875
1211,-33.203125
1212,-33.203125
1213,-35.156250
1214,-37.109375
1215,-39.062500
1216,-41.015625
1217,-42.968750
1218,-46.875000
1219,-46.875000
1220,-48.828125
1221,-50.781250
1222,-56.640625
1223,-56.640625
1224,-58.593750
1225,-60.546875
1226,-62.500000
1227,-64.453125
1228,-62.500000
1229,-68.359375
1230,-70.312500
1231,-70.312500
1232,-72.265625
1233,-74.218750
1234,-76.171875
1235,-78.125000
1236,-78.125000
1237,-82.031250
1238,-82.031250
1239,-83.984375
1240,-85.937500
1241,-85.937500
1242,-87.890625
1243,-89.843750
1244,-91.796875
1245,-91.796875
1246,-91.796875
1247,-93.750000
1248,-95.703125
1249,-95.703125
1250,-97.656250
1251,-97.656250
1252,-99.609375
1253,-99.609375
1254,-101.562500
1255,-101.562500
1256,-101.562500
1257,-103.515625
1258,-103.515625
1259,-103.515625
1260,-103.515625
1261,-105.468750
1262,-105.468750
1263,-105.468750
1264,-105.468750
1265,-105.468750
1266,-105.468750
1267,-105.468750
1268,-105.468750
1269,-107.421875
1270,-105.468750
1271,-105.468750
1272,-105.468750
1273,-105.468750
1274,-105.468750
1275,-105.468750
1276,-105.468750
1277,-103.515625
1278,-103.515625
1279,-103.515625
1280,-103.515625
1281,-101.562500
1282,-101.562500
1283,-101.562500
1284,-99.609375
1285,-99.609375
1286,-97.656250
1287,-97.656250
1288,-95.703125
1289,-95.703125
1290,-95.703125
1291,-93.750000
1292,-91.796875
1293,-91.796875
1294,-89.843750
1295,-89.843750
1296,-87.890625
1297,-85.937500
1298,-83.984375
1299,-82.031250
1300,-82.031250
1301,-80.078125
1302,-78.125000
1303,-78.125000
1304,-76.171875
1305,-74.218750
1306,-72.265625
1307,-70.312500
1308,-68.359375
1309,-66.406250
1310,-64.453125
1311,-62.500000
1312,-60.546875
1313,-60.546875
1314,-56.640625
1315,-54.687500
1316,-54.687500
1317,-50.781250
1318,-48.828125
1319,-46.875000
1320,-44.921875
1321,-42.968750
1322,-41.015625
1323,-39.062500
1324,-37.109375
1325,-35.156250
1326,-31.250000
1327,-31.250000
1328,-29.296875
1329,-25.390625
1330,-23.437500
1331,-21.484375
1332,-19.531250
1333,-17.578125
1334,-15.625000
1335,-13.671875
1336,-11.718750
1337,-7.812500
1338,-7.812500
1339,-3.906250
1340,-1.953125
1341,0.000000
1342,1.953125
1343,3.906250
1344,5.859375
1345,7.812500
1346,9.765625
1347,11.718750
1348,15.625000
1349,17.578125
1350,19.531250
1351,21.484375
1352,23.437500
1353,25.390625
1354,27.343750
1355,29.296875
1356,31.250000
1357,33.203125
1358,35.156250
1359,37.109375
1360,39.062500
1361,39.062500
1362,42.968750
1363,42.968750
1364,44.921875
1365,46.875000
1366,48.828125
1367,50.781250
1368,52.734375
1369,52.734375
1370,54.687500
1371,56.640625
1372,56.640625
1373,58.593750
1374,60.546875
1375,62.500000
1376,64.453125
1377,64.453125
1378,66.406250
1379,66.406250
1380,68.359375
1381,70.312500
1382,70.312500
1383,72.265625
1384,74.218750
1385,74.218750
1386,76.171875
1387,76.171875
1388,78.125000
1389,78.125000
1390,78.125000
1391,80.078125
1392,80.078125
1393,82.031250
1394,82.031250
1395,82.031250
1396,85.937500
1397,83.984375
1398,83.984375
1399,83.984375
1400,85.937500
1401,85.937500
1402,85.937500
1403,85.937500
1404,85.937500
1405,85.937500
1406,85.937500
1407,87.890625
1408,85.937500
1409,85.937500
1410,87.890625
1411,87.890625
1412,85.937500
1413,85.937500
1414,87.890625
1415,87.890625
1416,85.937500
1417,85.937500
1418,85.937500
1419,85.937500
1420,85.937500
1421,83.984375
1422,83.984375
1423,83.984375
1424,83.984375
1425,82.031250
1426,82.031250
1427,82.031250
1428,80.078125
1429,80.078125
1430,78.125000
1431,78.125000
1432,78.125000
1433,76.171875
1434,76.171875
1435,74.218750
1436,72.265625
1437,72.265625
1438,72.265625
1439,70.312500
1440,68.359375
1441,70.312500
1442,66.406250
1443,64.453125
1444,64.453125
1445,62.500000
1446,60.546875
1447,60.546875
1448,58.593750
1449,56.640625
1450,54.687500
1451,54.687500
1452,52.734375
1453,50.781250
1454,48.828125
1455,46.875000
1456,44.921875
1457,42.968750
1458,42.968750
1459,41.015625
1460,39.062500
1461,37.109375
1462,35.156250
1463,33.203125
1464,31.250000
1465,29.296875
1466,27.343750
1467,25.390625
1468,23.437500
1469,21.484375
1470,19.531250
1471,17.578125
1472,15.625000
1473,13.671875
1474,9.765625
1475,7.812500
1476,5.859375
1477,3.906250
1478,1.953125
1479,0.000000
1480,-1.953125
1481,-3.906250
1482,-5.859375
1483,-7.812500
1484,-9.765625
1485,-13.671875
1486,-15.625000
1487,-17.578125
1488,-19.531250
1489,-21.484375
1490,-23.437500
1491,-25.390625
1492,-27.343750
1493,-31.250000
1494,-33.203125
1495,-35.156250
1496,-37.109375
1497,-39.062500
1498,-41.015625
1499,-42.968750
1500,-44.921875
1501,-46.875000
1502,-48.828125
1503,-50.781250
1504,-54.687500
1505,-56.640625
1506,-56.640625
1507,-58.593750
1508,-60.546875
1509,-62.500000
1510,-64.453125
1511,-66.406250
1512,-68.359375
1513,-70.312500
1514,-72.265625
1515,-74.218750
1516,-74.218750
1517,-78.125000
1518,-78.125000
1519,-80.078125
1520,-82.031250
1521,-82.031250
1522,-83.984375
1523,-85.937500
1524,-87.890625
1525,-87.890625
1526,-89.843750
1527,-91.796875
1528,-91.796875
1529,-93.750000
1530,-93.750000
1531,-95.703125
1532,-97.656250
1533,-97.656250
1534,-97.656250
1535,-99.609375
1536,-99.609375
1537,-101.562500
1538,-101.562500
1539,-103.515625
1540,-103.515625
1541,-101.562500
1542,-103.515625
1543,-103.515625
1544,-103.515625
1545,-105.468750
1546,-105.468750
1547,-105.468750
1548,-105.468750
1549,-105.468750
1550,-105.468750
1551,-105.468750
1552,-105.468750
1553,-105.468750
1554,-105.468750
1555,-105.468750
1556,-105.468750
1557,-105.468750
1558,-105.468750
1559,-103.515625
1560,-103.515625
1561,-103.515625
1562,-103.515625
1563,-101.562500
1564,-101.562500
1565,-103.515625
1566,-99.609375
1567,-99.609375
1568,-97.656250
1569,-97.656250
1570,-97.656250
1571,-95.703125
1572,-95.703125
1573,-93.750000
1574,-93.750000
1575,-91.796875
1576,-89.843750
1577,-87.890625
1578,-87.890625
1579,-85.937500
1580,-83.984375
1581,-83.984375
1582,-85.937500
1583,-80.078125
1584,-80.078125
1585,-78.125000
1586,-76.171875
1587,-74.218750
1588,-72.265625
1589,-70.312500
1590,-68.359375
1591,-66.406250
1592,-64.453125
1593,-62.500000
1594,-60.546875
1595,-60.546875
1596,-58.593750
1597,-54.687500
1598,-52.734375
1599,-50.781250
1600,-48.828125
1601,-48.828125
1602,-46.875000
1603,-42.968750
1604,-41.015625
1605,-39.062500
1606,-37.109375
1607,-35.156250
1608,-33.203125
1609,-31.250000
1610,-29.296875
1611,-27.343750
1612,-23.437500
1613,-23.437500
1614,-21.484375
1615,-17.578125
1616,-17.578125
1617,-11.718750
1618,-11.718750
1619,-9.765625
1620,-7.812500
1621,-5.859375
1622,-3.906250
1623,-1.953125
1624,1.953125
1625,1.953125
1626,5.859375
1627,7.812500
1628,9.765625
1629,11.718750
1630,13.671875
1631,15.625000
1632,17.578125
1633,21.484375
1634,23.437500
1635,23.437500
1636,25.390625
1637,27.343750
1638,29.296875
1639,31.250000
1640,33.203125
1641,35.156250
1642,37.109375
1643,39.062500
1644,41.015625
1645,42.968750
1646,44.921875
1647,46.875000
1648,46.875000
1649,48.828125
1650,52.734375
1651,52.734375
1652,54.687500
1653,56.640625
1654,56.640625
1655,58.593750
1656,60.546875
1657,62.500000
1658,62.500000
1659,64.453125
1660,66.406250
1661,66.406250
1662,68.359375
1663,70.312500
1664,70.312500
1665,72.265625
1666,72.265625
1667,74.218750
1668,74.218750
1669,76.171875
1670,76.171875
1671,78.125000
1672,78.125000
1673,80.078125
1674,80.078125
1675,80.078125
1676,82.031250
1677,82.031250
1678,82.031250
1679,83.984375
1680,83.984375
1681,83.984375
1682,85.937500
1683,85.937500
1684,85.937500
1685,85.937500
1686,85.937500
1687,87.890625
1688,85.937500
1689,85.937500
1690,85.937500
1691,85.937500
1692,85.937500
1693,87.890625
1694,87.890625
1695,87.890625
1696,87.890625
1697,85.937500
1698,87.890625
1699,85.937500
1700,85.937500
1701,85.937500
1702,85.937500
1703,85.937500
1704,83.984375
1705,83.984375
1706,83.984375
1707,82.031250
1708,82.031250
1709,82.031250
1710,80.078125
1711,80.078125
1712,80.078125
1713,78.125000
1714,78.125000
1715,76.171875
1716,76.171875
1717,76.171875
1718,74.218750
1719,72.265625
1720,72.265625
1721,70.312500
1722,70.312500
1723,68.359375
1724,66.406250
1725,66.406250
1726,64.453125
1727,62.500000
1728,62.500000
1729,60.546875
1730,58.593750
1731,56.640625
1732,56.640625
1733,54.687500
1734,52.734375
1735,50.781250
1736,48.828125
1737,48.828125
1738,46.875000
1739,44.921875
1740,42.968750
1741,41.015625
1742,39.062500
1743,37.109375
1744,35.156250
1745,33.203125
1746,31.250000
1747,29.296875
1748,29.296875
1749,25.390625
1750,23.437500
1751,21.484375
1752,19.531250
1753,17.578125
1754,15.625000
1755,13.671875
1756,11.718750
1757,9.765625
1758,5.859375
1759,5.859375
1760,3.906250
1761,1.953125
1762,-1.953125
1763,-3.906250
1764,-5.859375
1765,-7.812500
1766,-9.765625
1767,-11.718750
1768,-13.671875
1769,-15.625000
1770,-19.531250
1771,-21.484375
1772,-23.437500
1773,-25.390625
1774,-27.343750
1775,-33.203125
1776,-31.250000
1777,-33.203125
1778,-35.156250
1779,-37.109375
1780,-41.015625
1781,-42.968750
1782,-44.921875
1783,-44.921875
1784,-48.828125
1785,-50.781250
1786,-52.734375
1787,-54.687500
1788,-56.640625
1789,-58.593750
1790,-60.546875
1791,-62.500000
1792,-64.453125
1793,-66.406250
1794,-68.359375
1795,-70.312500
1796,-70.312500
1797,-72.265625
1798,-74.218750
1799,-76.171875
1800,-78.125000
1801,-80.078125
1802,-80.078125
1803,-82.031250
1804,-83.984375
1805,-85.937500
1806,-85.937500
1807,-87.890625
1808,-89.843750
1809,-89.843750
1810,-91.796875
1811,-89.843750
1812,-93.750000
1813,-95.703125
1814,-95.703125
1815,-97.656250
1816,-97.656250
1817,-99.609375
1818,-99.609375
1819,-101.562500
1820,-101.562500
1821,-101.562500
1822,-101.562500
1823,-103.515625
1824,-103.515625
1825,-103.515625
1826,-105.468750
1827,-105.468750
1828,-105.468750
1829,-105.468750
1830,-105.468750
1831,-105.468750
1832,-105.468750
1833,-105.468750
1834,-105.468750
1835,-105.468750
1836,-105.468750
1837,-105.468750
1838,-105.468750
1839,-105.468750
1840,-105.468750
1841,-103.515625
1842,-103.515625
1843,-103.515625
1844,-103.515625
1845,-101.562500
1846,-101.562500
1847,-99.609375
1848,-99.609375
1849,-99.609375
1850,-99.609375
1851,-97.656250
1852,-97.656250
1853,-95.703125
1854,-93.750000
1855,-93.750000
1856,-93.750000
1857,-91.796875
1858,-89.843750
1859,-89.843750
1860,-87.890625
1861,-85.937500
1862,-85.937500
1863,-83.984375
1864,-82.031250
1865,-80.078125
1866,-80.078125
1867,-78.125000
1868,-76.171875
1869,-74.218750
1870,-74.218750
1871,-70.312500
1872,-70.312500
1873,-66.406250
1874,-66.406250
1875,-64.453125
1876,-62.500000
1877,-60.546875
1878,-58.593750
1879,-56.640625
1880,-54.687500
1881,-52.734375
1882,-50.781250
1883,-48.828125
1884,-46.875000
1885,-44.921875
1886,-42.968750
1887,-41.015625
1888,-39.062500
1889,-37.109375
1890,-33.203125
1891,-31.250000
1892,-29.296875
1893,-27.343750
1894,-27.343750
1895,-23.437500
1896,-21.484375
1897,-19.531250
1898,-17.578125
1899,-13.671875
1900,-11.718750
1901,-9.765625
1902,-7.812500
1903,-5.859375
1904,-3.906250
1905,-1.953125
1906,1.953125
1907,3.906250
1908,5.859375
1909,7.812500
1910,9.765625
1911,11.718750
1912,13.671875
1913,15.625000
1914,17.578125
1915,19.531250
1916,21.484375
1917,23.437500
1918,25.390625
1919,27.343750
1920,29.296875
1921,31.250000
1922,33.203125
1923,35.156250
1924,37.109375
1925,39.062500
1926,41.015625
1927,42.968750
1928,44.921875
1929,46.875000
1930,46.875000
1931,48.828125
1932,50.781250
1933,52.734375
1934,54.687500
1935,54.687500
1936,56.640625
1937,58.593750
1938,60.546875
1939,60.546875
1940,62.500000
1941,64.453125
1942,66.406250
1943,66.406250
1944,68.359375
1945,68.359375
1946,70.312500
1947,72.265625
1948,72.265625
1949,74.218750
1950,74.218750
1951,76.171875
1952,76.171875
1953,78.125000
1954,78.125000
1955,78.125000
1956,80.078125
1957,80.078125
1958,82.031250
1959,82.031250
1960,82.031250
1961,83.984375
1962,83.984375
1963,83.984375
1964,85.937500
1965,85.937500
1966,85.937500
1967,85.937500
1968,85.937500
1969,85.937500
1970,85.937500
1971,87.890625
1972,87.890625
1973,87.890625
1974,87.890625
1975,87.890625
1976,87.890625
1977,85.937500
1978,85.937500
1979,87.890625
1980,85.937500
1981,85.937500
1982,85.937500
1983,85.937500
1984,85.937500
1985,85.937500
1986,85.937500
1987,85.937500
1988,83.984375
1989,82.031250
1990,83.984375
1991,82.031250
1992,80.078125
1993,80.078125
1994,80.078125
1995,78.125000
1996,78.125000
1997,76.171875
1998,76.171875
1999,74.218750
2000,74.218750
2001,72.265625
2002,72.265625
2003,70.312500
2004,70.312500
2005,68.359375
2006,66.406250
2007,66.406250
2008,64.453125
2009,64.453125
2010,62.500000
2011,60.546875
2012,58.593750
2013,56.640625
2014,56.640625
2015,54.687500
2016,52.734375
2017,50.781250
2018,48.828125
2019,48.828125
2020,46.875000
2021,44.921875
2022,42.968750
2023,41.015625
2024,39.062500
2025,39.062500
2026,35.156250
2027,33.203125
2028,31.250000
2029,31.250000
2030,27.343750
2031,25.390625
2032,23.437500
2033,21.484375
2034,19.531250
2035,17.578125
2036,15.625000
2037,13.671875
2038,11.718750
2039,9.765625
2040,7.812500
2041,5.859375
2042,3.906250
2043,1.953125
2044,-1.953125
2045,-1.953125
2046,-3.906250
2047,-7.812500
2048,-9.765625
2049,-11.718750
2050,-13.671875
2051,-15.625000
2052,-19.531250
2053,-21.484375
2054,-23.437500
2055,-25.390625
2056,-25.390625
2057,-29.296875
2058,-31.250000
2059,-33.203125
2060,-35.156250
2061,-39.062500
2062,-39.062500
2063,-41.015625
2064,-42.968750
2065,-44.921875
2066,-46.875000
2067,-50.781250
2068,-52.734375
2069,-54.687500
2070,-56.640625
2071,-56.640625
2072,-60.546875
2073,-60.546875
2074,-64.453125
2075,-66.406250
2076,-68.359375
2077,-68.359375
2078,-70.312500
2079,-72.265625
2080,-74.218750
2081,-76.171875
2082,-78.125000
2083,-78.125000
2084,-80.078125
2085,-82.031250
2086,-83.984375
2087,-85.937500
2088,-85.937500
2089,-87.890625
2090,-89.843750
2091,-89.843750
2092,-91.796875
2093,-93.750000
2094,-93.750000
2095,-93.750000
2096,-95.703125
2097,-97.656250
2098,-97.656250
2099,-99.609375
2100,-99.609375
2101,-99.609375
2102,-99.609375
2103,-101.562500
2104,-101.562500
2105,-103.515625
2106,-103.515625
2107,-103.515625
2108,-103.515625
2109,-105.468750
2110,-105.468750
2111,-105.468750
2112,-105.468750
2113,-105.468750
2114,-105.468750
2115,-105.468750
2116,-105.468750
2117,-105.468750
2118,-105.468750
2119,-105.468750
2120,-105.468750
2121,-105.468750
2122,-105.468750
2123,-105.468750
2124,-103.515625
2125,-103.515625
2126,-103.515625
2127,-103.515625
2128,-103.515625
2129,-101.562500
2130,-101.562500
2131,-99.609375
2132,-99.609375
2133,-99.609375
2134,-97.656250
2135,-95.703125
2136,-95.703125
2137,-95.703125
2138,-93.750000
2139,-91.796875
2140,-91.796875
2141,-89.843750
2142,-87.890625
2143,-87.890625
2144,-85.937500
2145,-85.937500
2146,-82.031250
2147,-80.078125
2148,-80.078125
2149,-78.125000
2150,-76.171875
2151,-76.171875
2152,-72.265625
2153,-72.265625
2154,-70.312500
2155,-68.359375
2156,-66.406250
2157,-64.453125
2158,-62.500000
2159,-60.546875
2160,-58.593750
2161,-56.640625
2162,-54.687500
2163,-52.734375
2164,-48.828125
2165,-48.828125
2166,-46.875000
2167,-44.921875
2168,-42.968750
2169,-41.015625
2170,-39.062500
2171,-37.109375
2172,-35.156250
2173,-33.203125
2174,-31.250000
2175,-27.343750
2176,-25.390625
2177,-23.437500
2178,-21.484375
2179,-19.531250
2180,-17.578125
2181,-15.625000
2182,-13.671875
2183,-11.718750
2184,-9.765625
2185,-5.859375
2186,-3.906250
2187,-1.953125
2188,-1.953125
2189,1.953125
2190,3.906250
2191,5.859375
2192,7.812500
2193,9.765625
2194,13.671875
2195,15.625000
2196,17.578125
2197,15.625000
2198,21.484375
2199,23.437500
2200,23.437500
2201,25.390625
2202,27.343750
2203,29.296875
2204,33.203125
2205,33.203125
2206,37.109375
2207,39.062500
2208,39.062500
2209,41.015625
2210,44.921875
2211,44.921875
2212,46.875000
2213,46.875000
2214,46.875000
2215,50.781250
2216,52.734375
2217,54.687500
2218,56.640625
2219,56.640625
2220,58.593750
2221,60.546875
2222,62.500000
2223,62.500000
2224,64.453125
2225,66.406250
2226,66.406250
2227,68.359375
2228,70.312500
2229,70.312500
2230,72.265625
2231,74.218750
2232,74.218750
2233,76.171875
2234,76.171875
2235,78.125000
2236,78.125000
2237,80.078125
2238,80.078125
2239,80.078125
2240,80.078125
2241,82.031250
2242,82.031250
2243,83.984375
2244,83.984375
2245,83.984375
2246,83.984375
2247,83.984375
2248,85.937500
2249,85.937500
2250,85.937500
2251,85.937500
2252,85.937500
2253,87.890625
2254,87.890625
2255,87.890625
2256,87.890625
2257,85.937500
2258,87.890625
2259,87.890625
2260,87.890625
2261,85.937500
2262,85.937500
2263,85.937500
2264,85.937500
2265,85.937500
2266,85.937500
2267,85.937500
2268,85.937500
2269,83.984375
2270,83.984375
2271,83.984375
2272,82.031250
2273,82.031250
2274,82.031250
2275,80.078125
2276,80.078125
2277,78.125000
2278,78.125000
2279,78.125000
2280,76.171875
2281,76.171875
2282,74.218750
2283,74.218750
2284,72.265625
2285,70.312500
2286,70.312500
2287,70.312500
2288,68.359375
2289,66.406250
2290,66.406250
2291,64.453125
2292,62.500000
2293,62.500000
2294,60.546875
2295,58.593750
2296,56.640625
2297,56.640625
2298,54.687500
2299,52.734375
2300,50.781250
2301,48.828125
2302,46.875000
2303,46.875000
2304,44.921875
2305,42.968750
2306,39.062500
2307,39.062500
2308,37.109375
2309,35.156250
2310,33.203125
2311,31.250000
2312,29.296875
2313,27.343750
2314,25.390625
2315,23.437500
2316,21.484375
2317,19.531250
2318,17.578125
2319,15.625000
2320,13.671875
2321,9.765625
2322,9.765625
2323,5.859375
2324,3.906250
2325,1.953125
2326,0.000000
2327,-1.953125
2328,-3.906250
2329,-5.859375
2330,-7.812500
2331,-9.765625
2332,-11.718750
2333,-15.625000
2334,-17.578125
2335,-19.531250
2336,-21.484375
2337,-23.437500
2338,-27.343750
2339,-29.296875
2340,-31.250000
2341,-31.250000
2342,-33.203125
2343,-37.109375
2344,-42.968750
2345,-41.015625
2346,-46.875000
2347,-46.875000
2348,-46.875000
2349,-48.828125
2350,-50.781250
2351,-52.734375
2352,-54.687500
2353,-56.640625
2354,-58.593750
2355,-60.546875
2356,-62.500000
2357,-64.453125
2358,-66.406250
2359,-68.359375
2360,-70.312500
2361,-72.265625
2362,-72.265625
2363,-74.218750
2364,-80.078125
2365,-78.125000
2366,-80.078125
2367,-80.078125
2368,-82.031250
2369,-83.984375
2370,-85.937500
2371,-87.890625
2372,-87.890625
2373,-89.843750
2374,-91.796875
2375,-91.796875
2376,-93.750000
2377,-93.750000
2378,-95.703125
2379,-95.703125
2380,-97.656250
2381,-97.656250
2382,-97.656250
2383,-99.609375
2384,-101.562500
2385,-101.562500
2386,-101.562500
2387,-101.562500
2388,-103.515625
2389,-103.515625
2390,-103.515625
2391,-105.468750
2392,-105.468750
2393,-107.421875
2394,-105.468750
2395,-105.468750
2396,-105.468750
2397,-107.421875
2398,-105.468750
2399,-105.468750
2400,-105.468750
2401,-105.468750
2402,-105.468750
2403,-105.468750
2404,-105.468750
2405,-105.468750
2406,-103.515625
2407,-103.515625
2408,-103.515625
2409,-101.562500
2410,-101.562500
2411,-101.562500
2412,-99.609375
2413,-101.562500
2414,-97.656250
2415,-99.609375
2416,-97.656250
2417,-97.656250
2418,-95.703125
2419,-95.703125
2420,-93.750000
2421,-91.796875
2422,-91.796875
2423,-89.843750
2424,-87.890625
2425,-87.890625
2426,-85.937500
2427,-83.984375
2428,-83.984375
2429,-82.031250
2430,-80.078125
2431,-78.125000
2432,-78.125000
2433,-76.171875
2434,-74.218750
2435,-72.265625
2436,-70.312500
2437,-68.359375
2438,-66.406250
2439,-64.453125
2440,-62.500000
2441,-60.546875
2442,-58.593750
2443,-58.593750
2444,-54.687500
2445,-54.687500
2446,-50.781250
2447,-48.828125
2448,-46.875000
2449,-44.921875
2450,-42.968750
2451,-42.968750
2452,-39.062500
2453,-37.109375
2454,-35.156250
2455,-33.203125
2456,-31.250000
2457,-29.296875
2458,-27.343750
2459,-23.437500
2460,-21.484375
2461,-21.484375
2462,-19.531250
2463,-15.625000
2464,-13.671875
2465,-11.718750
2466,-9.765625
2467,-7.812500
2468,-5.859375
2469,-3.906250
2470,0.000000
2471,0.000000
2472,3.906250
2473,5.859375
2474,7.812500
2475,9.765625
2476,11.718750
2477,13.671875
2478,15.625000
2479,17.578125
2480,19.531250
2481,21.484375
2482,25.390625
2483,27.343750
2484,27.343750
2485,29.296875
2486,31.250000
2487,35.156250
2488,35.156250
2489,37.109375
2490,39.062500
2491,41.015625
2492,42.968750
2493,44.921875
2494,46.875000
2495,48.828125
2496,48.828125
2497,50.781250
2498,52.734375
2499,54.687500
2500,56.640625
2501,58.593750
2502,58.593750
2503,60.546875
2504,62.500000
2505,62.500000
2506,64.453125
2507,66.406250
2508,66.406250
2509,68.359375
2510,70.312500
2511,70.312500
2512,72.265625
2513,72.265625
2514,74.218750
2515,74.218750
2516,78.125000
2517,76.171875
2518,78.125000
2519,78.125000
2520,80.078125
2521,80.078125
2522,80.078125
2523,82.031250
2524,82.031250
2525,82.031250
2526,83.984375
2527,83.984375
2528,83.984375
2529,83.984375
2530,85.937500
2531,85.937500
2532,85.937500
2533,83.984375
2534,85.937500
2535,85.937500
2536,85.937500
2537,85.937500
2538,85.937500
2539,87.890625
2540,87.890625
2541,87.890625
2542,87.890625
2543,85.937500
2544,87.890625
2545,85.937500
2546,85.937500
2547,83.984375
2548,85.937500
2549,85.937500
2550,85.937500
2551,83.984375
2552,83.984375
2553,83.984375
2554,82.031250
2555,82.031250
2556,82.031250
2557,80.078125
2558,80.078125
2559,78.125000
2560,78.125000
2561,78.125000
2562,76.171875
2563,76.171875
2564,74.218750
2565,74.218750
2566,74.218750
2567,72.265625
2568,70.312500
2569,70.312500
2570,68.359375
2571,66.406250
2572,64.453125
2573,64.453125
2574,62.500000
2575,60.546875
2576,60.546875
2577,58.593750
2578,56.640625
2579,56.640625
2580,54.687500
2581,52.734375
2582,50.781250
2583,50.781250
2584,46.875000
2585,44.921875
2586,42.968750
2587,42.968750
2588,41.015625
2589,39.062500
2590,37.109375
2591,35.156250
2592,33.203125
2593,31.250000
2594,29.296875
2595,27.343750
2596,25.390625
2597,23.437500
2598,21.484375
2599,19.531250
2600,15.625000
2601,15.625000
2602,13.671875
2603,11.718750
2604,9.765625
2605,7.812500
2606,3.906250
2607,1.953125
2608,0.000000
2609,-1.953125
2610,-3.906250
2611,-5.859375
2612,-7.812500
2613,-9.765625
2614,-11.718750
2615,-13.671875
2616,-17.578125
2617,-19.531250
2618,-21.484375
2619,-23.437500
2620,-25.390625
2621,-27.343750
2622,-29.296875
2623,-31.250000
2624,-33.203125
2625,-37.109375
2626,-39.062500
2627,-41.015625
2628,-42.968750
2629,-44.921875
2630,-46.875000
2631,-48.828125
2632,-50.781250
2633,-52.734375
2634,-54.687500
2635,-56.640625
2636,-58.593750
2637,-60.546875
2638,-62.500000
2639,-64.453125
2640,-66.406250
2641,-68.359375
2642,-70.312500
2643,-72.265625
2644,-74.218750
2645,-74.218750
2646,-76.171875
2647,-78.125000
2648,-80.078125
2649,-82.031250
2650,-83.984375
2651,-83.984375
2652,-85.937500
2653,-87.890625
2654,-87.890625
2655,-89.843750
2656,-89.843750
2657,-91.796875
2658,-93.750000
2659,-93.750000
2660,-95.703125
2661,-95.703125
2662,-97.656250
2663,-99.609375
2664,-99.609375
2665,-99.609375
2666,-101.562500
2667,-101.562500
2668,-101.562500
2669,-103.515625
2670,-103.515625
2671,-103.515625
2672,-103.515625
2673,-105.468750
2674,-105.468750
2675,-105.468750
2676,-105.468750
2677,-105.468750
2678,-105.468750
2679,-105.468750
2680,-105.468750
2681,-105.468750
2682,-105.468750
2683,-105.468750
2684,-105.468750
2685,-105.468750
2686,-105.468750
2687,-105.468750
2688,-103.515625
2689,-103.515625
2690,-103.515625
2691,-103.515625
2692,-101.562500
2693,-101.562500
2694,-101.562500
2695,-101.562500
2696,-99.609375
2697,-97.656250
2698,-97.656250
2699,-97.656250
2700,-97.656250
2701,-95.703125
2702,-93.750000
2703,-91.796875
2704,-91.796875
2705,-89.843750
2706,-89.843750
2707,-87.890625
2708,-85.937500
2709,-83.984375
2710,-83.984375
2711,-82.031250
2712,-82.031250
2713,-80.078125
2714,-78.125000
2715,-76.171875
2716,-74.218750
2717,-72.265625
2718,-72.265625
2719,-70.312500
2720,-68.359375
2721,-66.406250
2722,-64.453125
2723,-62.500000
2724,-60.546875
2725,-58.593750
2726,-56.640625
2727,-54.687500
2728,-52.734375
2729,-50.781250
2730,-48.828125
2731,-46.875000
2732,-44.921875
2733,-42.968750
2734,-41.015625
2735,-37.109375
2736,-35.156250
2737,-33.203125
2738,-31.250000
2739,-29.296875
2740,-27.343750
2741,-27.343750
2742,-23.437500
2743,-21.484375
2744,-19.531250
2745,-15.625000
2746,-13.671875
2747,-11.718750
2748,-9.765625
2749,-7.812500
2750,-9.765625
2751,-3.906250
2752,-3.906250
2753,1.953125
2754,1.953125
2755,5.859375
2756,7.812500
2757,9.765625
2758,11.718750
2759,13.671875
2760,15.625000
2761,17.578125
2762,19.531250
2763,21.484375
2764,23.437500
2765,25.390625
2766,27.343750
2767,29.296875
2768,31.250000
2769,33.203125
2770,35.156250
2771,37.109375
2772,39.062500
2773,41.015625
2774,42.968750
2775,44.921875
2776,46.875000
2777,46.875000
2778,48.828125
2779,50.781250
2780,52.734375
2781,54.687500
2782,54.687500
2783,56.640625
2784,60.546875
2785,60.546875
2786,60.546875
2787,62.500000
2788,64.453125
2789,64.453125
2790,66.406250
2791,68.359375
2792,70.312500
2793,70.312500
2794,72.265625
2795,72.265625
2796,74.218750
2797,74.218750
2798,76.171875
2799,76.171875
2800,78.125000
2801,78.125000
2802,80.078125
2803,80.078125
2804,80.078125
2805,82.031250
2806,82.031250
2807,82.031250
2808,83.984375
2809,83.984375
2810,83.984375
2811,83.984375
2812,85.937500
2813,83.984375
2814,85.937500
2815,85.937500
2816,85.937500
2817,85.937500
2818,85.937500
2819,87.890625
2820,87.890625
2821,87.890625
2822,87.890625
2823,87.890625
2824,85.937500
2825,87.890625
2826,87.890625
2827,85.937500
2828,85.937500
2829,85.937500
2830,85.937500
2831,85.937500
2832,83.984375
2833,83.984375
2834,83.984375
2835,83.984375
2836,83.984375
2837,82.031250
2838,82.031250
2839,82.031250
2840,80.078125
2841,80.078125
2842,78.125000
2843,78.125000
2844,76.171875
2845,76.171875
2846,76.171875
2847,74.218750
2848,72.265625
2849,72.265625
2850,70.312500
2851,68.359375
2852,68.359375
2853,66.406250
2854,66.406250
2855,64.453125
2856,64.453125
2857,62.500000
2858,60.546875
2859,58.593750
2860,56.640625
2861,56.640625
2862,54.687500
2863,52.734375
2864,50.781250
2865,50.781250
2866,48.828125
2867,46.875000
2868,44.921875
2869,42.968750
2870,41.015625
2871,39.062500
2872,37.109375
2873,35.156250
2874,35.156250
2875,33.203125
2876,29.296875
2877,27.343750
2878,27.343750
2879,23.437500
2880,21.484375
2881,21.484375
2882,17.578125
2883,15.625000
2884,13.671875
2885,11.718750
2886,9.765625
2887,7.812500
2888,5.859375
2889,3.906250
2890,1.953125
2891,-1.953125
2892,-3.906250
2893,-5.859375
2894,-7.812500
2895,-9.765625
2896,-11.718750
2897,-13.671875
2898,-15.625000
2899,-17.578125
2900,-19.531250
2901,-23.437500
2902,-23.437500
2903,-27.343750
2904,-29.296875
2905,-31.250000
2906,-33.203125
2907,-35.156250
2908,-39.062500
2909,-39.062500
2910,-41.015625
2911,-44.921875
2912,-46.875000
2913,-48.828125
2914,-50.781250
2915,-52.734375
2916,-54.687500
2917,-56.640625
2918,-58.593750
2919,-60.546875
2920,-62.500000
2921,-64.453125
2922,-66.406250
2923,-68.359375
2924,-68.359375
2925,-70.312500
2926,-72.265625
2927,-74.218750
2928,-76.171875
2929,-78.125000
2930,-80.078125
2931,-82.031250
2932,-82.031250
2933,-83.984375
2934,-85.937500
2935,-87.890625
2936,-87.890625
2937,-89.843750
2938,-91.796875
2939,-91.796875
2940,-91.796875
2941,-93.750000
2942,-95.703125
2943,-95.703125
2944,-97.656250
2945,-97.656250
2946,-99.609375
2947,-99.609375
2948,-101.562500
2949,-101.562500
2950,-101.562500
2951,-103.515625
2952,-103.515625
2953,-103.515625
2954,-103.515625
2955,-105.468750
2956,-105.468750
2957,-105.468750
2958,-105.468750
2959,-105.468750
2960,-105.468750
2961,-107.421875
2962,-107.421875
2963,-107.421875
2964,-105.468750
2965,-105.468750
2966,-105.468750
2967,-105.468750
2968,-105.468750
2969,-105.468750
2970,-105.468750
2971,-103.515625
2972,-105.468750
2973,-103.515625
2974,-103.515625
2975,-103.515625
2976,-101.562500
2977,-101.562500
2978,-101.562500
2979,-99.609375
2980,-99.609375
2981,-97.656250
2982,-95.703125
2983,-95.703125
2984,-95.703125
2985,-93.750000
2986,-91.796875
2987,-91.796875
2988,-89.843750
2989,-89.843750
2990,-87.890625
2991,-85.937500
2992,-83.984375
2993,-82.031250
2994,-82.031250
2995,-80.078125
2996,-78.125000
2997,-76.171875
2998,-76.171875
2999,-74.218750
3000,-72.265625
3001,-70.312500
3002,-68.359375
3003,-66.406250
3004,-64.453125
3005,-64.453125
3006,-60.546875
3007,-58.593750
3008,-56.640625
3009,-54.687500
3010,-52.734375
3011,-50.781250
3012,-48.828125
3013,-46.875000
3014,-44.921875
3015,-42.968750
3016,-41.015625
3017,-39.062500
3018,-37.109375
3019,-33.203125
3020,-33.203125
3021,-31.250000
3022,-29.296875
3023,-25.390625
3024,-23.437500
3025,-21.484375
3026,-19.531250
3027,-17.578125
3028,-15.625000
3029,-13.671875
3030,-9.765625
3031,-7.812500
3032,-7.812500
3033,-3.906250
3034,-1.953125
3035,0.000000
3036,1.953125
3037,3.906250
3038,7.812500
3039,7.812500
3040,9.765625
3041,11.718750
3042,15.625000
3043,15.625000
3044,17.578125
3045,21.484375
3046,23.437500
3047,25.390625
3048,27.343750
3049,29.296875
3050,29.296875
3051,33.203125
3052,35.156250
3053,37.109375
3054,39.062500
3055,41.015625
3056,41.015625
3057,42.968750
3058,44.921875
3059,46.875000
3060,48.828125
3061,50.781250
3062,52.734375
3063,52.734375
3064,56.640625
3065,56.640625
3066,58.593750
3067,58.593750
3068,60.546875
3069,62.500000
3070,64.453125
3071,64.453125
3072,66.406250
3073,68.359375
3074,68.359375
3075,70.312500
3076,70.312500
3077,72.265625
3078,72.265625
3079,74.218750
3080,76.171875
3081,76.171875
3082,76.171875
3083,78.125000
3084,78.125000
3085,80.078125
3086,82.031250
3087,82.031250
3088,82.031250
3089,82.031250
3090,83.984375
3091,83.984375
3092,83.984375
3093,83.984375
3094,83.984375
3095,85.937500
3096,85.937500
3097,85.937500
3098,85.937500
3099,85.937500
3100,85.937500
3101,85.937500
3102,87.890625
3103,85.937500
3104,87.890625
3105,85.937500
3106,85.937500
3107,85.937500
3108,85.937500
3109,85.937500
3110,85.937500
3111,85.937500
3112,85.937500
3113,85.937500
3114,83.984375
3115,83.984375
3116,83.984375
3117,83.984375
3118,83.984375
3119,82.031250
3120,82.031250
3121,80.078125
3122,82.031250
3123,80.078125
3124,78.125000
3125,78.125000
3126,78.125000
3127,76.171875
3128,76.171875
3129,70.312500
3130,74.218750
3131,72.265625
3132,72.265625
3133,70.312500
3134,68.359375
3135,68.359375
3136,66.406250
3137,66.406250
3138,66.406250
3139,62.500000
3140,60.546875
3141,60.546875
3142,58.593750
3143,56.640625
3144,56.640625
3145,56.640625
3146,52.734375
3147,50.781250
3148,48.828125
3149,46.875000
3150,46.875000
3151,42.968750
3152,42.968750
3153,41.015625
3154,39.062500
3155,37.109375
3156,35.156250
3157,33.203125
3158,31.250000
3159,29.296875
3160,27.343750
3161,27.343750
3162,23.437500
3163,21.484375
3164,19.531250
3165,17.578125
3166,15.625000
3167,11.718750
3168,9.765625
3169,7.812500
3170,5.859375
3171,3.906250
3172,0.000000
3173,0.000000
3174,-1.953125
3175,-3.906250
3176,-5.859375
3177,-9.765625
3178,-11.718750
3179,-13.671875
3180,-15.625000
3181,-17.578125
3182,-19.531250
3183,-21.484375
3184,-23.437500
3185,-25.390625
3186,-27.343750
3187,-31.250000
3188,-33.203125
3189,-35.156250
3190,-37.109375
3191,-39.062500
3192,-41.015625
3193,-42.968750
3194,-44.921875
3195,-46.875000
3196,-48.828125
3197,-50.781250
3198,-52.734375
3199,-54.687500
3200,-58.593750
3201,-58.593750
3202,-60.546875
3203,-62.500000
3204,-64.453125
3205,-66.406250
3206,-68.359375
3207,-70.312500
3208,-72.265625
3209,-74.218750
3210,-74.218750
3211,-76.171875
3212,-78.125000
3213,-80.078125
3214,-82.031250
3215,-83.984375
3216,-83.984375
3217,-85.937500
3218,-87.890625
3219,-87.890625
3220,-89.843750
3221,-91.796875
3222,-91.796875
3223,-93.750000
3224,-93.750000
3225,-95.703125
3226,-97.656250
3227,-97.656250
3228,-97.656250
3229,-99.609375
3230,-99.609375
3231,-99.609375
3232,-101.562500
3233,-101.562500
3234,-101.562500
3235,-103.515625
3236,-103.515625
3237,-103.515625
3238,-103.515625
3239,-103.515625
3240,-105.468750
3241,-105.468750
3242,-105.468750
3243,-105.468750
3244,-105.468750
3245,-105.468750
3246,-105.468750
3247,-105.468750
3248,-105.468750
3249,-105.468750
3250,-105.468750
3251,-105.468750
3252,-103.515625
3253,-103.515625
3254,-103.515625
3255,-101.562500
3256,-101.562500
3257,-101.562500
3258,-101.562500
3259,-101.562500
3260,-99.609375
3261,-99.609375
3262,-97.656250
3263,-97.656250
3264,-95.703125
3265,-95.703125
3266,-93.750000
3267,-93.750000
3268,-91.796875
3269,-91.796875
3270,-89.843750
3271,-87.890625
3272,-85.937500
3273,-85.937500
3274,-83.984375
3275,-82.031250
3276,-82.031250
3277,-80.078125
3278,-78.125000
3279,-76.171875
3280,-74.218750
3281,-74.218750
3282,-72.265625
3283,-70.312500
3284,-68.359375
3285,-66.406250
3286,-64.453125
3287,-62.500000
3288,-60.546875
3289,-58.593750
3290,-58.593750
3291,-54.687500
3292,-52.734375
3293,-50.781250
3294,-48.828125
3295,-46.875000
3296,-44.921875
3297,-42.968750
3298,-41.015625
3299,-39.062500
3300,-35.156250
3301,-35.156250
3302,-33.203125
3303,-29.296875
3304,-27.343750
3305,-27.343750
3306,-25.390625
3307,-21.484375
3308,-19.531250
3309,-17.578125
3310,-15.625000
3311,-13.671875
3312,-11.718750
3313,-9.765625
3314,-5.859375
3315,-3.906250
3316,-1.953125
3317,0.000000
3318,1.953125
3319,3.906250
3320,5.859375
3321,7.812500
3322,5.859375
3323,11.718750
3324,11.718750
3325,15.625000
3326,19.531250
3327,21.484375
3328,23.437500
3329,25.390625
3330,27.343750
3331,29.296875
3332,29.296875
3333,33.203125
3334,35.156250
3335,37.109375
3336,37.109375
3337,39.062500
3338,41.015625
3339,42.968750
3340,44.921875
3341,46.875000
3342,48.828125
3343,50.781250
3344,50.781250
3345,54.687500
3346,54.687500
3347,56.640625
3348,58.593750
3349,58.593750
3350,60.546875
3351,62.500000
3352,64.453125
3353,64.453125
3354,66.406250
3355,68.359375
3356,68.359375
3357,70.312500
3358,70.312500
3359,72.265625
3360,72.265625
3361,74.218750
3362,76.171875
3363,72.265625
3364,76.171875
3365,78.125000
3366,78.125000
3367,78.125000
3368,80.078125
3369,80.078125
3370,80.078125
3371,83.984375
3372,85.937500
3373,83.984375
3374,83.984375
3375,83.984375
3376,85.937500
3377,85.937500
3378,85.937500
3379,85.937500
3380,85.937500
3381,85.937500
3382,85.937500
3383,87.890625
3384,87.890625
3385,87.890625
3386,85.937500
3387,87.890625
3388,87.890625
3389,87.890625
3390,87.890625
3391,85.937500
3392,85.937500
3393,85.937500
3394,85.937500
3395,85.937500
3396,85.937500
3397,83.984375
3398,83.984375
3399,83.984375
3400,83.984375
3401,82.031250
3402,82.031250
3403,82.031250
3404,82.031250
3405,80.078125
3406,80.078125
3407,78.125000
3408,78.125000
3409,76.171875
3410,76.171875
3411,74.218750
3412,74.218750
3413,72.265625
3414,72.265625
3415,70.312500
3416,70.312500
3417,68.359375
3418,66.406250
3419,66.406250
3420,64.453125
3421,62.500000
3422,60.546875
3423,60.546875
3424,58.593750
3425,56.640625
3426,54.687500
3427,54.687500
3428,52.734375
3429,50.781250
3430,48.828125
3431,46.875000
3432,44.921875
3433,42.968750
3434,42.968750
3435,41.015625
3436,39.062500
3437,37.109375
3438,35.156250
3439,33.203125
3440,31.250000
3441,27.343750
3442,27.343750
3443,25.390625
3444,23.437500
3445,21.484375
3446,19.531250
3447,17.578125
3448,15.625000
3449,13.671875
3450,11.718750
3451,7.812500
3452,5.859375
3453,5.859375
3454,3.906250
3455,0.000000
3456,-1.953125
3457,-3.906250
3458,-5.859375
3459,-7.812500
3460,-9.765625
3461,-13.671875
3462,-15.625000
3463,-17.578125
3464,-19.531250
3465,-21.484375
3466,-23.437500
3467,-25.390625
3468,-27.343750
3469,-29.296875
3470,-33.203125
3471,-35.156250
3472,-37.109375
3473,-39.062500
3474,-41.015625
3475,-42.968750
3476,-44.921875
3477,-46.875000
3478,-48.828125
3479,-50.781250
3480,-52.734375
3481,-54.687500
3482,-56.640625
3483,-58.593750
3484,-60.546875
3485,-62.500000
3486,-64.453125
3487,-66.406250
3488,-68.359375
3489,-70.312500
3490,-72.265625
3491,-74.218750
3492,-74.218750
3493,-76.171875
3494,-78.125000
3495,-80.078125
3496,-82.031250
3497,-83.984375
3498,-83.984375
3499,-85.937500
3500,-87.890625
3501,-87.890625
3502,-89.843750
3503,-91.796875
3504,-91.796875
3505,-93.750000
3506,-95.703125
3507,-95.703125
3508,-97.656250
3509,-99.609375
3510,-99.609375
3511,-99.609375
3512,-99.609375
3513,-101.562500
3514,-101.562500
3515,-103.515625
3516,-103.515625
3517,-103.515625
3518,-103.515625
3519,-103.515625
3520,-105.468750
3521,-105.468750
3522,-105.468750
3523,-105.468750
3524,-103.515625
3525,-107.421875
3526,-105.468750
3527,-105.468750
3528,-107.421875
3529,-105.468750
3530,-105.468750
3531,-105.468750
3532,-105.468750
3533,-105.468750
3534,-105.468750
3535,-105.468750
3536,-103.515625
3537,-103.515625
3538,-103.515625
3539,-103.515625
3540,-101.562500
3541,-101.562500
3542,-101.562500
3543,-99.609375
3544,-99.609375
3545,-99.609375
3546,-97.656250
3547,-95.703125
3548,-95.703125
3549,-93.750000
3550,-93.750000
3551,-91.796875
3552,-91.796875
3553,-89.843750
3554,-87.890625
3555,-87.890625
3556,-85.937500
3557,-83.984375
3558,-83.984375
3559,-80.078125
3560,-80.078125
3561,-78.125000
3562,-76.171875
3563,-76.171875
3564,-74.218750
3565,-72.265625
3566,-70.312500
3567,-68.359375
3568,-66.406250
3569,-64.453125
3570,-62.500000
3571,-60.546875
3572,-58.593750
3573,-56.640625
3574,-56.640625
3575,-52.734375
3576,-50.781250
3577,-48.828125
3578,-46.875000
3579,-44.921875
3580,-42.968750
3581,-41.015625
3582,-39.062500
3583,-37.109375
3584,-33.203125
3585,-33.203125
3586,-29.296875
3587,-27.343750
3588,-25.390625
3589,-23.437500
3590,-21.484375
3591,-19.531250
3592,-17.578125
3593,-13.671875
3594,-11.718750
3595,-9.765625
3596,-7.812500
3597,-5.859375
3598,-3.906250
3599,-1.953125
3600,0.000000
3601,1.953125
3602,5.859375
3603,5.859375
3604,9.765625
3605,11.718750
3606,13.671875
3607,15.625000
3608,17.578125
3609,19.531250
3610,21.484375
3611,23.437500
3612,25.390625
3613,27.343750
3614,29.296875
3615,31.250000
3616,33.203125
3617,35.156250
3618,37.109375
3619,39.062500
3620,41.015625
3621,41.015625
3622,42.968750
3623,46.875000
3624,46.875000
3625,48.828125
3626,50.781250
3627,52.734375
3628,54.687500
3629,54.687500
3630,56.640625
3631,58.593750
3632,58.593750
3633,60.546875
3634,62.500000
3635,64.453125
3636,66.406250
3637,66.406250
3638,68.359375
3639,68.359375
3640,70.312500
3641,70.312500
3642,72.265625
3643,74.218750
3644,74.218750
3645,76.171875
3646,76.171875
3647,78.125000
3648,78.125000
3649,80.078125
3650,80.078125
3651,80.078125
3652,80.078125
3653,82.031250
3654,82.031250
3655,83.984375
3656,83.984375
3657,83.984375
3658,83.984375
3659,85.937500
3660,85.937500
3661,85.937500
3662,85.937500
3663,85.937500
3664,85.937500
3665,87.890625
3666,87.890625
3667,87.890625
3668,87.890625
3669,87.890625
3670,87.890625
3671,87.890625
3672,87.890625
3673,87.890625
3674,85.937500
3675,85.937500
3676,85.937500
3677,85.937500
3678,85.937500
3679,85.937500
3680,83.984375
3681,82.031250
3682,83.984375
3683,82.031250
3684,82.031250
3685,82.031250
3686,80.078125
3687,80.078125
3688,80.078125
3689,78.125000
3690,78.125000
3691,76.171875
3692,76.171875
3693,76.171875
3694,74.218750
3695,72.265625
3696,72.265625
3697,70.312500
3698,68.359375
3699,68.359375
3700,66.406250
3701,66.406250
3702,64.453125
3703,64.453125
3704,62.500000
3705,60.546875
3706,60.546875
3707,58.593750
3708,56.640625
3709,54.687500
3710,52.734375
3711,50.781250
3712,50.781250
3713,48.828125
3714,46.875000
3715,44.921875
3716,42.968750
3717,41.015625
3718,39.062500
3719,37.109375
3720,35.156250
3721,35.156250
3722,33.203125
3723,31.250000
3724,27.343750
3725,23.437500
3726,23.437500
3727,23.437500
3728,21.484375
3729,19.531250
3730,15.625000
3731,13.671875
3732,11.718750
3733,9.765625
3734,7.812500
3735,5.859375
3736,3.906250
3737,1.953125
3738,0.000000
3739,-1.953125
3740,-5.859375
3741,-7.812500
3742,-9.765625
3743,-13.671875
3744,-15.625000
3745,-15.625000
3746,-17.578125
3747,-19.531250
3748,-21.484375
3749,-25.390625
3750,-27.343750
3751,-29.296875
3752,-31.250000
3753,-33.203125
3754,-35.156250
3755,-37.109375
3756,-39.062500
3757,-41.015625
3758,-44.921875
3759,-46.875000
3760,-48.828125
3761,-50.781250
3762,-50.781250
3763,-54.687500
3764,-56.640625
3765,-58.593750
3766,-58.593750
3767,-60.546875
3768,-62.500000
3769,-66.406250
3770,-68.359375
3771,-68.359375
3772,-70.312500
3773,-72.265625
3774,-74.218750
3775,-76.171875
3776,-76.171875
3777,-78.125000
3778,-80.078125
3779,-82.031250
3780,-83.984375
3781,-83.984375
3782,-85.937500
3783,-85.937500
3784,-89.843750
3785,-89.843750
3786,-91.796875
3787,-91.796875
3788,-93.750000
3789,-93.750000
3790,-95.703125
3791,-95.703125
3792,-97.656250
3793,-97.656250
3794,-99.609375
3795,-99.609375
3796,-101.562500
3797,-101.562500
3798,-101.562500
3799,-101.562500
3800,-103.515625
3801,-103.515625
3802,-103.515625
3803,-103.515625
3804,-105.468750
3805,-105.468750
3806,-105.468750
3807,-105.468750
3808,-105.468750
3809,-105.468750
3810,-105.468750
3811,-105.468750
3812,-105.468750
3813,-105.468750
3814,-105.468750
3815,-105.468750
3816,-105.468750
3817,-103.515625
3818,-103.515625
3819,-103.515625
3820,-103.515625
3821,-101.562500
3822,-101.562500
3823,-101.562500
3824,-99.609375
3825,-99.609375
3826,-99.609375
3827,-97.656250
3828,-97.656250
3829,-95.703125
3830,-93.750000
3831,-93.750000
3832,-91.796875
3833,-91.796875
3834,-89.843750
3835,-89.843750
3836,-87.890625
3837,-85.937500
3838,-85.937500
3839,-83.984375
3840,-82.031250
3841,-80.078125
3842,-78.125000
3843,-76.171875
3844,-76.171875
3845,-74.218750
3846,-72.265625
3847,-70.312500
3848,-70.312500
3849,-66.406250
3850,-66.406250
3851,-64.453125
3852,-62.500000
3853,-60.546875
3854,-58.593750
3855,-56.640625
3856,-54.687500
3857,-52.734375
3858,-50.781250
3859,-48.828125
3860,-46.875000
3861,-44.921875
3862,-42.968750
3863,-41.015625
3864,-39.062500
3865,-37.109375
3866,-33.203125
3867,-33.203125
3868,-29.296875
3869,-27.343750
3870,-25.390625
3871,-23.437500
3872,-21.484375
3873,-19.531250
3874,-17.578125
3875,-13.671875
3876,-11.718750
3877,-9.765625
3878,-7.812500
3879,-5.859375
3880,-3.906250
3881,-1.953125
3882,0.000000
3883,1.953125
3884,3.906250
3885,5.859375
3886,9.765625
3887,9.765625
3888,13.671875
3889,15.625000
3890,17.578125
3891,19.531250
3892,21.484375
3893,23.437500
3894,23.437500
3895,27.343750
3896,29.296875
3897,31.250000
3898,33.203125
3899,35.156250
3900,37.109375
3901,35.156250
3902,41.015625
3903,42.968750
3904,44.921875
3905,44.921875
3906,46.875000
3907,48.828125
3908,50.781250
3909,52.734375
3910,52.734375
3911,56.640625
3912,60.546875
3913,58.593750
3914,60.546875
3915,62.500000
3916,62.500000
3917,64.453125
3918,66.406250
3919,66.406250
3920,68.359375
3921,68.359375
3922,70.312500
3923,72.265625
3924,72.265625
3925,72.265625
3926,74.218750
3927,76.171875
3928,76.171875
3929,78.125000
3930,78.125000
3931,78.125000
3932,80.078125
3933,80.078125
3934,82.031250
3935,82.031250
3936,82.031250
3937,83.984375
3938,83.984375
3939,83.984375
3940,83.984375
3941,83.984375
3942,85.937500
3943,85.937500
3944,85.937500
3945,85.937500
3946,85.937500
3947,85.937500
3948,87.890625
3949,85.937500
3950,87.890625
3951,89.843750
3952,85.937500
3953,87.890625
3954,87.890625
3955,87.890625
3956,85.937500
3957,85.937500
3958,85.937500
3959,85.937500
3960,85.937500
3961,83.984375
3962,83.984375
3963,83.984375
3964,83.984375
3965,83.984375
3966,82.031250
3967,82.031250
3968,82.031250
3969,80.078125
3970,80.078125
3971,78.125000
3972,78.125000
3973,78.125000
3974,76.171875
3975,76.171875
3976,74.218750
3977,74.218750
3978,72.265625
3979,72.265625
3980,70.312500
3981,68.359375
3982,68.359375
3983,66.406250
3984,66.406250
3985,64.453125
3986,62.500000
3987,60.546875
3988,60.546875
3989,58.593750
3990,56.640625
3991,54.687500
3992,52.734375
3993,52.734375
3994,48.828125
3995,48.828125
3996,46.875000
3997,44.921875
3998,42.968750
3999,41.015625
4000,41.015625
4001,39.062500
4002,35.156250
4003,33.203125
4004,33.203125
4005,31.250000
4006,29.296875
4007,25.390625
4008,25.390625
4009,23.437500
4010,19.531250
4011,17.578125
4012,17.578125
4013,13.671875
4014,11.718750
4015,9.765625
4016,7.812500
4017,5.859375
4018,3.906250
4019,1.953125
4020,0.000000
4021,-1.953125
4022,-3.906250
4023,-5.859375
4024,-9.765625
4025,-11.718750
4026,-13.671875
4027,-15.625000
4028,-17.578125
4029,-19.531250
4030,-21.484375
4031,-25.390625
4032,-27.343750
4033,-27.343750
4034,-31.250000
4035,-33.203125
4036,-35.156250
4037,-37.109375
4038,-39.062500
4039,-41.015625
4040,-42.968750
4041,-44.921875
4042,-46.875000
4043,-48.828125
4044,-50.781250
4045,-52.734375
4046,-56.640625
4047,-58.593750
4048,-58.593750
4049,-60.546875
4050,-64.453125
4051,-64.453125
4052,-66.406250
4053,-68.359375
4054,-70.312500
4055,-72.265625
4056,-74.218750
4057,-78.125000
4058,-76.171875
4059,-78.125000
4060,-80.078125
4061,-80.078125
4062,-85.937500
4063,-85.937500
4064,-85.937500
4065,-87.890625
4066,-89.843750
4067,-89.843750
4068,-91.796875
4069,-91.796875
4070,-93.750000
4071,-95.703125
4072,-95.703125
4073,-97.656250
4074,-97.656250
4075,-99.609375
4076,-99.609375
4077,-99.609375
4078,-101.562500
4079,-101.562500
4080,-103.515625
4081,-103.515625
4082,-103.515625
4083,-103.515625
4084,-103.515625
4085,-105.468750
4086,-105.468750
4087,-105.468750
4088,-105.468750
4089,-107.421875
4090,-107.421875
4091,-105.468750
4092,-105.468750
4093,-107.421875
4094,-105.468750
4095,-105.468750
4096,-105.468750
4097,-101.562500
4098,-105.468750
4099,-103.515625
4100,-105.468750
4101,-103.515625
4102,-103.515625
4103,-103.515625
4104,-101.562500
4105,-101.562500
4106,-101.562500
4107,-101.562500
4108,-99.609375
4109,-97.656250
4110,-97.656250
4111,-95.703125
4112,-93.750000
4113,-93.750000
4114,-93.750000
4115,-91.796875
4116,-91.796875
4117,-89.843750
4118,-89.843750
4119,-87.890625
4120,-85.937500
4121,-83.984375
4122,-83.984375
4123,-82.031250
4124,-80.078125
4125,-78.125000
4126,-78.125000
4127,-76.171875
4128,-74.218750
4129,-72.265625
4130,-70.312500
4131,-68.359375
4132,-68.359375
4133,-66.406250
4134,-62.500000
4135,-62.500000
4136,-60.546875
4137,-58.593750
4138,-56.640625
4139,-52.734375
4140,-52.734375
4141,-48.828125
4142,-48.828125
4143,-46.875000
4144,-44.921875
4145,-42.968750
4146,-39.062500
4147,-37.109375
4148,-35.156250
4149,-33.203125
4150,-31.250000
4151,-29.296875
4152,-27.343750
4153,-25.390625
4154,-23.437500
4155,-21.484375
4156,-19.531250
4157,-15.625000
4158,-13.671875
4159,-11.718750
4160,-9.765625
4161,-7.812500
4162,-5.859375
4163,-3.906250
4164,0.000000
4165,1.953125
4166,3.906250
4167,5.859375
4168,7.812500
4169,9.765625
4170,11.718750
4171,13.671875
4172,15.625000
4173,17.578125
4174,19.531250
4175,21.484375
4176,25.390625
4177,25.390625
4178,27.343750
4179,29.296875
4180,31.250000
4181,33.203125
4182,35.156250
4183,37.109375
4184,39.062500
4185,41.015625
4186,42.968750
4187,44.921875
4188,46.875000
4189,48.828125
4190,50.781250
4191,52.734375
4192,52.734375
4193,54.687500
4194,56.640625
4195,56.640625
4196,58.593750
4197,60.546875
4198,62.500000
4199,64.453125
4200,64.453125
4201,66.406250
4202,66.406250
4203,68.359375
4204,70.312500
4205,70.312500
4206,72.265625
4207,72.265625
4208,74.218750
4209,74.218750
4210,76.171875
4211,76.171875
4212,78.125000
4213,78.125000
4214,80.078125
4215,80.078125
4216,82.031250
4217,82.031250
4218,82.031250
4219,83.984375
4220,83.984375
4221,83.984375
4222,83.984375
4223,85.937500
4224,85.937500
4225,85.937500
4226,85.937500
4227,85.937500
4228,85.937500
4229,85.937500
4230,87.890625
4231,87.890625
4232,87.890625
4233,87.890625
4234,87.890625
4235,87.890625
4236,87.890625
4237,87.890625
4238,87.890625
4239,85.937500
4240,85.937500
4241,85.937500
4242,85.937500
4243,85.937500
4244,83.984375
4245,83.984375
4246,83.984375
4247,83.984375
4248,83.984375
4249,82.031250
4250,82.031250
4251,80.078125
4252,80.078125
4253,80.078125
4254,78.125000
4255,78.125000
4256,78.125000
4257,76.171875
4258,74.218750
4259,74.218750
4260,72.265625
4261,72.265625
4262,70.312500
4263,68.359375
4264,68.359375
4265,66.406250
4266,66.406250
4267,64.453125
4268,62.500000
4269,60.546875
4270,60.546875
4271,58.593750
4272,56.640625
4273,56.640625
4274,54.687500
4275,52.734375
4276,50.781250
4277,50.781250
4278,46.875000
4279,46.875000
4280,44.921875
4281,42.968750
4282,41.015625
4283,39.062500
4284,37.109375
4285,35.156250
4286,33.203125
4287,31.250000
4288,29.296875
4289,27.343750
4290,25.390625
4291,23.437500
4292,21.484375
4293,19.531250
4294,17.578125
4295,15.625000
4296,13.671875
4297,9.765625
4298,9.765625
4299,7.812500
4300,5.859375
4301,1.953125
4302,0.000000
4303,-1.953125
4304,-3.906250
4305,-5.859375
4306,-7.812500
4307,-9.765625
4308,-11.718750
4309,-13.671875
4310,-15.625000
4311,-17.578125
4312,-21.484375
4313,-23.437500
4314,-25.390625
4315,-27.343750
4316,-29.296875
4317,-31.250000
4318,-33.203125
4319,-35.156250
4320,-37.109375
4321,-41.015625
4322,-42.968750
4323,-44.921875
4324,-46.875000
4325,-48.828125
4326,-50.781250
4327,-52.734375
4328,-54.687500
4329,-56.640625
4330,-58.593750
4331,-60.546875
4332,-62.500000
4333,-64.453125
4334,-66.406250
4335,-68.359375
4336,-68.359375
4337,-72.265625
4338,-74.218750
4339,-74.218750
4340,-76.171875
4341,-78.125000
4342,-80.078125
4343,-82.031250
4344,-82.031250
4345,-83.984375
4346,-85.937500
4347,-85.937500
4348,-87.890625
4349,-89.843750
4350,-89.843750
4351,-91.796875
4352,-93.750000
4353,-93.750000
4354,-95.703125
4355,-95.703125
4356,-97.656250
4357,-97.656250
4358,-99.609375
4359,-99.609375
4360,-99.609375
4361,-101.562500
4362,-101.562500
4363,-103.515625
4364,-103.515625
4365,-103.515625
4366,-103.515625
4367,-103.515625
4368,-103.515625
4369,-105.468750
4370,-105.468750
4371,-105.468750
4372,-105.468750
4373,-105.468750
4374,-105.468750
4375,-105.468750
4376,-105.468750
4377,-105.468750
4378,-105.468750
4379,-105.468750
4380,-105.468750
4381,-105.468750
4382,-103.515625
4383,-103.515625
4384,-103.515625
4385,-103.515625
4386,-101.562500
4387,-101.562500
4388,-101.562500
4389,-99.609375
4390,-99.609375
4391,-99.609375
4392,-97.656250
4393,-95.703125
4394,-95.703125
4395,-93.750000
4396,-93.750000
4397,-91.796875
4398,-91.796875
4399,-89.843750
4400,-87.890625
4401,-87.890625
4402,-85.937500
4403,-85.937500
4404,-83.984375
4405,-82.031250
4406,-80.078125
4407,-78.125000
4408,-78.125000
4409,-76.171875
4410,-74.218750
4411,-72.265625
4412,-70.312500
4413,-68.359375
4414,-66.406250
4415,-66.406250
4416,-64.453125
4417,-60.546875
4418,-58.593750
4419,-58.593750
4420,-56.640625
4421,-54.687500
4422,-52.734375
4423,-48.828125
4424,-48.828125
4425,-46.875000
4426,-42.968750
4427,-41.015625
4428,-39.062500
4429,-37.109375
4430,-35.156250
4431,-33.203125
4432,-31.250000
4433,-29.296875
4434,-25.390625
4435,-25.390625
4436,-23.437500
4437,-19.531250
4438,-17.578125
4439,-15.625000
4440,-13.671875
4441,-11.718750
4442,-9.765625
4443,-7.812500
4444,-5.859375
4445,-1.953125
4446,0.000000
4447,1.953125
4448,3.906250
4449,5.859375
4450,7.812500
4451,9.765625
4452,11.718750
4453,13.671875
4454,15.625000
4455,17.578125
4456,19.531250
4457,21.484375
4458,23.437500
4459,25.390625
4460,27.343750
4461,29.296875
4462,31.250000
4463,33.203125
4464,35.156250
4465,37.109375
4466,39.062500
4467,41.015625
4468,42.968750
4469,44.921875
4470,46.875000
4471,46.875000
4472,48.828125
4473,50.781250
4474,52.734375
4475,54.687500
4476,56.640625
4477,56.640625
4478,58.593750
4479,60.546875
4480,60.546875
4481,62.500000
4482,64.453125
4483,66.406250
4484,68.359375
4485,68.359375
4486,70.312500
4487,70.312500
4488,72.265625
4489,72.265625
4490,74.218750
4491,74.218750
4492,76.171875
4493,76.171875
4494,78.125000
4495,78.125000
4496,80.078125
4497,80.078125
4498,82.031250
4499,82.031250
4500,82.031250
4501,82.031250
4502,83.984375
4503,83.984375
4504,83.984375
4505,85.937500
4506,85.937500
4507,85.937500
4508,85.937500
4509,85.937500
4510,85.937500
4511,87.890625
4512,87.890625
4513,87.890625
4514,87.890625
4515,85.937500
4516,85.937500
4517,85.937500
4518,87.890625
4519,85.937500
4520,87.890625
4521,85.937500
4522,85.937500
4523,85.937500
4524,85.937500
4525,83.984375
4526,83.984375
4527,83.984375
4528,83.984375
4529,82.031250
4530,82.031250
4531,82.031250
4532,82.031250
4533,80.078125
4534,80.078125
4535,80.078125
4536,78.125000
4537,78.125000
4538,76.171875
4539,76.171875
4540,74.218750
4541,74.218750
4542,72.265625
4543,72.265625
4544,70.312500
4545,70.312500
4546,68.359375
4547,66.406250
4548,66.406250
4549,64.453125
4550,62.500000
4551,62.500000
4552,60.546875
4553,58.593750
4554,56.640625
4555,56.640625
4556,54.687500
4557,52.734375
4558,52.734375
4559,50.781250
4560,48.828125
4561,46.875000
4562,44.921875
4563,42.968750
4564,41.015625
4565,39.062500
4566,37.109375
4567,37.109375
4568,33.203125
4569,33.203125
4570,29.296875
4571,27.343750
4572,25.390625
4573,25.390625
4574,23.437500
4575,19.531250
4576,17.578125
4577,15.625000
4578,13.671875
4579,11.718750
4580,9.765625
4581,7.812500
4582,5.859375
4583,3.906250
4584,1.953125
4585,-1.953125
4586,-3.906250
4587,-5.859375
4588,-7.812500
4589,-9.765625
4590,-11.718750
4591,-13.671875
4592,-15.625000
4593,-19.531250
4594,-21.484375
4595,-23.437500
4596,-25.390625
4597,-27.343750
4598,-29.296875
4599,-31.250000
4600,-33.203125
4601,-35.156250
4602,-37.109375
4603,-39.062500
4604,-42.968750
4605,-44.921875
4606,-46.875000
4607,-48.828125
4608,-50.781250
4609,-52.734375
4610,-54.687500
4611,-56.640625
4612,-56.640625
4613,-60.546875
4614,-62.500000
4615,-64.453125
4616,-66.406250
4617,-68.359375
4618,-70.312500
4619,-70.312500
4620,-72.265625
4621,-74.218750
4622,-76.171875
4623,-78.125000
4624,-80.078125
4625,-80.078125
4626,-82.031250
4627,-83.984375
4628,-83.984375
4629,-85.937500
4630,-87.890625
4631,-89.843750
4632,-89.843750
4633,-91.796875
4634,-91.796875
4635,-93.750000
4636,-93.750000
4637,-95.703125
4638,-97.656250
4639,-99.609375
4640,-99.609375
4641,-99.609375
4642,-99.609375
4643,-101.562500
4644,-101.562500
4645,-103.515625
4646,-103.515625
4647,-103.515625
4648,-103.515625
4649,-105.468750
4650,-105.468750
4651,-105.468750
4652,-105.468750
4653,-105.468750
4654,-105.468750
4655,-105.468750
4656,-105.468750
4657,-105.468750
4658,-105.468750
4659,-105.468750
4660,-107.421875
4661,-105.468750
4662,-105.468750
4663,-105.468750
4664,-105.468750
4665,-105.468750
4666,-103.515625
4667,-103.515625
4668,-103.515625
4669,-101.562500
4670,-101.562500
4671,-101.562500
4672,-99.609375
4673,-99.609375
4674,-97.656250
4675,-97.656250
4676,-97.656250
4677,-95.703125
4678,-93.750000
4679,-93.750000
4680,-91.796875
4681,-91.796875
4682,-89.843750
4683,-89.843750
4684,-85.937500
4685,-85.937500
4686,-83.984375
4687,-82.031250
4688,-82.031250
4689,-80.078125
4690,-78.125000
4691,-76.171875
4692,-74.218750
4693,-74.218750
4694,-72.265625
4695,-70.312500
4696,-68.359375
4697,-66.406250
4698,-64.453125
4699,-62.500000
4700,-60.546875
4701,-58.593750
4702,-56.640625
4703,-54.687500
4704,-52.734375
4705,-50.781250
4706,-48.828125
4707,-46.875000
4708,-44.921875
4709,-42.968750
4710,-41.015625
4711,-39.062500
4712,-37.109375
4713,-35.156250
4714,-33.203125
4715,-31.250000
4716,-27.343750
4717,-25.390625
4718,-23.437500
4719,-21.484375
4720,-19.531250
4721,-17.578125
4722,-15.625000
4723,-11.718750
4724,-11.718750
4725,-9.765625
4726,-7.812500
4727,-3.906250
4728,-1.953125
4729,-1.953125
4730,1.953125
4731,3.906250
4732,5.859375
4733,7.812500
4734,11.718750
4735,13.671875
4736,15.625000
4737,17.578125
4738,19.531250
4739,21.484375
4740,23.437500
4741,25.390625
4742,27.343750
4743,29.296875
4744,31.250000
4745,33.203125
4746,35.156250
4747,37.109375
4748,39.062500
4749,41.015625
4750,41.015625
4751,44.921875
4752,44.921875
4753,46.875000
4754,48.828125
4755,50.781250
4756,52.734375
4757,54.687500
4758,54.687500
4759,56.640625
4760,58.593750
4761,60.546875
4762,60.546875
4763,62.500000
4764,64.453125
4765,66.406250
4766,66.406250
4767,68.359375
4768,68.359375
4769,70.312500
4770,70.312500
4771,72.265625
4772,74.218750
4773,74.218750
4774,76.171875
4775,76.171875
4776,78.125000
4777,78.125000
4778,78.125000
4779,80.078125
4780,82.031250
4781,82.031250
4782,82.031250
4783,82.031250
4784,82.031250
4785,83.984375
4786,83.984375
4787,85.937500
4788,85.937500
4789,85.937500
4790,85.937500
4791,85.937500
4792,85.937500
4793,87.890625
4794,85.937500
4795,87.890625
4796,85.937500
4797,87.890625
4798,87.890625
4799,87.890625
4800,87.890625
4801,87.890625
4802,87.890625
4803,85.937500
4804,85.937500
4805,85.937500
4806,85.937500
4807,85.937500
4808,85.937500
4809,85.937500
4810,85.937500
4811,83.984375
4812,83.984375
4813,82.031250
4814,82.031250
4815,82.031250
4816,82.031250
4817,80.078125
4818,78.125000
4819,78.125000
4820,78.125000
4821,76.171875
4822,76.171875
4823,76.171875
4824,74.218750
4825,72.265625
4826,72.265625
4827,70.312500
4828,70.312500
4829,68.359375
4830,66.406250
4831,66.406250
4832,64.453125
4833,62.500000
4834,62.500000
4835,60.546875
4836,58.593750
4837,56.640625
4838,54.687500
4839,54.687500
4840,52.734375
4841,50.781250
4842,48.828125
4843,46.875000
4844,44.921875
4845,42.968750
4846,42.968750
4847,41.015625
4848,39.062500
4849,37.109375
4850,35.156250
4851,33.203125
4852,31.250000
4853,29.296875
4854,27.343750
4855,25.390625
4856,23.437500
4857,19.531250
4858,19.531250
4859,17.578125
4860,15.625000
4861,13.671875
4862,9.765625
4863,7.812500
4864,5.859375
4865,3.906250
4866,1.953125
4867,0.000000
4868,-1.953125
4869,-3.906250
4870,-5.859375
4871,-9.765625
4872,-11.718750
4873,-13.671875
4874,-15.625000
4875,-17.578125
4876,-17.578125
4877,-21.484375
4878,-27.343750
4879,-25.390625
4880,-27.343750
4881,-35.156250
4882,-33.203125
4883,-33.203125
4884,-37.109375
4885,-39.062500
4886,-41.015625
4887,-42.968750
4888,-44.921875
4889,-46.875000
4890,-48.828125
4891,-50.781250
4892,-52.734375
4893,-56.640625
4894,-58.593750
4895,-58.593750
4896,-60.546875
4897,-62.500000
4898,-64.453125
4899,-68.359375
4900,-68.359375
4901,-70.312500
4902,-72.265625
4903,-74.218750
4904,-76.171875
4905,-78.125000
4906,-78.125000
4907,-80.078125
4908,-82.031250
4909,-83.984375
4910,-85.937500
4911,-85.937500
4912,-87.890625
4913,-87.890625
4914,-89.843750
4915,-91.796875
4916,-91.796875
4917,-93.750000
4918,-95.703125
4919,-95.703125
4920,-97.656250
4921,-97.656250
4922,-99.609375
4923,-99.609375
4924,-99.609375
4925,-101.562500
4926,-101.562500
4927,-103.515625
4928,-103.515625
4929,-103.515625
4930,-103.515625
4931,-105.468750
4932,-105.468750
4933,-105.468750
4934,-105.468750
4935,-105.468750
4936,-105.468750
4937,-105.468750
4938,-105.468750
4939,-107.421875
4940,-105.468750
4941,-105.468750
4942,-105.468750
4943,-105.468750
4944,-105.468750
4945,-105.468750
4946,-105.468750
4947,-103.515625
4948,-103.515625
4949,-103.515625
4950,-103.515625
4951,-101.562500
4952,-101.562500
4953,-101.562500
4954,-99.609375
4955,-99.609375
4956,-97.656250
4957,-97.656250
4958,-97.656250
4959,-95.703125
4960,-93.750000
4961,-93.750000
4962,-91.796875
4963,-91.796875
4964,-89.843750
4965,-89.843750
4966,-87.890625
4967,-85.937500
4968,-83.984375
4969,-83.984375
4970,-82.031250
4971,-80.078125
4972,-78.125000
4973,-78.125000
4974,-76.171875
4975,-74.218750
4976,-72.265625
4977,-70.312500
4978,-70.312500
4979,-68.359375
4980,-66.406250
4981,-62.500000
4982,-62.500000
4983,-60.546875
4984,-58.593750
4985,-56.640625
4986,-54.687500
4987,-50.781250
4988,-48.828125
4989,-48.828125
4990,-46.875000
4991,-42.968750
4992,-41.015625
4993,-39.062500
4994,-37.109375
4995,-35.156250
4996,-33.203125
4997,-31.250000
4998,-29.296875
4999,-27.343750
5000,-23.437500
5001,-23.437500
5002,-19.531250
5003,-17.578125
5004,-15.625000
5005,-13.671875
5006,-11.718750
5007,-9.765625
5008,-7.812500
5009,-3.906250
5010,-1.953125
5011,0.000000
5012,1.953125
5013,3.906250
5014,5.859375
5015,7.812500
5016,9.765625
5017,11.718750
5018,13.671875
5019,15.625000
5020,17.578125
5021,19.531250
5022,21.484375
5023,23.437500
5024,25.390625
5025,27.343750
5026,29.296875
5027,31.250000
5028,33.203125
5029,35.156250
5030,37.109375
5031,39.062500
5032,41.015625
5033,42.968750
5034,44.921875
5035,46.875000
5036,46.875000
5037,48.828125
5038,50.781250
5039,52.734375
5040,54.687500
5041,56.640625
5042,58.593750
5043,58.593750
5044,60.546875
5045,60.546875
5046,64.453125
5047,64.453125
5048,64.453125
5049,66.406250
5050,68.359375
5051,68.359375
5052,70.312500
5053,70.312500
5054,72.265625
5055,74.218750
5056,74.218750
5057,76.171875
5058,76.171875
5059,78.125000
5060,78.125000
5061,80.078125
5062,80.078125
5063,80.078125
5064,82.031250
5065,82.031250
5066,83.984375
5067,83.984375
5068,83.984375
5069,83.984375
5070,83.984375
5071,83.984375
5072,85.937500
5073,85.937500
5074,85.937500
5075,85.937500
5076,85.937500
5077,87.890625
5078,85.937500
5079,85.937500
5080,87.890625
5081,87.890625
5082,87.890625
5083,85.937500
5084,87.890625
5085,87.890625
5086,85.937500
5087,85.937500
5088,85.937500
5089,85.937500
5090,85.937500
5091,83.984375
5092,83.984375
5093,83.984375
5094,83.984375
5095,82.031250
5096,82.031250
5097,82.031250
5098,82.031250
5099,80.078125
5100,80.078125
5101,78.125000
5102,78.125000
5103,76.171875
5104,74.218750
5105,74.218750
5106,72.265625
5107,72.265625
5108,70.312500
5109,70.312500
5110,68.359375
5111,68.359375
5112,66.406250
5113,64.453125
5114,64.453125
5115,62.500000
5116,60.546875
5117,60.546875
5118,58.593750
5119,56.640625
5120,54.687500
5121,54.687500
5122,52.734375
5123,50.781250
5124,48.828125
5125,46.875000
5126,44.921875
5127,44.921875
5128,42.968750
5129,41.015625
5130,39.062500
5131,37.109375
5132,35.156250
5133,33.203125
5134,31.250000
5135,29.296875
5136,27.343750
5137,25.390625
5138,23.437500
5139,21.484375
5140,19.531250
5141,17.578125
5142,15.625000
5143,13.671875
5144,11.718750
5145,7.812500
5146,7.812500
5147,3.906250
5148,1.953125
5149,0.000000
5150,-1.953125
5151,-3.906250
5152,-5.859375
5153,-7.812500
5154,-9.765625
5155,-11.718750
5156,-15.625000
5157,-17.578125
5158,-19.531250
5159,-21.484375
5160,-23.437500
5161,-25.390625
5162,-27.343750
5163,-29.296875
5164,-33.203125
5165,-33.203125
5166,-37.109375
5167,-39.062500
5168,-41.015625
5169,-42.968750
5170,-44.921875
5171,-46.875000
5172,-48.828125
5173,-50.781250
5174,-52.734375
5175,-54.687500
5176,-56.640625
5177,-58.593750
5178,-60.546875
5179,-62.500000
5180,-64.453125
5181,-66.406250
5182,-68.359375
5183,-70.312500
5184,-72.265625
5185,-74.218750
5186,-74.218750
5187,-76.171875
5188,-80.078125
5189,-80.078125
5190,-82.031250
5191,-82.031250
5192,-83.984375
5193,-85.937500
5194,-87.890625
5195,-87.890625
5196,-89.843750
5197,-91.796875
5198,-91.796875
5199,-91.796875
5200,-93.750000
5201,-95.703125
5202,-95.703125
5203,-97.656250
5204,-97.656250
5205,-99.609375
5206,-99.609375
5207,-101.562500
5208,-101.562500
5209,-101.562500
5210,-101.562500
5211,-103.515625
5212,-103.515625
5213,-103.515625
5214,-105.468750
5215,-105.468750
5216,-105.468750
5217,-105.468750
5218,-105.468750
5219,-105.468750
5220,-105.468750
5221,-105.468750
5222,-105.468750
5223,-105.468750
5224,-105.468750
5225,-105.468750
5226,-105.468750
5227,-105.468750
5228,-105.468750
5229,-105.468750
5230,-103.515625
5231,-103.515625
5232,-103.515625
5233,-101.562500
5234,-101.562500
5235,-101.562500
5236,-99.609375
5237,-99.609375
5238,-99.609375
5239,-97.656250
5240,-95.703125
5241,-95.703125
5242,-93.750000
5243,-93.750000
5244,-93.750000
5245,-91.796875
5246,-89.843750
5247,-87.890625
5248,-87.890625
5249,-85.937500
5250,-85.937500
5251,-83.984375
5252,-82.031250
5253,-80.078125
5254,-78.125000
5255,-78.125000
5256,-74.218750
5257,-74.218750
5258,-72.265625
5259,-70.312500
5260,-70.312500
5261,-66.406250
5262,-66.406250
5263,-64.453125
5264,-62.500000
5265,-58.593750
5266,-58.593750
5267,-56.640625
5268,-54.687500
5269,-52.734375
5270,-50.781250
5271,-48.828125
5272,-44.921875
5273,-44.921875
5274,-41.015625
5275,-39.062500
5276,-37.109375
5277,-35.156250
5278,-33.203125
5279,-31.250000
5280,-29.296875
5281,-27.343750
5282,-25.390625
5283,-21.484375
5284,-21.484375
5285,-17.578125
5286,-15.625000
5287,-13.671875
5288,-11.718750
5289,-9.765625
5290,-7.812500
5291,-5.859375
5292,-3.906250
5293,-1.953125
5294,1.953125
5295,3.906250
5296,5.859375
5297,7.812500
5298,9.765625
5299,11.718750
5300,13.671875
5301,15.625000
5302,17.578125
5303,19.531250
5304,21.484375
5305,23.437500
5306,27.343750
5307,27.343750
5308,29.296875
5309,31.250000
5310,33.203125
5311,35.156250
5312,37.109375
5313,39.062500
5314,41.015625
5315,42.968750
5316,44.921875
5317,46.875000
5318,48.828125
5319,48.828125
5320,50.781250
5321,52.734375
5322,54.687500
5323,56.640625
5324,56.640625
5325,58.593750
5326,60.546875
5327,62.500000
5328,64.453125
5329,64.453125
5330,66.406250
5331,68.359375
5332,68.359375
5333,70.312500
5334,70.312500
5335,72.265625
5336,74.218750
5337,74.218750
5338,74.218750
5339,76.171875
5340,78.125000
5341,78.125000
5342,78.125000
5343,80.078125
5344,80.078125
5345,82.031250
5346,82.031250
5347,82.031250
5348,82.031250
5349,83.984375
5350,83.984375
5351,83.984375
5352,85.937500
5353,85.937500
5354,85.937500
5355,85.937500
5356,85.937500
5357,85.937500
5358,87.890625
5359,87.890625
5360,87.890625
5361,87.890625
5362,85.937500
5363,87.890625
5364,87.890625
5365,87.890625
5366,87.890625
5367,87.890625
5368,85.937500
5369,85.937500
5370,85.937500
5371,85.937500
5372,85.937500
5373,85.937500
5374,83.984375
5375,83.984375
5376,83.984375
5377,82.031250
5378,82.031250
5379,82.031250
5380,82.031250
5381,80.078125
5382,80.078125
5383,80.078125
5384,78.125000
5385,78.125000
5386,76.171875
5387,74.218750
5388,74.218750
5389,72.265625
5390,72.265625
5391,70.312500
5392,70.312500
5393,68.359375
5394,68.359375
5395,66.406250
5396,64.453125
5397,64.453125
5398,62.500000
5399,60.546875
5400,58.593750
5401,58.593750
5402,56.640625
5403,54.687500
5404,52.734375
5405,50.781250
5406,50.781250
5407,48.828125
5408,46.875000
5409,44.921875
5410,42.968750
5411,41.015625
5412,39.062500
5413,37.109375
5414,35.156250
5415,33.203125
5416,31.250000
5417,31.250000
5418,29.296875
5419,25.390625
5420,23.437500
5421,21.484375
5422,21.484375
5423,17.578125
5424,15.625000
5425,13.671875
5426,11.718750
5427,9.765625
5428,7.812500
5429,5.859375
5430,3.906250
5431,0.000000
5432,-1.953125
5433,-1.953125
5434,-5.859375
5435,-7.812500
5436,-9.765625
5437,-11.718750
5438,-13.671875
5439,-15.625000
5440,-17.578125
5441,-21.484375
5442,-23.437500
5443,-25.390625
5444,-27.343750
5445,-29.296875
5446,-31.250000
5447,-33.203125
5448,-35.156250
5449,-39.062500
5450,-39.062500
5451,-42.968750
5452,-42.968750
5453,-44.921875
5454,-48.828125
5455,-50.781250
5456,-52.734375
5457,-54.687500
5458,-56.640625
5459,-58.593750
5460,-60.546875
5461,-62.500000
5462,-64.453125
5463,-64.453125
5464,-66.406250
5465,-68.359375
5466,-72.265625
5467,-72.265625
5468,-74.218750
5469,-76.171875
5470,-78.125000
5471,-80.078125
5472,-80.078125
5473,-82.031250
5474,-83.984375
5475,-85.937500
5476,-85.937500
5477,-87.890625
5478,-89.843750
5479,-91.796875
5480,-91.796875
5481,-93.750000
5482,-91.796875
5483,-95.703125
5484,-95.703125
5485,-97.656250
5486,-97.656250
5487,-99.609375
5488,-99.609375
5489,-99.609375
5490,-101.562500
5491,-101.562500
5492,-103.515625
5493,-103.515625
5494,-103.515625
5495,-103.515625
5496,-103.515625
5497,-105.468750
5498,-105.468750
5499,-105.468750
5500,-107.421875
5501,-107.421875
5502,-105.468750
5503,-105.468750
5504,-105.468750
5505,-105.468750
5506,-105.468750
5507,-105.468750
5508,-105.468750
5509,-105.468750
5510,-105.468750
5511,-105.468750
5512,-103.515625
5513,-103.515625
5514,-103.515625
5515,-103.515625
5516,-101.562500
5517,-101.562500
5518,-99.609375
5519,-99.609375
5520,-99.609375
5521,-99.609375
5522,-97.656250
5523,-95.703125
5524,-95.703125
5525,-95.703125
5526,-93.750000
5527,-91.796875
5528,-91.796875
5529,-89.843750
5530,-87.890625
5531,-87.890625
5532,-85.937500
5533,-83.984375
5534,-82.031250
5535,-82.031250
5536,-80.078125
5537,-78.125000
5538,-76.171875
5539,-76.171875
5540,-72.265625
5541,-72.265625
5542,-70.312500
5543,-68.359375
5544,-66.406250
5545,-64.453125
5546,-62.500000
5547,-60.546875
5548,-58.593750
5549,-56.640625
5550,-54.687500
5551,-52.734375
5552,-50.781250
5553,-50.781250
5554,-46.875000
5555,-44.921875
5556,-42.968750
5557,-41.015625
5558,-39.062500
5559,-37.109375
5560,-35.156250
5561,-33.203125
5562,-31.250000
5563,-29.296875
5564,-25.390625
5565,-23.437500
5566,-21.484375
5567,-19.531250
5568,-17.578125
5569,-15.625000
5570,-13.671875
5571,-11.718750
5572,-9.765625
5573,-7.812500
5574,-3.906250
5575,-1.953125
5576,0.000000
5577,1.953125
5578,3.906250
5579,5.859375
5580,7.812500
5581,9.765625
5582,11.718750
5583,15.625000
5584,17.578125
5585,19.531250
5586,21.484375
5587,23.437500
5588,25.390625
5589,27.343750
5590,29.296875
5591,31.250000
5592,33.203125
5593,35.156250
5594,37.109375
5595,37.109375
5596,41.015625
5597,41.015625
5598,44.921875
5599,44.921875
5600,46.875000
5601,48.828125
5602,48.828125
5603,52.734375
5604,52.734375
5605,54.687500
5606,56.640625
5607,58.593750
5608,58.593750
5609,60.546875
5610,62.500000
5611,64.453125
5612,64.453125
5613,66.406250
5614,68.359375
5615,70.312500
5616,70.312500
5617,70.312500
5618,72.265625
5619,72.265625
5620,74.218750
5621,74.218750
5622,76.171875
5623,76.171875
5624,78.125000
5625,78.125000
5626,80.078125
5627,80.078125
5628,80.078125
5629,82.031250
5630,82.031250
5631,83.984375
5632,83.984375
5633,83.984375
5634,83.984375
5635,83.984375
5636,85.937500
5637,85.937500
5638,85.937500
5639,85.937500
5640,85.937500
5641,87.890625
5642,85.937500
5643,87.890625
5644,87.890625
5645,87.890625
5646,87.890625
5647,87.890625
5648,87.890625
5649,85.937500
5650,85.937500
5651,85.937500
5652,85.937500
5653,85.937500
5654,87.890625
5655,85.937500
5656,83.984375
5657,83.984375
5658,83.984375
5659,82.031250
5660,82.031250
5661,82.031250
5662,82.031250
5663,80.078125
5664,80.078125
5665,80.078125
5666,78.125000
5667,78.125000
5668,76.171875
5669,74.218750
5670,74.218750
5671,72.265625
5672,72.265625
5673,70.312500
5674,70.312500
5675,68.359375
5676,68.359375
5677,66.406250
5678,64.453125
5679,64.453125
5680,62.500000
5681,60.546875
5682,58.593750
5683,58.593750
5684,56.640625
5685,54.687500
5686,52.734375
5687,52.734375
5688,50.781250
5689,48.828125
5690,44.921875
5691,44.921875
5692,42.968750
5693,41.015625
5694,39.062500
5695,37.109375
5696,35.156250
5697,33.203125
5698,31.250000
5699,29.296875
5700,29.296875
5701,27.343750
5702,23.437500
5703,21.484375
5704,19.531250
5705,17.578125
5706,15.625000
5707,13.671875
5708,11.718750
5709,9.765625
5710,7.812500
5711,5.859375
5712,3.906250
5713,1.953125
5714,0.000000
5715,-1.953125
5716,-3.906250
5717,-5.859375
5718,-9.765625
5719,-11.718750
5720,-13.671875
5721,-15.625000
5722,-17.578125
5723,-19.531250
5724,-21.484375
5725,-25.390625
5726,-25.390625
5727,-29.296875
5728,-31.250000
5729,-33.203125
5730,-35.156250
5731,-37.109375
5732,-39.062500
5733,-41.015625
5734,-42.968750
5735,-44.921875
5736,-46.875000
5737,-48.828125
5738,-52.734375
5739,-54.687500
5740,-56.640625
5741,-58.593750
5742,-58.593750
5743,-60.546875
5744,-62.500000
5745,-66.406250
5746,-66.406250
5747,-68.359375
5748,-70.312500
5749,-72.265625
5750,-74.218750
5751,-76.171875
5752,-78.125000
5753,-80.078125
5754,-80.078125
5755,-82.031250
5756,-82.031250
5757,-83.984375
5758,-85.937500
5759,-87.890625
5760,-89.843750
5761,-89.843750
5762,-91.796875
5763,-93.750000
5764,-93.750000
5765,-93.750000
5766,-95.703125
5767,-95.703125
5768,-97.656250
5769,-97.656250
5770,-99.609375
5771,-99.609375
5772,-101.562500
5773,-101.562500
5774,-101.562500
5775,-103.515625
5776,-103.515625
5777,-103.515625
5778,-103.515625
5779,-103.515625
5780,-105.468750
5781,-105.468750
5782,-105.468750
5783,-105.468750
5784,-105.468750
5785,-105.468750
5786,-105.468750
5787,-105.468750
5788,-105.468750
5789,-105.468750
5790,-105.468750
5791,-105.468750
5792,-105.468750
5793,-103.515625
5794,-103.515625
5795,-103.515625
5796,-103.515625
5797,-103.515625
5798,-101.562500
5799,-101.562500
5800,-99.609375
5801,-99.609375
5802,-99.609375
5803,-97.656250
5804,-97.656250
5805,-95.703125
5806,-95.703125
5807,-93.750000
5808,-93.750000
5809,-91.796875
5810,-91.796875
5811,-89.843750
5812,-87.890625
5813,-87.890625
5814,-85.937500
5815,-83.984375
5816,-82.031250
5817,-80.078125
5818,-80.078125
5819,-78.125000
5820,-76.171875
5821,-74.218750
5822,-74.218750
5823,-72.265625
5824,-70.312500
5825,-68.359375
5826,-66.406250
5827,-64.453125
5828,-62.500000
5829,-60.546875
5830,-60.546875
5831,-56.640625
5832,-54.687500
5833,-52.734375
5834,-50.781250
5835,-48.828125
5836,-46.875000
5837,-44.921875
5838,-42.968750
5839,-41.015625
5840,-39.062500
5841,-37.109375
5842,-35.156250
5843,-33.203125
5844,-29.296875
5845,-27.343750
5846,-25.390625
5847,-23.437500
5848,-21.484375
5849,-19.531250
5850,-17.578125
5851,-15.625000
5852,-13.671875
5853,-11.718750
5854,-9.765625
5855,-7.812500
5856,-3.906250
5857,-1.953125
5858,0.000000
5859,1.953125
5860,3.906250
5861,5.859375
5862,9.765625
5863,9.765625
5864,11.718750
5865,13.671875
5866,15.625000
5867,19.531250
5868,21.484375
5869,21.484375
5870,25.390625
5871,27.343750
5872,29.296875
5873,31.250000
5874,33.203125
5875,35.156250
5876,35.156250
5877,37.109375
5878,39.062500
5879,41.015625
5880,42.968750
5881,44.921875
5882,46.875000
5883,48.828125
5884,50.781250
5885,50.781250
5886,52.734375
5887,54.687500
5888,56.640625
5889,56.640625
5890,58.593750
5891,60.546875
5892,62.500000
5893,62.500000
5894,64.453125
5895,66.406250
5896,68.359375
5897,68.359375
5898,70.312500
5899,70.312500
5900,72.265625
5901,72.265625
5902,74.218750
5903,74.218750
5904,76.171875
5905,76.171875
5906,78.125000
5907,78.125000
5908,80.078125
5909,80.078125
5910,80.078125
5911,82.031250
5912,82.031250
5913,82.031250
5914,83.984375
5915,83.984375
5916,83.984375
5917,85.937500
5918,85.937500
5919,85.937500
5920,85.937500
5921,85.937500
5922,85.937500
5923,85.937500
5924,87.890625
5925,87.890625
5926,87.890625
5927,87.890625
5928,87.890625
5929,87.890625
5930,87.890625
5931,85.937500
5932,85.937500
5933,87.890625
5934,85.937500
5935,85.937500
5936,85.937500
5937,85.937500
5938,85.937500
5939,83.984375
5940,83.984375
5941,82.031250
5942,82.031250
5943,82.031250
5944,82.031250
5945,80.078125
5946,80.078125
5947,78.125000
5948,78.125000
5949,78.125000
5950,76.171875
5951,76.171875
5952,76.171875
5953,74.218750
5954,72.265625
5955,72.265625
5956,70.312500
5957,68.359375
5958,68.359375
5959,66.406250
5960,64.453125
5961,64.453125
5962,62.500000
5963,60.546875
5964,60.546875
5965,58.593750
5966,56.640625
5967,54.687500
5968,54.687500
5969,52.734375
5970,50.781250
5971,48.828125
5972,48.828125
5973,44.921875
5974,44.921875
5975,42.968750
5976,41.015625
5977,39.062500
5978,37.109375
5979,35.156250
5980,33.203125
5981,31.250000
5982,29.296875
5983,27.343750
5984,25.390625
5985,23.437500
5986,19.531250
5987,19.531250
5988,17.578125
5989,17.578125
5990,13.671875
5991,9.765625
5992,9.765625
5993,5.859375
5994,3.906250
5995,1.953125
5996,0.000000
5997,-1.953125
5998,-3.906250
5999,-5.859375
6000,-7.812500
6001,-9.765625
6002,-15.625000
6003,-15.625000
6004,-15.625000
6005,-19.531250
6006,-21.484375
6007,-23.437500
6008,-25.390625
6009,-27.343750
6010,-31.250000
6011,-33.203125
6012,-35.156250
6013,-35.156250
6014,-39.062500
6015,-41.015625
6016,-42.968750
6017,-44.921875
6018,-46.875000
6019,-48.828125
6020,-50.781250
6021,-52.734375
6022,-54.687500
6023,-56.640625
6024,-58.593750
6025,-60.546875
6026,-62.500000
6027,-64.453125
6028,-66.406250
6029,-68.359375
6030,-70.312500
6031,-72.265625
6032,-74.218750
6033,-74.218750
6034,-76.171875
6035,-78.125000
6036,-80.078125
6037,-82.031250
6038,-87.890625
6039,-83.984375
6040,-85.937500
6041,-87.890625
6042,-87.890625
6043,-89.843750
6044,-91.796875
6045,-91.796875
6046,-93.750000
6047,-93.750000
6048,-95.703125
6049,-95.703125
6050,-97.656250
6051,-97.656250
6052,-99.609375
6053,-101.562500
6054,-99.609375
6055,-101.562500
6056,-101.562500
6057,-103.515625
6058,-103.515625
6059,-103.515625
6060,-103.515625
6061,-105.468750
6062,-105.468750
6063,-105.468750
6064,-105.468750
6065,-105.468750
6066,-105.468750
6067,-105.468750
6068,-107.421875
6069,-107.421875
6070,-103.515625
6071,-109.375000
6072,-105.468750
6073,-105.468750
6074,-105.468750
6075,-105.468750
6076,-105.468750
6077,-105.468750
6078,-103.515625
6079,-103.515625
6080,-103.515625
6081,-103.515625
6082,-101.562500
6083,-101.562500
6084,-99.609375
6085,-99.609375
6086,-97.656250
6087,-97.656250
6088,-95.703125
6089,-95.703125
6090,-95.703125
6091,-93.750000
6092,-91.796875
6093,-91.796875
6094,-89.843750
6095,-87.890625
6096,-85.937500
6097,-85.937500
6098,-83.984375
6099,-82.031250
6100,-80.078125
6101,-80.078125
6102,-78.125000
6103,-76.171875
6104,-74.218750
6105,-72.265625
6106,-72.265625
6107,-70.312500
6108,-68.359375
6109,-66.406250
6110,-64.453125
6111,-62.500000
6112,-60.546875
6113,-58.593750
6114,-56.640625
6115,-54.687500
6116,-52.734375
6117,-50.781250
6118,-48.828125
6119,-46.875000
6120,-44.921875
6121,-42.968750
6122,-39.062500
6123,-39.062500
6124,-35.156250
6125,-33.203125
6126,-31.250000
6127,-29.296875
6128,-27.343750
6129,-25.390625
6130,-23.437500
6131,-21.484375
6132,-19.531250
6133,-15.625000
6134,-15.625000
6135,-11.718750
6136,-9.765625
6137,-7.812500
6138,-5.859375
6139,-3.906250
6140,-1.953125
6141,0.000000
6142,1.953125
6143,3.906250
6144,5.859375
6145,9.765625
6146,11.718750
6147,13.671875
6148,15.625000
6149,17.578125
6150,19.531250
6151,21.484375
6152,23.437500
6153,25.390625
6154,27.343750
6155,29.296875
6156,31.250000
6157,33.203125
6158,35.156250
6159,37.109375
6160,39.062500
6161,41.015625
6162,42.968750
6163,44.921875
6164,46.875000
6165,48.828125
6166,48.828125
6167,50.781250
6168,52.734375
6169,52.734375
6170,56.640625
6171,56.640625
6172,58.593750
6173,60.546875
6174,62.500000
6175,62.500000
6176,64.453125
6177,66.406250
6178,68.359375
6179,68.359375
6180,70.312500
6181,70.312500
6182,72.265625
6183,72.265625
6184,72.265625
6185,74.218750
6186,76.171875
6187,78.125000
6188,78.125000
6189,80.078125
6190,80.078125
6191,80.078125
6192,80.078125
6193,82.031250
6194,82.031250
6195,83.984375
6196,83.984375
6197,83.984375
6198,83.984375
6199,83.984375
6200,85.937500
6201,85.937500
6202,85.937500
6203,85.937500
6204,85.937500
6205,85.937500
6206,87.890625
6207,87.890625
6208,87.890625
6209,87.890625
6210,87.890625
6211,85.937500
6212,85.937500
6213,85.937500
6214,85.937500
6215,85.937500
6216,85.937500
6217,85.937500
6218,85.937500
6219,85.937500
6220,83.984375
6221,83.984375
6222,82.031250
6223,83.984375
6224,83.984375
6225,82.031250
6226,82.031250
6227,80.078125
6228,80.078125
6229,80.078125
6230,78.125000
6231,78.125000
6232,76.171875
6233,76.171875
6234,76.171875
6235,74.218750
6236,72.265625
6237,72.265625
6238,70.312500
6239,68.359375
6240,68.359375
6241,66.406250
6242,66.406250
6243,64.453125
6244,62.500000
6245,62.500000
6246,60.546875
6247,58.593750
6248,58.593750
6249,56.640625
6250,54.687500
6251,52.734375
6252,50.781250
6253,48.828125
6254,48.828125
6255,46.875000
6256,44.921875
6257,42.968750
6258,41.015625
6259,39.062500
6260,37.109375
6261,35.156250
6262,35.156250
6263,31.250000
6264,29.296875
6265,27.343750
6266,25.390625
6267,23.437500
6268,21.484375
6269,19.531250
6270,17.578125
6271,15.625000
6272,13.671875
6273,13.671875
6274,9.765625
6275,7.812500
6276,5.859375
6277,3.906250
6278,0.000000
6279,-1.953125
6280,-3.906250
6281,-5.859375
6282,-7.812500
6283,-9.765625
6284,-11.718750
6285,-13.671875
6286,-15.625000
6287,-17.578125
6288,-21.484375
6289,-23.437500
6290,-25.390625
6291,-27.343750
6292,-29.296875
6293,-31.250000
6294,-33.203125
6295,-35.156250
6296,-37.109375
6297,-39.062500
6298,-41.015625
6299,-44.921875
6300,-46.875000
6301,-48.828125
6302,-50.781250
6303,-52.734375
6304,-54.687500
6305,-56.640625
6306,-58.593750
6307,-60.546875
6308,-62.500000
6309,-64.453125
6310,-66.406250
6311,-68.359375
6312,-68.359375
6313,-70.312500
6314,-72.265625
6315,-74.218750
6316,-76.171875
6317,-78.125000
6318,-78.125000
6319,-80.078125
6320,-82.031250
6321,-83.984375
6322,-85.937500
6323,-85.937500
6324,-87.890625
6325,-87.890625
6326,-89.843750
6327,-91.796875
6328,-91.796875
6329,-93.750000
6330,-95.703125
6331,-95.703125
6332,-97.656250
6333,-97.656250
6334,-99.609375
6335,-99.609375
6336,-101.562500
6337,-101.562500
6338,-101.562500
6339,-103.515625
6340,-103.515625
6341,-103.515625
6342,-103.515625
6343,-103.515625
6344,-105.468750
6345,-105.468750
6346,-105.468750
6347,-105.468750
6348,-105.468750
6349,-105.468750
6350,-105.468750
6351,-105.468750
6352,-105.468750
6353,-105.468750
6354,-105.468750
6355,-105.468750
6356,-105.468750
6357,-103.515625
6358,-105.468750
6359,-103.515625
6360,-103.515625
6361,-103.515625
6362,-101.562500
6363,-101.562500
6364,-101.562500
6365,-99.609375
6366,-99.609375
6367,-97.656250
6368,-97.656250
6369,-97.656250
6370,-95.703125
6371,-95.703125
6372,-93.750000
6373,-93.750000
6374,-91.796875
6375,-89.843750
6376,-89.843750
6377,-87.890625
6378,-85.937500
6379,-85.937500
6380,-83.984375
6381,-82.031250
6382,-80.078125
6383,-80.078125
6384,-78.125000
6385,-76.171875
6386,-74.218750
6387,-74.218750
6388,-72.265625
6389,-70.312500
6390,-68.359375
6391,-66.406250
6392,-64.453125
6393,-62.500000
6394,-60.546875
6395,-58.593750
6396,-56.640625
6397,-54.687500
6398,-52.734375
6399,-50.781250
6400,-48.828125
6401,-46.875000
6402,-44.921875
6403,-42.968750
6404,-41.015625
6405,-39.062500
6406,-37.109375
6407,-33.203125
6408,-31.250000
6409,-31.250000
6410,-27.343750
6411,-25.390625
6412,-23.437500
6413,-21.484375
6414,-19.531250
6415,-17.578125
6416,-15.625000
6417,-13.671875
6418,-9.765625
6419,-7.812500
6420,-5.859375
6421,-3.906250
6422,-1.953125
6423,0.000000
6424,1.953125
6425,3.906250
6426,7.812500
6427,7.812500
6428,11.718750
6429,13.671875
6430,15.625000
6431,17.578125
6432,19.531250
6433,21.484375
6434,23.437500
6435,25.390625
6436,27.343750
6437,29.296875
6438,31.250000
6439,33.203125
6440,35.156250
6441,37.109375
6442,39.062500
6443,41.015625
6444,42.968750
6445,44.921875
6446,44.921875
6447,46.875000
6448,48.828125
6449,50.781250
6450,52.734375
6451,52.734375
6452,54.687500
6453,56.640625
6454,58.593750
6455,58.593750
6456,60.546875
6457,62.500000
6458,64.453125
6459,64.453125
6460,66.406250
6461,68.359375
6462,68.359375
6463,70.312500
6464,70.312500
6465,72.265625
6466,74.218750
6467,74.218750
6468,74.218750
6469,76.171875
6470,76.171875
6471,78.125000
6472,78.125000
6473,80.078125
6474,80.078125
6475,82.031250
6476,82.031250
6477,82.031250
6478,83.984375
6479,83.984375
6480,83.984375
6481,83.984375
6482,83.984375
6483,85.937500
6484,85.937500
6485,85.937500
6486,85.937500
6487,85.937500
6488,85.937500
6489,85.937500
6490,87.890625
6491,87.890625
6492,87.890625
6493,87.890625
6494,85.937500
6495,85.937500
6496,85.937500
6497,85.937500
6498,85.937500
6499,85.937500
6500,85.937500
6501,85.937500
6502,85.937500
6503,85.937500
6504,83.984375
6505,83.984375
6506,82.031250
6507,82.031250
6508,82.031250
6509,80.078125
6510,80.078125
6511,80.078125
6512,78.125000
6513,78.125000
6514,78.125000
6515,76.171875
6516,76.171875
6517,74.218750
6518,72.265625
6519,72.265625
6520,70.312500
6521,70.312500
6522,68.359375
6523,66.406250
6524,66.406250
6525,64.453125
6526,62.500000
6527,62.500000
6528,60.546875
6529,58.593750
6530,56.640625
6531,56.640625
6532,54.687500
6533,52.734375
6534,50.781250
6535,48.828125
6536,48.828125
6537,46.875000
6538,44.921875
6539,42.968750
6540,41.015625
6541,39.062500
6542,39.062500
6543,35.156250
6544,33.203125
6545,33.203125
6546,31.250000
6547,29.296875
6548,27.343750
6549,25.390625
6550,23.437500
6551,19.531250
6552,19.531250
6553,17.578125
6554,13.671875
6555,11.718750
6556,9.765625
6557,7.812500
6558,5.859375
6559,3.906250
6560,1.953125
6561,0.000000
6562,-1.953125
6563,-5.859375
6564,-7.812500
6565,-9.765625
6566,-11.718750
6567,-13.671875
6568,-15.625000
6569,-17.578125
6570,-19.531250
6571,-23.437500
6572,-23.437500
6573,-27.343750
6574,-31.250000
6575,-31.250000
6576,-33.203125
6577,-35.156250
6578,-37.109375
6579,-39.062500
6580,-41.015625
6581,-44.921875
6582,-44.921875
6583,-46.875000
6584,-50.781250
6585,-52.734375
6586,-54.687500
6587,-54.687500
6588,-58.593750
6589,-60.546875
6590,-62.500000
6591,-62.500000
6592,-64.453125
6593,-68.359375
6594,-68.359375
6595,-70.312500
6596,-72.265625
6597,-74.218750
6598,-76.171875
6599,-78.125000
6600,-78.125000
6601,-80.078125
6602,-82.031250
6603,-83.984375
6604,-85.937500
6605,-85.937500
6606,-87.890625
6607,-87.890625
6608,-87.890625
6609,-91.796875
6610,-91.796875
6611,-93.750000
6612,-95.703125
6613,-95.703125
6614,-97.656250
6615,-97.656250
6616,-99.609375
6617,-99.609375
6618,-99.609375
6619,-101.562500
6620,-101.562500
6621,-101.562500
6622,-103.515625
6623,-103.515625
6624,-103.515625
6625,-103.515625
6626,-105.468750
6627,-105.468750
6628,-105.468750
6629,-105.468750
6630,-105.468750
6631,-105.468750
6632,-105.468750
6633,-105.468750
6634,-105.468750
6635,-105.468750
6636,-105.468750
6637,-105.468750
6638,-105.468750
6639,-105.468750
6640,-105.468750
6641,-105.468750
6642,-103.515625
6643,-103.515625
6644,-103.515625
6645,-103.515625
6646,-101.562500
6647,-101.562500
6648,-101.562500
6649,-99.609375
6650,-97.656250
6651,-97.656250
6652,-97.656250
6653,-95.703125
6654,-95.703125
6655,-93.750000
6656,-91.796875
6657,-91.796875
6658,-89.843750
6659,-89.843750
6660,-87.890625
6661,-85.937500
6662,-83.984375
6663,-83.984375
6664,-82.031250
6665,-80.078125
6666,-78.125000
6667,-78.125000
6668,-76.171875
6669,-74.218750
6670,-72.265625
6671,-70.312500
6672,-70.312500
6673,-66.406250
6674,-64.453125
6675,-64.453125
6676,-60.546875
6677,-60.546875
6678,-56.640625
6679,-54.687500
6680,-54.687500
6681,-50.781250
6682,-50.781250
6683,-46.875000
6684,-44.921875
6685,-42.968750
6686,-41.015625
6687,-39.062500
6688,-37.109375
6689,-35.156250
6690,-33.203125
6691,-31.250000
6692,-29.296875
6693,-25.390625
6694,-25.390625
6695,-23.437500
6696,-19.531250
6697,-17.578125
6698,-15.625000
6699,-13.671875
6700,-11.718750
6701,-9.765625
6702,-5.859375
6703,-3.906250
6704,-1.953125
6705,0.000000
6706,1.953125
6707,3.906250
6708,5.859375
6709,7.812500
6710,9.765625
6711,11.718750
6712,13.671875
6713,15.625000
6714,19.531250
6715,19.531250
6716,21.484375
6717,23.437500
6718,27.343750
6719,29.296875
6720,31.250000
6721,31.250000
6722,33.203125
6723,35.156250
6724,37.109375
6725,39.062500
6726,41.015625
6727,42.968750
6728,44.921875
6729,46.875000
6730,48.828125
6731,50.781250
6732,50.781250
6733,52.734375
6734,54.687500
6735,56.640625
6736,58.593750
6737,58.593750
6738,60.546875
6739,62.500000
6740,62.500000
6741,64.453125
6742,66.406250
6743,66.406250
6744,68.359375
6745,70.312500
6746,72.265625
6747,72.265625
6748,74.218750
6749,74.218750
6750,76.171875
6751,76.171875
6752,76.171875
6753,78.125000
6754,80.078125
6755,80.078125
6756,80.078125
6757,82.031250
6758,82.031250
6759,82.031250
6760,83.984375
6761,83.984375
6762,83.984375
6763,83.984375
6764,85.937500
6765,85.937500
6766,85.937500
6767,85.937500
6768,85.937500
6769,87.890625
6770,87.890625
6771,87.890625
6772,87.890625
6773,87.890625
6774,87.890625
6775,87.890625
6776,87.890625
6777,87.890625
6778,87.890625
6779,87.890625
6780,85.937500
6781,85.937500
6782,85.937500
6783,85.937500
6784,85.937500
6785,85.937500
6786,83.984375
6787,83.984375
6788,82.031250
6789,82.031250
6790,82.031250
6791,82.031250
6792,82.031250
6793,80.078125
6794,80.078125
6795,78.125000
6796,78.125000
6797,76.171875
6798,76.171875
6799,74.218750
6800,74.218750
6801,72.265625
6802,72.265625
6803,70.312500
6804,70.312500
6805,68.359375
6806,66.406250
6807,66.406250
6808,64.453125
6809,62.500000
6810,60.546875
6811,60.546875
6812,58.593750
6813,58.593750
6814,56.640625
6815,54.687500
6816,52.734375
6817,50.781250
6818,48.828125
6819,48.828125
6820,46.875000
6821,44.921875
6822,42.968750
6823,41.015625
6824,39.062500
6825,37.109375
6826,35.156250
6827,33.203125
6828,31.250000
6829,29.296875
6830,27.343750
6831,25.390625
6832,23.437500
6833,21.484375
6834,19.531250
6835,17.578125
6836,15.625000
6837,13.671875
6838,11.718750
6839,9.765625
6840,7.812500
6841,3.906250
6842,1.953125
6843,0.000000
6844,-1.953125
6845,-3.906250
6846,-5.859375
6847,-7.812500
6848,-9.765625
6849,-13.671875
6850,-15.625000
6851,-17.578125
6852,-19.531250
6853,-21.484375
6854,-23.437500
6855,-25.390625
6856,-27.343750
6857,-31.250000
6858,-33.203125
6859,-35.156250
6860,-37.109375
6861,-39.062500
6862,-41.015625
6863,-42.968750
6864,-44.921875
6865,-46.875000
6866,-48.828125
6867,-50.781250
6868,-52.734375
6869,-54.687500
6870,-56.640625
6871,-58.593750
6872,-60.546875
6873,-62.500000
6874,-64.453125
6875,-66.406250
6876,-68.359375
6877,-70.312500
6878,-72.265625
6879,-74.218750
6880,-76.171875
6881,-76.171875
6882,-78.125000
6883,-80.078125
6884,-82.031250
6885,-82.031250
6886,-83.984375
6887,-85.937500
6888,-87.890625
6889,-87.890625
6890,-89.843750
6891,-89.843750
6892,-91.796875
6893,-93.750000
6894,-93.750000
6895,-95.703125
6896,-97.656250
6897,-97.656250
6898,-97.656250
6899,-99.609375
6900,-99.609375
6901,-101.562500
6902,-101.562500
6903,-101.562500
6904,-101.562500
6905,-103.515625
6906,-103.515625
6907,-103.515625
6908,-105.468750
6909,-105.468750
6910,-105.468750
6911,-105.468750
6912,-105.468750
6913,-105.468750
6914,-105.468750
6915,-105.468750
6916,-105.468750
6917,-105.468750
6918,-107.421875
6919,-105.468750
6920,-105.468750
6921,-105.468750
6922,-105.468750
6923,-105.468750
6924,-103.515625
6925,-103.515625
6926,-103.515625
6927,-103.515625
6928,-101.562500
6929,-101.562500
6930,-99.609375
6931,-99.609375
6932,-99.609375
6933,-97.656250
6934,-97.656250
6935,-95.703125
6936,-95.703125
6937,-93.750000
6938,-93.750000
6939,-91.796875
6940,-89.843750
6941,-89.843750
6942,-87.890625
6943,-85.937500
6944,-85.937500
6945,-83.984375
6946,-82.031250
6947,-80.078125
6948,-78.125000
6949,-78.125000
6950,-76.171875
6951,-74.218750
6952,-72.265625
6953,-70.312500
6954,-68.359375
6955,-68.359375
6956,-66.406250
6957,-64.453125
6958,-62.500000
6959,-60.546875
6960,-58.593750
6961,-56.640625
6962,-54.687500
6963,-52.734375
6964,-50.781250
6965,-48.828125
6966,-46.875000
6967,-44.921875
6968,-42.968750
6969,-41.015625
6970,-39.062500
6971,-35.156250
6972,-33.203125
6973,-31.250000
6974,-29.296875
6975,-27.343750
6976,-25.390625
6977,-21.484375
6978,-21.484375
6979,-19.531250
6980,-17.578125
6981,-13.671875
6982,-11.718750
6983,-9.765625
6984,-7.812500
6985,-5.859375
6986,-3.906250
6987,-1.953125
6988,0.000000
6989,1.953125
6990,3.906250
6991,5.859375
6992,9.765625
6993,9.765625
6994,13.671875
6995,15.625000
6996,17.578125
6997,19.531250
6998,21.484375
6999,23.437500
7000,25.390625
7001,27.343750
7002,29.296875
7003,31.250000
7004,33.203125
7005,35.156250
7006,37.109375
7007,39.062500
7008,41.015625
7009,42.968750
7010,44.921875
7011,44.921875
7012,46.875000
7013,48.828125
7014,50.781250
7015,52.734375
7016,54.687500
7017,54.687500
7018,56.640625
7019,58.593750
7020,60.546875
7021,62.500000
7022,64.453125
7023,64.453125
7024,66.406250
7025,66.406250
7026,68.359375
7027,70.312500
7028,70.312500
7029,72.265625
7030,72.265625
7031,72.265625
7032,74.218750
7033,76.171875
7034,78.125000
7035,76.171875
7036,78.125000
7037,78.125000
7038,80.078125
7039,80.078125
7040,80.078125
7041,82.031250
7042,82.031250
7043,82.031250
7044,83.984375
7045,83.984375
7046,83.984375
7047,83.984375
7048,85.937500
7049,85.937500
7050,85.937500
7051,85.937500
7052,85.937500
7053,85.937500
7054,85.937500
7055,85.937500
7056,85.937500
7057,85.937500
7058,87.890625
7059,85.937500
7060,85.937500
7061,85.937500
7062,85.937500
7063,85.937500
7064,85.937500
7065,83.984375
7066,83.984375
7067,83.984375
7068,83.984375
7069,83.984375
7070,83.984375
7071,83.984375
7072,82.031250
7073,80.078125
7074,80.078125
7075,80.078125
7076,78.125000
7077,78.125000
7078,78.125000
7079,76.171875
7080,76.171875
7081,74.218750
7082,74.218750
7083,72.265625
7084,72.265625
7085,70.312500
7086,70.312500
7087,68.359375
7088,66.406250
7089,66.406250
7090,64.453125
7091,62.500000
7092,62.500000
7093,60.546875
7094,58.593750
7095,58.593750
7096,54.687500
7097,54.687500
7098,52.734375
7099,50.781250
7100,48.828125
7101,46.875000
7102,46.875000
7103,44.921875
7104,42.968750
7105,41.015625
7106,39.062500
7107,37.109375
7108,35.156250
7109,33.203125
7110,31.250000
7111,29.296875
7112,27.343750
7113,25.390625
7114,23.437500
7115,21.484375
7116,19.531250
7117,17.578125
7118,15.625000
7119,13.671875
7120,11.718750
7121,9.765625
7122,7.812500
7123,5.859375
7124,1.953125
7125,0.000000
7126,-1.953125
7127,-3.906250
7128,-5.859375
7129,-7.812500
7130,-9.765625
7131,-11.718750
7132,-13.671875
7133,-15.625000
7134,-19.531250
7135,-21.484375
7136,-23.437500
7137,-25.390625
7138,-27.343750
7139,-29.296875
7140,-31.250000
7141,-33.203125
7142,-35.156250
7143,-37.109375
7144,-41.015625
7145,-41.015625
7146,-44.921875
7147,-46.875000
7148,-48.828125
7149,-50.781250
7150,-52.734375
7151,-54.687500
7152,-56.640625
7153,-58.593750
7154,-60.546875
7155,-62.500000
7156,-64.453125
7157,-66.406250
7158,-68.359375
7159,-70.312500
7160,-72.265625
7161,-72.265625
7162,-74.218750
7163,-76.171875
7164,-78.125000
7165,-80.078125
7166,-82.031250
7167,-82.031250
7168,-83.984375
7169,-85.937500
7170,-85.937500
7171,-87.890625
7172,-89.843750
7173,-91.796875
7174,-91.796875
7175,-93.750000
7176,-93.750000
7177,-95.703125
7178,-95.703125
7179,-97.656250
7180,-97.656250
7181,-99.609375
7182,-99.609375
7183,-101.562500
7184,-101.562500
7185,-101.562500
7186,-103.515625
7187,-103.515625
7188,-103.515625
7189,-103.515625
7190,-103.515625
7191,-105.468750
7192,-105.468750
7193,-105.468750
7194,-105.468750
7195,-107.421875
7196,-105.468750
7197,-105.468750
7198,-105.468750
7199,-105.468750
7200,-105.468750
7201,-105.468750
7202,-105.468750
7203,-105.468750
7204,-105.468750
7205,-105.468750
7206,-103.515625
7207,-103.515625
7208,-103.515625
7209,-101.562500
7210,-101.562500
7211,-101.562500
7212,-99.609375
7213,-99.609375
7214,-99.609375
7215,-97.656250
7216,-97.656250
7217,-95.703125
7218,-95.703125
7219,-93.750000
7220,-91.796875
7221,-91.796875
7222,-89.843750
7223,-89.843750
7224,-87.890625
7225,-85.937500
7226,-85.937500
7227,-83.984375
7228,-82.031250
7229,-82.031250
7230,-80.078125
7231,-78.125000
7232,-76.171875
7233,-74.218750
7234,-74.218750
7235,-70.312500
7236,-70.312500
7237,-68.359375
7238,-66.406250
7239,-64.453125
7240,-62.500000
7241,-60.546875
7242,-58.593750
7243,-56.640625
7244,-54.687500
7245,-52.734375
7246,-50.781250
7247,-48.828125
7248,-46.875000
7249,-44.921875
7250,-42.968750
7251,-41.015625
7252,-39.062500
7253,-37.109375
7254,-35.156250
7255,-31.250000
7256,-29.296875
7257,-27.343750
7258,-25.390625
7259,-23.437500
7260,-21.484375
7261,-19.531250
7262,-17.578125
7263,-13.671875
7264,-11.718750
7265,-9.765625
7266,-7.812500
7267,-5.859375
7268,-3.906250
7269,-1.953125
7270,0.000000
7271,1.953125
7272,3.906250
7273,7.812500
7274,9.765625
7275,11.718750
7276,13.671875
7277,15.625000
7278,17.578125
7279,19.531250
7280,21.484375
7281,23.437500
7282,25.390625
7283,27.343750
7284,29.296875
7285,31.250000
7286,33.203125
7287,35.156250
7288,37.109375
7289,39.062500
7290,41.015625
7291,42.968750
7292,44.921875
7293,44.921875
7294,46.875000
7295,48.828125
7296,50.781250
7297,52.734375
7298,54.687500
7299,54.687500
7300,56.640625
7301,58.593750
7302,60.546875
7303,60.546875
7304,64.453125
7305,64.453125
7306,64.453125
7307,66.406250
7308,68.359375
7309,68.359375
7310,70.312500
7311,72.265625
7312,72.265625
7313,74.218750
7314,74.218750
7315,76.171875
7316,76.171875
7317,78.125000
7318,78.125000
7319,80.078125
7320,80.078125
7321,80.078125
7322,82.031250
7323,82.031250
7324,82.031250
7325,83.984375
7326,83.984375
7327,83.984375
7328,85.937500
7329,85.937500
7330,85.937500
7331,85.937500
7332,85.937500
7333,85.937500
7334,87.890625
7335,87.890625
7336,87.890625
7337,87.890625
7338,87.890625
7339,87.890625
7340,87.890625
7341,87.890625
7342,87.890625
7343,87.890625
7344,87.890625
7345,87.890625
7346,85.937500
7347,85.937500
7348,85.937500
7349,85.937500
7350,85.937500
7351,83.984375
7352,83.984375
7353,83.984375
7354,82.031250
7355,82.031250
7356,80.078125
7357,80.078125
7358,80.078125
7359,78.125000
7360,78.125000
7361,76.171875
7362,76.171875
7363,76.171875
7364,74.218750
7365,72.265625
7366,72.265625
7367,72.265625
7368,70.312500
7369,68.359375
7370,68.359375
7371,66.406250
7372,64.453125
7373,64.453125
7374,62.500000
7375,60.546875
7376,58.593750
7377,58.593750
7378,56.640625
7379,54.687500
7380,52.734375
7381,52.734375
7382,50.781250
7383,48.828125
7384,46.875000
7385,44.921875
7386,42.968750
7387,41.015625
7388,41.015625
7389,39.062500
7390,35.156250
7391,33.203125
7392,33.203125
7393,31.250000
7394,29.296875
7395,27.343750
7396,25.390625
7397,23.437500
7398,21.484375
7399,19.531250
7400,15.625000
7401,13.671875
7402,11.718750
7403,9.765625
7404,7.812500
7405,5.859375
7406,3.906250
7407,1.953125
7408,0.000000
7409,-1.953125
7410,-3.906250
7411,-5.859375
7412,-9.765625
7413,-9.765625
7414,-13.671875
7415,-15.625000
7416,-17.578125
7417,-19.531250
7418,-21.484375
7419,-23.437500
7420,-25.390625
7421,-29.296875
7422,-31.250000
7423,-33.203125
7424,-35.156250
7425,-37.109375
7426,-39.062500
7427,-41.015625
7428,-42.968750
7429,-46.875000
7430,-48.828125
7431,-50.781250
7432,-52.734375
7433,-52.734375
7434,-54.687500
7435,-58.593750
7436,-58.593750
7437,-60.546875
7438,-64.453125
7439,-66.406250
7440,-68.359375
7441,-70.312500
7442,-70.312500
7443,-72.265625
7444,-74.218750
7445,-76.171875
7446,-78.125000
7447,-80.078125
7448,-82.031250
7449,-82.031250
7450,-83.984375
7451,-83.984375
7452,-85.937500
7453,-87.890625
7454,-89.843750
7455,-89.843750
7456,-91.796875
7457,-91.796875
7458,-93.750000
7459,-95.703125
7460,-95.703125
7461,-95.703125
7462,-97.656250
7463,-97.656250
7464,-99.609375
7465,-99.609375
7466,-101.562500
7467,-101.562500
7468,-103.515625
7469,-103.515625
7470,-103.515625
7471,-103.515625
7472,-105.468750
7473,-105.468750
7474,-105.468750
7475,-105.468750
7476,-105.468750
7477,-105.468750
7478,-105.468750
7479,-105.468750
7480,-105.468750
7481,-105.468750
7482,-105.468750
7483,-105.468750
7484,-105.468750
7485,-105.468750
7486,-105.468750
7487,-105.468750
7488,-105.468750
7489,-103.515625
7490,-103.515625
7491,-103.515625
7492,-103.515625
7493,-101.562500
7494,-101.562500
7495,-99.609375
7496,-99.609375
7497,-99.609375
7498,-97.656250
7499,-97.656250
7500,-95.703125
7501,-95.703125
7502,-93.750000
7503,-93.750000
7504,-91.796875
7505,-89.843750
7506,-87.890625
7507,-87.890625
7508,-85.937500
7509,-85.937500
7510,-83.984375
7511,-82.031250
7512,-80.078125
7513,-78.125000
7514,-78.125000
7515,-76.171875
7516,-74.218750
7517,-72.265625
7518,-70.312500
7519,-68.359375
7520,-68.359375
7521,-64.453125
7522,-62.500000
7523,-60.546875
7524,-58.593750
7525,-56.640625
7526,-56.640625
7527,-54.687500
7528,-50.781250
7529,-48.828125
7530,-46.875000
7531,-44.921875
7532,-44.921875
7533,-41.015625
7534,-39.062500
7535,-37.109375
7536,-35.156250
7537,-33.203125
7538,-31.250000
7539,-29.296875
7540,-27.343750
7541,-23.437500
7542,-21.484375
7543,-19.531250
7544,-17.578125
7545,-15.625000
7546,-13.671875
7547,-11.718750
7548,-9.765625
7549,-5.859375
7550,-3.906250
7551,-1.953125
7552,0.000000
7553,1.953125
7554,3.906250
7555,5.859375
7556,7.812500
7557,9.765625
7558,11.718750
7559,13.671875
7560,15.625000
7561,19.531250
7562,21.484375
7563,23.437500
7564,25.390625
7565,27.343750
7566,27.343750
7567,29.296875
7568,31.250000
7569,35.156250
7570,35.156250
7571,39.062500
7572,39.062500
7573,41.015625
7574,42.968750
7575,44.921875
7576,46.875000
7577,46.875000
7578,50.781250
7579,50.781250
7580,52.734375
7581,54.687500
7582,56.640625
7583,58.593750
7584,60.546875
7585,60.546875
7586,62.500000
7587,62.500000
7588,64.453125
7589,66.406250
7590,68.359375
7591,68.359375
7592,70.312500
7593,70.312500
7594,72.265625
7595,72.265625
7596,74.218750
7597,74.218750
7598,76.171875
7599,78.125000
7600,78.125000
7601,78.125000
7602,80.078125
7603,80.078125
7604,82.031250
7605,82.031250
7606,82.031250
7607,82.031250
7608,83.984375
7609,83.984375
7610,83.984375
7611,85.937500
7612,85.937500
7613,85.937500
7614,85.937500
7615,85.937500
7616,85.937500
7617,85.937500
7618,87.890625
7619,87.890625
7620,87.890625
7621,85.937500
7622,85.937500
7623,87.890625
7624,83.984375
7625,87.890625
7626,85.937500
7627,85.937500
7628,85.937500
7629,85.937500
7630,85.937500
7631,83.984375
7632,83.984375
7633,83.984375
7634,83.984375
7635,82.031250
7636,82.031250
7637,82.031250
7638,80.078125
7639,80.078125
7640,80.078125
7641,78.125000
7642,78.125000
7643,78.125000
7644,76.171875
7645,76.171875
7646,74.218750
7647,72.265625
7648,72.265625
7649,72.265625
7650,70.312500
7651,68.359375
7652,68.359375
7653,66.406250
7654,66.406250
7655,64.453125
7656,62.500000
7657,60.546875
7658,60.546875
7659,58.593750
7660,56.640625
7661,54.687500
7662,52.734375
7663,52.734375
7664,50.781250
7665,48.828125
7666,46.875000
7667,46.875000
7668,42.968750
7669,41.015625
7670,41.015625
7671,39.062500
7672,37.109375
7673,35.156250
7674,33.203125
7675,31.250000
7676,29.296875
7677,27.343750
7678,25.390625
7679,23.437500
7680,21.484375
7681,19.531250
7682,17.578125
7683,13.671875
7684,13.671875
7685,9.765625
7686,7.812500
7687,5.859375
7688,3.906250
7689,1.953125
7690,0.000000
7691,-1.953125
7692,-5.859375
7693,-5.859375
7694,-7.812500
7695,-11.718750
7696,-13.671875
7697,-15.625000
7698,-17.578125
7699,-19.531250
7700,-21.484375
7701,-23.437500
7702,-25.390625
7703,-27.343750
7704,-29.296875
7705,-33.203125
7706,-35.156250
7707,-37.109375
7708,-39.062500
7709,-39.062500
7710,-42.968750
7711,-44.921875
7712,-46.875000
7713,-48.828125
7714,-50.781250
7715,-52.734375
7716,-54.687500
7717,-56.640625
7718,-58.593750
7719,-60.546875
7720,-62.500000
7721,-64.453125
7722,-66.406250
7723,-68.359375
7724,-70.312500
7725,-72.265625
7726,-72.265625
7727,-74.218750
7728,-76.171875
7729,-78.125000
7730,-80.078125
7731,-82.031250
7732,-82.031250
7733,-83.984375
7734,-85.937500
7735,-87.890625
7736,-87.890625
7737,-89.843750
7738,-91.796875
7739,-91.796875
7740,-93.750000
7741,-93.750000
7742,-95.703125
7743,-95.703125
7744,-97.656250
7745,-99.609375
7746,-99.609375
7747,-99.609375
7748,-101.562500
7749,-101.562500
7750,-101.562500
7751,-103.515625
7752,-103.515625
7753,-103.515625
7754,-103.515625
7755,-105.468750
7756,-105.468750
7757,-105.468750
7758,-105.468750
7759,-105.468750
7760,-105.468750
7761,-105.468750
7762,-105.468750
7763,-105.468750
7764,-105.468750
7765,-105.468750
7766,-105.468750
7767,-105.468750
7768,-105.468750
7769,-103.515625
7770,-103.515625
7771,-103.515625
7772,-103.515625
7773,-103.515625
7774,-101.562500
7775,-101.562500
7776,-95.703125
7777,-101.562500
7778,-99.609375
7779,-99.609375
7780,-97.656250
7781,-95.703125
7782,-95.703125
7783,-93.750000
7784,-93.750000
7785,-91.796875
7786,-91.796875
7787,-89.843750
7788,-87.890625
7789,-87.890625
7790,-85.937500
7791,-85.937500
7792,-83.984375
7793,-82.031250
7794,-80.078125
7795,-78.125000
7796,-76.171875
7797,-76.171875
7798,-74.218750
7799,-72.265625
7800,-70.312500
7801,-70.312500
7802,-66.406250
7803,-64.453125
7804,-62.500000
7805,-62.500000
7806,-58.593750
7807,-58.593750
7808,-56.640625
7809,-54.687500
7810,-54.687500
7811,-50.781250
7812,-48.828125
7813,-44.921875
7814,-44.921875
7815,-42.968750
7816,-39.062500
7817,-37.109375
7818,-35.156250
7819,-33.203125
7820,-31.250000
7821,-29.296875
7822,-27.343750
7823,-25.390625
7824,-23.437500
7825,-19.531250
7826,-17.578125
7827,-15.625000
7828,-13.671875
7829,-11.718750
7830,-9.765625
7831,-7.812500
7832,-5.859375
7833,-3.906250
7834,-1.953125
7835,1.953125
7836,3.906250
7837,5.859375
7838,7.812500
7839,9.765625
7840,11.718750
7841,13.671875
7842,15.625000
7843,17.578125
7844,19.531250
7845,21.484375
7846,25.390625
7847,27.343750
7848,29.296875
7849,29.296875
7850,31.250000
7851,33.203125
7852,35.156250
7853,37.109375
7854,39.062500
7855,41.015625
7856,42.968750
7857,44.921875
7858,46.875000
7859,48.828125
7860,50.781250
7861,50.781250
7862,52.734375
7863,54.687500
7864,56.640625
7865,58.593750
7866,58.593750
7867,60.546875
7868,62.500000
7869,62.500000
7870,64.453125
7871,66.406250
7872,68.359375
7873,68.359375
7874,68.359375
7875,70.312500
7876,72.265625
7877,74.218750
7878,74.218750
7879,74.218750
7880,76.171875
7881,76.171875
7882,78.125000
7883,78.125000
7884,80.078125
7885,80.078125
7886,80.078125
7887,82.031250
7888,82.031250
7889,82.031250
7890,83.984375
7891,83.984375
7892,83.984375
7893,85.937500
7894,85.937500
7895,85.937500
7896,85.937500
7897,85.937500
7898,85.937500
7899,87.890625
7900,87.890625
7901,87.890625
7902,87.890625
7903,87.890625
7904,87.890625
7905,87.890625
7906,87.890625
7907,87.890625
7908,87.890625
7909,85.937500
7910,85.937500
7911,85.937500
7912,85.937500
7913,85.937500
7914,85.937500
7915,83.984375
7916,83.984375
7917,83.984375
7918,83.984375
7919,82.031250
7920,82.031250
7921,82.031250
7922,80.078125
7923,80.078125
7924,80.078125
7925,78.125000
7926,76.171875
7927,76.171875
7928,76.171875
7929,74.218750
7930,74.218750
7931,72.265625
7932,70.312500
7933,70.312500
7934,68.359375
7935,68.359375
7936,66.406250
7937,64.453125
7938,64.453125
7939,62.500000
7940,60.546875
7941,58.593750
7942,58.593750
7943,56.640625
7944,54.687500
7945,52.734375
7946,50.781250
7947,48.828125
7948,48.828125
7949,46.875000
7950,44.921875
7951,42.968750
7952,41.015625
7953,39.062500
7954,37.109375
7955,35.156250
7956,33.203125
7957,31.250000
7958,29.296875
7959,29.296875
7960,25.390625
7961,23.437500
7962,21.484375
7963,19.531250
7964,17.578125
7965,15.625000
7966,13.671875
7967,11.718750
7968,9.765625
7969,7.812500
7970,5.859375
7971,3.906250
7972,1.953125
7973,0.000000
7974,-1.953125
7975,-5.859375
7976,-7.812500
7977,-9.765625
7978,-11.718750
7979,-13.671875
7980,-15.625000
7981,-17.578125
7982,-19.531250
7983,-23.437500
7984,-25.390625
7985,-27.343750
7986,-29.296875
7987,-31.250000
7988,-33.203125
7989,-37.109375
7990,-37.109375
7991,-39.062500
7992,-41.015625
7993,-44.921875
7994,-46.875000
7995,-48.828125
7996,-50.781250
7997,-52.734375
7998,-54.687500
7999,-56.640625
8000,-58.593750
8001,-60.546875
8002,-62.500000
8003,-64.453125
8004,-66.406250
8005,-68.359375
8006,-70.312500
8007,-72.265625
8008,-72.265625
8009,-74.218750
8010,-76.171875
8011,-78.125000
8012,-80.078125
8013,-80.078125
8014,-82.031250
8015,-83.984375
8016,-85.937500
8017,-85.937500
8018,-87.890625
8019,-89.843750
8020,-91.796875
8021,-91.796875
8022,-93.750000
8023,-93.750000
8024,-95.703125
8025,-95.703125
8026,-97.656250
8027,-97.656250
8028,-99.609375
8029,-99.609375
8030,-99.609375
8031,-101.562500
8032,-101.562500
8033,-103.515625
8034,-103.515625
8035,-103.515625
8036,-103.515625
8037,-105.468750
8038,-105.468750
8039,-105.468750
8040,-105.468750
8041,-105.468750
8042,-105.468750
8043,-105.468750
8044,-105.468750
8045,-105.468750
8046,-105.468750
8047,-105.468750
8048,-105.468750
8049,-105.468750
8050,-103.515625
8051,-105.468750
8052,-103.515625
8053,-103.515625
8054,-103.515625
8055,-103.515625
8056,-101.562500
8057,-101.562500
8058,-101.562500
8059,-99.609375
8060,-99.609375
8061,-99.609375
8062,-97.656250
8063,-97.656250
8064,-95.703125
8065,-95.703125
8066,-93.750000
8067,-93.750000
8068,-91.796875
8069,-89.843750
8070,-89.843750
8071,-87.890625
8072,-87.890625
8073,-85.937500
8074,-83.984375
8075,-82.031250
8076,-80.078125
8077,-80.078125
8078,-78.125000
8079,-76.171875
8080,-74.218750
8081,-74.218750
8082,-70.312500
8083,-68.359375
8084,-68.359375
8085,-66.406250
8086,-64.453125
8087,-62.500000
8088,-60.546875
8089,-58.593750
8090,-56.640625
8091,-54.687500
8092,-52.734375
8093,-50.781250
8094,-48.828125
8095,-46.875000
8096,-44.921875
8097,-42.968750
8098,-39.062500
8099,-39.062500
8100,-35.156250
8101,-33.203125
8102,-31.250000
8103,-29.296875
8104,-27.343750
8105,-25.390625
8106,-23.437500
8107,-21.484375
8108,-19.531250
8109,-17.578125
8110,-13.671875
8111,-11.718750
8112,-9.765625
8113,-7.812500
8114,-5.859375
8115,-3.906250
8116,-1.953125
8117,0.000000
8118,3.906250
8119,5.859375
8120,7.812500
8121,9.765625
8122,11.718750
8123,13.671875
8124,15.625000
8125,17.578125
8126,19.531250
8127,21.484375
8128,23.437500
8129,25.390625
8130,27.343750
8131,29.296875
8132,31.250000
8133,33.203125
8134,35.156250
8135,37.109375
8136,39.062500
8137,41.015625
8138,42.968750
8139,44.921875
8140,44.921875
8141,46.875000
8142,48.828125
8143,50.781250
8144,52.734375
8145,54.687500
8146,54.687500
8147,56.640625
8148,58.593750
8149,58.593750
8150,60.546875
8151,62.500000
8152,64.453125
8153,66.406250
8154,66.406250
8155,68.359375
8156,68.359375
8157,70.312500
8158,72.265625
8159,72.265625
8160,74.218750
8161,74.218750
8162,74.218750
8163,76.171875
8164,78.125000
8165,78.125000
8166,78.125000
8167,80.078125
8168,80.078125
8169,82.031250
8170,82.031250
8171,80.078125
8172,83.984375
8173,83.984375
8174,83.984375
8175,83.984375
8176,85.937500
8177,85.937500
8178,85.937500
8179,87.890625
8180,85.937500
8181,87.890625
8182,87.890625
8183,87.890625
8184,87.890625
8185,87.890625
8186,87.890625
8187,87.890625
8188,87.890625
8189,87.890625
8190,87.890625
8191,87.890625
8192,85.937500
8193,85.937500
8194,85.937500
8195,85.937500
8196,83.984375
8197,83.984375
8198,83.984375
8199,83.984375
8200,83.984375
8201,82.031250
8202,82.031250
8203,82.031250
8204,80.078125
8205,80.078125
8206,78.125000
8207,78.125000
8208,76.171875
8209,76.171875
8210,74.218750
8211,74.218750
8212,74.218750
8213,72.265625
8214,72.265625
8215,70.312500
8216,68.359375
8217,66.406250
8218,66.406250
8219,64.453125
8220,62.500000
8221,62.500000
8222,60.546875
8223,60.546875
8224,56.640625
8225,56.640625
8226,54.687500
8227,52.734375
8228,50.781250
8229,50.781250
8230,48.828125
8231,46.875000
8232,44.921875
8233,42.968750
8234,41.015625
8235,39.062500
8236,37.109375
8237,35.156250
8238,35.156250
8239,33.203125
8240,31.250000
8241,29.296875
8242,27.343750
8243,23.437500
8244,21.484375
8245,21.484375
8246,19.531250
8247,15.625000
8248,13.671875
8249,11.718750
8250,9.765625
8251,7.812500
8252,5.859375
8253,3.906250
8254,1.953125
8255,0.000000
8256,-1.953125
8257,-5.859375
8258,-5.859375
8259,-9.765625
8260,-11.718750
8261,-13.671875
8262,-15.625000
8263,-17.578125
8264,-19.531250
8265,-23.437500
8266,-23.437500
8267,-27.343750
8268,-29.296875
8269,-31.250000
8270,-33.203125
8271,-35.156250
8272,-37.109375
8273,-39.062500
8274,-41.015625
8275,-44.921875
8276,-44.921875
8277,-46.875000
8278,-50.781250
8279,-52.734375
8280,-52.734375
8281,-54.687500
8282,-58.593750
8283,-60.546875
8284,-62.500000
8285,-62.500000
8286,-64.453125
8287,-66.406250
8288,-68.359375
8289,-70.312500
8290,-72.265625
8291,-74.218750
8292,-76.171875
8293,-76.171875
8294,-78.125000
8295,-80.078125
8296,-82.031250
8297,-82.031250
8298,-83.984375
8299,-85.937500
8300,-87.890625
8301,-87.890625
8302,-89.843750
8303,-91.796875
8304,-91.796875
8305,-93.750000
8306,-93.750000
8307,-95.703125
8308,-95.703125
8309,-97.656250
8310,-99.609375
8311,-99.609375
8312,-99.609375
8313,-101.562500
8314,-101.562500
8315,-101.562500
8316,-103.515625
8317,-103.515625
8318,-103.515625
8319,-103.515625
8320,-105.468750
8321,-105.468750
8322,-103.515625
8323,-105.468750
8324,-105.468750
8325,-105.468750
8326,-105.468750
8327,-105.468750
8328,-105.468750
8329,-105.468750
8330,-105.468750
8331,-105.468750
8332,-105.468750
8333,-105.468750
8334,-105.468750
8335,-103.515625
8336,-103.515625
8337,-103.515625
8338,-101.562500
8339,-101.562500
8340,-101.562500
8341,-101.562500
8342,-99.609375
8343,-99.609375
8344,-97.656250
8345,-97.656250
8346,-95.703125
8347,-95.703125
8348,-93.750000
8349,-93.750000
8350,-91.796875
8351,-91.796875
8352,-89.843750
8353,-89.843750
8354,-87.890625
8355,-85.937500
8356,-83.984375
8357,-83.984375
8358,-82.031250
8359,-80.078125
8360,-78.125000
8361,-76.171875
8362,-76.171875
8363,-74.218750
8364,-72.265625
8365,-70.312500
8366,-68.359375
8367,-66.406250
8368,-64.453125
8369,-62.500000
8370,-60.546875
8371,-58.593750
8372,-56.640625
8373,-54.687500
8374,-52.734375
8375,-50.781250
8376,-48.828125
8377,-46.875000
8378,-44.921875
8379,-42.968750
8380,-41.015625
8381,-39.062500
8382,-37.109375
8383,-35.156250
8384,-33.203125
8385,-31.250000
8386,-27.343750
8387,-25.390625
8388,-23.437500
8389,-21.484375
8390,-19.531250
8391,-17.578125
8392,-15.625000
8393,-13.671875
8394,-11.718750
8395,-9.765625
8396,-5.859375
8397,-5.859375
8398,-1.953125
8399,0.000000
8400,1.953125
8401,3.906250
8402,5.859375
8403,7.812500
8404,9.765625
8405,11.718750
8406,13.671875
8407,15.625000
8408,17.578125
8409,21.484375
8410,21.484375
8411,23.437500
8412,27.343750
8413,29.296875
8414,31.250000
8415,33.203125
8416,33.203125
8417,35.156250
8418,39.062500
8419,39.062500
8420,41.015625
8421,42.968750
8422,44.921875
8423,46.875000
8424,48.828125
8425,50.781250
8426,50.781250
8427,52.734375
8428,54.687500
8429,56.640625
8430,56.640625
8431,58.593750
8432,60.546875
8433,62.500000
8434,64.453125
8435,64.453125
8436,66.406250
8437,66.406250
8438,68.359375
8439,70.312500
8440,72.265625
8441,72.265625
8442,72.265625
8443,74.218750
8444,76.171875
8445,76.171875
8446,76.171875
8447,78.125000
8448,78.125000
8449,80.078125
8450,80.078125
8451,82.031250
8452,80.078125
8453,82.031250
8454,82.031250
8455,83.984375
8456,83.984375
8457,85.937500
8458,85.937500
8459,85.937500
8460,85.937500
8461,85.937500
8462,85.937500
8463,85.937500
8464,85.937500
8465,85.937500
8466,85.937500
8467,87.890625
8468,87.890625
8469,85.937500
8470,87.890625
8471,85.937500
8472,87.890625
8473,85.937500
8474,85.937500
8475,85.937500
8476,85.937500
8477,85.937500
8478,85.937500
8479,83.984375
8480,83.984375
8481,83.984375
8482,82.031250
8483,82.031250
8484,82.031250
8485,82.031250
8486,82.031250
8487,80.078125
8488,80.078125
8489,78.125000
8490,78.125000
8491,78.125000
8492,76.171875
8493,74.218750
8494,74.218750
8495,72.265625
8496,72.265625
8497,70.312500
8498,68.359375
8499,68.359375
8500,66.406250
8501,66.406250
8502,64.453125
8503,62.500000
8504,60.546875
8505,60.546875
8506,58.593750
8507,56.640625
8508,54.687500
8509,52.734375
8510,52.734375
8511,50.781250
8512,48.828125
8513,46.875000
8514,46.875000
8515,44.921875
8516,42.968750
8517,41.015625
8518,39.062500
8519,37.109375
8520,35.156250
8521,33.203125
8522,31.250000
8523,29.296875
8524,27.343750
8525,25.390625
8526,23.437500
8527,21.484375
8528,19.531250
8529,17.578125
8530,15.625000
8531,13.671875
8532,9.765625
8533,7.812500
8534,5.859375
8535,3.906250
8536,1.953125
8537,0.000000
8538,-1.953125
8539,-3.906250
8540,-5.859375
8541,-7.812500
8542,-11.718750
8543,-13.671875
8544,-15.625000
8545,-17.578125
8546,-19.531250
8547,-21.484375
8548,-23.437500
8549,-25.390625
8550,-29.296875
8551,-31.250000
8552,-33.203125
8553,-33.203125
8554,-37.109375
8555,-39.062500
8556,-41.015625
8557,-42.968750
8558,-44.921875
8559,-46.875000
8560,-50.781250
8561,-50.781250
8562,-52.734375
8563,-54.687500
8564,-56.640625
8565,-58.593750
8566,-60.546875
8567,-62.500000
8568,-64.453125
8569,-66.406250
8570,-68.359375
8571,-70.312500
8572,-72.265625
8573,-74.218750
8574,-74.218750
8575,-76.171875
8576,-78.125000
8577,-80.078125
8578,-80.078125
8579,-82.031250
8580,-83.984375
8581,-85.937500
8582,-87.890625
8583,-87.890625
8584,-89.843750
8585,-89.843750
8586,-91.796875
8587,-93.750000
8588,-93.750000
8589,-95.703125
8590,-95.703125
8591,-97.656250
8592,-99.609375
8593,-99.609375
8594,-99.609375
8595,-99.609375
8596,-101.562500
8597,-101.562500
8598,-103.515625
8599,-103.515625
8600,-103.515625
8601,-103.515625
8602,-105.468750
8603,-105.468750
8604,-105.468750
8605,-105.468750
8606,-105.468750
8607,-105.468750
8608,-105.468750
8609,-105.468750
8610,-105.468750
8611,-105.468750
8612,-105.468750
8613,-105.468750
8614,-105.468750
8615,-105.468750
8616,-105.468750
8617,-103.515625
8618,-103.515625
8619,-103.515625
8620,-103.515625
8621,-101.562500
8622,-101.562500
8623,-101.562500
8624,-99.609375
8625,-99.609375
8626,-97.656250
8627,-97.656250
8628,-95.703125
8629,-95.703125
8630,-93.750000
8631,-93.750000
8632,-91.796875
8633,-89.843750
8634,-89.843750
8635,-87.890625
8636,-87.890625
8637,-85.937500
8638,-83.984375
8639,-83.984375
8640,-82.031250
8641,-80.078125
8642,-78.125000
8643,-76.171875
8644,-76.171875
8645,-74.218750
8646,-72.265625
8647,-70.312500
8648,-68.359375
8649,-66.406250
8650,-66.406250
8651,-62.500000
8652,-60.546875
8653,-58.593750
8654,-58.593750
8655,-56.640625
8656,-54.687500
8657,-52.734375
8658,-50.781250
8659,-46.875000
8660,-44.921875
8661,-42.968750
8662,-41.015625
8663,-39.062500
8664,-37.109375
8665,-35.156250
8666,-33.203125
8667,-31.250000
8668,-29.296875
8669,-27.343750
8670,-25.390625
8671,-21.484375
8672,-19.531250
8673,-17.578125
8674,-15.625000
8675,-13.671875
8676,-11.718750
8677,-9.765625
8678,-7.812500
8679,-3.906250
8680,-1.953125
8681,-1.953125
8682,1.953125
8683,3.906250
8684,5.859375
8685,7.812500
8686,9.765625
8687,11.718750
8688,13.671875
8689,15.625000
8690,19.531250
8691,21.484375
8692,23.437500
8693,25.390625
8694,27.343750
8695,29.296875
8696,31.250000
8697,33.203125
8698,35.156250
8699,37.109375
8700,39.062500
8701,41.015625
8702,41.015625
8703,42.968750
8704,44.921875
8705,46.875000
8706,48.828125
8707,50.781250
8708,52.734375
8709,52.734375
8710,54.687500
8711,56.640625
8712,56.640625
8713,58.593750
8714,60.546875
8715,62.500000
8716,64.453125
8717,64.453125
8718,66.406250
8719,66.406250
8720,68.359375
8721,70.312500
8722,72.265625
8723,72.265625
8724,72.265625
8725,74.218750
8726,74.218750
8727,76.171875
8728,78.125000
8729,78.125000
8730,78.125000
8731,80.078125
8732,82.031250
8733,82.031250
8734,82.031250
8735,82.031250
8736,82.031250
8737,83.984375
8738,83.984375
8739,83.984375
8740,83.984375
8741,83.984375
8742,85.937500
8743,85.937500
8744,85.937500
8745,85.937500
8746,85.937500
8747,87.890625
8748,87.890625
8749,87.890625
8750,85.937500
8751,87.890625
8752,87.890625
8753,87.890625
8754,83.984375
8755,85.937500
8756,85.937500
8757,85.937500
8758,85.937500
8759,85.937500
8760,85.937500
8761,83.984375
8762,83.984375
8763,83.984375
8764,83.984375
8765,83.984375
8766,82.031250
8767,82.031250
8768,82.031250
8769,80.078125
8770,80.078125
8771,78.125000
8772,78.125000
8773,78.125000
8774,76.171875
8775,74.218750
8776,74.218750
8777,72.265625
8778,72.265625
8779,70.312500
8780,70.312500
8781,68.359375
8782,66.406250
8783,66.406250
8784,62.500000
8785,62.500000
8786,60.546875
8787,60.546875
8788,58.593750
8789,56.640625
8790,56.640625
8791,54.687500
8792,52.734375
8793,48.828125
8794,48.828125
8795,48.828125
8796,44.921875
8797,44.921875
8798,42.968750
8799,41.015625
8800,39.062500
8801,37.109375
8802,35.156250
8803,33.203125
8804,31.250000
8805,29.296875
8806,27.343750
8807,25.390625
8808,23.437500
8809,21.484375
8810,19.531250
8811,17.578125
8812,15.625000
8813,13.671875
8814,11.718750
8815,9.765625
8816,7.812500
8817,5.859375
8818,1.953125
8819,0.000000
8820,0.000000
8821,-3.906250
8822,-5.859375
8823,-7.812500
8824,-9.765625
8825,-11.718750
8826,-13.671875
8827,-17.578125
8828,-19.531250
8829,-19.531250
8830,-23.437500
8831,-25.390625
8832,-27.343750
8833,-29.296875
8834,-31.250000
8835,-33.203125
8836,-37.109375
8837,-39.062500
8838,-41.015625
8839,-42.968750
8840,-44.921875
8841,-46.875000
8842,-48.828125
8843,-50.781250
8844,-52.734375
8845,-54.687500
8846,-56.640625
8847,-58.593750
8848,-60.546875
8849,-62.500000
8850,-64.453125
8851,-66.406250
8852,-68.359375
8853,-70.312500
8854,-72.265625
8855,-72.265625
8856,-74.218750
8857,-76.171875
8858,-78.125000
8859,-80.078125
8860,-82.031250
8861,-82.031250
8862,-83.984375
8863,-85.937500
8864,-87.890625
8865,-85.937500
8866,-89.843750
8867,-91.796875
8868,-91.796875
8869,-93.750000
8870,-93.750000
8871,-95.703125
8872,-95.703125
8873,-97.656250
8874,-97.656250
8875,-99.609375
8876,-99.609375
8877,-99.609375
8878,-101.562500
8879,-101.562500
8880,-103.515625
8881,-103.515625
8882,-103.515625
8883,-103.515625
8884,-105.468750
8885,-105.468750
8886,-105.468750
8887,-105.468750
8888,-105.468750
8889,-105.468750
8890,-105.468750
8891,-105.468750
8892,-107.421875
8893,-105.468750
8894,-105.468750
8895,-105.468750
8896,-105.468750
8897,-105.468750
8898,-105.468750
8899,-105.468750
8900,-105.468750
8901,-103.515625
8902,-101.562500
8903,-101.562500
8904,-101.562500
8905,-101.562500
8906,-101.562500
8907,-99.609375
8908,-99.609375
8909,-97.656250
8910,-97.656250
8911,-95.703125
8912,-95.703125
8913,-93.750000
8914,-93.750000
8915,-91.796875
8916,-91.796875
8917,-89.843750
8918,-87.890625
8919,-85.937500
8920,-85.937500
8921,-83.984375
8922,-82.031250
8923,-82.031250
8924,-80.078125
8925,-78.125000
8926,-76.171875
8927,-74.218750
8928,-74.218750
8929,-72.265625
8930,-70.312500
8931,-68.359375
8932,-66.406250
8933,-64.453125
8934,-62.500000
8935,-60.546875
8936,-58.593750
8937,-56.640625
8938,-54.687500
8939,-52.734375
8940,-50.781250
8941,-48.828125
8942,-46.875000
8943,-44.921875
8944,-42.968750
8945,-41.015625
8946,-39.062500
8947,-35.156250
8948,-35.156250
8949,-33.203125
8950,-29.296875
8951,-27.343750
8952,-25.390625
8953,-23.437500
8954,-21.484375
8955,-19.531250
8956,-17.578125
8957,-15.625000
8958,-11.718750
8959,-9.765625
8960,-7.812500
8961,-5.859375
8962,-3.906250
8963,-1.953125
8964,0.000000
8965,1.953125
8966,3.906250
8967,5.859375
8968,9.765625
8969,11.718750
8970,13.671875
8971,15.625000
8972,17.578125
8973,19.531250
8974,21.484375
8975,23.437500
8976,25.390625
8977,25.390625
8978,29.296875
8979,31.250000
8980,33.203125
8981,35.156250
8982,35.156250
8983,39.062500
8984,39.062500
8985,42.968750
8986,42.968750
8987,44.921875
8988,46.875000
8989,48.828125
8990,48.828125
8991,52.734375
8992,52.734375
8993,54.687500
8994,56.640625
8995,58.593750
8996,58.593750
8997,60.546875
8998,62.500000
8999,64.453125
9000,64.453125
9001,66.406250
9002,68.359375
9003,68.359375
9004,70.312500
9005,72.265625
9006,72.265625
9007,72.265625
9008,74.218750
9009,76.171875
9010,76.171875
9011,76.171875
9012,78.125000
9013,78.125000
9014,80.078125
9015,80.078125
9016,82.031250
9017,82.031250
9018,82.031250
9019,83.984375
9020,83.984375
9021,83.984375
9022,85.937500
9023,85.937500
9024,85.937500
9025,85.937500
9026,85.937500
9027,85.937500
9028,85.937500
9029,85.937500
9030,85.937500
9031,87.890625
9032,85.937500
9033,85.937500
9034,85.937500
9035,85.937500
9036,85.937500
9037,85.937500
9038,85.937500
9039,85.937500
9040,85.937500
9041,83.984375
9042,85.937500
9043,85.937500
9044,83.984375
9045,83.984375
9046,83.984375
9047,82.031250
9048,82.031250
9049,82.031250
9050,82.031250
9051,80.078125
9052,78.125000
9053,78.125000
9054,78.125000
9055,76.171875
9056,76.171875
9057,74.218750
9058,74.218750
9059,72.265625
9060,72.265625
9061,70.312500
9062,70.312500
9063,68.359375
9064,66.406250
9065,66.406250
9066,64.453125
9067,64.453125
9068,62.500000
9069,60.546875
9070,58.593750
9071,58.593750
9072,56.640625
9073,54.687500
9074,52.734375
9075,50.781250
9076,48.828125
9077,48.828125
9078,46.875000
9079,44.921875
9080,42.968750
9081,41.015625
9082,41.015625
9083,39.062500
9084,37.109375
9085,35.156250
9086,31.250000
9087,31.250000
9088,29.296875
9089,27.343750
9090,25.390625
9091,23.437500
9092,21.484375
9093,17.578125
9094,15.625000
9095,13.671875
9096,11.718750
9097,9.765625
9098,7.812500
9099,5.859375
9100,1.953125
9101,1.953125
9102,0.000000
9103,-1.953125
9104,-5.859375
9105,-7.812500
9106,-9.765625
9107,-11.718750
9108,-13.671875
9109,-15.625000
9110,-17.578125
9111,-19.531250
9112,-23.437500
9113,-23.437500
9114,-25.390625
9115,-29.296875
9116,-31.250000
9117,-33.203125
9118,-35.156250
9119,-37.109375
9120,-39.062500
9121,-41.015625
9122,-42.968750
9123,-44.921875
9124,-46.875000
9125,-50.781250
9126,-52.734375
9127,-54.687500
9128,-54.687500
9129,-58.593750
9130,-58.593750
9131,-62.500000
9132,-62.500000
9133,-64.453125
9134,-66.406250
9135,-68.359375
9136,-70.312500
9137,-72.265625
9138,-74.218750
9139,-76.171875
9140,-78.125000
9141,-80.078125
9142,-80.078125
9143,-82.031250
9144,-83.984375
9145,-83.984375
9146,-85.937500
9147,-87.890625
9148,-87.890625
9149,-89.843750
9150,-91.796875
9151,-91.796875
9152,-93.750000
9153,-93.750000
9154,-95.703125
9155,-95.703125
9156,-97.656250
9157,-97.656250
9158,-97.656250
9159,-99.609375
9160,-101.562500
9161,-101.562500
9162,-101.562500
9163,-103.515625
9164,-103.515625
9165,-103.515625
9166,-103.515625
9167,-105.468750
9168,-105.468750
9169,-105.468750
9170,-105.468750
9171,-105.468750
9172,-105.468750
9173,-107.421875
9174,-105.468750
9175,-105.468750
9176,-105.468750
9177,-105.468750
9178,-105.468750
9179,-105.468750
9180,-105.468750
9181,-105.468750
9182,-105.468750
9183,-103.515625
9184,-103.515625
9185,-101.562500
9186,-101.562500
9187,-101.562500
9188,-101.562500
9189,-99.609375
9190,-99.609375
9191,-97.656250
9192,-97.656250
9193,-95.703125
9194,-95.703125
9195,-93.750000
9196,-93.750000
9197,-91.796875
9198,-89.843750
9199,-89.843750
9200,-87.890625
9201,-87.890625
9202,-85.937500
9203,-83.984375
9204,-82.031250
9205,-80.078125
9206,-80.078125
9207,-78.125000
9208,-78.125000
9209,-74.218750
9210,-72.265625
9211,-72.265625
9212,-70.312500
9213,-68.359375
9214,-66.406250
9215,-64.453125
9216,-62.500000
9217,-60.546875
9218,-58.593750
9219,-56.640625
9220,-54.687500
9221,-52.734375
9222,-50.781250
9223,-48.828125
9224,-46.875000
9225,-44.921875
9226,-42.968750
9227,-41.015625
9228,-39.062500
9229,-37.109375
9230,-35.156250
9231,-33.203125
9232,-31.250000
9233,-27.343750
9234,-25.390625
9235,-23.437500
9236,-21.484375
9237,-19.531250
9238,-17.578125
9239,-15.625000
9240,-13.671875
9241,-9.765625
9242,-7.812500
9243,-5.859375
9244,-3.906250
9245,-1.953125
9246,0.000000
9247,1.953125
9248,3.906250
9249,5.859375
9250,7.812500
9251,9.765625
9252,13.671875
9253,15.625000
9254,15.625000
9255,17.578125
9256,21.484375
9257,23.437500
9258,25.390625
9259,27.343750
9260,29.296875
9261,31.250000
9262,33.203125
9263,35.156250
9264,37.109375
9265,39.062500
9266,41.015625
9267,42.968750
9268,44.921875
9269,44.921875
9270,46.875000
9271,48.828125
9272,50.781250
9273,52.734375
9274,54.687500
9275,54.687500
9276,56.640625
9277,58.593750
9278,58.593750
9279,62.500000
9280,62.500000
9281,64.453125
9282,64.453125
9283,66.406250
9284,68.359375
9285,68.359375
9286,70.312500
9287,72.265625
9288,72.265625
9289,74.218750
9290,74.218750
9291,74.218750
9292,76.171875
9293,78.125000
9294,78.125000
9295,78.125000
9296,80.078125
9297,80.078125
9298,82.031250
9299,82.031250
9300,82.031250
9301,83.984375
9302,83.984375
9303,83.984375
9304,83.984375
9305,85.937500
9306,85.937500
9307,85.937500
9308,85.937500
9309,85.937500
9310,87.890625
9311,87.890625
9312,85.937500
9313,87.890625
9314,87.890625
9315,87.890625
9316,87.890625
9317,87.890625
9318,87.890625
9319,85.937500
9320,85.937500
9321,85.937500
9322,85.937500
9323,85.937500
9324,85.937500
9325,85.937500
9326,83.984375
9327,83.984375
9328,83.984375
9329,83.984375
9330,82.031250
9331,82.031250
9332,82.031250
9333,80.078125
9334,80.078125
9335,80.078125
9336,78.125000
9337,78.125000
9338,76.171875
9339,76.171875
9340,76.171875
9341,74.218750
9342,72.265625
9343,72.265625
9344,70.312500
9345,68.359375
9346,68.359375
9347,66.406250
9348,66.406250
9349,64.453125
9350,62.500000
9351,60.546875
9352,60.546875
9353,58.593750
9354,56.640625
9355,54.687500
9356,54.687500
9357,52.734375
9358,50.781250
9359,48.828125
9360,46.875000
9361,44.921875
9362,42.968750
9363,41.015625
9364,41.015625
9365,39.062500
9366,37.109375
9367,35.156250
9368,33.203125
9369,31.250000
9370,29.296875
9371,27.343750
9372,25.390625
9373,23.437500
9374,21.484375
9375,19.531250
9376,17.578125
9377,13.671875
9378,11.718750
9379,9.765625
9380,7.812500
9381,5.859375
9382,3.906250
9383,1.953125
9384,0.000000
9385,-1.953125
9386,-3.906250
9387,-7.812500
9388,-9.765625
9389,-11.718750
9390,-11.718750
9391,-15.625000
9392,-17.578125
9393,-19.531250
9394,-21.484375
9395,-23.437500
9396,-27.343750
9397,-29.296875
9398,-29.296875
9399,-33.203125
9400,-35.156250
9401,-37.109375
9402,-39.062500
9403,-41.015625
9404,-42.968750
9405,-44.921875
9406,-46.875000
9407,-48.828125
9408,-50.781250
9409,-52.734375
9410,-54.687500
9411,-56.640625
9412,-58.593750
9413,-60.546875
9414,-62.500000
9415,-64.453125
9416,-68.359375
9417,-68.359375
9418,-70.312500
9419,-72.265625
9420,-74.218750
9421,-76.171875
9422,-76.171875
9423,-78.125000
9424,-80.078125
9425,-82.031250
9426,-83.984375
9427,-83.984375
9428,-85.937500
9429,-87.890625
9430,-89.843750
9431,-89.843750
9432,-91.796875
9433,-91.796875
9434,-93.750000
9435,-95.703125
9436,-95.703125
9437,-95.703125
9438,-97.656250
9439,-99.609375
9440,-99.609375
9441,-101.562500
9442,-101.562500
9443,-101.562500
9444,-101.562500
9445,-103.515625
9446,-103.515625
9447,-105.468750
9448,-105.468750
9449,-105.468750
9450,-105.468750
9451,-105.468750
9452,-105.468750
9453,-105.468750
9454,-105.468750
9455,-105.468750
9456,-105.468750
9457,-105.468750
9458,-105.468750
9459,-105.468750
9460,-105.468750
9461,-105.468750
9462,-105.468750
9463,-105.468750
9464,-103.515625
9465,-103.515625
9466,-103.515625
9467,-103.515625
9468,-103.515625
9469,-101.562500
9470,-101.562500
9471,-99.609375
9472,-99.609375
9473,-99.609375
9474,-97.656250
9475,-97.656250
9476,-95.703125
9477,-93.750000
9478,-93.750000
9479,-91.796875
9480,-91.796875
9481,-89.843750
9482,-89.843750
9483,-87.890625
9484,-85.937500
9485,-83.984375
9486,-83.984375
9487,-82.031250
9488,-80.078125
9489,-80.078125
9490,-78.125000
9491,-76.171875
9492,-74.218750
9493,-72.265625
9494,-70.312500
9495,-70.312500
9496,-68.359375
9497,-66.406250
9498,-64.453125
9499,-60.546875
9500,-60.546875
9501,-58.593750
9502,-56.640625
9503,-54.687500
9504,-50.781250
9505,-50.781250
9506,-48.828125
9507,-46.875000
9508,-44.921875
9509,-42.968750
9510,-39.062500
9511,-37.109375
9512,-35.156250
9513,-33.203125
9514,-31.250000
9515,-29.296875
9516,-27.343750
9517,-23.437500
9518,-23.437500
9519,-19.531250
9520,-17.578125
9521,-15.625000
9522,-13.671875
9523,-11.718750
9524,-9.765625
9525,-7.812500
9526,-5.859375
9527,-3.906250
9528,0.000000
9529,1.953125
9530,3.906250
9531,5.859375
9532,7.812500
9533,9.765625
9534,11.718750
9535,13.671875
9536,15.625000
9537,17.578125
9538,21.484375
9539,21.484375
9540,23.437500
9541,27.343750
9542,27.343750
9543,29.296875
9544,31.250000
9545,33.203125
9546,35.156250
9547,37.109375
9548,39.062500
9549,39.062500
9550,42.968750
9551,44.921875
9552,46.875000
9553,48.828125
9554,48.828125
9555,50.781250
9556,52.734375
9557,54.687500
9558,56.640625
9559,56.640625
9560,58.593750
9561,60.546875
9562,60.546875
9563,62.500000
9564,64.453125
9565,64.453125
9566,66.406250
9567,68.359375
9568,68.359375
9569,70.312500
9570,72.265625
9571,72.265625
9572,74.218750
9573,74.218750
9574,76.171875
9575,76.171875
9576,78.125000
9577,78.125000
9578,78.125000
9579,80.078125
9580,80.078125
9581,82.031250
9582,82.031250
9583,82.031250
9584,83.984375
9585,83.984375
9586,83.984375
9587,85.937500
9588,85.937500
9589,85.937500
9590,85.937500
9591,85.937500
9592,85.937500
9593,87.890625
9594,85.937500
9595,87.890625
9596,87.890625
9597,87.890625
9598,87.890625
9599,87.890625
9600,87.890625
9601,85.937500
9602,87.890625
9603,85.937500
9604,85.937500
9605,85.937500
9606,85.937500
9607,85.937500
9608,85.937500
9609,83.984375
9610,83.984375
9611,83.984375
9612,82.031250
9613,82.031250
9614,82.031250
9615,80.078125
9616,80.078125
9617,80.078125
9618,78.125000
9619,78.125000
9620,76.171875
9621,76.171875
9622,74.218750
9623,74.218750
9624,72.265625
9625,72.265625
9626,70.312500
9627,68.359375
9628,68.359375
9629,68.359375
9630,66.406250
9631,64.453125
9632,62.500000
9633,60.546875
9634,60.546875
9635,58.593750
9636,56.640625
9637,56.640625
9638,54.687500
9639,52.734375
9640,50.781250
9641,48.828125
9642,48.828125
9643,46.875000
9644,44.921875
9645,41.015625
9646,41.015625
9647,39.062500
9648,37.109375
9649,35.156250
9650,33.203125
9651,31.250000
9652,29.296875
9653,27.343750
9654,25.390625
9655,23.437500
9656,21.484375
9657,19.531250
9658,17.578125
9659,15.625000
9660,13.671875
9661,11.718750
9662,9.765625
9663,7.812500
9664,5.859375
9665,3.906250
9666,1.953125
9667,-1.953125
9668,-3.906250
9669,-5.859375
9670,-7.812500
9671,-7.812500
9672,-11.718750
9673,-13.671875
9674,-15.625000
9675,-17.578125
9676,-21.484375
9677,-23.437500
9678,-25.390625
9679,-27.343750
9680,-29.296875
9681,-33.203125
9682,-33.203125
9683,-35.156250
9684,-37.109375
9685,-39.062500
9686,-42.968750
9687,-44.921875
9688,-46.875000
9689,-48.828125
9690,-50.781250
9691,-52.734375
9692,-54.687500
9693,-56.640625
9694,-58.593750
9695,-60.546875
9696,-62.500000
9697,-62.500000
9698,-66.406250
9699,-68.359375
9700,-70.312500
9701,-72.265625
9702,-72.265625
9703,-74.218750
9704,-76.171875
9705,-78.125000
9706,-78.125000
9707,-80.078125
9708,-82.031250
9709,-83.984375
9710,-85.937500
9711,-85.937500
9712,-87.890625
9713,-89.843750
9714,-91.796875
9715,-91.796875
9716,-91.796875
9717,-93.750000
9718,-93.750000
9719,-95.703125
9720,-97.656250
9721,-97.656250
9722,-99.609375
9723,-99.609375
9724,-99.609375
9725,-101.562500
9726,-101.562500
9727,-103.515625
9728,-103.515625
9729,-103.515625
9730,-103.515625
9731,-103.515625
9732,-105.468750
9733,-105.468750
9734,-105.468750
9735,-105.468750
9736,-107.421875
9737,-105.468750
9738,-105.468750
9739,-105.468750
9740,-105.468750
9741,-105.468750
9742,-105.468750
9743,-105.468750
9744,-105.468750
9745,-103.515625
9746,-103.515625
9747,-103.515625
9748,-103.515625
9749,-103.515625
9750,-101.562500
9751,-101.562500
9752,-101.562500
9753,-99.609375
9754,-99.609375
9755,-99.609375
9756,-97.656250
9757,-97.656250
9758,-95.703125
9759,-95.703125
9760,-93.750000
9761,-91.796875
9762,-91.796875
9763,-89.843750
9764,-89.843750
9765,-87.890625
9766,-87.890625
9767,-85.937500
9768,-83.984375
9769,-82.031250
9770,-80.078125
9771,-80.078125
9772,-78.125000
9773,-76.171875
9774,-74.218750
9775,-72.265625
9776,-72.265625
9777,-68.359375
9778,-68.359375
9779,-66.406250
9780,-64.453125
9781,-62.500000
9782,-60.546875
9783,-58.593750
9784,-56.640625
9785,-54.687500
9786,-52.734375
9787,-50.781250
9788,-48.828125
9789,-46.875000
9790,-42.968750
9791,-41.015625
9792,-41.015625
9793,-39.062500
9794,-35.156250
9795,-33.203125
9796,-31.250000
9797,-29.296875
9798,-27.343750
9799,-25.390625
9800,-23.437500
9801,-21.484375
9802,-17.578125
9803,-15.625000
9804,-13.671875
9805,-11.718750
9806,-9.765625
9807,-7.812500
9808,-5.859375
9809,-3.906250
9810,-1.953125
9811,0.000000
9812,3.906250
9813,3.906250
9814,7.812500
9815,9.765625
9816,11.718750
9817,13.671875
9818,15.625000
9819,17.578125
9820,19.531250
9821,21.484375
9822,23.437500
9823,25.390625
9824,27.343750
9825,29.296875
9826,31.250000
9827,33.203125
9828,35.156250
9829,37.109375
9830,39.062500
9831,41.015625
9832,42.968750
9833,44.921875
9834,44.921875
9835,48.828125
9836,48.828125
9837,50.781250
9838,52.734375
9839,54.687500
9840,56.640625
9841,56.640625
9842,58.593750
9843,60.546875
9844,62.500000
9845,62.500000
9846,64.453125
9847,66.406250
9848,66.406250
9849,68.359375
9850,68.359375
9851,70.312500
9852,70.312500
9853,74.218750
9854,74.218750
9855,74.218750
9856,76.171875
9857,76.171875
9858,78.125000
9859,78.125000
9860,80.078125
9861,80.078125
9862,82.031250
9863,82.031250
9864,82.031250
9865,83.984375
9866,82.031250
9867,83.984375
9868,83.984375
9869,83.984375
9870,85.937500
9871,85.937500
9872,85.937500
9873,85.937500
9874,85.937500
9875,85.937500
9876,85.937500
9877,87.890625
9878,85.937500
9879,85.937500
9880,87.890625
9881,87.890625
9882,87.890625
9883,87.890625
9884,87.890625
9885,85.937500
9886,85.937500
9887,85.937500
9888,85.937500
9889,85.937500
9890,83.984375
9891,83.984375
9892,83.984375
9893,83.984375
9894,82.031250
9895,82.031250
9896,82.031250
9897,80.078125
9898,80.078125
9899,80.078125
9900,78.125000
9901,78.125000
9902,76.171875
9903,76.171875
9904,76.171875
9905,74.218750
9906,72.265625
9907,72.265625
9908,72.265625
9909,70.312500
9910,68.359375
9911,66.406250
9912,66.406250
9913,68.359375
9914,64.453125
9915,62.500000
9916,60.546875
9917,58.593750
9918,58.593750
9919,56.640625
9920,54.687500
9921,52.734375
9922,52.734375
9923,50.781250
9924,48.828125
9925,46.875000
9926,44.921875
9927,42.968750
9928,41.015625
9929,39.062500
9930,37.109375
9931,37.109375
9932,33.203125
9933,31.250000
9934,29.296875
9935,27.343750
9936,27.343750
9937,23.437500
9938,21.484375
9939,19.531250
9940,17.578125
9941,15.625000
9942,13.671875
9943,11.718750
9944,9.765625
9945,7.812500
9946,5.859375
9947,0.000000
9948,1.953125
9949,0.000000
9950,-3.906250
9951,-5.859375
9952,-7.812500
9953,-9.765625
9954,-11.718750
9955,-13.671875
9956,-17.578125
9957,-17.578125
9958,-19.531250
9959,-23.437500
9960,-25.390625
9961,-27.343750
9962,-29.296875
9963,-35.156250
9964,-33.203125
9965,-35.156250
9966,-37.109375
9967,-41.015625
9968,-42.968750
9969,-42.968750
9970,-44.921875
9971,-48.828125
9972,-50.781250
9973,-52.734375
9974,-54.687500
9975,-56.640625
9976,-58.593750
9977,-60.546875
9978,-62.500000
9979,-64.453125
9980,-64.453125
9981,-66.406250
9982,-68.359375
9983,-70.312500
9984,-72.265625
9985,-74.218750
9986,-76.171875
9987,-78.125000
9988,-78.125000
9989,-80.078125
9990,-82.031250
9991,-83.984375
9992,-83.984375
9993,-85.937500
9994,-87.890625
9995,-89.843750
9996,-89.843750
9997,-91.796875
9998,-93.750000
9999,-93.750000
10000,-95.703125
