Channel              :,CH1
Frequency            :,1.771kHz
Period               :,0.565ms
PK-PK                :,31.25mV
Probe attenuation    :,1X
Voltage per ADC value:,0.122070mV
Time interval        :,2.00000us

index,CH1_Voltage(mV)
1,1.953125
2,1.953125
3,3.906250
4,3.906250
5,3.906250
6,3.906250
7,3.906250
8,3.906250
9,3.906250
10,3.906250
11,3.906250
12,3.906250
13,3.906250
14,3.906250
15,5.859375
16,5.859375
17,5.859375
18,5.859375
19,5.859375
20,5.859375
21,5.859375
22,5.859375
23,5.859375
24,5.859375
25,5.859375
26,5.859375
27,5.859375
28,5.859375
29,5.859375
30,5.859375
31,5.859375
32,5.859375
33,5.859375
34,5.859375
35,5.859375
36,5.859375
37,5.859375
38,5.859375
39,5.859375
40,5.859375
41,5.859375
42,5.859375
43,5.859375
44,5.859375
45,3.906250
46,5.859375
47,3.906250
48,3.906250
49,5.859375
50,5.859375
51,3.906250
52,3.906250
53,3.906250
54,3.906250
55,3.906250
56,3.906250
57,3.906250
58,3.906250
59,3.906250
60,3.906250
61,3.906250
62,3.906250
63,3.906250
64,3.906250
65,3.906250
66,1.953125
67,1.953125
68,1.953125
69,1.953125
70,1.953125
71,1.953125
72,1.953125
73,1.953125
74,1.953125
75,1.953125
76,1.953125
77,1.953125
78,1.953125
79,0.000000
80,0.000000
81,0.000000
82,0.000000
83,0.000000
84,0.000000
85,0.000000
86,0.000000
87,-1.953125
88,-1.953125
89,-1.953125
90,-1.953125
91,-1.953125
92,-1.953125
93,-3.906250
94,-1.953125
95,-3.906250
96,-3.906250
97,-3.906250
98,-3.906250
99,-3.906250
100,-3.906250
101,-5.859375
102,-5.859375
103,-5.859375
104,-5.859375
105,-5.859375
106,-5.859375
107,-7.812500
108,-7.812500
109,-7.812500
110,-7.812500
111,-7.812500
112,-7.812500
113,-7.812500
114,-7.812500
115,-9.765625
116,-9.765625
117,-9.765625
118,-9.765625
119,-9.765625
120,-9.765625
121,-9.765625
122,-9.765625
123,-11.718750
124,-11.718750
125,-11.718750
126,-11.718750
127,-11.718750
128,-11.718750
129,-11.718750
130,-13.671875
131,-13.671875
132,-13.671875
133,-13.671875
134,-13.671875
135,-13.671875
136,-15.625000
137,-13.671875
138,-13.671875
139,-13.671875
140,-13.671875
141,-15.625000
142,-15.625000
143,-15.625000
144,-15.625000
145,-15.625000
146,-15.625000
147,-15.625000
148,-15.625000
149,-17.578125
150,-17.578125
151,-17.578125
152,-15.625000
153,-17.578125
154,-17.578125
155,-17.578125
156,-17.578125
157,-17.578125
158,-17.578125
159,-17.578125
160,-17.578125
161,-19.531250
162,-17.578125
163,-17.578125
164,-17.578125
165,-17.578125
166,-19.531250
167,-19.531250
168,-17.578125
169,-19.531250
170,-19.531250
171,-19.531250
172,-19.531250
173,-19.531250
174,-19.531250
175,-19.531250
176,-19.531250
177,-19.531250
178,-19.531250
179,-19.531250
180,-19.531250
181,-19.531250
182,-19.531250
183,-19.531250
184,-19.531250
185,-17.578125
186,-19.531250
187,-19.531250
188,-19.531250
189,-19.531250
190,-19.531250
191,-17.578125
192,-17.578125
193,-19.531250
194,-17.578125
195,-17.578125
196,-17.578125
197,-17.578125
198,-17.578125
199,-17.578125
200,-17.578125
201,-17.578125
202,-17.578125
203,-17.578125
204,-17.578125
205,-15.625000
206,-15.625000
207,-15.625000
208,-15.625000
209,-15.625000
210,-15.625000
211,-15.625000
212,-15.625000
213,-15.625000
214,-13.671875
215,-13.671875
216,-13.671875
217,-13.671875
218,-13.671875
219,-13.671875
220,-13.671875
221,-13.671875
222,-11.718750
223,-11.718750
224,-13.671875
225,-11.718750
226,-11.718750
227,-11.718750
228,-11.718750
229,-11.718750
230,-9.765625
231,-9.765625
232,-9.765625
233,-9.765625
234,-9.765625
235,-9.765625
236,-9.765625
237,-7.812500
238,-7.812500
239,-7.812500
240,-7.812500
241,-7.812500
242,-7.812500
243,-5.859375
244,-5.859375
245,-5.859375
246,-5.859375
247,-5.859375
248,-5.859375
249,-5.859375
250,-5.859375
251,-5.859375
252,-3.906250
253,-3.906250
254,-3.906250
255,-3.906250
256,-3.906250
257,-3.906250
258,-3.906250
259,-1.953125
260,-1.953125
261,-1.953125
262,-1.953125
263,-1.953125
264,-1.953125
265,0.000000
266,0.000000
267,0.000000
268,0.000000
269,0.000000
270,0.000000
271,0.000000
272,0.000000
273,0.000000
274,0.000000
275,1.953125
276,1.953125
277,1.953125
278,1.953125
279,1.953125
280,1.953125
281,1.953125
282,1.953125
283,1.953125
284,3.906250
285,3.906250
286,3.906250
287,3.906250
288,3.906250
289,3.906250
290,3.906250
291,3.906250
292,3.906250
293,3.906250
294,3.906250
295,3.906250
296,3.906250
297,5.859375
298,5.859375
299,5.859375
300,3.906250
301,5.859375
302,5.859375
303,5.859375
304,5.859375
305,5.859375
306,5.859375
307,3.906250
308,5.859375
309,5.859375
310,5.859375
311,5.859375
312,5.859375
313,5.859375
314,5.859375
315,5.859375
316,5.859375
317,5.859375
318,5.859375
319,5.859375
320,5.859375
321,5.859375
322,5.859375
323,5.859375
324,5.859375
325,3.906250
326,5.859375
327,5.859375
328,5.859375
329,5.859375
330,5.859375
331,3.906250
332,5.859375
333,5.859375
334,3.906250
335,3.906250
336,3.906250
337,5.859375
338,3.906250
339,3.906250
340,3.906250
341,3.906250
342,3.906250
343,3.906250
344,5.859375
345,3.906250
346,3.906250
347,3.906250
348,3.906250
349,3.906250
350,1.953125
351,3.906250
352,1.953125
353,1.953125
354,1.953125
355,1.953125
356,1.953125
357,1.953125
358,1.953125
359,0.000000
360,0.000000
361,0.000000
362,0.000000
363,0.000000
364,0.000000
365,-1.953125
366,-1.953125
367,0.000000
368,-1.953125
369,-1.953125
370,-1.953125
371,-1.953125
372,-1.953125
373,-1.953125
374,-1.953125
375,-1.953125
376,-3.906250
377,-3.906250
378,-3.906250
379,-3.906250
380,-3.906250
381,-3.906250
382,-5.859375
383,-5.859375
384,-5.859375
385,-5.859375
386,-5.859375
387,-5.859375
388,-5.859375
389,-7.812500
390,-5.859375
391,-7.812500
392,-7.812500
393,-7.812500
394,-7.812500
395,-7.812500
396,-7.812500
397,-7.812500
398,-9.765625
399,-9.765625
400,-9.765625
401,-9.765625
402,-9.765625
403,-9.765625
404,-9.765625
405,-11.718750
406,-11.718750
407,-11.718750
408,-11.718750
409,-11.718750
410,-11.718750
411,-13.671875
412,-13.671875
413,-13.671875
414,-13.671875
415,-13.671875
416,-13.671875
417,-13.671875
418,-13.671875
419,-13.671875
420,-15.625000
421,-13.671875
422,-15.625000
423,-13.671875
424,-15.625000
425,-15.625000
426,-15.625000
427,-15.625000
428,-15.625000
429,-15.625000
430,-17.578125
431,-17.578125
432,-17.578125
433,-15.625000
434,-17.578125
435,-17.578125
436,-17.578125
437,-17.578125
438,-17.578125
439,-17.578125
440,-17.578125
441,-17.578125
442,-17.578125
443,-17.578125
444,-19.531250
445,-19.531250
446,-19.531250
447,-19.531250
448,-17.578125
449,-17.578125
450,-19.531250
451,-19.531250
452,-19.531250
453,-19.531250
454,-19.531250
455,-19.531250
456,-19.531250
457,-19.531250
458,-19.531250
459,-19.531250
460,-17.578125
461,-19.531250
462,-19.531250
463,-19.531250
464,-19.531250
465,-19.531250
466,-19.531250
467,-17.578125
468,-17.578125
469,-17.578125
470,-19.531250
471,-19.531250
472,-17.578125
473,-17.578125
474,-17.578125
475,-17.578125
476,-17.578125
477,-17.578125
478,-17.578125
479,-17.578125
480,-17.578125
481,-17.578125
482,-17.578125
483,-15.625000
484,-17.578125
485,-17.578125
486,-15.625000
487,-15.625000
488,-15.625000
489,-15.625000
490,-15.625000
491,-15.625000
492,-15.625000
493,-13.671875
494,-13.671875
495,-15.625000
496,-13.671875
497,-13.671875
498,-13.671875
499,-13.671875
500,-13.671875
501,-13.671875
502,-13.671875
503,-11.718750
504,-13.671875
505,-13.671875
506,-11.718750
507,-11.718750
508,-11.718750
509,-11.718750
510,-11.718750
511,-11.718750
512,-9.765625
513,-9.765625
514,-9.765625
515,-9.765625
516,-9.765625
517,-9.765625
518,-7.812500
519,-9.765625
520,-7.812500
521,-7.812500
522,-7.812500
523,-7.812500
524,-7.812500
525,-7.812500
526,-5.859375
527,-5.859375
528,-5.859375
529,-5.859375
530,-5.859375
531,-5.859375
532,-3.906250
533,-3.906250
534,-3.906250
535,-3.906250
536,-3.906250
537,-3.906250
538,-3.906250
539,-1.953125
540,-1.953125
541,-1.953125
542,-3.906250
543,-1.953125
544,-1.953125
545,-1.953125
546,-1.953125
547,-1.953125
548,-1.953125
549,-1.953125
550,0.000000
551,0.000000
552,0.000000
553,1.953125
554,0.000000
555,0.000000
556,1.953125
557,1.953125
558,1.953125
559,1.953125
560,1.953125
561,1.953125
562,1.953125
563,1.953125
564,1.953125
565,1.953125
566,1.953125
567,3.906250
568,3.906250
569,5.859375
570,3.906250
571,3.906250
572,3.906250
573,3.906250
574,3.906250
575,3.906250
576,3.906250
577,3.906250
578,3.906250
579,3.906250
580,3.906250
581,3.906250
582,5.859375
583,5.859375
584,3.906250
585,3.906250
586,5.859375
587,5.859375
588,5.859375
589,5.859375
590,5.859375
591,5.859375
592,5.859375
593,5.859375
594,5.859375
595,5.859375
596,5.859375
597,5.859375
598,5.859375
599,5.859375
600,5.859375
601,5.859375
602,5.859375
603,5.859375
604,5.859375
605,5.859375
606,5.859375
607,5.859375
608,5.859375
609,5.859375
610,5.859375
611,3.906250
612,5.859375
613,5.859375
614,5.859375
615,3.906250
616,5.859375
617,5.859375
618,3.906250
619,3.906250
620,3.906250
621,3.906250
622,3.906250
623,3.906250
624,3.906250
625,3.906250
626,3.906250
627,3.906250
628,3.906250
629,3.906250
630,3.906250
631,1.953125
632,1.953125
633,1.953125
634,1.953125
635,1.953125
636,1.953125
637,1.953125
638,1.953125
639,1.953125
640,1.953125
641,0.000000
642,0.000000
643,0.000000
644,0.000000
645,0.000000
646,0.000000
647,0.000000
648,-1.953125
649,-1.953125
650,-1.953125
651,-1.953125
652,-1.953125
653,-1.953125
654,-1.953125
655,-1.953125
656,-3.906250
657,-1.953125
658,-3.906250
659,-3.906250
660,-3.906250
661,-3.906250
662,-3.906250
663,-3.906250
664,-5.859375
665,-5.859375
666,-5.859375
667,-3.906250
668,-5.859375
669,-5.859375
670,-5.859375
671,-5.859375
672,-7.812500
673,-5.859375
674,-5.859375
675,-7.812500
676,-7.812500
677,-7.812500
678,-7.812500
679,-7.812500
680,-9.765625
681,-9.765625
682,-9.765625
683,-9.765625
684,-9.765625
685,-9.765625
686,-9.765625
687,-11.718750
688,-11.718750
689,-11.718750
690,-11.718750
691,-11.718750
692,-11.718750
693,-13.671875
694,-11.718750
695,-13.671875
696,-13.671875
697,-13.671875
698,-13.671875
699,-13.671875
700,-13.671875
701,-13.671875
702,-15.625000
703,-13.671875
704,-13.671875
705,-15.625000
706,-15.625000
707,-15.625000
708,-15.625000
709,-15.625000
710,-15.625000
711,-15.625000
712,-15.625000
713,-17.578125
714,-15.625000
715,-17.578125
716,-17.578125
717,-17.578125
718,-17.578125
719,-17.578125
720,-17.578125
721,-17.578125
722,-17.578125
723,-17.578125
724,-19.531250
725,-17.578125
726,-17.578125
727,-17.578125
728,-19.531250
729,-19.531250
730,-17.578125
731,-19.531250
732,-17.578125
733,-17.578125
734,-19.531250
735,-19.531250
736,-17.578125
737,-17.578125
738,-19.531250
739,-19.531250
740,-19.531250
741,-17.578125
742,-19.531250
743,-19.531250
744,-17.578125
745,-17.578125
746,-19.531250
747,-19.531250
748,-19.531250
749,-19.531250
750,-19.531250
751,-17.578125
752,-19.531250
753,-21.484375
754,-17.578125
755,-19.531250
756,-17.578125
757,-17.578125
758,-17.578125
759,-17.578125
760,-17.578125
761,-17.578125
762,-17.578125
763,-17.578125
764,-17.578125
765,-17.578125
766,-17.578125
767,-17.578125
768,-17.578125
769,-15.625000
770,-15.625000
771,-15.625000
772,-15.625000
773,-15.625000
774,-15.625000
775,-15.625000
776,-15.625000
777,-15.625000
778,-15.625000
779,-13.671875
780,-13.671875
781,-13.671875
782,-13.671875
783,-13.671875
784,-13.671875
785,-11.718750
786,-13.671875
787,-11.718750
788,-11.718750
789,-11.718750
790,-11.718750
791,-11.718750
792,-11.718750
793,-11.718750
794,-9.765625
795,-9.765625
796,-9.765625
797,-9.765625
798,-9.765625
799,-9.765625
800,-9.765625
801,-7.812500
802,-9.765625
803,-9.765625
804,-7.812500
805,-7.812500
806,-7.812500
807,-7.812500
808,-7.812500
809,-5.859375
810,-5.859375
811,-5.859375
812,-5.859375
813,-5.859375
814,-5.859375
815,-5.859375
816,-3.906250
817,-3.906250
818,-3.906250
819,-3.906250
820,-3.906250
821,-3.906250
822,-3.906250
823,-1.953125
824,-1.953125
825,-1.953125
826,-1.953125
827,-1.953125
828,-1.953125
829,-1.953125
830,-1.953125
831,-1.953125
832,0.000000
833,0.000000
834,0.000000
835,0.000000
836,0.000000
837,0.000000
838,0.000000
839,1.953125
840,1.953125
841,1.953125
842,1.953125
843,1.953125
844,1.953125
845,1.953125
846,1.953125
847,1.953125
848,3.906250
849,1.953125
850,3.906250
851,3.906250
852,3.906250
853,3.906250
854,3.906250
855,3.906250
856,3.906250
857,3.906250
858,3.906250
859,3.906250
860,5.859375
861,5.859375
862,5.859375
863,5.859375
864,5.859375
865,5.859375
866,5.859375
867,5.859375
868,5.859375
869,5.859375
870,5.859375
871,5.859375
872,5.859375
873,5.859375
874,5.859375
875,5.859375
876,5.859375
877,5.859375
878,5.859375
879,5.859375
880,5.859375
881,5.859375
882,5.859375
883,5.859375
884,5.859375
885,5.859375
886,5.859375
887,5.859375
888,5.859375
889,5.859375
890,5.859375
891,5.859375
892,5.859375
893,5.859375
894,3.906250
895,3.906250
896,3.906250
897,3.906250
898,3.906250
899,3.906250
900,3.906250
901,5.859375
902,3.906250
903,3.906250
904,3.906250
905,3.906250
906,3.906250
907,3.906250
908,3.906250
909,3.906250
910,3.906250
911,3.906250
912,1.953125
913,1.953125
914,1.953125
915,1.953125
916,1.953125
917,1.953125
918,1.953125
919,1.953125
920,1.953125
921,0.000000
922,1.953125
923,1.953125
924,1.953125
925,1.953125
926,0.000000
927,0.000000
928,0.000000
929,0.000000
930,0.000000
931,0.000000
932,0.000000
933,-1.953125
934,-1.953125
935,-1.953125
936,-1.953125
937,-1.953125
938,-1.953125
939,-3.906250
940,-3.906250
941,-3.906250
942,-3.906250
943,-3.906250
944,-3.906250
945,-3.906250
946,-3.906250
947,-5.859375
948,-5.859375
949,-5.859375
950,-5.859375
951,-5.859375
952,-5.859375
953,-5.859375
954,-5.859375
955,-7.812500
956,-7.812500
957,-7.812500
958,-7.812500
959,-7.812500
960,-7.812500
961,-9.765625
962,-7.812500
963,-9.765625
964,-9.765625
965,-9.765625
966,-9.765625
967,-9.765625
968,-11.718750
969,-11.718750
970,-11.718750
971,-11.718750
972,-11.718750
973,-11.718750
974,-11.718750
975,-11.718750
976,-13.671875
977,-13.671875
978,-13.671875
979,-13.671875
980,-13.671875
981,-13.671875
982,-13.671875
983,-13.671875
984,-15.625000
985,-13.671875
986,-15.625000
987,-15.625000
988,-15.625000
989,-15.625000
990,-15.625000
991,-15.625000
992,-15.625000
993,-15.625000
994,-15.625000
995,-15.625000
996,-15.625000
997,-17.578125
998,-17.578125
999,-17.578125
1000,-17.578125
1001,-17.578125
1002,-17.578125
1003,-17.578125
1004,-17.578125
1005,-17.578125
1006,-17.578125
1007,-17.578125
1008,-17.578125
1009,-19.531250
1010,-17.578125
1011,-17.578125
1012,-19.531250
1013,-19.531250
1014,-19.531250
1015,-17.578125
1016,-17.578125
1017,-19.531250
1018,-17.578125
1019,-19.531250
1020,-19.531250
1021,-19.531250
1022,-19.531250
1023,-19.531250
1024,-19.531250
1025,-19.531250
1026,-19.531250
1027,-19.531250
1028,-19.531250
1029,-19.531250
1030,-19.531250
1031,-19.531250
1032,-19.531250
1033,-19.531250
1034,-17.578125
1035,-19.531250
1036,-19.531250
1037,-19.531250
1038,-17.578125
1039,-17.578125
1040,-17.578125
1041,-17.578125
1042,-17.578125
1043,-17.578125
1044,-17.578125
1045,-17.578125
1046,-17.578125
1047,-17.578125
1048,-17.578125
1049,-17.578125
1050,-17.578125
1051,-15.625000
1052,-15.625000
1053,-15.625000
1054,-15.625000
1055,-13.671875
1056,-15.625000
1057,-15.625000
1058,-15.625000
1059,-13.671875
1060,-15.625000
1061,-15.625000
1062,-13.671875
1063,-13.671875
1064,-13.671875
1065,-13.671875
1066,-13.671875
1067,-13.671875
1068,-13.671875
1069,-11.718750
1070,-11.718750
1071,-11.718750
1072,-11.718750
1073,-11.718750
1074,-11.718750
1075,-11.718750
1076,-11.718750
1077,-9.765625
1078,-9.765625
1079,-9.765625
1080,-9.765625
1081,-9.765625
1082,-9.765625
1083,-9.765625
1084,-9.765625
1085,-7.812500
1086,-7.812500
1087,-7.812500
1088,-7.812500
1089,-7.812500
1090,-7.812500
1091,-5.859375
1092,-5.859375
1093,-5.859375
1094,-5.859375
1095,-5.859375
1096,-5.859375
1097,-5.859375
1098,-3.906250
1099,-3.906250
1100,-3.906250
1101,-3.906250
1102,-3.906250
1103,-3.906250
1104,-1.953125
1105,-1.953125
1106,-1.953125
1107,-1.953125
1108,-1.953125
1109,-1.953125
1110,-1.953125
1111,-1.953125
1112,-1.953125
1113,0.000000
1114,0.000000
1115,0.000000
1116,0.000000
1117,0.000000
1118,1.953125
1119,0.000000
1120,1.953125
1121,1.953125
1122,1.953125
1123,1.953125
1124,1.953125
1125,1.953125
1126,1.953125
1127,1.953125
1128,1.953125
1129,1.953125
1130,1.953125
1131,1.953125
1132,3.906250
1133,3.906250
1134,3.906250
1135,3.906250
1136,5.859375
1137,3.906250
1138,3.906250
1139,3.906250
1140,3.906250
1141,3.906250
1142,3.906250
1143,3.906250
1144,3.906250
1145,5.859375
1146,3.906250
1147,3.906250
1148,3.906250
1149,5.859375
1150,3.906250
1151,3.906250
1152,5.859375
1153,5.859375
1154,5.859375
1155,5.859375
1156,5.859375
1157,5.859375
1158,5.859375
1159,5.859375
1160,5.859375
1161,5.859375
1162,5.859375
1163,5.859375
1164,5.859375
1165,5.859375
1166,5.859375
1167,5.859375
1168,5.859375
1169,5.859375
1170,5.859375
1171,5.859375
1172,5.859375
1173,5.859375
1174,5.859375
1175,5.859375
1176,5.859375
1177,3.906250
1178,3.906250
1179,3.906250
1180,3.906250
1181,5.859375
1182,3.906250
1183,3.906250
1184,3.906250
1185,3.906250
1186,3.906250
1187,3.906250
1188,3.906250
1189,3.906250
1190,3.906250
1191,3.906250
1192,1.953125
1193,3.906250
1194,1.953125
1195,1.953125
1196,1.953125
1197,3.906250
1198,1.953125
1199,1.953125
1200,1.953125
1201,1.953125
1202,1.953125
1203,1.953125
1204,1.953125
1205,0.000000
1206,0.000000
1207,0.000000
1208,0.000000
1209,0.000000
1210,0.000000
1211,0.000000
1212,0.000000
1213,-1.953125
1214,-1.953125
1215,-1.953125
1216,-1.953125
1217,-1.953125
1218,-1.953125
1219,-1.953125
1220,-1.953125
1221,-1.953125
1222,-3.906250
1223,-3.906250
1224,-3.906250
1225,-3.906250
1226,-3.906250
1227,-3.906250
1228,-3.906250
1229,-5.859375
1230,-5.859375
1231,-5.859375
1232,-5.859375
1233,-5.859375
1234,-5.859375
1235,-5.859375
1236,-7.812500
1237,-7.812500
1238,-7.812500
1239,-7.812500
1240,-7.812500
1241,-7.812500
1242,-7.812500
1243,-7.812500
1244,-9.765625
1245,-9.765625
1246,-9.765625
1247,-7.812500
1248,-9.765625
1249,-9.765625
1250,-9.765625
1251,-9.765625
1252,-11.718750
1253,-11.718750
1254,-11.718750
1255,-11.718750
1256,-11.718750
1257,-11.718750
1258,-11.718750
1259,-13.671875
1260,-13.671875
1261,-13.671875
1262,-13.671875
1263,-15.625000
1264,-13.671875
1265,-13.671875
1266,-13.671875
1267,-13.671875
1268,-13.671875
1269,-15.625000
1270,-15.625000
1271,-15.625000
1272,-15.625000
1273,-15.625000
1274,-15.625000
1275,-15.625000
1276,-15.625000
1277,-17.578125
1278,-17.578125
1279,-17.578125
1280,-17.578125
1281,-17.578125
1282,-17.578125
1283,-17.578125
1284,-17.578125
1285,-17.578125
1286,-17.578125
1287,-17.578125
1288,-17.578125
1289,-17.578125
1290,-17.578125
1291,-19.531250
1292,-17.578125
1293,-17.578125
1294,-19.531250
1295,-17.578125
1296,-19.531250
1297,-19.531250
1298,-19.531250
1299,-19.531250
1300,-21.484375
1301,-19.531250
1302,-19.531250
1303,-19.531250
1304,-17.578125
1305,-19.531250
1306,-19.531250
1307,-19.531250
1308,-19.531250
1309,-19.531250
1310,-19.531250
1311,-17.578125
1312,-19.531250
1313,-19.531250
1314,-19.531250
1315,-19.531250
1316,-17.578125
1317,-17.578125
1318,-17.578125
1319,-19.531250
1320,-17.578125
1321,-17.578125
1322,-17.578125
1323,-17.578125
1324,-17.578125
1325,-17.578125
1326,-17.578125
1327,-17.578125
1328,-17.578125
1329,-17.578125
1330,-17.578125
1331,-17.578125
1332,-15.625000
1333,-17.578125
1334,-17.578125
1335,-11.718750
1336,-15.625000
1337,-15.625000
1338,-15.625000
1339,-15.625000
1340,-15.625000
1341,-15.625000
1342,-15.625000
1343,-13.671875
1344,-13.671875
1345,-15.625000
1346,-13.671875
1347,-11.718750
1348,-13.671875
1349,-13.671875
1350,-13.671875
1351,-13.671875
1352,-11.718750
1353,-11.718750
1354,-11.718750
1355,-11.718750
1356,-11.718750
1357,-11.718750
1358,-11.718750
1359,-11.718750
1360,-9.765625
1361,-9.765625
1362,-9.765625
1363,-9.765625
1364,-9.765625
1365,-7.812500
1366,-9.765625
1367,-9.765625
1368,-7.812500
1369,-7.812500
1370,-7.812500
1371,-7.812500
1372,-7.812500
1373,-7.812500
1374,-5.859375
1375,-5.859375
1376,-5.859375
1377,-5.859375
1378,-5.859375
1379,-5.859375
1380,-3.906250
1381,-3.906250
1382,-3.906250
1383,-3.906250
1384,-3.906250
1385,-3.906250
1386,-3.906250
1387,-1.953125
1388,-1.953125
1389,-1.953125
1390,-1.953125
1391,-1.953125
1392,-1.953125
1393,-1.953125
1394,0.000000
1395,0.000000
1396,0.000000
1397,0.000000
1398,0.000000
1399,0.000000
1400,0.000000
1401,0.000000
1402,0.000000
1403,0.000000
1404,1.953125
1405,1.953125
1406,1.953125
1407,0.000000
1408,1.953125
1409,1.953125
1410,1.953125
1411,1.953125
1412,3.906250
1413,1.953125
1414,1.953125
1415,3.906250
1416,3.906250
1417,3.906250
1418,1.953125
1419,3.906250
1420,3.906250
1421,3.906250
1422,3.906250
1423,3.906250
1424,3.906250
1425,3.906250
1426,3.906250
1427,5.859375
1428,3.906250
1429,5.859375
1430,3.906250
1431,5.859375
1432,5.859375
1433,5.859375
1434,5.859375
1435,5.859375
1436,5.859375
1437,5.859375
1438,5.859375
1439,5.859375
1440,5.859375
1441,5.859375
1442,5.859375
1443,5.859375
1444,5.859375
1445,5.859375
1446,5.859375
1447,5.859375
1448,5.859375
1449,5.859375
1450,5.859375
1451,7.812500
1452,5.859375
1453,5.859375
1454,5.859375
1455,5.859375
1456,5.859375
1457,5.859375
1458,5.859375
1459,5.859375
1460,5.859375
1461,5.859375
1462,5.859375
1463,3.906250
1464,3.906250
1465,5.859375
1466,3.906250
1467,3.906250
1468,3.906250
1469,3.906250
1470,5.859375
1471,3.906250
1472,3.906250
1473,3.906250
1474,3.906250
1475,1.953125
1476,3.906250
1477,1.953125
1478,1.953125
1479,3.906250
1480,1.953125
1481,1.953125
1482,1.953125
1483,1.953125
1484,1.953125
1485,1.953125
1486,0.000000
1487,3.906250
1488,1.953125
1489,0.000000
1490,0.000000
1491,0.000000
1492,0.000000
1493,0.000000
1494,0.000000
1495,0.000000
1496,0.000000
1497,-1.953125
1498,-1.953125
1499,-1.953125
1500,-1.953125
1501,-1.953125
1502,-1.953125
1503,-1.953125
1504,-5.859375
1505,-3.906250
1506,-3.906250
1507,-3.906250
1508,-3.906250
1509,-3.906250
1510,-3.906250
1511,-3.906250
1512,-3.906250
1513,-5.859375
1514,-5.859375
1515,-5.859375
1516,-5.859375
1517,-5.859375
1518,-7.812500
1519,-7.812500
1520,-7.812500
1521,-7.812500
1522,-7.812500
1523,-7.812500
1524,-7.812500
1525,-9.765625
1526,-9.765625
1527,-9.765625
1528,-9.765625
1529,-9.765625
1530,-9.765625
1531,-9.765625
1532,-9.765625
1533,-11.718750
1534,-11.718750
1535,-11.718750
1536,-11.718750
1537,-11.718750
1538,-11.718750
1539,-11.718750
1540,-11.718750
1541,-13.671875
1542,-13.671875
1543,-13.671875
1544,-15.625000
1545,-13.671875
1546,-13.671875
1547,-15.625000
1548,-13.671875
1549,-15.625000
1550,-15.625000
1551,-15.625000
1552,-13.671875
1553,-15.625000
1554,-15.625000
1555,-15.625000
1556,-15.625000
1557,-15.625000
1558,-15.625000
1559,-17.578125
1560,-15.625000
1561,-17.578125
1562,-17.578125
1563,-17.578125
1564,-17.578125
1565,-17.578125
1566,-17.578125
1567,-17.578125
1568,-17.578125
1569,-17.578125
1570,-17.578125
1571,-17.578125
1572,-17.578125
1573,-17.578125
1574,-17.578125
1575,-17.578125
1576,-17.578125
1577,-17.578125
1578,-17.578125
1579,-17.578125
1580,-19.531250
1581,-19.531250
1582,-19.531250
1583,-19.531250
1584,-19.531250
1585,-19.531250
1586,-19.531250
1587,-19.531250
1588,-19.531250
1589,-19.531250
1590,-19.531250
1591,-19.531250
1592,-19.531250
1593,-19.531250
1594,-19.531250
1595,-19.531250
1596,-19.531250
1597,-19.531250
1598,-19.531250
1599,-19.531250
1600,-19.531250
1601,-17.578125
1602,-19.531250
1603,-17.578125
1604,-17.578125
1605,-17.578125
1606,-17.578125
1607,-17.578125
1608,-17.578125
1609,-17.578125
1610,-17.578125
1611,-17.578125
1612,-17.578125
1613,-17.578125
1614,-17.578125
1615,-17.578125
1616,-17.578125
1617,-15.625000
1618,-17.578125
1619,-15.625000
1620,-15.625000
1621,-15.625000
1622,-15.625000
1623,-15.625000
1624,-15.625000
1625,-13.671875
1626,-15.625000
1627,-13.671875
1628,-13.671875
1629,-13.671875
1630,-13.671875
1631,-13.671875
1632,-13.671875
1633,-13.671875
1634,-11.718750
1635,-11.718750
1636,-11.718750
1637,-11.718750
1638,-11.718750
1639,-11.718750
1640,-11.718750
1641,-9.765625
1642,-9.765625
1643,-9.765625
1644,-9.765625
1645,-9.765625
1646,-9.765625
1647,-9.765625
1648,-9.765625
1649,-9.765625
1650,-7.812500
1651,-7.812500
1652,-7.812500
1653,-7.812500
1654,-7.812500
1655,-5.859375
1656,-5.859375
1657,-5.859375
1658,-7.812500
1659,-5.859375
1660,-3.906250
1661,-5.859375
1662,-5.859375
1663,-5.859375
1664,-3.906250
1665,-3.906250
1666,-3.906250
1667,-3.906250
1668,-3.906250
1669,-3.906250
1670,-3.906250
1671,-3.906250
1672,-1.953125
1673,-1.953125
1674,-1.953125
1675,-1.953125
1676,-1.953125
1677,-1.953125
1678,0.000000
1679,0.000000
1680,-1.953125
1681,0.000000
1682,0.000000
1683,0.000000
1684,0.000000
1685,0.000000
1686,1.953125
1687,0.000000
1688,1.953125
1689,1.953125
1690,1.953125
1691,1.953125
1692,1.953125
1693,1.953125
1694,1.953125
1695,3.906250
1696,3.906250
1697,3.906250
1698,1.953125
1699,3.906250
1700,3.906250
1701,3.906250
1702,3.906250
1703,3.906250
1704,3.906250
1705,3.906250
1706,3.906250
1707,3.906250
1708,3.906250
1709,3.906250
1710,5.859375
1711,5.859375
1712,5.859375
1713,5.859375
1714,5.859375
1715,5.859375
1716,5.859375
1717,5.859375
1718,5.859375
1719,5.859375
1720,3.906250
1721,5.859375
1722,5.859375
1723,5.859375
1724,5.859375
1725,5.859375
1726,5.859375
1727,5.859375
1728,5.859375
1729,5.859375
1730,5.859375
1731,5.859375
1732,5.859375
1733,5.859375
1734,5.859375
1735,3.906250
1736,5.859375
1737,5.859375
1738,5.859375
1739,5.859375
1740,3.906250
1741,5.859375
1742,5.859375
1743,5.859375
1744,3.906250
1745,3.906250
1746,3.906250
1747,3.906250
1748,3.906250
1749,3.906250
1750,3.906250
1751,3.906250
1752,3.906250
1753,3.906250
1754,3.906250
1755,3.906250
1756,3.906250
1757,1.953125
1758,3.906250
1759,3.906250
1760,3.906250
1761,1.953125
1762,1.953125
1763,1.953125
1764,1.953125
1765,1.953125
1766,1.953125
1767,1.953125
1768,1.953125
1769,1.953125
1770,0.000000
1771,0.000000
1772,0.000000
1773,0.000000
1774,0.000000
1775,0.000000
1776,0.000000
1777,0.000000
1778,-1.953125
1779,-1.953125
1780,0.000000
1781,-1.953125
1782,-1.953125
1783,-1.953125
1784,-1.953125
1785,-1.953125
1786,-1.953125
1787,-3.906250
1788,-3.906250
1789,-3.906250
1790,-3.906250
1791,-3.906250
1792,-5.859375
1793,-5.859375
1794,-5.859375
1795,-5.859375
1796,-5.859375
1797,-5.859375
1798,-5.859375
1799,-5.859375
1800,-7.812500
1801,-7.812500
1802,-7.812500
1803,-7.812500
1804,-7.812500
1805,-7.812500
1806,-7.812500
1807,-9.765625
1808,-7.812500
1809,-9.765625
1810,-9.765625
1811,-9.765625
1812,-9.765625
1813,-9.765625
1814,-9.765625
1815,-11.718750
1816,-9.765625
1817,-11.718750
1818,-11.718750
1819,-11.718750
1820,-11.718750
1821,-11.718750
1822,-11.718750
1823,-13.671875
1824,-11.718750
1825,-11.718750
1826,-13.671875
1827,-13.671875
1828,-13.671875
1829,-13.671875
1830,-13.671875
1831,-13.671875
1832,-13.671875
1833,-15.625000
1834,-13.671875
1835,-15.625000
1836,-15.625000
1837,-15.625000
1838,-15.625000
1839,-15.625000
1840,-15.625000
1841,-15.625000
1842,-15.625000
1843,-17.578125
1844,-17.578125
1845,-15.625000
1846,-17.578125
1847,-17.578125
1848,-15.625000
1849,-17.578125
1850,-17.578125
1851,-17.578125
1852,-17.578125
1853,-17.578125
1854,-17.578125
1855,-17.578125
1856,-17.578125
1857,-19.531250
1858,-19.531250
1859,-19.531250
1860,-17.578125
1861,-17.578125
1862,-19.531250
1863,-19.531250
1864,-19.531250
1865,-19.531250
1866,-19.531250
1867,-19.531250
1868,-19.531250
1869,-19.531250
1870,-19.531250
1871,-19.531250
1872,-19.531250
1873,-19.531250
1874,-19.531250
1875,-19.531250
1876,-19.531250
1877,-19.531250
1878,-19.531250
1879,-19.531250
1880,-17.578125
1881,-17.578125
1882,-19.531250
1883,-19.531250
1884,-17.578125
1885,-17.578125
1886,-17.578125
1887,-17.578125
1888,-17.578125
1889,-17.578125
1890,-17.578125
1891,-17.578125
1892,-17.578125
1893,-17.578125
1894,-17.578125
1895,-17.578125
1896,-17.578125
1897,-17.578125
1898,-15.625000
1899,-15.625000
1900,-15.625000
1901,-15.625000
1902,-15.625000
1903,-15.625000
1904,-15.625000
1905,-15.625000
1906,-15.625000
1907,-15.625000
1908,-13.671875
1909,-15.625000
1910,-13.671875
1911,-13.671875
1912,-13.671875
1913,-13.671875
1914,-13.671875
1915,-11.718750
1916,-13.671875
1917,-11.718750
1918,-11.718750
1919,-11.718750
1920,-11.718750
1921,-11.718750
1922,-11.718750
1923,-11.718750
1924,-11.718750
1925,-9.765625
1926,-11.718750
1927,-9.765625
1928,-9.765625
1929,-5.859375
1930,-9.765625
1931,-9.765625
1932,-7.812500
1933,-7.812500
1934,-7.812500
1935,-7.812500
1936,-7.812500
1937,-7.812500
1938,-7.812500
1939,-5.859375
1940,-5.859375
1941,-5.859375
1942,-5.859375
1943,-5.859375
1944,-5.859375
1945,-3.906250
1946,-5.859375
1947,-3.906250
1948,-3.906250
1949,-3.906250
1950,-3.906250
1951,-3.906250
1952,-3.906250
1953,-1.953125
1954,-1.953125
1955,-1.953125
1956,-1.953125
1957,-1.953125
1958,-1.953125
1959,0.000000
1960,0.000000
1961,0.000000
1962,0.000000
1963,0.000000
1964,0.000000
1965,0.000000
1966,0.000000
1967,0.000000
1968,1.953125
1969,1.953125
1970,1.953125
1971,1.953125
1972,1.953125
1973,1.953125
1974,1.953125
1975,1.953125
1976,1.953125
1977,1.953125
1978,3.906250
1979,3.906250
1980,3.906250
1981,3.906250
1982,3.906250
1983,3.906250
1984,3.906250
1985,3.906250
1986,3.906250
1987,3.906250
1988,3.906250
1989,3.906250
1990,5.859375
1991,3.906250
1992,3.906250
1993,3.906250
1994,5.859375
1995,5.859375
1996,5.859375
1997,3.906250
1998,5.859375
1999,5.859375
2000,5.859375
2001,5.859375
2002,5.859375
2003,5.859375
2004,5.859375
2005,5.859375
2006,5.859375
2007,5.859375
2008,5.859375
2009,5.859375
2010,5.859375
2011,5.859375
2012,5.859375
2013,5.859375
2014,5.859375
2015,5.859375
2016,5.859375
2017,5.859375
2018,5.859375
2019,5.859375
2020,5.859375
2021,5.859375
2022,5.859375
2023,5.859375
2024,5.859375
2025,5.859375
2026,5.859375
2027,5.859375
2028,5.859375
2029,5.859375
2030,3.906250
2031,3.906250
2032,3.906250
2033,3.906250
2034,3.906250
2035,3.906250
2036,3.906250
2037,3.906250
2038,3.906250
2039,3.906250
2040,1.953125
2041,1.953125
2042,3.906250
2043,3.906250
2044,1.953125
2045,1.953125
2046,1.953125
2047,1.953125
2048,1.953125
2049,0.000000
2050,1.953125
2051,1.953125
2052,0.000000
2053,0.000000
2054,0.000000
2055,0.000000
2056,0.000000
2057,0.000000
2058,0.000000
2059,0.000000
2060,0.000000
2061,0.000000
2062,-1.953125
2063,-1.953125
2064,-1.953125
2065,-1.953125
2066,-1.953125
2067,-5.859375
2068,-1.953125
2069,-1.953125
2070,-3.906250
2071,-3.906250
2072,-3.906250
2073,-3.906250
2074,-3.906250
2075,-3.906250
2076,-5.859375
2077,-3.906250
2078,-3.906250
2079,-5.859375
2080,-5.859375
2081,-5.859375
2082,-5.859375
2083,-7.812500
2084,-7.812500
2085,-7.812500
2086,-7.812500
2087,-7.812500
2088,-7.812500
2089,-7.812500
2090,-7.812500
2091,-7.812500
2092,-9.765625
2093,-9.765625
2094,-9.765625
2095,-9.765625
2096,-9.765625
2097,-9.765625
2098,-11.718750
2099,-11.718750
2100,-9.765625
2101,-11.718750
2102,-11.718750
2103,-11.718750
2104,-11.718750
2105,-13.671875
2106,-11.718750
2107,-11.718750
2108,-13.671875
2109,-13.671875
2110,-13.671875
2111,-13.671875
2112,-13.671875
2113,-13.671875
2114,-13.671875
2115,-15.625000
2116,-15.625000
2117,-15.625000
2118,-15.625000
2119,-15.625000
2120,-15.625000
2121,-15.625000
2122,-15.625000
2123,-15.625000
2124,-17.578125
2125,-17.578125
2126,-17.578125
2127,-17.578125
2128,-17.578125
2129,-17.578125
2130,-17.578125
2131,-17.578125
2132,-17.578125
2133,-17.578125
2134,-17.578125
2135,-17.578125
2136,-17.578125
2137,-17.578125
2138,-19.531250
2139,-17.578125
2140,-17.578125
2141,-19.531250
2142,-19.531250
2143,-19.531250
2144,-17.578125
2145,-19.531250
2146,-19.531250
2147,-19.531250
2148,-19.531250
2149,-19.531250
2150,-19.531250
2151,-19.531250
2152,-19.531250
2153,-17.578125
2154,-19.531250
2155,-19.531250
2156,-19.531250
2157,-19.531250
2158,-19.531250
2159,-17.578125
2160,-19.531250
2161,-17.578125
2162,-19.531250
2163,-19.531250
2164,-17.578125
2165,-17.578125
2166,-17.578125
2167,-17.578125
2168,-17.578125
2169,-17.578125
2170,-19.531250
2171,-17.578125
2172,-17.578125
2173,-17.578125
2174,-17.578125
2175,-17.578125
2176,-17.578125
2177,-17.578125
2178,-17.578125
2179,-17.578125
2180,-17.578125
2181,-15.625000
2182,-15.625000
2183,-17.578125
2184,-15.625000
2185,-15.625000
2186,-15.625000
2187,-15.625000
2188,-15.625000
2189,-15.625000
2190,-13.671875
2191,-15.625000
2192,-15.625000
2193,-13.671875
2194,-13.671875
2195,-13.671875
2196,-13.671875
2197,-13.671875
2198,-13.671875
2199,-11.718750
2200,-11.718750
2201,-11.718750
2202,-11.718750
2203,-11.718750
2204,-11.718750
2205,-11.718750
2206,-9.765625
2207,-11.718750
2208,-9.765625
2209,-9.765625
2210,-9.765625
2211,-9.765625
2212,-9.765625
2213,-7.812500
2214,-7.812500
2215,-7.812500
2216,-7.812500
2217,-7.812500
2218,-7.812500
2219,-7.812500
2220,-7.812500
2221,-5.859375
2222,-5.859375
2223,-5.859375
2224,-5.859375
2225,-5.859375
2226,-3.906250
2227,-3.906250
2228,-3.906250
2229,-3.906250
2230,-3.906250
2231,-3.906250
2232,-3.906250
2233,-3.906250
2234,-3.906250
2235,-1.953125
2236,-1.953125
2237,-3.906250
2238,-1.953125
2239,-1.953125
2240,-1.953125
2241,-1.953125
2242,-1.953125
2243,0.000000
2244,0.000000
2245,0.000000
2246,0.000000
2247,0.000000
2248,0.000000
2249,0.000000
2250,0.000000
2251,1.953125
2252,1.953125
2253,1.953125
2254,1.953125
2255,1.953125
2256,1.953125
2257,1.953125
2258,3.906250
2259,1.953125
2260,3.906250
2261,1.953125
2262,3.906250
2263,3.906250
2264,3.906250
2265,3.906250
2266,7.812500
2267,3.906250
2268,3.906250
2269,3.906250
2270,3.906250
2271,3.906250
2272,3.906250
2273,3.906250
2274,3.906250
2275,5.859375
2276,5.859375
2277,5.859375
2278,5.859375
2279,5.859375
2280,5.859375
2281,5.859375
2282,5.859375
2283,5.859375
2284,5.859375
2285,5.859375
2286,5.859375
2287,5.859375
2288,5.859375
2289,5.859375
2290,5.859375
2291,5.859375
2292,5.859375
2293,5.859375
2294,5.859375
2295,5.859375
2296,5.859375
2297,5.859375
2298,5.859375
2299,3.906250
2300,5.859375
2301,5.859375
2302,5.859375
2303,5.859375
2304,5.859375
2305,3.906250
2306,5.859375
2307,5.859375
2308,5.859375
2309,3.906250
2310,3.906250
2311,5.859375
2312,3.906250
2313,3.906250
2314,3.906250
2315,3.906250
2316,3.906250
2317,3.906250
2318,3.906250
2319,3.906250
2320,3.906250
2321,3.906250
2322,1.953125
2323,3.906250
2324,1.953125
2325,1.953125
2326,1.953125
2327,1.953125
2328,1.953125
2329,1.953125
2330,1.953125
2331,1.953125
2332,1.953125
2333,1.953125
2334,0.000000
2335,1.953125
2336,0.000000
2337,0.000000
2338,0.000000
2339,0.000000
2340,0.000000
2341,0.000000
2342,-1.953125
2343,0.000000
2344,-1.953125
2345,-1.953125
2346,-1.953125
2347,-1.953125
2348,-1.953125
2349,-1.953125
2350,-1.953125
2351,-1.953125
2352,-3.906250
2353,-3.906250
2354,-3.906250
2355,-3.906250
2356,-3.906250
2357,-3.906250
2358,-3.906250
2359,-3.906250
2360,-5.859375
2361,-5.859375
2362,-5.859375
2363,-5.859375
2364,-5.859375
2365,-5.859375
2366,-7.812500
2367,-7.812500
2368,-7.812500
2369,-7.812500
2370,-7.812500
2371,-7.812500
2372,-7.812500
2373,-7.812500
2374,-9.765625
2375,-9.765625
2376,-9.765625
2377,-9.765625
2378,-9.765625
2379,-9.765625
2380,-11.718750
2381,-11.718750
2382,-11.718750
2383,-11.718750
2384,-11.718750
2385,-11.718750
2386,-11.718750
2387,-13.671875
2388,-13.671875
2389,-13.671875
2390,-13.671875
2391,-13.671875
2392,-13.671875
2393,-13.671875
2394,-13.671875
2395,-15.625000
2396,-15.625000
2397,-15.625000
2398,-15.625000
2399,-15.625000
2400,-15.625000
2401,-15.625000
2402,-15.625000
2403,-15.625000
2404,-15.625000
2405,-15.625000
2406,-17.578125
2407,-15.625000
2408,-15.625000
2409,-15.625000
2410,-17.578125
2411,-17.578125
2412,-17.578125
2413,-17.578125
2414,-17.578125
2415,-17.578125
2416,-17.578125
2417,-17.578125
2418,-17.578125
2419,-17.578125
2420,-17.578125
2421,-19.531250
2422,-17.578125
2423,-17.578125
2424,-19.531250
2425,-19.531250
2426,-19.531250
2427,-19.531250
2428,-17.578125
2429,-19.531250
2430,-19.531250
2431,-19.531250
2432,-19.531250
2433,-19.531250
2434,-17.578125
2435,-19.531250
2436,-19.531250
2437,-19.531250
2438,-19.531250
2439,-19.531250
2440,-19.531250
2441,-19.531250
2442,-19.531250
2443,-19.531250
2444,-19.531250
2445,-19.531250
2446,-19.531250
2447,-19.531250
2448,-19.531250
2449,-17.578125
2450,-19.531250
2451,-17.578125
2452,-17.578125
2453,-19.531250
2454,-17.578125
2455,-17.578125
2456,-17.578125
2457,-17.578125
2458,-17.578125
2459,-17.578125
2460,-17.578125
2461,-15.625000
2462,-17.578125
2463,-15.625000
2464,-15.625000
2465,-15.625000
2466,-15.625000
2467,-15.625000
2468,-15.625000
2469,-15.625000
2470,-13.671875
2471,-15.625000
2472,-15.625000
2473,-13.671875
2474,-13.671875
2475,-13.671875
2476,-13.671875
2477,-13.671875
2478,-13.671875
2479,-13.671875
2480,-13.671875
2481,-13.671875
2482,-11.718750
2483,-11.718750
2484,-11.718750
2485,-11.718750
2486,-11.718750
2487,-11.718750
2488,-9.765625
2489,-11.718750
2490,-9.765625
2491,-9.765625
2492,-9.765625
2493,-9.765625
2494,-9.765625
2495,-9.765625
2496,-9.765625
2497,-7.812500
2498,-7.812500
2499,-7.812500
2500,-7.812500
2501,-7.812500
2502,-7.812500
2503,-5.859375
2504,-5.859375
2505,-5.859375
2506,-5.859375
2507,-5.859375
2508,-5.859375
2509,-5.859375
2510,-5.859375
2511,-3.906250
2512,-3.906250
2513,-3.906250
2514,-3.906250
2515,-3.906250
2516,-3.906250
2517,-3.906250
2518,-1.953125
2519,-1.953125
2520,-1.953125
2521,-1.953125
2522,-1.953125
2523,0.000000
2524,-1.953125
2525,-1.953125
2526,0.000000
2527,0.000000
2528,0.000000
2529,0.000000
2530,0.000000
2531,0.000000
2532,0.000000
2533,0.000000
2534,0.000000
2535,1.953125
2536,1.953125
2537,1.953125
2538,1.953125
2539,1.953125
2540,1.953125
2541,1.953125
2542,3.906250
2543,1.953125
2544,1.953125
2545,3.906250
2546,3.906250
2547,3.906250
2548,3.906250
2549,3.906250
2550,3.906250
2551,3.906250
2552,3.906250
2553,3.906250
2554,3.906250
2555,3.906250
2556,5.859375
2557,3.906250
2558,5.859375
2559,3.906250
2560,5.859375
2561,5.859375
2562,3.906250
2563,5.859375
2564,5.859375
2565,5.859375
2566,5.859375
2567,5.859375
2568,5.859375
2569,5.859375
2570,5.859375
2571,5.859375
2572,5.859375
2573,5.859375
2574,5.859375
2575,5.859375
2576,5.859375
2577,5.859375
2578,5.859375
2579,5.859375
2580,5.859375
2581,5.859375
2582,5.859375
2583,5.859375
2584,5.859375
2585,5.859375
2586,3.906250
2587,5.859375
2588,5.859375
2589,5.859375
2590,3.906250
2591,3.906250
2592,5.859375
2593,5.859375
2594,3.906250
2595,3.906250
2596,3.906250
2597,3.906250
2598,3.906250
2599,3.906250
2600,3.906250
2601,3.906250
2602,3.906250
2603,3.906250
2604,3.906250
2605,3.906250
2606,1.953125
2607,3.906250
2608,3.906250
2609,1.953125
2610,1.953125
2611,1.953125
2612,1.953125
2613,1.953125
2614,1.953125
2615,1.953125
2616,1.953125
2617,1.953125
2618,0.000000
2619,0.000000
2620,0.000000
2621,0.000000
2622,0.000000
2623,0.000000
2624,0.000000
2625,0.000000
2626,0.000000
2627,-1.953125
2628,-1.953125
2629,-1.953125
2630,-1.953125
2631,-1.953125
2632,-1.953125
2633,-3.906250
2634,-3.906250
2635,-3.906250
2636,-3.906250
2637,-3.906250
2638,-3.906250
2639,-3.906250
2640,-3.906250
2641,-3.906250
2642,-5.859375
2643,-5.859375
2644,-5.859375
2645,-5.859375
2646,-5.859375
2647,-7.812500
2648,-7.812500
2649,-7.812500
2650,-7.812500
2651,-7.812500
2652,-7.812500
2653,-7.812500
2654,-7.812500
2655,-7.812500
2656,-9.765625
2657,-9.765625
2658,-9.765625
2659,-9.765625
2660,-9.765625
2661,-9.765625
2662,-9.765625
2663,-11.718750
2664,-9.765625
2665,-11.718750
2666,-11.718750
2667,-11.718750
2668,-11.718750
2669,-11.718750
2670,-11.718750
2671,-11.718750
2672,-13.671875
2673,-13.671875
2674,-13.671875
2675,-13.671875
2676,-13.671875
2677,-13.671875
2678,-13.671875
2679,-13.671875
2680,-15.625000
2681,-15.625000
2682,-15.625000
2683,-15.625000
2684,-15.625000
2685,-15.625000
2686,-15.625000
2687,-15.625000
2688,-15.625000
2689,-17.578125
2690,-17.578125
2691,-17.578125
2692,-17.578125
2693,-17.578125
2694,-17.578125
2695,-17.578125
2696,-17.578125
2697,-17.578125
2698,-17.578125
2699,-17.578125
2700,-19.531250
2701,-17.578125
2702,-17.578125
2703,-19.531250
2704,-19.531250
2705,-19.531250
2706,-19.531250
2707,-17.578125
2708,-19.531250
2709,-19.531250
2710,-19.531250
2711,-19.531250
2712,-19.531250
2713,-19.531250
2714,-19.531250
2715,-19.531250
2716,-19.531250
2717,-19.531250
2718,-19.531250
2719,-19.531250
2720,-19.531250
2721,-19.531250
2722,-19.531250
2723,-19.531250
2724,-19.531250
2725,-19.531250
2726,-17.578125
2727,-19.531250
2728,-19.531250
2729,-19.531250
2730,-17.578125
2731,-17.578125
2732,-17.578125
2733,-19.531250
2734,-17.578125
2735,-17.578125
2736,-17.578125
2737,-17.578125
2738,-17.578125
2739,-17.578125
2740,-17.578125
2741,-17.578125
2742,-17.578125
2743,-17.578125
2744,-17.578125
2745,-15.625000
2746,-15.625000
2747,-15.625000
2748,-15.625000
2749,-15.625000
2750,-15.625000
2751,-15.625000
2752,-15.625000
2753,-15.625000
2754,-15.625000
2755,-13.671875
2756,-13.671875
2757,-13.671875
2758,-13.671875
2759,-13.671875
2760,-13.671875
2761,-13.671875
2762,-13.671875
2763,-13.671875
2764,-13.671875
2765,-11.718750
2766,-11.718750
2767,-11.718750
2768,-11.718750
2769,-11.718750
2770,-11.718750
2771,-11.718750
2772,-9.765625
2773,-9.765625
2774,-9.765625
2775,-9.765625
2776,-9.765625
2777,-9.765625
2778,-9.765625
2779,-7.812500
2780,-7.812500
2781,-7.812500
2782,-7.812500
2783,-7.812500
2784,-7.812500
2785,-5.859375
2786,-7.812500
2787,-5.859375
2788,-5.859375
2789,-5.859375
2790,-3.906250
2791,-5.859375
2792,-5.859375
2793,-3.906250
2794,-3.906250
2795,-3.906250
2796,-3.906250
2797,-3.906250
2798,-3.906250
2799,-1.953125
2800,-1.953125
2801,-1.953125
2802,-1.953125
2803,-1.953125
2804,-1.953125
2805,0.000000
2806,0.000000
2807,0.000000
2808,0.000000
2809,0.000000
2810,0.000000
2811,0.000000
2812,0.000000
2813,0.000000
2814,0.000000
2815,1.953125
2816,1.953125
2817,1.953125
2818,1.953125
2819,1.953125
2820,1.953125
2821,1.953125
2822,1.953125
2823,3.906250
2824,1.953125
2825,1.953125
2826,3.906250
2827,3.906250
2828,3.906250
2829,3.906250
2830,3.906250
2831,3.906250
2832,3.906250
2833,3.906250
2834,3.906250
2835,3.906250
2836,3.906250
2837,3.906250
2838,3.906250
2839,3.906250
2840,3.906250
2841,5.859375
2842,5.859375
2843,5.859375
2844,5.859375
2845,5.859375
2846,5.859375
2847,5.859375
2848,5.859375
2849,5.859375
2850,5.859375
2851,5.859375
2852,5.859375
2853,5.859375
2854,5.859375
2855,5.859375
2856,7.812500
2857,5.859375
2858,5.859375
2859,5.859375
2860,5.859375
2861,5.859375
2862,5.859375
2863,5.859375
2864,5.859375
2865,5.859375
2866,3.906250
2867,5.859375
2868,5.859375
2869,5.859375
2870,5.859375
2871,3.906250
2872,5.859375
2873,5.859375
2874,5.859375
2875,3.906250
2876,3.906250
2877,3.906250
2878,5.859375
2879,3.906250
2880,3.906250
2881,3.906250
2882,3.906250
2883,3.906250
2884,3.906250
2885,3.906250
2886,3.906250
2887,3.906250
2888,3.906250
2889,1.953125
2890,1.953125
2891,1.953125
2892,1.953125
2893,1.953125
2894,1.953125
2895,1.953125
2896,1.953125
2897,1.953125
2898,1.953125
2899,1.953125
2900,0.000000
2901,0.000000
2902,0.000000
2903,0.000000
2904,0.000000
2905,0.000000
2906,-1.953125
2907,-1.953125
2908,-1.953125
2909,0.000000
2910,-1.953125
2911,-1.953125
2912,-1.953125
2913,-1.953125
2914,-1.953125
2915,-1.953125
2916,-3.906250
2917,-3.906250
2918,-3.906250
2919,-3.906250
2920,-3.906250
2921,-3.906250
2922,-3.906250
2923,-5.859375
2924,-3.906250
2925,-5.859375
2926,-5.859375
2927,-5.859375
2928,-5.859375
2929,-5.859375
2930,-7.812500
2931,-5.859375
2932,-7.812500
2933,-7.812500
2934,-7.812500
2935,-7.812500
2936,-9.765625
2937,-7.812500
2938,-7.812500
2939,-9.765625
2940,-9.765625
2941,-9.765625
2942,-9.765625
2943,-11.718750
2944,-9.765625
2945,-11.718750
2946,-11.718750
2947,-11.718750
2948,-11.718750
2949,-11.718750
2950,-11.718750
2951,-11.718750
2952,-13.671875
2953,-13.671875
2954,-13.671875
2955,-13.671875
2956,-13.671875
2957,-13.671875
2958,-13.671875
2959,-13.671875
2960,-15.625000
2961,-13.671875
2962,-15.625000
2963,-15.625000
2964,-15.625000
2965,-15.625000
2966,-15.625000
2967,-15.625000
2968,-15.625000
2969,-17.578125
2970,-15.625000
2971,-17.578125
2972,-17.578125
2973,-17.578125
2974,-17.578125
2975,-17.578125
2976,-17.578125
2977,-17.578125
2978,-17.578125
2979,-17.578125
2980,-17.578125
2981,-17.578125
2982,-19.531250
2983,-19.531250
2984,-17.578125
2985,-17.578125
2986,-17.578125
2987,-19.531250
2988,-17.578125
2989,-19.531250
2990,-17.578125
2991,-17.578125
2992,-19.531250
2993,-17.578125
2994,-17.578125
2995,-19.531250
2996,-19.531250
2997,-19.531250
2998,-19.531250
2999,-17.578125
3000,-17.578125
3001,-19.531250
3002,-19.531250
3003,-19.531250
3004,-17.578125
3005,-19.531250
3006,-19.531250
3007,-19.531250
3008,-19.531250
3009,-17.578125
3010,-19.531250
3011,-19.531250
3012,-17.578125
3013,-19.531250
3014,-17.578125
3015,-17.578125
3016,-17.578125
3017,-17.578125
3018,-17.578125
3019,-17.578125
3020,-17.578125
3021,-17.578125
3022,-17.578125
3023,-17.578125
3024,-17.578125
3025,-17.578125
3026,-17.578125
3027,-17.578125
3028,-17.578125
3029,-15.625000
3030,-15.625000
3031,-15.625000
3032,-15.625000
3033,-15.625000
3034,-15.625000
3035,-15.625000
3036,-15.625000
3037,-15.625000
3038,-15.625000
3039,-15.625000
3040,-15.625000
3041,-13.671875
3042,-13.671875
3043,-13.671875
3044,-11.718750
3045,-11.718750
3046,-11.718750
3047,-11.718750
3048,-11.718750
3049,-11.718750
3050,-11.718750
3051,-11.718750
3052,-11.718750
3053,-9.765625
3054,-9.765625
3055,-9.765625
3056,-9.765625
3057,-9.765625
3058,-9.765625
3059,-9.765625
3060,-9.765625
3061,-7.812500
3062,-7.812500
3063,-7.812500
3064,-7.812500
3065,-7.812500
3066,-7.812500
3067,-5.859375
3068,-5.859375
3069,-5.859375
3070,-5.859375
3071,-5.859375
3072,-5.859375
3073,-5.859375
3074,-3.906250
3075,-3.906250
3076,-3.906250
3077,-3.906250
3078,-3.906250
3079,-3.906250
3080,-3.906250
3081,-3.906250
3082,-1.953125
3083,-3.906250
3084,-1.953125
3085,-1.953125
3086,-1.953125
3087,-1.953125
3088,-1.953125
3089,0.000000
3090,-1.953125
3091,-1.953125
3092,0.000000
3093,0.000000
3094,0.000000
3095,0.000000
3096,0.000000
3097,0.000000
3098,0.000000
3099,0.000000
3100,1.953125
3101,1.953125
3102,1.953125
3103,1.953125
3104,1.953125
3105,1.953125
3106,1.953125
3107,1.953125
3108,1.953125
3109,3.906250
3110,1.953125
3111,3.906250
3112,3.906250
3113,3.906250
3114,3.906250
3115,3.906250
3116,3.906250
3117,3.906250
3118,3.906250
3119,3.906250
3120,5.859375
3121,3.906250
3122,5.859375
3123,3.906250
3124,5.859375
3125,5.859375
3126,5.859375
3127,5.859375
3128,5.859375
3129,5.859375
3130,5.859375
3131,5.859375
3132,5.859375
3133,5.859375
3134,5.859375
3135,5.859375
3136,5.859375
3137,5.859375
3138,5.859375
3139,5.859375
3140,5.859375
3141,5.859375
3142,5.859375
3143,5.859375
3144,5.859375
3145,5.859375
3146,3.906250
3147,5.859375
3148,5.859375
3149,5.859375
3150,5.859375
3151,5.859375
3152,5.859375
3153,3.906250
3154,3.906250
3155,3.906250
3156,3.906250
3157,3.906250
3158,5.859375
3159,3.906250
3160,3.906250
3161,3.906250
3162,3.906250
3163,3.906250
3164,3.906250
3165,3.906250
3166,3.906250
3167,3.906250
3168,1.953125
3169,3.906250
3170,1.953125
3171,1.953125
3172,3.906250
3173,1.953125
3174,1.953125
3175,1.953125
3176,1.953125
3177,1.953125
3178,1.953125
3179,1.953125
3180,1.953125
3181,1.953125
3182,1.953125
3183,0.000000
3184,0.000000
3185,0.000000
3186,0.000000
3187,0.000000
3188,0.000000
3189,0.000000
3190,-1.953125
3191,-1.953125
3192,-1.953125
3193,-1.953125
3194,-1.953125
3195,-1.953125
3196,-1.953125
3197,-1.953125
3198,-1.953125
3199,-3.906250
3200,-3.906250
3201,-3.906250
3202,-3.906250
3203,-3.906250
3204,-3.906250
3205,-5.859375
3206,-5.859375
3207,-5.859375
3208,-5.859375
3209,-5.859375
3210,-5.859375
3211,-5.859375
3212,-5.859375
3213,-5.859375
3214,-7.812500
3215,-7.812500
3216,-7.812500
3217,-7.812500
3218,-7.812500
3219,-7.812500
3220,-9.765625
3221,-9.765625
3222,-7.812500
3223,-9.765625
3224,-9.765625
3225,-9.765625
3226,-11.718750
3227,-11.718750
3228,-11.718750
3229,-11.718750
3230,-11.718750
3231,-11.718750
3232,-11.718750
3233,-13.671875
3234,-11.718750
3235,-13.671875
3236,-13.671875
3237,-13.671875
3238,-13.671875
3239,-13.671875
3240,-13.671875
3241,-13.671875
3242,-13.671875
3243,-15.625000
3244,-15.625000
3245,-15.625000
3246,-15.625000
3247,-15.625000
3248,-15.625000
3249,-15.625000
3250,-15.625000
3251,-15.625000
3252,-15.625000
3253,-15.625000
3254,-15.625000
3255,-15.625000
3256,-17.578125
3257,-17.578125
3258,-17.578125
3259,-17.578125
3260,-17.578125
3261,-17.578125
3262,-17.578125
3263,-17.578125
3264,-17.578125
3265,-17.578125
3266,-17.578125
3267,-17.578125
3268,-17.578125
3269,-17.578125
3270,-19.531250
3271,-19.531250
3272,-19.531250
3273,-17.578125
3274,-19.531250
3275,-19.531250
3276,-17.578125
3277,-19.531250
3278,-17.578125
3279,-19.531250
3280,-19.531250
3281,-19.531250
3282,-19.531250
3283,-19.531250
3284,-19.531250
3285,-19.531250
3286,-19.531250
3287,-19.531250
3288,-19.531250
3289,-19.531250
3290,-19.531250
3291,-19.531250
3292,-19.531250
3293,-19.531250
3294,-17.578125
3295,-17.578125
3296,-17.578125
3297,-17.578125
3298,-17.578125
3299,-17.578125
3300,-17.578125
3301,-17.578125
3302,-17.578125
3303,-17.578125
3304,-17.578125
3305,-17.578125
3306,-17.578125
3307,-17.578125
3308,-17.578125
3309,-17.578125
3310,-15.625000
3311,-15.625000
3312,-15.625000
3313,-15.625000
3314,-15.625000
3315,-15.625000
3316,-15.625000
3317,-15.625000
3318,-15.625000
3319,-15.625000
3320,-15.625000
3321,-13.671875
3322,-13.671875
3323,-13.671875
3324,-13.671875
3325,-13.671875
3326,-11.718750
3327,-13.671875
3328,-11.718750
3329,-11.718750
3330,-13.671875
3331,-11.718750
3332,-11.718750
3333,-11.718750
3334,-11.718750
3335,-9.765625
3336,-9.765625
3337,-9.765625
3338,-9.765625
3339,-9.765625
3340,-9.765625
3341,-9.765625
3342,-9.765625
3343,-7.812500
3344,-7.812500
3345,-7.812500
3346,-7.812500
3347,-7.812500
3348,-7.812500
3349,-5.859375
3350,-7.812500
3351,-5.859375
3352,-5.859375
3353,-5.859375
3354,-5.859375
3355,-5.859375
3356,-5.859375
3357,-3.906250
3358,-3.906250
3359,-3.906250
3360,-3.906250
3361,-3.906250
3362,-3.906250
3363,-3.906250
3364,-3.906250
3365,-1.953125
3366,-1.953125
3367,-1.953125
3368,-1.953125
3369,-1.953125
3370,-1.953125
3371,-1.953125
3372,0.000000
3373,-1.953125
3374,0.000000
3375,0.000000
3376,0.000000
3377,0.000000
3378,1.953125
3379,1.953125
3380,1.953125
3381,1.953125
3382,1.953125
3383,1.953125
3384,1.953125
3385,1.953125
3386,1.953125
3387,1.953125
3388,1.953125
3389,3.906250
3390,3.906250
3391,3.906250
3392,3.906250
3393,3.906250
3394,3.906250
3395,3.906250
3396,3.906250
3397,3.906250
3398,3.906250
3399,3.906250
3400,5.859375
3401,3.906250
3402,3.906250
3403,3.906250
3404,3.906250
3405,3.906250
3406,5.859375
3407,5.859375
3408,5.859375
3409,3.906250
3410,5.859375
3411,5.859375
3412,3.906250
3413,5.859375
3414,5.859375
3415,3.906250
3416,5.859375
3417,5.859375
3418,5.859375
3419,5.859375
3420,5.859375
3421,5.859375
3422,5.859375
3423,5.859375
3424,5.859375
3425,5.859375
3426,5.859375
3427,5.859375
3428,5.859375
3429,5.859375
3430,5.859375
3431,5.859375
3432,5.859375
3433,5.859375
3434,5.859375
3435,5.859375
3436,5.859375
3437,5.859375
3438,5.859375
3439,3.906250
3440,5.859375
3441,3.906250
3442,5.859375
3443,3.906250
3444,3.906250
3445,3.906250
3446,3.906250
3447,3.906250
3448,3.906250
3449,3.906250
3450,3.906250
3451,3.906250
3452,3.906250
3453,3.906250
3454,3.906250
3455,1.953125
3456,1.953125
3457,1.953125
3458,1.953125
3459,1.953125
3460,1.953125
3461,1.953125
3462,1.953125
3463,1.953125
3464,0.000000
3465,0.000000
3466,0.000000
3467,0.000000
3468,0.000000
3469,0.000000
3470,0.000000
3471,0.000000
3472,0.000000
3473,-1.953125
3474,-1.953125
3475,-1.953125
3476,-1.953125
3477,-1.953125
3478,-1.953125
3479,-1.953125
3480,-3.906250
3481,-1.953125
3482,-3.906250
3483,-3.906250
3484,-3.906250
3485,-3.906250
3486,-3.906250
3487,-3.906250
3488,-3.906250
3489,-5.859375
3490,-5.859375
3491,-5.859375
3492,-7.812500
3493,-5.859375
3494,-5.859375
3495,-5.859375
3496,-7.812500
3497,-7.812500
3498,-7.812500
3499,-7.812500
3500,-7.812500
3501,-9.765625
3502,-9.765625
3503,-9.765625
3504,-9.765625
3505,-9.765625
3506,-9.765625
3507,-9.765625
3508,-9.765625
3509,-9.765625
3510,-11.718750
3511,-11.718750
3512,-11.718750
3513,-11.718750
3514,-11.718750
3515,-11.718750
3516,-11.718750
3517,-11.718750
3518,-13.671875
3519,-13.671875
3520,-13.671875
3521,-13.671875
3522,-13.671875
3523,-13.671875
3524,-13.671875
3525,-15.625000
3526,-13.671875
3527,-15.625000
3528,-15.625000
3529,-15.625000
3530,-15.625000
3531,-15.625000
3532,-15.625000
3533,-15.625000
3534,-15.625000
3535,-15.625000
3536,-15.625000
3537,-15.625000
3538,-17.578125
3539,-17.578125
3540,-17.578125
3541,-17.578125
3542,-17.578125
3543,-17.578125
3544,-17.578125
3545,-17.578125
3546,-17.578125
3547,-17.578125
3548,-19.531250
3549,-17.578125
3550,-19.531250
3551,-17.578125
3552,-17.578125
3553,-19.531250
3554,-17.578125
3555,-19.531250
3556,-19.531250
3557,-17.578125
3558,-17.578125
3559,-19.531250
3560,-19.531250
3561,-19.531250
3562,-19.531250
3563,-19.531250
3564,-19.531250
3565,-19.531250
3566,-17.578125
3567,-19.531250
3568,-19.531250
3569,-19.531250
3570,-19.531250
3571,-19.531250
3572,-19.531250
3573,-19.531250
3574,-17.578125
3575,-17.578125
3576,-17.578125
3577,-19.531250
3578,-17.578125
3579,-17.578125
3580,-17.578125
3581,-17.578125
3582,-17.578125
3583,-17.578125
3584,-17.578125
3585,-17.578125
3586,-17.578125
3587,-17.578125
3588,-17.578125
3589,-17.578125
3590,-17.578125
3591,-17.578125
3592,-15.625000
3593,-15.625000
3594,-15.625000
3595,-15.625000
3596,-15.625000
3597,-15.625000
3598,-15.625000
3599,-15.625000
3600,-15.625000
3601,-15.625000
3602,-13.671875
3603,-13.671875
3604,-13.671875
3605,-13.671875
3606,-13.671875
3607,-13.671875
3608,-13.671875
3609,-13.671875
3610,-11.718750
3611,-13.671875
3612,-11.718750
3613,-11.718750
3614,-11.718750
3615,-11.718750
3616,-11.718750
3617,-11.718750
3618,-11.718750
3619,-11.718750
3620,-9.765625
3621,-9.765625
3622,-9.765625
3623,-9.765625
3624,-7.812500
3625,-9.765625
3626,-9.765625
3627,-7.812500
3628,-7.812500
3629,-7.812500
3630,-7.812500
3631,-7.812500
3632,-7.812500
3633,-5.859375
3634,-5.859375
3635,-5.859375
3636,-7.812500
3637,-5.859375
3638,-5.859375
3639,-3.906250
3640,-3.906250
3641,-3.906250
3642,-3.906250
3643,-3.906250
3644,-3.906250
3645,-3.906250
3646,-1.953125
3647,-1.953125
3648,-1.953125
3649,-1.953125
3650,-1.953125
3651,-1.953125
3652,-1.953125
3653,0.000000
3654,0.000000
3655,0.000000
3656,0.000000
3657,0.000000
3658,0.000000
3659,0.000000
3660,0.000000
3661,0.000000
3662,0.000000
3663,0.000000
3664,-1.953125
3665,1.953125
3666,1.953125
3667,3.906250
3668,1.953125
3669,1.953125
3670,1.953125
3671,1.953125
3672,1.953125
3673,1.953125
3674,3.906250
3675,3.906250
3676,1.953125
3677,3.906250
3678,3.906250
3679,3.906250
3680,3.906250
3681,3.906250
3682,3.906250
3683,3.906250
3684,3.906250
3685,3.906250
3686,3.906250
3687,3.906250
3688,5.859375
3689,5.859375
3690,5.859375
3691,3.906250
3692,5.859375
3693,5.859375
3694,5.859375
3695,5.859375
3696,5.859375
3697,5.859375
3698,5.859375
3699,5.859375
3700,5.859375
3701,5.859375
3702,5.859375
3703,5.859375
3704,5.859375
3705,5.859375
3706,5.859375
3707,5.859375
3708,5.859375
3709,5.859375
3710,5.859375
3711,5.859375
3712,5.859375
3713,5.859375
3714,5.859375
3715,5.859375
3716,5.859375
3717,5.859375
3718,5.859375
3719,3.906250
3720,5.859375
3721,5.859375
3722,5.859375
3723,3.906250
3724,3.906250
3725,3.906250
3726,3.906250
3727,3.906250
3728,3.906250
3729,3.906250
3730,3.906250
3731,3.906250
3732,3.906250
3733,3.906250
3734,3.906250
3735,3.906250
3736,1.953125
3737,3.906250
3738,1.953125
3739,1.953125
3740,1.953125
3741,1.953125
3742,1.953125
3743,1.953125
3744,1.953125
3745,1.953125
3746,0.000000
3747,0.000000
3748,0.000000
3749,0.000000
3750,0.000000
3751,0.000000
3752,0.000000
3753,0.000000
3754,-1.953125
3755,-1.953125
3756,-1.953125
3757,-1.953125
3758,-1.953125
3759,-1.953125
3760,-1.953125
3761,-1.953125
3762,-1.953125
3763,-1.953125
3764,-3.906250
3765,-3.906250
3766,-3.906250
3767,-3.906250
3768,-3.906250
3769,-3.906250
3770,-3.906250
3771,-5.859375
3772,-5.859375
3773,-5.859375
3774,-5.859375
3775,-5.859375
3776,-5.859375
3777,-5.859375
3778,-7.812500
3779,-9.765625
3780,-7.812500
3781,-5.859375
3782,-7.812500
3783,-7.812500
3784,-7.812500
3785,-7.812500
3786,-9.765625
3787,-9.765625
3788,-9.765625
3789,-9.765625
3790,-9.765625
3791,-11.718750
3792,-11.718750
3793,-11.718750
3794,-11.718750
3795,-11.718750
3796,-11.718750
3797,-11.718750
3798,-11.718750
3799,-11.718750
3800,-13.671875
3801,-13.671875
3802,-13.671875
3803,-13.671875
3804,-13.671875
3805,-13.671875
3806,-13.671875
3807,-15.625000
3808,-13.671875
3809,-13.671875
3810,-15.625000
3811,-15.625000
3812,-13.671875
3813,-15.625000
3814,-15.625000
3815,-15.625000
3816,-15.625000
3817,-15.625000
3818,-15.625000
3819,-15.625000
3820,-17.578125
3821,-17.578125
3822,-17.578125
3823,-17.578125
3824,-17.578125
3825,-17.578125
3826,-17.578125
3827,-17.578125
3828,-19.531250
3829,-17.578125
3830,-19.531250
3831,-17.578125
3832,-17.578125
3833,-17.578125
3834,-17.578125
3835,-17.578125
3836,-19.531250
3837,-19.531250
3838,-17.578125
3839,-19.531250
3840,-19.531250
3841,-19.531250
3842,-19.531250
3843,-19.531250
3844,-19.531250
3845,-19.531250
3846,-19.531250
3847,-19.531250
3848,-19.531250
3849,-19.531250
3850,-17.578125
3851,-19.531250
3852,-19.531250
3853,-19.531250
3854,-17.578125
3855,-15.625000
3856,-19.531250
3857,-19.531250
3858,-19.531250
3859,-19.531250
3860,-17.578125
3861,-17.578125
3862,-19.531250
3863,-17.578125
3864,-17.578125
3865,-17.578125
3866,-17.578125
3867,-17.578125
3868,-17.578125
3869,-17.578125
3870,-17.578125
3871,-17.578125
3872,-17.578125
3873,-17.578125
3874,-17.578125
3875,-17.578125
3876,-15.625000
3877,-15.625000
3878,-15.625000
3879,-15.625000
3880,-15.625000
3881,-15.625000
3882,-15.625000
3883,-15.625000
3884,-15.625000
3885,-15.625000
3886,-15.625000
3887,-13.671875
3888,-13.671875
3889,-13.671875
3890,-13.671875
3891,-13.671875
3892,-13.671875
3893,-13.671875
3894,-11.718750
3895,-11.718750
3896,-11.718750
3897,-11.718750
3898,-11.718750
3899,-11.718750
3900,-9.765625
3901,-11.718750
3902,-9.765625
3903,-9.765625
3904,-9.765625
3905,-9.765625
3906,-9.765625
3907,-9.765625
3908,-7.812500
3909,-7.812500
3910,-7.812500
3911,-7.812500
3912,-7.812500
3913,-7.812500
3914,-7.812500
3915,-7.812500
3916,-5.859375
3917,-7.812500
3918,-5.859375
3919,-5.859375
3920,-5.859375
3921,-3.906250
3922,-5.859375
3923,-3.906250
3924,-3.906250
3925,-3.906250
3926,-3.906250
3927,-3.906250
3928,-3.906250
3929,-3.906250
3930,-3.906250
3931,-1.953125
3932,-1.953125
3933,-1.953125
3934,-1.953125
3935,-1.953125
3936,0.000000
3937,0.000000
3938,0.000000
3939,0.000000
3940,0.000000
3941,0.000000
3942,0.000000
3943,0.000000
3944,0.000000
3945,0.000000
3946,1.953125
3947,1.953125
3948,1.953125
3949,1.953125
3950,1.953125
3951,1.953125
3952,1.953125
3953,3.906250
3954,3.906250
3955,1.953125
3956,3.906250
3957,3.906250
3958,3.906250
3959,3.906250
3960,3.906250
3961,3.906250
3962,3.906250
3963,3.906250
3964,3.906250
3965,3.906250
3966,3.906250
3967,3.906250
3968,3.906250
3969,5.859375
3970,5.859375
3971,5.859375
3972,5.859375
3973,3.906250
3974,5.859375
3975,5.859375
3976,5.859375
3977,5.859375
3978,5.859375
3979,5.859375
3980,5.859375
3981,5.859375
3982,5.859375
3983,5.859375
3984,5.859375
3985,5.859375
3986,5.859375
3987,5.859375
3988,5.859375
3989,5.859375
3990,5.859375
3991,5.859375
3992,5.859375
3993,5.859375
3994,5.859375
3995,5.859375
3996,5.859375
3997,5.859375
3998,5.859375
3999,5.859375
4000,5.859375
4001,3.906250
4002,5.859375
4003,3.906250
4004,5.859375
4005,3.906250
4006,3.906250
4007,3.906250
4008,3.906250
4009,3.906250
4010,3.906250
4011,3.906250
4012,3.906250
4013,3.906250
4014,3.906250
4015,3.906250
4016,3.906250
4017,3.906250
4018,1.953125
4019,3.906250
4020,1.953125
4021,1.953125
4022,1.953125
4023,1.953125
4024,1.953125
4025,1.953125
4026,1.953125
4027,1.953125
4028,1.953125
4029,1.953125
4030,0.000000
4031,0.000000
4032,0.000000
4033,0.000000
4034,0.000000
4035,0.000000
4036,0.000000
4037,-1.953125
4038,-1.953125
4039,-1.953125
4040,-1.953125
4041,-1.953125
4042,-1.953125
4043,-1.953125
4044,-1.953125
4045,-3.906250
4046,-1.953125
4047,-3.906250
4048,-3.906250
4049,-3.906250
4050,-3.906250
4051,-3.906250
4052,-3.906250
4053,-5.859375
4054,-5.859375
4055,-5.859375
4056,-5.859375
4057,-5.859375
4058,-7.812500
4059,-7.812500
4060,-7.812500
4061,-5.859375
4062,-7.812500
4063,-7.812500
4064,-7.812500
4065,-7.812500
4066,-7.812500
4067,-9.765625
4068,-9.765625
4069,-9.765625
4070,-9.765625
4071,-9.765625
4072,-9.765625
4073,-9.765625
4074,-11.718750
4075,-11.718750
4076,-11.718750
4077,-11.718750
4078,-11.718750
4079,-11.718750
4080,-11.718750
4081,-13.671875
4082,-11.718750
4083,-11.718750
4084,-13.671875
4085,-13.671875
4086,-13.671875
4087,-13.671875
4088,-13.671875
4089,-15.625000
4090,-13.671875
4091,-15.625000
4092,-15.625000
4093,-15.625000
4094,-15.625000
4095,-15.625000
4096,-15.625000
4097,-15.625000
4098,-15.625000
4099,-15.625000
4100,-15.625000
4101,-15.625000
4102,-17.578125
4103,-17.578125
4104,-17.578125
4105,-17.578125
4106,-17.578125
4107,-17.578125
4108,-17.578125
4109,-17.578125
4110,-17.578125
4111,-17.578125
4112,-17.578125
4113,-17.578125
4114,-19.531250
4115,-17.578125
4116,-17.578125
4117,-19.531250
4118,-19.531250
4119,-19.531250
4120,-19.531250
4121,-17.578125
4122,-19.531250
4123,-19.531250
4124,-19.531250
4125,-19.531250
4126,-19.531250
4127,-19.531250
4128,-19.531250
4129,-19.531250
4130,-19.531250
4131,-19.531250
4132,-19.531250
4133,-19.531250
4134,-19.531250
4135,-19.531250
4136,-19.531250
4137,-19.531250
4138,-19.531250
4139,-19.531250
4140,-19.531250
4141,-17.578125
4142,-17.578125
4143,-19.531250
4144,-17.578125
4145,-17.578125
4146,-17.578125
4147,-17.578125
4148,-17.578125
4149,-17.578125
4150,-17.578125
4151,-17.578125
4152,-17.578125
4153,-17.578125
4154,-17.578125
4155,-17.578125
4156,-15.625000
4157,-15.625000
4158,-15.625000
4159,-15.625000
4160,-15.625000
4161,-15.625000
4162,-15.625000
4163,-15.625000
4164,-15.625000
4165,-13.671875
4166,-13.671875
4167,-13.671875
4168,-13.671875
4169,-13.671875
4170,-13.671875
4171,-13.671875
4172,-13.671875
4173,-13.671875
4174,-13.671875
4175,-11.718750
4176,-11.718750
4177,-11.718750
4178,-11.718750
4179,-11.718750
4180,-11.718750
4181,-11.718750
4182,-11.718750
4183,-11.718750
4184,-9.765625
4185,-9.765625
4186,-9.765625
4187,-9.765625
4188,-9.765625
4189,-9.765625
4190,-7.812500
4191,-7.812500
4192,-7.812500
4193,-7.812500
4194,-7.812500
4195,-7.812500
4196,-7.812500
4197,-7.812500
4198,-7.812500
4199,-5.859375
4200,-5.859375
4201,-5.859375
4202,-5.859375
4203,-5.859375
4204,-5.859375
4205,-3.906250
4206,-3.906250
4207,-3.906250
4208,-3.906250
4209,-3.906250
4210,-1.953125
4211,-1.953125
4212,-1.953125
4213,-1.953125
4214,-1.953125
4215,-1.953125
4216,-1.953125
4217,0.000000
4218,-1.953125
4219,0.000000
4220,0.000000
4221,0.000000
4222,0.000000
4223,0.000000
4224,0.000000
4225,0.000000
4226,0.000000
4227,1.953125
4228,0.000000
4229,1.953125
4230,1.953125
4231,1.953125
4232,1.953125
4233,1.953125
4234,1.953125
4235,1.953125
4236,1.953125
4237,1.953125
4238,1.953125
4239,3.906250
4240,3.906250
4241,3.906250
4242,3.906250
4243,3.906250
4244,3.906250
4245,3.906250
4246,3.906250
4247,3.906250
4248,3.906250
4249,3.906250
4250,3.906250
4251,3.906250
4252,3.906250
4253,5.859375
4254,3.906250
4255,3.906250
4256,5.859375
4257,5.859375
4258,5.859375
4259,5.859375
4260,5.859375
4261,3.906250
4262,5.859375
4263,5.859375
4264,5.859375
4265,5.859375
4266,3.906250
4267,5.859375
4268,5.859375
4269,5.859375
4270,5.859375
4271,5.859375
4272,5.859375
4273,5.859375
4274,5.859375
4275,5.859375
4276,5.859375
4277,5.859375
4278,5.859375
4279,5.859375
4280,5.859375
4281,5.859375
4282,5.859375
4283,5.859375
4284,5.859375
4285,3.906250
4286,5.859375
4287,5.859375
4288,3.906250
4289,3.906250
4290,3.906250
4291,3.906250
4292,3.906250
4293,3.906250
4294,3.906250
4295,3.906250
4296,3.906250
4297,1.953125
4298,3.906250
4299,3.906250
4300,3.906250
4301,1.953125
4302,1.953125
4303,1.953125
4304,1.953125
4305,1.953125
4306,1.953125
4307,1.953125
4308,1.953125
4309,1.953125
4310,1.953125
4311,0.000000
4312,0.000000
4313,0.000000
4314,0.000000
4315,0.000000
4316,0.000000
4317,0.000000
4318,-1.953125
4319,-1.953125
4320,-1.953125
4321,-1.953125
4322,-1.953125
4323,-1.953125
4324,-1.953125
4325,-1.953125
4326,-1.953125
4327,-3.906250
4328,-3.906250
4329,-3.906250
4330,-3.906250
4331,-3.906250
4332,-3.906250
4333,-3.906250
4334,-3.906250
4335,-3.906250
4336,-5.859375
4337,-5.859375
4338,-5.859375
4339,-5.859375
4340,-5.859375
4341,-7.812500
4342,-5.859375
4343,-7.812500
4344,-5.859375
4345,-7.812500
4346,-7.812500
4347,-7.812500
4348,-7.812500
4349,-7.812500
4350,-9.765625
4351,-9.765625
4352,-9.765625
4353,-9.765625
4354,-9.765625
4355,-9.765625
4356,-11.718750
4357,-9.765625
4358,-9.765625
4359,-11.718750
4360,-11.718750
4361,-11.718750
4362,-11.718750
4363,-11.718750
4364,-13.671875
4365,-13.671875
4366,-13.671875
4367,-13.671875
4368,-13.671875
4369,-13.671875
4370,-13.671875
4371,-13.671875
4372,-15.625000
4373,-13.671875
4374,-15.625000
4375,-15.625000
4376,-15.625000
4377,-15.625000
4378,-15.625000
4379,-15.625000
4380,-15.625000
4381,-17.578125
4382,-15.625000
4383,-17.578125
4384,-15.625000
4385,-17.578125
4386,-17.578125
4387,-17.578125
4388,-17.578125
4389,-17.578125
4390,-17.578125
4391,-17.578125
4392,-17.578125
4393,-17.578125
4394,-17.578125
4395,-17.578125
4396,-19.531250
4397,-17.578125
4398,-19.531250
4399,-17.578125
4400,-19.531250
4401,-19.531250
4402,-19.531250
4403,-19.531250
4404,-19.531250
4405,-19.531250
4406,-19.531250
4407,-19.531250
4408,-19.531250
4409,-19.531250
4410,-19.531250
4411,-19.531250
4412,-19.531250
4413,-19.531250
4414,-19.531250
4415,-19.531250
4416,-19.531250
4417,-19.531250
4418,-19.531250
4419,-19.531250
4420,-19.531250
4421,-19.531250
4422,-19.531250
4423,-17.578125
4424,-17.578125
4425,-17.578125
4426,-17.578125
4427,-17.578125
4428,-17.578125
4429,-17.578125
4430,-17.578125
4431,-17.578125
4432,-17.578125
4433,-17.578125
4434,-17.578125
4435,-17.578125
4436,-17.578125
4437,-17.578125
4438,-15.625000
4439,-15.625000
4440,-17.578125
4441,-15.625000
4442,-15.625000
4443,-15.625000
4444,-15.625000
4445,-15.625000
4446,-15.625000
4447,-15.625000
4448,-15.625000
4449,-15.625000
4450,-15.625000
4451,-15.625000
4452,-13.671875
4453,-13.671875
4454,-13.671875
4455,-13.671875
4456,-13.671875
4457,-13.671875
4458,-11.718750
4459,-11.718750
4460,-11.718750
4461,-11.718750
4462,-11.718750
4463,-11.718750
4464,-11.718750
4465,-9.765625
4466,-9.765625
4467,-11.718750
4468,-9.765625
4469,-9.765625
4470,-7.812500
4471,-9.765625
4472,-9.765625
4473,-7.812500
4474,-7.812500
4475,-7.812500
4476,-7.812500
4477,-7.812500
4478,-7.812500
4479,-7.812500
4480,-5.859375
4481,-5.859375
4482,-5.859375
4483,-5.859375
4484,-5.859375
4485,-5.859375
4486,-5.859375
4487,-3.906250
4488,-3.906250
4489,-3.906250
4490,-3.906250
4491,-3.906250
4492,-3.906250
4493,-3.906250
4494,-1.953125
4495,-1.953125
4496,-1.953125
4497,-1.953125
4498,-1.953125
4499,-1.953125
4500,-1.953125
4501,-1.953125
4502,-1.953125
4503,0.000000
4504,0.000000
4505,0.000000
4506,0.000000
4507,0.000000
4508,0.000000
4509,0.000000
4510,0.000000
4511,1.953125
4512,1.953125
4513,1.953125
4514,1.953125
4515,1.953125
4516,1.953125
4517,1.953125
4518,1.953125
4519,1.953125
4520,3.906250
4521,3.906250
4522,1.953125
4523,3.906250
4524,3.906250
4525,3.906250
4526,3.906250
4527,3.906250
4528,3.906250
4529,3.906250
4530,3.906250
4531,5.859375
4532,5.859375
4533,3.906250
4534,5.859375
4535,5.859375
4536,5.859375
4537,5.859375
4538,5.859375
4539,5.859375
4540,5.859375
4541,5.859375
4542,5.859375
4543,5.859375
4544,5.859375
4545,5.859375
4546,5.859375
4547,5.859375
4548,5.859375
4549,5.859375
4550,5.859375
4551,5.859375
4552,5.859375
4553,5.859375
4554,5.859375
4555,5.859375
4556,5.859375
4557,5.859375
4558,5.859375
4559,5.859375
4560,5.859375
4561,5.859375
4562,5.859375
4563,5.859375
4564,5.859375
4565,5.859375
4566,3.906250
4567,5.859375
4568,3.906250
4569,5.859375
4570,5.859375
4571,3.906250
4572,3.906250
4573,3.906250
4574,3.906250
4575,3.906250
4576,3.906250
4577,3.906250
4578,3.906250
4579,3.906250
4580,3.906250
4581,1.953125
4582,1.953125
4583,1.953125
4584,1.953125
4585,1.953125
4586,1.953125
4587,1.953125
4588,1.953125
4589,1.953125
4590,1.953125
4591,1.953125
4592,1.953125
4593,0.000000
4594,0.000000
4595,0.000000
4596,0.000000
4597,0.000000
4598,0.000000
4599,0.000000
4600,0.000000
4601,0.000000
4602,0.000000
4603,-1.953125
4604,-1.953125
4605,-1.953125
4606,-1.953125
4607,-1.953125
4608,-1.953125
4609,-3.906250
4610,-3.906250
4611,-3.906250
4612,-1.953125
4613,-3.906250
4614,-3.906250
4615,-3.906250
4616,-3.906250
4617,-3.906250
4618,-5.859375
4619,-5.859375
4620,-5.859375
4621,-5.859375
4622,-5.859375
4623,-5.859375
4624,-7.812500
4625,-7.812500
4626,-7.812500
4627,-7.812500
4628,-7.812500
4629,-7.812500
4630,-7.812500
4631,-7.812500
4632,-9.765625
4633,-9.765625
4634,-9.765625
4635,-9.765625
4636,-9.765625
4637,-9.765625
4638,-11.718750
4639,-11.718750
4640,-9.765625
4641,-11.718750
4642,-11.718750
4643,-11.718750
4644,-11.718750
4645,-11.718750
4646,-11.718750
4647,-13.671875
4648,-13.671875
4649,-13.671875
4650,-13.671875
4651,-13.671875
4652,-13.671875
4653,-13.671875
4654,-15.625000
4655,-15.625000
4656,-15.625000
4657,-15.625000
4658,-15.625000
4659,-15.625000
4660,-15.625000
4661,-15.625000
4662,-15.625000
4663,-15.625000
4664,-15.625000
4665,-15.625000
4666,-17.578125
4667,-15.625000
4668,-17.578125
4669,-17.578125
4670,-17.578125
4671,-15.625000
4672,-17.578125
4673,-17.578125
4674,-17.578125
4675,-17.578125
4676,-17.578125
4677,-17.578125
4678,-19.531250
4679,-19.531250
4680,-17.578125
4681,-17.578125
4682,-17.578125
4683,-19.531250
4684,-19.531250
4685,-19.531250
4686,-17.578125
4687,-19.531250
4688,-19.531250
4689,-19.531250
4690,-19.531250
4691,-19.531250
4692,-19.531250
4693,-19.531250
4694,-19.531250
4695,-19.531250
4696,-19.531250
4697,-19.531250
4698,-19.531250
4699,-19.531250
4700,-19.531250
4701,-19.531250
4702,-19.531250
4703,-17.578125
4704,-19.531250
4705,-19.531250
4706,-17.578125
4707,-19.531250
4708,-19.531250
4709,-19.531250
4710,-17.578125
4711,-17.578125
4712,-17.578125
4713,-17.578125
4714,-17.578125
4715,-17.578125
4716,-17.578125
4717,-17.578125
4718,-17.578125
4719,-17.578125
4720,-15.625000
4721,-17.578125
4722,-17.578125
4723,-15.625000
4724,-15.625000
4725,-15.625000
4726,-15.625000
4727,-15.625000
4728,-15.625000
4729,-15.625000
4730,-13.671875
4731,-13.671875
4732,-13.671875
4733,-13.671875
4734,-13.671875
4735,-13.671875
4736,-13.671875
4737,-13.671875
4738,-13.671875
4739,-11.718750
4740,-11.718750
4741,-11.718750
4742,-11.718750
4743,-11.718750
4744,-11.718750
4745,-11.718750
4746,-11.718750
4747,-11.718750
4748,-11.718750
4749,-9.765625
4750,-9.765625
4751,-9.765625
4752,-9.765625
4753,-9.765625
4754,-9.765625
4755,-7.812500
4756,-7.812500
4757,-7.812500
4758,-7.812500
4759,-7.812500
4760,-7.812500
4761,-7.812500
4762,-5.859375
4763,-5.859375
4764,-5.859375
4765,-5.859375
4766,-5.859375
4767,-5.859375
4768,-5.859375
4769,-3.906250
4770,-3.906250
4771,-3.906250
4772,-3.906250
4773,-3.906250
4774,-3.906250
4775,-3.906250
4776,-1.953125
4777,-1.953125
4778,-1.953125
4779,-1.953125
4780,-1.953125
4781,-1.953125
4782,-1.953125
4783,-1.953125
4784,0.000000
4785,0.000000
4786,0.000000
4787,0.000000
4788,0.000000
4789,0.000000
4790,1.953125
4791,0.000000
4792,0.000000
4793,1.953125
4794,0.000000
4795,1.953125
4796,1.953125
4797,1.953125
4798,1.953125
4799,1.953125
4800,1.953125
4801,1.953125
4802,3.906250
4803,3.906250
4804,3.906250
4805,3.906250
4806,3.906250
4807,3.906250
4808,3.906250
4809,3.906250
4810,3.906250
4811,3.906250
4812,3.906250
4813,3.906250
4814,5.859375
4815,5.859375
4816,5.859375
4817,3.906250
4818,5.859375
4819,5.859375
4820,5.859375
4821,5.859375
4822,3.906250
4823,5.859375
4824,5.859375
4825,5.859375
4826,5.859375
4827,5.859375
4828,5.859375
4829,5.859375
4830,5.859375
4831,5.859375
4832,5.859375
4833,5.859375
4834,5.859375
4835,5.859375
4836,5.859375
4837,5.859375
4838,1.953125
4839,5.859375
4840,5.859375
4841,5.859375
4842,5.859375
4843,5.859375
4844,5.859375
4845,3.906250
4846,5.859375
4847,5.859375
4848,3.906250
4849,3.906250
4850,3.906250
4851,3.906250
4852,3.906250
4853,5.859375
4854,3.906250
4855,3.906250
4856,3.906250
4857,3.906250
4858,3.906250
4859,3.906250
4860,3.906250
4861,3.906250
4862,3.906250
4863,3.906250
4864,3.906250
4865,3.906250
4866,3.906250
4867,1.953125
4868,1.953125
4869,1.953125
4870,1.953125
4871,1.953125
4872,1.953125
4873,1.953125
4874,1.953125
4875,0.000000
4876,0.000000
4877,0.000000
4878,0.000000
4879,0.000000
4880,0.000000
4881,0.000000
4882,0.000000
4883,-1.953125
4884,-1.953125
4885,-1.953125
4886,-1.953125
4887,-1.953125
4888,-1.953125
4889,-1.953125
4890,-1.953125
4891,-3.906250
4892,-1.953125
4893,-3.906250
4894,-3.906250
4895,-3.906250
4896,-3.906250
4897,-5.859375
4898,-3.906250
4899,-3.906250
4900,-5.859375
4901,-5.859375
4902,-5.859375
4903,-5.859375
4904,-5.859375
4905,-5.859375
4906,-7.812500
4907,-5.859375
4908,-7.812500
4909,-7.812500
4910,-7.812500
4911,-7.812500
4912,-7.812500
4913,-9.765625
4914,-9.765625
4915,-9.765625
4916,-9.765625
4917,-9.765625
4918,-9.765625
4919,-9.765625
4920,-9.765625
4921,-9.765625
4922,-11.718750
4923,-11.718750
4924,-11.718750
4925,-11.718750
4926,-11.718750
4927,-11.718750
4928,-11.718750
4929,-11.718750
4930,-11.718750
4931,-13.671875
4932,-13.671875
4933,-13.671875
4934,-13.671875
4935,-13.671875
4936,-13.671875
4937,-13.671875
4938,-15.625000
4939,-13.671875
4940,-15.625000
4941,-15.625000
4942,-15.625000
4943,-15.625000
4944,-15.625000
4945,-15.625000
4946,-15.625000
4947,-15.625000
4948,-17.578125
4949,-15.625000
4950,-15.625000
4951,-17.578125
4952,-17.578125
4953,-17.578125
4954,-17.578125
4955,-17.578125
4956,-17.578125
4957,-17.578125
4958,-17.578125
4959,-17.578125
4960,-17.578125
4961,-17.578125
4962,-17.578125
4963,-17.578125
4964,-19.531250
4965,-19.531250
4966,-17.578125
4967,-19.531250
4968,-19.531250
4969,-19.531250
4970,-19.531250
4971,-19.531250
4972,-17.578125
4973,-19.531250
4974,-19.531250
4975,-19.531250
4976,-19.531250
4977,-19.531250
4978,-19.531250
4979,-19.531250
4980,-19.531250
4981,-19.531250
4982,-19.531250
4983,-19.531250
4984,-19.531250
4985,-17.578125
4986,-19.531250
4987,-17.578125
4988,-19.531250
4989,-23.437500
4990,-17.578125
4991,-21.484375
4992,-17.578125
4993,-17.578125
4994,-17.578125
4995,-17.578125
4996,-17.578125
4997,-17.578125
4998,-17.578125
4999,-17.578125
5000,-17.578125
5001,-17.578125
5002,-17.578125
5003,-15.625000
5004,-15.625000
5005,-15.625000
5006,-13.671875
5007,-15.625000
5008,-15.625000
5009,-15.625000
5010,-17.578125
5011,-15.625000
5012,-15.625000
5013,-15.625000
5014,-15.625000
5015,-13.671875
5016,-13.671875
5017,-13.671875
5018,-13.671875
5019,-13.671875
5020,-13.671875
5021,-13.671875
5022,-13.671875
5023,-11.718750
5024,-11.718750
5025,-11.718750
5026,-11.718750
5027,-11.718750
5028,-11.718750
5029,-11.718750
5030,-11.718750
5031,-11.718750
5032,-9.765625
5033,-9.765625
5034,-9.765625
5035,-9.765625
5036,-9.765625
5037,-7.812500
5038,-7.812500
5039,-7.812500
5040,-7.812500
5041,-7.812500
5042,-7.812500
5043,-7.812500
5044,-7.812500
5045,-5.859375
5046,-5.859375
5047,-5.859375
5048,-5.859375
5049,-5.859375
5050,-3.906250
5051,-3.906250
5052,-3.906250
5053,-3.906250
5054,-3.906250
5055,-3.906250
5056,-3.906250
5057,-3.906250
5058,-3.906250
5059,-1.953125
5060,-1.953125
5061,-1.953125
5062,-1.953125
5063,-1.953125
5064,-1.953125
5065,0.000000
5066,0.000000
5067,0.000000
5068,0.000000
5069,0.000000
5070,0.000000
5071,0.000000
5072,0.000000
5073,0.000000
5074,1.953125
5075,0.000000
5076,0.000000
5077,1.953125
5078,1.953125
5079,1.953125
5080,1.953125
5081,1.953125
5082,1.953125
5083,1.953125
5084,1.953125
5085,1.953125
5086,3.906250
5087,1.953125
5088,3.906250
5089,3.906250
5090,3.906250
5091,3.906250
5092,3.906250
5093,3.906250
5094,3.906250
5095,3.906250
5096,3.906250
5097,3.906250
5098,3.906250
5099,3.906250
5100,3.906250
5101,3.906250
5102,5.859375
5103,5.859375
5104,5.859375
5105,3.906250
5106,5.859375
5107,5.859375
5108,5.859375
5109,5.859375
5110,5.859375
5111,5.859375
5112,5.859375
5113,5.859375
5114,5.859375
5115,5.859375
5116,5.859375
5117,5.859375
5118,5.859375
5119,5.859375
5120,5.859375
5121,5.859375
5122,5.859375
5123,5.859375
5124,5.859375
5125,5.859375
5126,5.859375
5127,5.859375
5128,5.859375
5129,5.859375
5130,5.859375
5131,3.906250
5132,5.859375
5133,5.859375
5134,3.906250
5135,5.859375
5136,3.906250
5137,3.906250
5138,3.906250
5139,3.906250
5140,3.906250
5141,3.906250
5142,3.906250
5143,3.906250
5144,3.906250
5145,1.953125
5146,3.906250
5147,3.906250
5148,1.953125
5149,1.953125
5150,1.953125
5151,1.953125
5152,1.953125
5153,1.953125
5154,1.953125
5155,1.953125
5156,1.953125
5157,1.953125
5158,0.000000
5159,0.000000
5160,0.000000
5161,0.000000
5162,0.000000
5163,0.000000
5164,0.000000
5165,-1.953125
5166,-1.953125
5167,-1.953125
5168,-1.953125
5169,-1.953125
5170,-1.953125
5171,-1.953125
5172,-1.953125
5173,-3.906250
5174,-1.953125
5175,-3.906250
5176,-3.906250
5177,-3.906250
5178,-3.906250
5179,-3.906250
5180,-3.906250
5181,-3.906250
5182,-3.906250
5183,-5.859375
5184,-5.859375
5185,-5.859375
5186,-5.859375
5187,-5.859375
5188,-5.859375
5189,-5.859375
5190,-7.812500
5191,-7.812500
5192,-7.812500
5193,-7.812500
5194,-7.812500
5195,-7.812500
5196,-7.812500
5197,-7.812500
5198,-9.765625
5199,-9.765625
5200,-9.765625
5201,-9.765625
5202,-9.765625
5203,-11.718750
5204,-11.718750
5205,-11.718750
5206,-11.718750
5207,-11.718750
5208,-11.718750
5209,-11.718750
5210,-11.718750
5211,-11.718750
5212,-13.671875
5213,-13.671875
5214,-13.671875
5215,-13.671875
5216,-13.671875
5217,-13.671875
5218,-15.625000
5219,-15.625000
5220,-15.625000
5221,-15.625000
5222,-15.625000
5223,-15.625000
5224,-17.578125
5225,-15.625000
5226,-15.625000
5227,-15.625000
5228,-17.578125
5229,-15.625000
5230,-17.578125
5231,-17.578125
5232,-17.578125
5233,-17.578125
5234,-17.578125
5235,-17.578125
5236,-17.578125
5237,-17.578125
5238,-17.578125
5239,-17.578125
5240,-19.531250
5241,-19.531250
5242,-17.578125
5243,-19.531250
5244,-19.531250
5245,-19.531250
5246,-19.531250
5247,-19.531250
5248,-19.531250
5249,-19.531250
5250,-19.531250
5251,-19.531250
5252,-19.531250
5253,-19.531250
5254,-19.531250
5255,-19.531250
5256,-19.531250
5257,-19.531250
5258,-19.531250
5259,-19.531250
5260,-19.531250
5261,-19.531250
5262,-19.531250
5263,-19.531250
5264,-19.531250
5265,-19.531250
5266,-19.531250
5267,-19.531250
5268,-19.531250
5269,-19.531250
5270,-17.578125
5271,-19.531250
5272,-19.531250
5273,-17.578125
5274,-17.578125
5275,-19.531250
5276,-17.578125
5277,-17.578125
5278,-17.578125
5279,-17.578125
5280,-17.578125
5281,-17.578125
5282,-17.578125
5283,-17.578125
5284,-17.578125
5285,-17.578125
5286,-17.578125
5287,-17.578125
5288,-15.625000
5289,-15.625000
5290,-15.625000
5291,-15.625000
5292,-15.625000
5293,-15.625000
5294,-15.625000
5295,-15.625000
5296,-13.671875
5297,-13.671875
5298,-15.625000
5299,-13.671875
5300,-13.671875
5301,-13.671875
5302,-13.671875
5303,-13.671875
5304,-11.718750
5305,-13.671875
5306,-13.671875
5307,-11.718750
5308,-11.718750
5309,-11.718750
5310,-11.718750
5311,-11.718750
5312,-9.765625
5313,-9.765625
5314,-9.765625
5315,-9.765625
5316,-9.765625
5317,-9.765625
5318,-9.765625
5319,-7.812500
5320,-7.812500
5321,-7.812500
5322,-7.812500
5323,-7.812500
5324,-7.812500
5325,-7.812500
5326,-5.859375
5327,-5.859375
5328,-5.859375
5329,-5.859375
5330,-5.859375
5331,-3.906250
5332,-5.859375
5333,-5.859375
5334,-3.906250
5335,-3.906250
5336,-3.906250
5337,-3.906250
5338,-3.906250
5339,-1.953125
5340,-3.906250
5341,-1.953125
5342,-1.953125
5343,-1.953125
5344,-1.953125
5345,-1.953125
5346,-1.953125
5347,-1.953125
5348,-1.953125
5349,0.000000
5350,0.000000
5351,0.000000
5352,0.000000
5353,0.000000
5354,0.000000
5355,0.000000
5356,0.000000
5357,0.000000
5358,1.953125
5359,1.953125
5360,1.953125
5361,1.953125
5362,1.953125
5363,1.953125
5364,1.953125
5365,3.906250
5366,1.953125
5367,1.953125
5368,3.906250
5369,3.906250
5370,1.953125
5371,3.906250
5372,3.906250
5373,3.906250
5374,3.906250
5375,3.906250
5376,3.906250
5377,3.906250
5378,3.906250
5379,5.859375
5380,3.906250
5381,5.859375
5382,5.859375
5383,5.859375
5384,5.859375
5385,5.859375
5386,5.859375
5387,5.859375
5388,5.859375
5389,5.859375
5390,5.859375
5391,5.859375
5392,5.859375
5393,5.859375
5394,5.859375
5395,5.859375
5396,5.859375
5397,5.859375
5398,5.859375
5399,5.859375
5400,5.859375
5401,5.859375
5402,5.859375
5403,5.859375
5404,5.859375
5405,5.859375
5406,3.906250
5407,5.859375
5408,5.859375
5409,5.859375
5410,3.906250
5411,5.859375
5412,5.859375
5413,3.906250
5414,3.906250
5415,5.859375
5416,3.906250
5417,3.906250
5418,3.906250
5419,3.906250
5420,3.906250
5421,3.906250
5422,3.906250
5423,3.906250
5424,3.906250
5425,3.906250
5426,3.906250
5427,3.906250
5428,1.953125
5429,3.906250
5430,1.953125
5431,1.953125
5432,3.906250
5433,1.953125
5434,1.953125
5435,1.953125
5436,1.953125
5437,1.953125
5438,0.000000
5439,1.953125
5440,1.953125
5441,0.000000
5442,0.000000
5443,0.000000
5444,0.000000
5445,0.000000
5446,0.000000
5447,0.000000
5448,-1.953125
5449,-1.953125
5450,-1.953125
5451,-1.953125
5452,-1.953125
5453,-1.953125
5454,-1.953125
5455,-1.953125
5456,-3.906250
5457,-3.906250
5458,-3.906250
5459,-3.906250
5460,-3.906250
5461,-3.906250
5462,-5.859375
5463,-5.859375
5464,-5.859375
5465,-5.859375
5466,-5.859375
5467,-5.859375
5468,-5.859375
5469,-5.859375
5470,-7.812500
5471,-7.812500
5472,-5.859375
5473,-7.812500
5474,-7.812500
5475,-7.812500
5476,-7.812500
5477,-7.812500
5478,-7.812500
5479,-7.812500
5480,-9.765625
5481,-9.765625
5482,-9.765625
5483,-9.765625
5484,-11.718750
5485,-9.765625
5486,-11.718750
5487,-11.718750
5488,-11.718750
5489,-11.718750
5490,-11.718750
5491,-11.718750
5492,-11.718750
5493,-11.718750
5494,-13.671875
5495,-13.671875
5496,-13.671875
5497,-13.671875
5498,-13.671875
5499,-13.671875
5500,-13.671875
5501,-15.625000
5502,-15.625000
5503,-15.625000
5504,-15.625000
5505,-15.625000
5506,-13.671875
5507,-15.625000
5508,-15.625000
5509,-15.625000
5510,-15.625000
5511,-15.625000
5512,-15.625000
5513,-15.625000
5514,-17.578125
5515,-17.578125
5516,-15.625000
5517,-17.578125
5518,-17.578125
5519,-17.578125
5520,-17.578125
5521,-17.578125
5522,-17.578125
5523,-17.578125
5524,-17.578125
5525,-17.578125
5526,-17.578125
5527,-17.578125
5528,-19.531250
5529,-17.578125
5530,-19.531250
5531,-17.578125
5532,-19.531250
5533,-19.531250
5534,-19.531250
5535,-19.531250
5536,-19.531250
5537,-19.531250
5538,-19.531250
5539,-19.531250
5540,-19.531250
5541,-19.531250
5542,-19.531250
5543,-19.531250
5544,-19.531250
5545,-19.531250
5546,-19.531250
5547,-19.531250
5548,-19.531250
5549,-19.531250
5550,-19.531250
5551,-17.578125
5552,-19.531250
5553,-19.531250
5554,-17.578125
5555,-17.578125
5556,-19.531250
5557,-17.578125
5558,-17.578125
5559,-17.578125
5560,-17.578125
5561,-19.531250
5562,-17.578125
5563,-17.578125
5564,-17.578125
5565,-17.578125
5566,-17.578125
5567,-17.578125
5568,-17.578125
5569,-15.625000
5570,-15.625000
5571,-15.625000
5572,-15.625000
5573,-15.625000
5574,-15.625000
5575,-15.625000
5576,-15.625000
5577,-15.625000
5578,-13.671875
5579,-13.671875
5580,-13.671875
5581,-13.671875
5582,-13.671875
5583,-13.671875
5584,-13.671875
5585,-13.671875
5586,-11.718750
5587,-11.718750
5588,-11.718750
5589,-11.718750
5590,-11.718750
5591,-11.718750
5592,-11.718750
5593,-11.718750
5594,-9.765625
5595,-9.765625
5596,-11.718750
5597,-9.765625
5598,-9.765625
5599,-9.765625
5600,-9.765625
5601,-7.812500
5602,-7.812500
5603,-9.765625
5604,-7.812500
5605,-7.812500
5606,-7.812500
5607,-7.812500
5608,-7.812500
5609,-7.812500
5610,-5.859375
5611,-7.812500
5612,-5.859375
5613,-5.859375
5614,-5.859375
5615,-5.859375
5616,-5.859375
5617,-3.906250
5618,-3.906250
5619,-3.906250
5620,-3.906250
5621,-3.906250
5622,-3.906250
5623,-3.906250
5624,-1.953125
5625,-1.953125
5626,-3.906250
5627,-1.953125
5628,-1.953125
5629,-1.953125
5630,-1.953125
5631,-1.953125
5632,0.000000
5633,0.000000
5634,0.000000
5635,0.000000
5636,0.000000
5637,0.000000
5638,0.000000
5639,1.953125
5640,0.000000
5641,1.953125
5642,1.953125
5643,1.953125
5644,1.953125
5645,1.953125
5646,1.953125
5647,1.953125
5648,1.953125
5649,3.906250
5650,3.906250
5651,1.953125
5652,3.906250
5653,3.906250
5654,3.906250
5655,3.906250
5656,3.906250
5657,3.906250
5658,3.906250
5659,3.906250
5660,3.906250
5661,3.906250
5662,3.906250
5663,5.859375
5664,3.906250
5665,5.859375
5666,5.859375
5667,5.859375
5668,5.859375
5669,5.859375
5670,3.906250
5671,5.859375
5672,5.859375
5673,5.859375
5674,5.859375
5675,5.859375
5676,5.859375
5677,5.859375
5678,5.859375
5679,5.859375
5680,5.859375
5681,5.859375
5682,5.859375
5683,5.859375
5684,5.859375
5685,5.859375
5686,5.859375
5687,5.859375
5688,5.859375
5689,5.859375
5690,5.859375
5691,5.859375
5692,5.859375
5693,5.859375
5694,5.859375
5695,5.859375
5696,5.859375
5697,3.906250
5698,5.859375
5699,3.906250
5700,3.906250
5701,3.906250
5702,3.906250
5703,3.906250
5704,3.906250
5705,3.906250
5706,3.906250
5707,3.906250
5708,3.906250
5709,3.906250
5710,1.953125
5711,3.906250
5712,3.906250
5713,1.953125
5714,1.953125
5715,1.953125
5716,1.953125
5717,1.953125
5718,1.953125
5719,1.953125
5720,1.953125
5721,1.953125
5722,1.953125
5723,1.953125
5724,0.000000
5725,0.000000
5726,0.000000
5727,0.000000
5728,0.000000
5729,0.000000
5730,0.000000
5731,0.000000
5732,-1.953125
5733,-1.953125
5734,-1.953125
5735,-1.953125
5736,-1.953125
5737,-1.953125
5738,-1.953125
5739,-1.953125
5740,-3.906250
5741,-3.906250
5742,-3.906250
5743,-3.906250
5744,-5.859375
5745,-3.906250
5746,-5.859375
5747,-5.859375
5748,-5.859375
5749,-5.859375
5750,-5.859375
5751,-5.859375
5752,-5.859375
5753,-7.812500
5754,-7.812500
5755,-7.812500
5756,-7.812500
5757,-7.812500
5758,-7.812500
5759,-7.812500
5760,-7.812500
5761,-7.812500
5762,-9.765625
5763,-9.765625
5764,-9.765625
5765,-9.765625
5766,-11.718750
5767,-9.765625
5768,-9.765625
5769,-11.718750
5770,-11.718750
5771,-11.718750
5772,-11.718750
5773,-11.718750
5774,-11.718750
5775,-11.718750
5776,-11.718750
5777,-13.671875
5778,-13.671875
5779,-13.671875
5780,-13.671875
5781,-13.671875
5782,-13.671875
5783,-13.671875
5784,-13.671875
5785,-15.625000
5786,-15.625000
5787,-15.625000
5788,-15.625000
5789,-15.625000
5790,-15.625000
5791,-15.625000
5792,-17.578125
5793,-15.625000
5794,-15.625000
5795,-17.578125
5796,-17.578125
5797,-17.578125
5798,-17.578125
5799,-17.578125
5800,-17.578125
5801,-17.578125
5802,-17.578125
5803,-17.578125
5804,-17.578125
5805,-19.531250
5806,-17.578125
5807,-17.578125
5808,-17.578125
5809,-19.531250
5810,-19.531250
5811,-17.578125
5812,-19.531250
5813,-19.531250
5814,-19.531250
5815,-19.531250
5816,-19.531250
5817,-19.531250
5818,-19.531250
5819,-19.531250
5820,-19.531250
5821,-19.531250
5822,-19.531250
5823,-19.531250
5824,-19.531250
5825,-19.531250
5826,-19.531250
5827,-19.531250
5828,-19.531250
5829,-19.531250
5830,-19.531250
5831,-17.578125
5832,-19.531250
5833,-19.531250
5834,-17.578125
5835,-19.531250
5836,-19.531250
5837,-19.531250
5838,-17.578125
5839,-17.578125
5840,-17.578125
5841,-17.578125
5842,-17.578125
5843,-17.578125
5844,-17.578125
5845,-17.578125
5846,-17.578125
5847,-17.578125
5848,-17.578125
5849,-17.578125
5850,-17.578125
5851,-17.578125
5852,-15.625000
5853,-15.625000
5854,-15.625000
5855,-15.625000
5856,-15.625000
5857,-15.625000
5858,-15.625000
5859,-15.625000
5860,-15.625000
5861,-15.625000
5862,-13.671875
5863,-13.671875
5864,-13.671875
5865,-13.671875
5866,-13.671875
5867,-13.671875
5868,-13.671875
5869,-13.671875
5870,-13.671875
5871,-11.718750
5872,-11.718750
5873,-11.718750
5874,-11.718750
5875,-11.718750
5876,-11.718750
5877,-11.718750
5878,-9.765625
5879,-9.765625
5880,-9.765625
5881,-9.765625
5882,-9.765625
5883,-9.765625
5884,-7.812500
5885,-7.812500
5886,-9.765625
5887,-7.812500
5888,-7.812500
5889,-7.812500
5890,-7.812500
5891,-5.859375
5892,-5.859375
5893,-5.859375
5894,-5.859375
5895,-5.859375
5896,-5.859375
5897,-3.906250
5898,-3.906250
5899,-3.906250
5900,-3.906250
5901,-3.906250
5902,-3.906250
5903,-3.906250
5904,-3.906250
5905,-1.953125
5906,-1.953125
5907,-1.953125
5908,-1.953125
5909,-1.953125
5910,-1.953125
5911,-1.953125
5912,-1.953125
5913,0.000000
5914,0.000000
5915,0.000000
5916,0.000000
5917,0.000000
5918,0.000000
5919,0.000000
5920,0.000000
5921,1.953125
5922,1.953125
5923,1.953125
5924,1.953125
5925,1.953125
5926,1.953125
5927,1.953125
5928,1.953125
5929,1.953125
5930,1.953125
5931,3.906250
5932,3.906250
5933,3.906250
5934,3.906250
5935,3.906250
5936,3.906250
5937,3.906250
5938,3.906250
5939,3.906250
5940,3.906250
5941,3.906250
5942,3.906250
5943,3.906250
5944,3.906250
5945,5.859375
5946,5.859375
5947,3.906250
5948,3.906250
5949,5.859375
5950,5.859375
5951,5.859375
5952,3.906250
5953,5.859375
5954,5.859375
5955,5.859375
5956,5.859375
5957,5.859375
5958,5.859375
5959,5.859375
5960,5.859375
5961,5.859375
5962,5.859375
5963,5.859375
5964,5.859375
5965,5.859375
5966,5.859375
5967,5.859375
5968,5.859375
5969,5.859375
5970,5.859375
5971,5.859375
5972,5.859375
5973,5.859375
5974,5.859375
5975,5.859375
5976,3.906250
5977,5.859375
5978,3.906250
5979,5.859375
5980,3.906250
5981,3.906250
5982,3.906250
5983,3.906250
5984,3.906250
5985,3.906250
5986,3.906250
5987,3.906250
5988,3.906250
5989,3.906250
5990,3.906250
5991,3.906250
5992,3.906250
5993,1.953125
5994,1.953125
5995,1.953125
5996,1.953125
5997,1.953125
5998,1.953125
5999,1.953125
6000,1.953125
6001,1.953125
6002,0.000000
6003,0.000000
6004,1.953125
6005,0.000000
6006,0.000000
6007,0.000000
6008,0.000000
6009,0.000000
6010,0.000000
6011,0.000000
6012,0.000000
6013,0.000000
6014,-1.953125
6015,-1.953125
6016,-1.953125
6017,-1.953125
6018,-1.953125
6019,-1.953125
6020,-3.906250
6021,-3.906250
6022,-3.906250
6023,-3.906250
6024,-3.906250
6025,-3.906250
6026,-3.906250
6027,-3.906250
6028,-3.906250
6029,-5.859375
6030,-5.859375
6031,-5.859375
6032,-5.859375
6033,-5.859375
6034,-5.859375
6035,-7.812500
6036,-7.812500
6037,-7.812500
6038,-7.812500
6039,-7.812500
6040,-7.812500
6041,-7.812500
6042,-7.812500
6043,-9.765625
6044,-9.765625
6045,-9.765625
6046,-9.765625
6047,-9.765625
6048,-11.718750
6049,-9.765625
6050,-11.718750
6051,-11.718750
6052,-11.718750
6053,-11.718750
6054,-11.718750
6055,-11.718750
6056,-11.718750
6057,-13.671875
6058,-13.671875
6059,-11.718750
6060,-13.671875
6061,-13.671875
6062,-13.671875
6063,-13.671875
6064,-13.671875
6065,-13.671875
6066,-15.625000
6067,-13.671875
6068,-15.625000
6069,-15.625000
6070,-15.625000
6071,-15.625000
6072,-15.625000
6073,-15.625000
6074,-15.625000
6075,-17.578125
6076,-17.578125
6077,-17.578125
6078,-15.625000
6079,-17.578125
6080,-17.578125
6081,-17.578125
6082,-17.578125
6083,-17.578125
6084,-17.578125
6085,-17.578125
6086,-17.578125
6087,-17.578125
6088,-17.578125
6089,-17.578125
6090,-19.531250
6091,-17.578125
6092,-17.578125
6093,-17.578125
6094,-19.531250
6095,-19.531250
6096,-17.578125
6097,-17.578125
6098,-17.578125
6099,-19.531250
6100,-19.531250
6101,-19.531250
6102,-17.578125
6103,-17.578125
6104,-19.531250
6105,-19.531250
6106,-19.531250
6107,-19.531250
6108,-19.531250
6109,-19.531250
6110,-19.531250
6111,-19.531250
6112,-19.531250
6113,-19.531250
6114,-19.531250
6115,-19.531250
6116,-17.578125
6117,-17.578125
6118,-17.578125
6119,-17.578125
6120,-17.578125
6121,-17.578125
6122,-17.578125
6123,-17.578125
6124,-17.578125
6125,-17.578125
6126,-17.578125
6127,-17.578125
6128,-17.578125
6129,-17.578125
6130,-17.578125
6131,-17.578125
6132,-17.578125
6133,-15.625000
6134,-17.578125
6135,-15.625000
6136,-15.625000
6137,-15.625000
6138,-15.625000
6139,-15.625000
6140,-15.625000
6141,-13.671875
6142,-13.671875
6143,-13.671875
6144,-15.625000
6145,-13.671875
6146,-13.671875
6147,-13.671875
6148,-13.671875
6149,-13.671875
6150,-13.671875
6151,-11.718750
6152,-11.718750
6153,-11.718750
6154,-11.718750
6155,-11.718750
6156,-11.718750
6157,-9.765625
6158,-9.765625
6159,-9.765625
6160,-9.765625
6161,-9.765625
6162,-9.765625
6163,-9.765625
6164,-9.765625
6165,-9.765625
6166,-9.765625
6167,-9.765625
6168,-7.812500
6169,-7.812500
6170,-7.812500
6171,-7.812500
6172,-7.812500
6173,-5.859375
6174,-5.859375
6175,-5.859375
6176,-5.859375
6177,-5.859375
6178,-5.859375
6179,-5.859375
6180,-3.906250
6181,-5.859375
6182,-3.906250
6183,-3.906250
6184,-3.906250
6185,-3.906250
6186,-3.906250
6187,-3.906250
6188,-1.953125
6189,-1.953125
6190,-1.953125
6191,-1.953125
6192,-1.953125
6193,-1.953125
6194,-1.953125
6195,-1.953125
6196,-1.953125
6197,0.000000
6198,0.000000
6199,0.000000
6200,0.000000
6201,0.000000
6202,0.000000
6203,0.000000
6204,0.000000
6205,0.000000
6206,1.953125
6207,1.953125
6208,1.953125
6209,1.953125
6210,1.953125
6211,1.953125
6212,3.906250
6213,1.953125
6214,1.953125
6215,1.953125
6216,3.906250
6217,3.906250
6218,3.906250
6219,3.906250
6220,3.906250
6221,3.906250
6222,3.906250
6223,3.906250
6224,3.906250
6225,3.906250
6226,3.906250
6227,5.859375
6228,3.906250
6229,3.906250
6230,3.906250
6231,5.859375
6232,5.859375
6233,5.859375
6234,5.859375
6235,5.859375
6236,5.859375
6237,5.859375
6238,5.859375
6239,5.859375
6240,5.859375
6241,5.859375
6242,5.859375
6243,5.859375
6244,5.859375
6245,5.859375
6246,5.859375
6247,5.859375
6248,3.906250
6249,5.859375
6250,5.859375
6251,5.859375
6252,5.859375
6253,3.906250
6254,5.859375
6255,5.859375
6256,3.906250
6257,5.859375
6258,3.906250
6259,3.906250
6260,3.906250
6261,3.906250
6262,5.859375
6263,5.859375
6264,3.906250
6265,3.906250
6266,3.906250
6267,3.906250
6268,3.906250
6269,3.906250
6270,3.906250
6271,3.906250
6272,3.906250
6273,3.906250
6274,3.906250
6275,1.953125
6276,3.906250
6277,1.953125
6278,1.953125
6279,1.953125
6280,1.953125
6281,1.953125
6282,1.953125
6283,1.953125
6284,1.953125
6285,1.953125
6286,1.953125
6287,1.953125
6288,0.000000
6289,0.000000
6290,0.000000
6291,0.000000
6292,0.000000
6293,0.000000
6294,0.000000
6295,0.000000
6296,-1.953125
6297,-1.953125
6298,-1.953125
6299,-1.953125
6300,-1.953125
6301,-1.953125
6302,-1.953125
6303,-3.906250
6304,-3.906250
6305,-3.906250
6306,-3.906250
6307,-3.906250
6308,-3.906250
6309,-5.859375
6310,-3.906250
6311,-5.859375
6312,-5.859375
6313,-5.859375
6314,-5.859375
6315,-5.859375
6316,-5.859375
6317,-7.812500
6318,-5.859375
6319,-7.812500
6320,-7.812500
6321,-7.812500
6322,-7.812500
6323,-9.765625
6324,-7.812500
6325,-7.812500
6326,-9.765625
6327,-9.765625
6328,-9.765625
6329,-9.765625
6330,-9.765625
6331,-9.765625
6332,-9.765625
6333,-11.718750
6334,-11.718750
6335,-11.718750
6336,-11.718750
6337,-11.718750
6338,-11.718750
6339,-11.718750
6340,-11.718750
6341,-13.671875
6342,-13.671875
6343,-13.671875
6344,-13.671875
6345,-13.671875
6346,-13.671875
6347,-13.671875
6348,-13.671875
6349,-15.625000
6350,-13.671875
6351,-15.625000
6352,-15.625000
6353,-15.625000
6354,-15.625000
6355,-15.625000
6356,-15.625000
6357,-17.578125
6358,-15.625000
6359,-15.625000
6360,-15.625000
6361,-15.625000
6362,-17.578125
6363,-17.578125
6364,-17.578125
6365,-17.578125
6366,-17.578125
6367,-17.578125
6368,-17.578125
6369,-17.578125
6370,-17.578125
6371,-19.531250
6372,-17.578125
6373,-17.578125
6374,-17.578125
6375,-19.531250
6376,-19.531250
6377,-19.531250
6378,-19.531250
6379,-19.531250
6380,-19.531250
6381,-19.531250
6382,-19.531250
6383,-19.531250
6384,-19.531250
6385,-19.531250
6386,-19.531250
6387,-19.531250
6388,-19.531250
6389,-19.531250
6390,-19.531250
6391,-19.531250
6392,-19.531250
6393,-19.531250
6394,-19.531250
6395,-19.531250
6396,-19.531250
6397,-19.531250
6398,-19.531250
6399,-17.578125
6400,-19.531250
6401,-19.531250
6402,-19.531250
6403,-17.578125
6404,-17.578125
6405,-17.578125
6406,-17.578125
6407,-17.578125
6408,-17.578125
6409,-17.578125
6410,-17.578125
6411,-17.578125
6412,-17.578125
6413,-17.578125
6414,-15.625000
6415,-15.625000
6416,-15.625000
6417,-17.578125
6418,-15.625000
6419,-15.625000
6420,-15.625000
6421,-15.625000
6422,-15.625000
6423,-13.671875
6424,-15.625000
6425,-15.625000
6426,-13.671875
6427,-13.671875
6428,-13.671875
6429,-13.671875
6430,-13.671875
6431,-13.671875
6432,-13.671875
6433,-13.671875
6434,-13.671875
6435,-11.718750
6436,-11.718750
6437,-11.718750
6438,-11.718750
6439,-11.718750
6440,-11.718750
6441,-11.718750
6442,-11.718750
6443,-9.765625
6444,-9.765625
6445,-9.765625
6446,-9.765625
6447,-9.765625
6448,-9.765625
6449,-7.812500
6450,-7.812500
6451,-7.812500
6452,-7.812500
6453,-7.812500
6454,-7.812500
6455,-7.812500
6456,-7.812500
6457,-7.812500
6458,-5.859375
6459,-5.859375
6460,-5.859375
6461,-3.906250
6462,-5.859375
6463,-5.859375
6464,-5.859375
6465,-3.906250
6466,-3.906250
6467,-3.906250
6468,-3.906250
6469,-3.906250
6470,-3.906250
6471,-1.953125
6472,-1.953125
6473,-1.953125
6474,-1.953125
6475,0.000000
6476,-1.953125
6477,0.000000
6478,0.000000
6479,0.000000
6480,0.000000
6481,0.000000
6482,0.000000
6483,0.000000
6484,0.000000
6485,0.000000
6486,1.953125
6487,1.953125
6488,1.953125
6489,1.953125
6490,1.953125
6491,1.953125
6492,1.953125
6493,3.906250
6494,3.906250
6495,3.906250
6496,1.953125
6497,1.953125
6498,3.906250
6499,3.906250
6500,3.906250
6501,3.906250
6502,3.906250
6503,3.906250
6504,3.906250
6505,3.906250
6506,3.906250
6507,3.906250
6508,3.906250
6509,3.906250
6510,5.859375
6511,5.859375
6512,3.906250
6513,5.859375
6514,5.859375
6515,5.859375
6516,5.859375
6517,5.859375
6518,5.859375
6519,5.859375
6520,5.859375
6521,5.859375
6522,5.859375
6523,5.859375
6524,5.859375
6525,5.859375
6526,5.859375
6527,5.859375
6528,5.859375
6529,5.859375
6530,5.859375
6531,5.859375
6532,5.859375
6533,5.859375
6534,5.859375
6535,5.859375
6536,3.906250
6537,5.859375
6538,5.859375
6539,5.859375
6540,5.859375
6541,5.859375
6542,5.859375
6543,3.906250
6544,5.859375
6545,5.859375
6546,3.906250
6547,3.906250
6548,3.906250
6549,3.906250
6550,3.906250
6551,3.906250
6552,3.906250
6553,3.906250
6554,3.906250
6555,3.906250
6556,1.953125
6557,3.906250
6558,3.906250
6559,3.906250
6560,1.953125
6561,1.953125
6562,1.953125
6563,1.953125
6564,1.953125
6565,1.953125
6566,1.953125
6567,1.953125
6568,1.953125
6569,0.000000
6570,0.000000
6571,0.000000
6572,0.000000
6573,0.000000
6574,0.000000
6575,0.000000
6576,0.000000
6577,0.000000
6578,-1.953125
6579,-1.953125
6580,-1.953125
6581,-1.953125
6582,-1.953125
6583,-1.953125
6584,-1.953125
6585,-1.953125
6586,-3.906250
6587,-3.906250
6588,-3.906250
6589,-3.906250
6590,-3.906250
6591,-3.906250
6592,-3.906250
6593,-5.859375
6594,-5.859375
6595,-3.906250
6596,-5.859375
6597,-5.859375
6598,-5.859375
6599,-5.859375
6600,-5.859375
6601,-7.812500
6602,-7.812500
6603,-7.812500
6604,-7.812500
6605,-7.812500
6606,-7.812500
6607,-7.812500
6608,-9.765625
6609,-9.765625
6610,-9.765625
6611,-9.765625
6612,-9.765625
6613,-9.765625
6614,-11.718750
6615,-11.718750
6616,-9.765625
6617,-11.718750
6618,-11.718750
6619,-11.718750
6620,-11.718750
6621,-11.718750
6622,-11.718750
6623,-13.671875
6624,-13.671875
6625,-13.671875
6626,-13.671875
6627,-13.671875
6628,-13.671875
6629,-13.671875
6630,-15.625000
6631,-15.625000
6632,-13.671875
6633,-15.625000
6634,-15.625000
6635,-15.625000
6636,-15.625000
6637,-15.625000
6638,-15.625000
6639,-15.625000
6640,-15.625000
6641,-17.578125
6642,-17.578125
6643,-17.578125
6644,-17.578125
6645,-17.578125
6646,-17.578125
6647,-17.578125
6648,-17.578125
6649,-17.578125
6650,-17.578125
6651,-17.578125
6652,-19.531250
6653,-17.578125
6654,-19.531250
6655,-17.578125
6656,-19.531250
6657,-17.578125
6658,-19.531250
6659,-19.531250
6660,-19.531250
6661,-17.578125
6662,-19.531250
6663,-19.531250
6664,-19.531250
6665,-19.531250
6666,-19.531250
6667,-19.531250
6668,-19.531250
6669,-17.578125
6670,-19.531250
6671,-19.531250
6672,-19.531250
6673,-19.531250
6674,-19.531250
6675,-17.578125
6676,-19.531250
6677,-19.531250
6678,-19.531250
6679,-17.578125
6680,-19.531250
6681,-17.578125
6682,-17.578125
6683,-17.578125
6684,-17.578125
6685,-17.578125
6686,-17.578125
6687,-17.578125
6688,-17.578125
6689,-15.625000
6690,-17.578125
6691,-17.578125
6692,-17.578125
6693,-17.578125
6694,-17.578125
6695,-17.578125
6696,-15.625000
6697,-15.625000
6698,-15.625000
6699,-15.625000
6700,-15.625000
6701,-15.625000
6702,-15.625000
6703,-15.625000
6704,-15.625000
6705,-13.671875
6706,-15.625000
6707,-15.625000
6708,-15.625000
6709,-13.671875
6710,-13.671875
6711,-13.671875
6712,-13.671875
6713,-11.718750
6714,-13.671875
6715,-13.671875
6716,-11.718750
6717,-13.671875
6718,-11.718750
6719,-11.718750
6720,-11.718750
6721,-11.718750
6722,-9.765625
6723,-9.765625
6724,-11.718750
6725,-9.765625
6726,-9.765625
6727,-9.765625
6728,-7.812500
6729,-3.906250
6730,-9.765625
6731,-7.812500
6732,-7.812500
6733,-7.812500
6734,-7.812500
6735,-7.812500
6736,-7.812500
6737,-5.859375
6738,-3.906250
6739,-5.859375
6740,-5.859375
6741,-5.859375
6742,-5.859375
6743,-5.859375
6744,-3.906250
6745,-3.906250
6746,-3.906250
6747,-3.906250
6748,-3.906250
6749,-3.906250
6750,-3.906250
6751,-1.953125
6752,-1.953125
6753,-1.953125
6754,-1.953125
6755,-1.953125
6756,-1.953125
6757,-1.953125
6758,-1.953125
6759,0.000000
6760,0.000000
6761,0.000000
6762,0.000000
6763,0.000000
6764,0.000000
6765,0.000000
6766,0.000000
6767,0.000000
6768,0.000000
6769,0.000000
6770,1.953125
6771,1.953125
6772,1.953125
6773,1.953125
6774,1.953125
6775,1.953125
6776,1.953125
6777,1.953125
6778,1.953125
6779,1.953125
6780,3.906250
6781,3.906250
6782,3.906250
6783,3.906250
6784,3.906250
6785,3.906250
6786,3.906250
6787,3.906250
6788,3.906250
6789,3.906250
6790,5.859375
6791,3.906250
6792,3.906250
6793,3.906250
6794,3.906250
6795,5.859375
6796,5.859375
6797,5.859375
6798,5.859375
6799,5.859375
6800,5.859375
6801,5.859375
6802,5.859375
6803,5.859375
6804,5.859375
6805,5.859375
6806,5.859375
6807,5.859375
6808,5.859375
6809,5.859375
6810,5.859375
6811,5.859375
6812,5.859375
6813,5.859375
6814,5.859375
6815,5.859375
6816,5.859375
6817,5.859375
6818,5.859375
6819,5.859375
6820,5.859375
6821,5.859375
6822,5.859375
6823,5.859375
6824,5.859375
6825,5.859375
6826,5.859375
6827,5.859375
6828,5.859375
6829,3.906250
6830,3.906250
6831,3.906250
6832,3.906250
6833,3.906250
6834,3.906250
6835,3.906250
6836,3.906250
6837,3.906250
6838,1.953125
6839,3.906250
6840,3.906250
6841,3.906250
6842,1.953125
6843,3.906250
6844,1.953125
6845,0.000000
6846,1.953125
6847,1.953125
6848,1.953125
6849,1.953125
6850,1.953125
6851,1.953125
6852,0.000000
6853,0.000000
6854,0.000000
6855,0.000000
6856,0.000000
6857,0.000000
6858,0.000000
6859,0.000000
6860,0.000000
6861,0.000000
6862,-1.953125
6863,-1.953125
6864,-1.953125
6865,-1.953125
6866,-1.953125
6867,-1.953125
6868,-1.953125
6869,-1.953125
6870,-3.906250
6871,-3.906250
6872,-3.906250
6873,-3.906250
6874,-3.906250
6875,-3.906250
6876,-5.859375
6877,-5.859375
6878,-5.859375
6879,-5.859375
6880,-5.859375
6881,-5.859375
6882,-5.859375
6883,-7.812500
6884,-7.812500
6885,-7.812500
6886,-7.812500
6887,-7.812500
6888,-7.812500
6889,-7.812500
6890,-7.812500
6891,-7.812500
6892,-9.765625
6893,-11.718750
6894,-9.765625
6895,-11.718750
6896,-9.765625
6897,-9.765625
6898,-11.718750
6899,-9.765625
6900,-11.718750
6901,-11.718750
6902,-11.718750
6903,-13.671875
6904,-13.671875
6905,-13.671875
6906,-13.671875
6907,-13.671875
6908,-13.671875
6909,-13.671875
6910,-13.671875
6911,-13.671875
6912,-11.718750
6913,-13.671875
6914,-15.625000
6915,-15.625000
6916,-15.625000
6917,-15.625000
6918,-15.625000
6919,-15.625000
6920,-15.625000
6921,-15.625000
6922,-15.625000
6923,-15.625000
6924,-17.578125
6925,-17.578125
6926,-17.578125
6927,-17.578125
6928,-17.578125
6929,-17.578125
6930,-17.578125
6931,-17.578125
6932,-17.578125
6933,-17.578125
6934,-19.531250
6935,-17.578125
6936,-17.578125
6937,-17.578125
6938,-17.578125
6939,-17.578125
6940,-17.578125
6941,-19.531250
6942,-19.531250
6943,-19.531250
6944,-19.531250
6945,-17.578125
6946,-17.578125
6947,-19.531250
6948,-19.531250
6949,-19.531250
6950,-19.531250
6951,-19.531250
6952,-19.531250
6953,-19.531250
6954,-19.531250
6955,-19.531250
6956,-19.531250
6957,-19.531250
6958,-19.531250
6959,-19.531250
6960,-19.531250
6961,-19.531250
6962,-19.531250
6963,-19.531250
6964,-19.531250
6965,-17.578125
6966,-19.531250
6967,-17.578125
6968,-17.578125
6969,-17.578125
6970,-17.578125
6971,-17.578125
6972,-17.578125
6973,-17.578125
6974,-17.578125
6975,-17.578125
6976,-17.578125
6977,-17.578125
6978,-17.578125
6979,-17.578125
6980,-15.625000
6981,-15.625000
6982,-15.625000
6983,-15.625000
6984,-15.625000
6985,-15.625000
6986,-15.625000
6987,-15.625000
6988,-15.625000
6989,-13.671875
6990,-13.671875
6991,-13.671875
6992,-13.671875
6993,-13.671875
6994,-13.671875
6995,-13.671875
6996,-11.718750
6997,-11.718750
6998,-11.718750
6999,-11.718750
7000,-11.718750
7001,-11.718750
7002,-11.718750
7003,-11.718750
7004,-11.718750
7005,-9.765625
7006,-11.718750
7007,-9.765625
7008,-9.765625
7009,-9.765625
7010,-9.765625
7011,-9.765625
7012,-7.812500
7013,-7.812500
7014,-7.812500
7015,-7.812500
7016,-7.812500
7017,-7.812500
7018,-7.812500
7019,-7.812500
7020,-7.812500
7021,-5.859375
7022,-5.859375
7023,-5.859375
7024,-5.859375
7025,-5.859375
7026,-5.859375
7027,-5.859375
7028,-3.906250
7029,-3.906250
7030,-3.906250
7031,-3.906250
7032,-3.906250
7033,-3.906250
7034,-3.906250
7035,-1.953125
7036,-1.953125
7037,-1.953125
7038,-1.953125
7039,-1.953125
7040,-1.953125
7041,-1.953125
7042,0.000000
7043,0.000000
7044,0.000000
7045,0.000000
7046,0.000000
7047,0.000000
7048,0.000000
7049,0.000000
7050,1.953125
7051,1.953125
7052,1.953125
7053,1.953125
7054,1.953125
7055,1.953125
7056,1.953125
7057,1.953125
7058,1.953125
7059,3.906250
7060,1.953125
7061,3.906250
7062,3.906250
7063,3.906250
7064,3.906250
7065,3.906250
7066,3.906250
7067,3.906250
7068,5.859375
7069,3.906250
7070,3.906250
7071,3.906250
7072,3.906250
7073,3.906250
7074,3.906250
7075,3.906250
7076,5.859375
7077,5.859375
7078,5.859375
7079,5.859375
7080,5.859375
7081,5.859375
7082,5.859375
7083,5.859375
7084,5.859375
7085,5.859375
7086,5.859375
7087,5.859375
7088,5.859375
7089,5.859375
7090,5.859375
7091,5.859375
7092,5.859375
7093,5.859375
7094,5.859375
7095,5.859375
7096,5.859375
7097,5.859375
7098,5.859375
7099,5.859375
7100,5.859375
7101,5.859375
7102,5.859375
7103,5.859375
7104,5.859375
7105,5.859375
7106,5.859375
7107,5.859375
7108,5.859375
7109,3.906250
7110,3.906250
7111,3.906250
7112,3.906250
7113,3.906250
7114,3.906250
7115,3.906250
7116,3.906250
7117,3.906250
7118,3.906250
7119,3.906250
7120,3.906250
7121,3.906250
7122,1.953125
7123,3.906250
7124,3.906250
7125,3.906250
7126,1.953125
7127,1.953125
7128,1.953125
7129,0.000000
7130,1.953125
7131,1.953125
7132,0.000000
7133,0.000000
7134,1.953125
7135,1.953125
7136,0.000000
7137,0.000000
7138,0.000000
7139,0.000000
7140,0.000000
7141,0.000000
7142,0.000000
7143,0.000000
7144,-1.953125
7145,-1.953125
7146,-1.953125
7147,-1.953125
7148,-1.953125
7149,-1.953125
7150,-3.906250
7151,-3.906250
7152,-3.906250
7153,-3.906250
7154,-3.906250
7155,-3.906250
7156,-5.859375
7157,-3.906250
7158,-5.859375
7159,-5.859375
7160,-5.859375
7161,-5.859375
7162,-5.859375
7163,-5.859375
7164,-7.812500
7165,-5.859375
7166,-7.812500
7167,-7.812500
7168,-7.812500
7169,-7.812500
7170,-7.812500
7171,-7.812500
7172,-9.765625
7173,-9.765625
7174,-9.765625
7175,-9.765625
7176,-9.765625
7177,-9.765625
7178,-9.765625
7179,-9.765625
7180,-11.718750
7181,-11.718750
7182,-11.718750
7183,-11.718750
7184,-11.718750
7185,-11.718750
7186,-11.718750
7187,-11.718750
7188,-11.718750
7189,-11.718750
7190,-13.671875
7191,-13.671875
7192,-13.671875
7193,-13.671875
7194,-13.671875
7195,-13.671875
7196,-13.671875
7197,-15.625000
7198,-15.625000
7199,-15.625000
7200,-15.625000
7201,-15.625000
7202,-15.625000
7203,-15.625000
7204,-15.625000
7205,-15.625000
7206,-17.578125
7207,-15.625000
7208,-17.578125
7209,-17.578125
7210,-17.578125
7211,-17.578125
7212,-17.578125
7213,-17.578125
7214,-17.578125
7215,-17.578125
7216,-17.578125
7217,-17.578125
7218,-17.578125
7219,-19.531250
7220,-17.578125
7221,-17.578125
7222,-17.578125
7223,-19.531250
7224,-19.531250
7225,-19.531250
7226,-19.531250
7227,-19.531250
7228,-19.531250
7229,-19.531250
7230,-19.531250
7231,-19.531250
7232,-19.531250
7233,-19.531250
7234,-19.531250
7235,-19.531250
7236,-19.531250
7237,-19.531250
7238,-19.531250
7239,-19.531250
7240,-19.531250
7241,-19.531250
7242,-19.531250
7243,-19.531250
7244,-19.531250
7245,-19.531250
7246,-19.531250
7247,-19.531250
7248,-19.531250
7249,-17.578125
7250,-17.578125
7251,-17.578125
7252,-17.578125
7253,-17.578125
7254,-17.578125
7255,-17.578125
7256,-17.578125
7257,-17.578125
7258,-17.578125
7259,-17.578125
7260,-17.578125
7261,-15.625000
7262,-15.625000
7263,-17.578125
7264,-15.625000
7265,-15.625000
7266,-15.625000
7267,-15.625000
7268,-15.625000
7269,-15.625000
7270,-15.625000
7271,-15.625000
7272,-15.625000
7273,-13.671875
7274,-13.671875
7275,-13.671875
7276,-13.671875
7277,-13.671875
7278,-13.671875
7279,-13.671875
7280,-13.671875
7281,-13.671875
7282,-13.671875
7283,-11.718750
7284,-11.718750
7285,-11.718750
7286,-11.718750
7287,-11.718750
7288,-9.765625
7289,-9.765625
7290,-9.765625
7291,-9.765625
7292,-9.765625
7293,-9.765625
7294,-9.765625
7295,-7.812500
7296,-7.812500
7297,-7.812500
7298,-7.812500
7299,-7.812500
7300,-7.812500
7301,-5.859375
7302,-7.812500
7303,-7.812500
7304,-5.859375
7305,-5.859375
7306,-5.859375
7307,-5.859375
7308,-5.859375
7309,-5.859375
7310,-3.906250
7311,-3.906250
7312,-3.906250
7313,-3.906250
7314,-3.906250
7315,-1.953125
7316,-3.906250
7317,-3.906250
7318,-1.953125
7319,-1.953125
7320,-1.953125
7321,-1.953125
7322,0.000000
7323,-1.953125
7324,0.000000
7325,0.000000
7326,0.000000
7327,0.000000
7328,0.000000
7329,0.000000
7330,0.000000
7331,0.000000
7332,1.953125
7333,1.953125
7334,1.953125
7335,1.953125
7336,1.953125
7337,1.953125
7338,1.953125
7339,1.953125
7340,1.953125
7341,1.953125
7342,3.906250
7343,3.906250
7344,3.906250
7345,3.906250
7346,1.953125
7347,3.906250
7348,3.906250
7349,3.906250
7350,3.906250
7351,3.906250
7352,3.906250
7353,3.906250
7354,3.906250
7355,3.906250
7356,3.906250
7357,3.906250
7358,5.859375
7359,3.906250
7360,5.859375
7361,5.859375
7362,3.906250
7363,3.906250
7364,5.859375
7365,5.859375
7366,5.859375
7367,5.859375
7368,5.859375
7369,5.859375
7370,5.859375
7371,5.859375
7372,5.859375
7373,5.859375
7374,5.859375
7375,5.859375
7376,5.859375
7377,5.859375
7378,5.859375
7379,5.859375
7380,5.859375
7381,5.859375
7382,5.859375
7383,5.859375
7384,5.859375
7385,5.859375
7386,5.859375
7387,5.859375
7388,5.859375
7389,5.859375
7390,3.906250
7391,5.859375
7392,3.906250
7393,5.859375
7394,3.906250
7395,3.906250
7396,3.906250
7397,3.906250
7398,3.906250
7399,3.906250
7400,3.906250
7401,3.906250
7402,3.906250
7403,1.953125
7404,3.906250
7405,3.906250
7406,1.953125
7407,1.953125
7408,1.953125
7409,1.953125
7410,1.953125
7411,1.953125
7412,1.953125
7413,1.953125
7414,1.953125
7415,1.953125
7416,1.953125
7417,0.000000
7418,0.000000
7419,0.000000
7420,0.000000
7421,0.000000
7422,0.000000
7423,-1.953125
7424,-1.953125
7425,-1.953125
7426,-1.953125
7427,-1.953125
7428,-1.953125
7429,-1.953125
7430,-1.953125
7431,-1.953125
7432,-3.906250
7433,-3.906250
7434,-3.906250
7435,-3.906250
7436,-3.906250
7437,-3.906250
7438,-3.906250
7439,-3.906250
7440,-5.859375
7441,-5.859375
7442,-5.859375
7443,-5.859375
7444,-5.859375
7445,-5.859375
7446,-5.859375
7447,-7.812500
7448,-7.812500
7449,-5.859375
7450,-7.812500
7451,-7.812500
7452,-7.812500
7453,-7.812500
7454,-7.812500
7455,-9.765625
7456,-9.765625
7457,-9.765625
7458,-9.765625
7459,-9.765625
7460,-9.765625
7461,-9.765625
7462,-11.718750
7463,-11.718750
7464,-11.718750
7465,-11.718750
7466,-11.718750
7467,-11.718750
7468,-11.718750
7469,-13.671875
7470,-11.718750
7471,-11.718750
7472,-13.671875
7473,-13.671875
7474,-13.671875
7475,-13.671875
7476,-13.671875
7477,-13.671875
7478,-15.625000
7479,-15.625000
7480,-15.625000
7481,-15.625000
7482,-15.625000
7483,-15.625000
7484,-15.625000
7485,-15.625000
7486,-15.625000
7487,-15.625000
7488,-15.625000
7489,-17.578125
7490,-17.578125
7491,-17.578125
7492,-17.578125
7493,-17.578125
7494,-17.578125
7495,-17.578125
7496,-17.578125
7497,-17.578125
7498,-17.578125
7499,-17.578125
7500,-17.578125
7501,-17.578125
7502,-17.578125
7503,-17.578125
7504,-17.578125
7505,-19.531250
7506,-19.531250
7507,-19.531250
7508,-17.578125
7509,-19.531250
7510,-19.531250
7511,-19.531250
7512,-17.578125
7513,-19.531250
7514,-19.531250
7515,-19.531250
7516,-19.531250
7517,-19.531250
7518,-19.531250
7519,-19.531250
7520,-17.578125
7521,-19.531250
7522,-19.531250
7523,-19.531250
7524,-17.578125
7525,-17.578125
7526,-19.531250
7527,-19.531250
7528,-17.578125
7529,-17.578125
7530,-17.578125
7531,-17.578125
7532,-17.578125
7533,-17.578125
7534,-17.578125
7535,-17.578125
7536,-17.578125
7537,-17.578125
7538,-17.578125
7539,-17.578125
7540,-17.578125
7541,-17.578125
7542,-17.578125
7543,-15.625000
7544,-17.578125
7545,-17.578125
7546,-17.578125
7547,-15.625000
7548,-15.625000
7549,-15.625000
7550,-15.625000
7551,-15.625000
7552,-15.625000
7553,-15.625000
7554,-15.625000
7555,-15.625000
7556,-13.671875
7557,-13.671875
7558,-13.671875
7559,-13.671875
7560,-13.671875
7561,-13.671875
7562,-13.671875
7563,-13.671875
7564,-13.671875
7565,-11.718750
7566,-11.718750
7567,-11.718750
7568,-11.718750
7569,-11.718750
7570,-11.718750
7571,-11.718750
7572,-9.765625
7573,-9.765625
7574,-9.765625
7575,-9.765625
7576,-9.765625
7577,-7.812500
7578,-7.812500
7579,-9.765625
7580,-7.812500
7581,-7.812500
7582,-7.812500
7583,-7.812500
7584,-7.812500
7585,-5.859375
7586,-5.859375
7587,-5.859375
7588,-5.859375
7589,-5.859375
7590,-5.859375
7591,-3.906250
7592,-5.859375
7593,-3.906250
7594,-3.906250
7595,-3.906250
7596,-3.906250
7597,-3.906250
7598,-3.906250
7599,-1.953125
7600,-1.953125
7601,-1.953125
7602,-1.953125
7603,-1.953125
7604,-1.953125
7605,0.000000
7606,0.000000
7607,-1.953125
7608,-1.953125
7609,0.000000
7610,0.000000
7611,0.000000
7612,0.000000
7613,0.000000
7614,0.000000
7615,0.000000
7616,0.000000
7617,1.953125
7618,1.953125
7619,1.953125
7620,1.953125
7621,1.953125
7622,1.953125
7623,3.906250
7624,3.906250
7625,1.953125
7626,1.953125
7627,3.906250
7628,3.906250
7629,3.906250
7630,3.906250
7631,3.906250
7632,3.906250
7633,3.906250
7634,3.906250
7635,5.859375
7636,3.906250
7637,3.906250
7638,3.906250
7639,3.906250
7640,5.859375
7641,5.859375
7642,5.859375
7643,5.859375
7644,5.859375
7645,5.859375
7646,5.859375
7647,5.859375
7648,5.859375
7649,5.859375
7650,5.859375
7651,5.859375
7652,5.859375
7653,5.859375
7654,5.859375
7655,5.859375
7656,5.859375
7657,5.859375
7658,5.859375
7659,5.859375
7660,5.859375
7661,5.859375
7662,5.859375
7663,5.859375
7664,5.859375
7665,3.906250
7666,3.906250
7667,5.859375
7668,5.859375
7669,5.859375
7670,5.859375
7671,5.859375
7672,3.906250
7673,5.859375
7674,3.906250
7675,3.906250
7676,3.906250
7677,3.906250
7678,3.906250
7679,3.906250
7680,3.906250
7681,3.906250
7682,3.906250
7683,3.906250
7684,3.906250
7685,1.953125
7686,3.906250
7687,3.906250
7688,3.906250
7689,1.953125
7690,1.953125
7691,1.953125
7692,1.953125
7693,1.953125
7694,1.953125
7695,1.953125
7696,1.953125
7697,1.953125
7698,0.000000
7699,1.953125
7700,0.000000
7701,0.000000
7702,0.000000
7703,0.000000
7704,0.000000
7705,0.000000
7706,0.000000
7707,-1.953125
7708,-1.953125
7709,-1.953125
7710,-1.953125
7711,-1.953125
7712,-1.953125
7713,-1.953125
7714,-1.953125
7715,-1.953125
7716,-1.953125
7717,-3.906250
7718,-3.906250
7719,-3.906250
7720,-3.906250
7721,-3.906250
7722,-3.906250
7723,-5.859375
7724,-5.859375
7725,-5.859375
7726,-5.859375
7727,-5.859375
7728,-5.859375
7729,-7.812500
7730,-7.812500
7731,-7.812500
7732,-7.812500
7733,-7.812500
7734,-7.812500
7735,-9.765625
7736,-7.812500
7737,-7.812500
7738,-9.765625
7739,-9.765625
7740,-9.765625
7741,-9.765625
7742,-9.765625
7743,-9.765625
7744,-9.765625
7745,-11.718750
7746,-11.718750
7747,-11.718750
7748,-11.718750
7749,-11.718750
7750,-11.718750
7751,-11.718750
7752,-13.671875
7753,-13.671875
7754,-13.671875
7755,-13.671875
7756,-13.671875
7757,-13.671875
7758,-13.671875
7759,-15.625000
7760,-15.625000
7761,-13.671875
7762,-15.625000
7763,-15.625000
7764,-15.625000
7765,-15.625000
7766,-15.625000
7767,-15.625000
7768,-15.625000
7769,-15.625000
7770,-17.578125
7771,-17.578125
7772,-17.578125
7773,-17.578125
7774,-17.578125
7775,-17.578125
7776,-17.578125
7777,-17.578125
7778,-17.578125
7779,-17.578125
7780,-17.578125
7781,-17.578125
7782,-17.578125
7783,-17.578125
7784,-17.578125
7785,-17.578125
7786,-17.578125
7787,-17.578125
7788,-19.531250
7789,-19.531250
7790,-19.531250
7791,-19.531250
7792,-19.531250
7793,-19.531250
7794,-19.531250
7795,-19.531250
7796,-19.531250
7797,-19.531250
7798,-19.531250
7799,-19.531250
7800,-19.531250
7801,-19.531250
7802,-19.531250
7803,-19.531250
7804,-19.531250
7805,-17.578125
7806,-19.531250
7807,-19.531250
7808,-19.531250
7809,-19.531250
7810,-19.531250
7811,-19.531250
7812,-17.578125
7813,-19.531250
7814,-17.578125
7815,-17.578125
7816,-19.531250
7817,-17.578125
7818,-17.578125
7819,-17.578125
7820,-17.578125
7821,-17.578125
7822,-17.578125
7823,-17.578125
7824,-17.578125
7825,-17.578125
7826,-17.578125
7827,-17.578125
7828,-15.625000
7829,-15.625000
7830,-15.625000
7831,-15.625000
7832,-15.625000
7833,-15.625000
7834,-15.625000
7835,-15.625000
7836,-15.625000
7837,-13.671875
7838,-15.625000
7839,-13.671875
7840,-13.671875
7841,-13.671875
7842,-13.671875
7843,-13.671875
7844,-13.671875
7845,-13.671875
7846,-11.718750
7847,-11.718750
7848,-11.718750
7849,-11.718750
7850,-11.718750
7851,-11.718750
7852,-11.718750
7853,-9.765625
7854,-9.765625
7855,-9.765625
7856,-9.765625
7857,-9.765625
7858,-9.765625
7859,-9.765625
7860,-9.765625
7861,-9.765625
7862,-9.765625
7863,-7.812500
7864,-7.812500
7865,-7.812500
7866,-7.812500
7867,-7.812500
7868,-5.859375
7869,-7.812500
7870,-5.859375
7871,-5.859375
7872,-5.859375
7873,-5.859375
7874,-5.859375
7875,-3.906250
7876,-3.906250
7877,-3.906250
7878,-3.906250
7879,-3.906250
7880,-3.906250
7881,-3.906250
7882,-1.953125
7883,-1.953125
7884,-1.953125
7885,-1.953125
7886,-1.953125
7887,-1.953125
7888,-1.953125
7889,-1.953125
7890,0.000000
7891,0.000000
7892,0.000000
7893,0.000000
7894,0.000000
7895,0.000000
7896,0.000000
7897,0.000000
7898,0.000000
7899,1.953125
7900,1.953125
7901,1.953125
7902,1.953125
7903,1.953125
7904,1.953125
7905,1.953125
7906,3.906250
7907,1.953125
7908,3.906250
7909,1.953125
7910,3.906250
7911,3.906250
7912,3.906250
7913,3.906250
7914,3.906250
7915,3.906250
7916,3.906250
7917,3.906250
7918,3.906250
7919,3.906250
7920,3.906250
7921,3.906250
7922,3.906250
7923,5.859375
7924,5.859375
7925,5.859375
7926,3.906250
7927,5.859375
7928,5.859375
7929,5.859375
7930,5.859375
7931,5.859375
7932,3.906250
7933,5.859375
7934,5.859375
7935,5.859375
7936,5.859375
7937,5.859375
7938,3.906250
7939,5.859375
7940,5.859375
7941,5.859375
7942,5.859375
7943,5.859375
7944,5.859375
7945,5.859375
7946,5.859375
7947,5.859375
7948,5.859375
7949,5.859375
7950,3.906250
7951,5.859375
7952,5.859375
7953,5.859375
7954,3.906250
7955,5.859375
7956,3.906250
7957,3.906250
7958,5.859375
7959,3.906250
7960,3.906250
7961,3.906250
7962,3.906250
7963,3.906250
7964,3.906250
7965,3.906250
7966,3.906250
7967,3.906250
7968,1.953125
7969,3.906250
7970,3.906250
7971,3.906250
7972,1.953125
7973,1.953125
7974,1.953125
7975,1.953125
7976,1.953125
7977,1.953125
7978,1.953125
7979,1.953125
7980,1.953125
7981,0.000000
7982,0.000000
7983,0.000000
7984,0.000000
7985,0.000000
7986,0.000000
7987,0.000000
7988,0.000000
7989,-1.953125
7990,-1.953125
7991,-1.953125
7992,-1.953125
7993,-1.953125
7994,-1.953125
7995,-1.953125
7996,-1.953125
7997,-1.953125
7998,-3.906250
7999,-3.906250
8000,-3.906250
8001,-3.906250
8002,-3.906250
8003,-3.906250
8004,-5.859375
8005,-5.859375
8006,-5.859375
8007,-5.859375
8008,-5.859375
8009,-5.859375
8010,-7.812500
8011,-7.812500
8012,-5.859375
8013,-7.812500
8014,-7.812500
8015,-7.812500
8016,-7.812500
8017,-7.812500
8018,-7.812500
8019,-7.812500
8020,-9.765625
8021,-9.765625
8022,-9.765625
8023,-9.765625
8024,-9.765625
8025,-9.765625
8026,-9.765625
8027,-9.765625
8028,-11.718750
8029,-11.718750
8030,-11.718750
8031,-11.718750
8032,-11.718750
8033,-11.718750
8034,-11.718750
8035,-11.718750
8036,-13.671875
8037,-13.671875
8038,-13.671875
8039,-13.671875
8040,-13.671875
8041,-13.671875
8042,-13.671875
8043,-15.625000
8044,-13.671875
8045,-15.625000
8046,-15.625000
8047,-15.625000
8048,-15.625000
8049,-15.625000
8050,-15.625000
8051,-15.625000
8052,-15.625000
8053,-15.625000
8054,-15.625000
8055,-17.578125
8056,-17.578125
8057,-17.578125
8058,-17.578125
8059,-17.578125
8060,-17.578125
8061,-19.531250
8062,-17.578125
8063,-17.578125
8064,-17.578125
8065,-17.578125
8066,-17.578125
8067,-19.531250
8068,-19.531250
8069,-19.531250
8070,-19.531250
8071,-19.531250
8072,-19.531250
8073,-19.531250
8074,-19.531250
8075,-19.531250
8076,-19.531250
8077,-19.531250
8078,-19.531250
8079,-19.531250
8080,-19.531250
8081,-19.531250
8082,-19.531250
8083,-19.531250
8084,-19.531250
8085,-19.531250
8086,-19.531250
8087,-17.578125
8088,-19.531250
8089,-19.531250
8090,-17.578125
8091,-17.578125
8092,-19.531250
8093,-17.578125
8094,-17.578125
8095,-17.578125
8096,-17.578125
8097,-17.578125
8098,-17.578125
8099,-17.578125
8100,-17.578125
8101,-17.578125
8102,-17.578125
8103,-17.578125
8104,-17.578125
8105,-17.578125
8106,-17.578125
8107,-15.625000
8108,-15.625000
8109,-15.625000
8110,-15.625000
8111,-15.625000
8112,-15.625000
8113,-15.625000
8114,-15.625000
8115,-15.625000
8116,-15.625000
8117,-15.625000
8118,-15.625000
8119,-15.625000
8120,-15.625000
8121,-13.671875
8122,-13.671875
8123,-13.671875
8124,-13.671875
8125,-13.671875
8126,-13.671875
8127,-13.671875
8128,-13.671875
8129,-13.671875
8130,-11.718750
8131,-11.718750
8132,-11.718750
8133,-11.718750
8134,-11.718750
8135,-11.718750
8136,-11.718750
8137,-9.765625
8138,-9.765625
8139,-9.765625
8140,-9.765625
8141,-9.765625
8142,-9.765625
8143,-7.812500
8144,-7.812500
8145,-7.812500
8146,-7.812500
8147,-7.812500
8148,-7.812500
8149,-5.859375
8150,-5.859375
8151,-5.859375
8152,-5.859375
8153,-5.859375
8154,-5.859375
8155,-5.859375
8156,-5.859375
8157,-3.906250
8158,-3.906250
8159,-3.906250
8160,-3.906250
8161,-3.906250
8162,-3.906250
8163,-1.953125
8164,-1.953125
8165,-1.953125
8166,-1.953125
8167,-1.953125
8168,-1.953125
8169,-1.953125
8170,-1.953125
8171,-1.953125
8172,0.000000
8173,0.000000
8174,0.000000
8175,0.000000
8176,0.000000
8177,0.000000
8178,0.000000
8179,0.000000
8180,0.000000
8181,0.000000
8182,1.953125
8183,1.953125
8184,1.953125
8185,1.953125
8186,1.953125
8187,1.953125
8188,1.953125
8189,1.953125
8190,1.953125
8191,3.906250
8192,3.906250
8193,3.906250
8194,3.906250
8195,3.906250
8196,3.906250
8197,3.906250
8198,3.906250
8199,3.906250
8200,3.906250
8201,3.906250
8202,3.906250
8203,3.906250
8204,3.906250
8205,3.906250
8206,5.859375
8207,5.859375
8208,3.906250
8209,5.859375
8210,3.906250
8211,5.859375
8212,5.859375
8213,3.906250
8214,5.859375
8215,5.859375
8216,5.859375
8217,5.859375
8218,5.859375
8219,5.859375
8220,5.859375
8221,5.859375
8222,5.859375
8223,5.859375
8224,5.859375
8225,5.859375
8226,5.859375
8227,5.859375
8228,5.859375
8229,5.859375
8230,5.859375
8231,5.859375
8232,5.859375
8233,5.859375
8234,5.859375
8235,5.859375
8236,5.859375
8237,5.859375
8238,3.906250
8239,3.906250
8240,5.859375
8241,5.859375
8242,3.906250
8243,3.906250
8244,3.906250
8245,3.906250
8246,3.906250
8247,3.906250
8248,3.906250
8249,3.906250
8250,3.906250
8251,3.906250
8252,3.906250
8253,3.906250
8254,1.953125
8255,1.953125
8256,1.953125
8257,1.953125
8258,1.953125
8259,1.953125
8260,1.953125
8261,1.953125
8262,1.953125
8263,1.953125
8264,0.000000
8265,0.000000
8266,0.000000
8267,0.000000
8268,0.000000
8269,0.000000
8270,0.000000
8271,0.000000
8272,-1.953125
8273,-1.953125
8274,-1.953125
8275,-1.953125
8276,-1.953125
8277,-1.953125
8278,-1.953125
8279,-1.953125
8280,-3.906250
8281,-3.906250
8282,-3.906250
8283,-3.906250
8284,-3.906250
8285,-3.906250
8286,-3.906250
8287,-3.906250
8288,-5.859375
8289,-5.859375
8290,-5.859375
8291,-5.859375
8292,-5.859375
8293,-5.859375
8294,-5.859375
8295,-7.812500
8296,-7.812500
8297,-7.812500
8298,-7.812500
8299,-7.812500
8300,-7.812500
8301,-7.812500
8302,-9.765625
8303,-9.765625
8304,-9.765625
8305,-7.812500
8306,-9.765625
8307,-9.765625
8308,-9.765625
8309,-9.765625
8310,-11.718750
8311,-11.718750
8312,-11.718750
8313,-11.718750
8314,-11.718750
8315,-11.718750
8316,-13.671875
8317,-13.671875
8318,-13.671875
8319,-13.671875
8320,-13.671875
8321,-13.671875
8322,-13.671875
8323,-15.625000
8324,-15.625000
8325,-15.625000
8326,-15.625000
8327,-15.625000
8328,-15.625000
8329,-15.625000
8330,-15.625000
8331,-15.625000
8332,-15.625000
8333,-15.625000
8334,-17.578125
8335,-17.578125
8336,-15.625000
8337,-17.578125
8338,-17.578125
8339,-17.578125
8340,-17.578125
8341,-17.578125
8342,-17.578125
8343,-17.578125
8344,-17.578125
8345,-17.578125
8346,-17.578125
8347,-17.578125
8348,-17.578125
8349,-17.578125
8350,-17.578125
8351,-17.578125
8352,-19.531250
8353,-19.531250
8354,-17.578125
8355,-19.531250
8356,-19.531250
8357,-19.531250
8358,-19.531250
8359,-19.531250
8360,-19.531250
8361,-19.531250
8362,-19.531250
8363,-19.531250
8364,-19.531250
8365,-19.531250
8366,-17.578125
8367,-19.531250
8368,-19.531250
8369,-19.531250
8370,-19.531250
8371,-19.531250
8372,-19.531250
8373,-17.578125
8374,-19.531250
8375,-19.531250
8376,-17.578125
8377,-19.531250
8378,-19.531250
8379,-19.531250
8380,-17.578125
8381,-17.578125
8382,-17.578125
8383,-17.578125
8384,-17.578125
8385,-17.578125
8386,-17.578125
8387,-17.578125
8388,-17.578125
8389,-17.578125
8390,-17.578125
8391,-17.578125
8392,-17.578125
8393,-15.625000
8394,-15.625000
8395,-15.625000
8396,-15.625000
8397,-15.625000
8398,-15.625000
8399,-15.625000
8400,-15.625000
8401,-15.625000
8402,-15.625000
8403,-15.625000
8404,-13.671875
8405,-13.671875
8406,-13.671875
8407,-13.671875
8408,-13.671875
8409,-13.671875
8410,-13.671875
8411,-11.718750
8412,-11.718750
8413,-11.718750
8414,-11.718750
8415,-9.765625
8416,-11.718750
8417,-11.718750
8418,-9.765625
8419,-9.765625
8420,-9.765625
8421,-9.765625
8422,-9.765625
8423,-9.765625
8424,-9.765625
8425,-7.812500
8426,-7.812500
8427,-7.812500
8428,-7.812500
8429,-7.812500
8430,-7.812500
8431,-5.859375
8432,-5.859375
8433,-5.859375
8434,-5.859375
8435,-5.859375
8436,-5.859375
8437,-5.859375
8438,-5.859375
8439,-3.906250
8440,-3.906250
8441,-3.906250
8442,-3.906250
8443,-3.906250
8444,-3.906250
8445,-3.906250
8446,-3.906250
8447,-1.953125
8448,-1.953125
8449,-1.953125
8450,-1.953125
8451,-1.953125
8452,-1.953125
8453,-1.953125
8454,-1.953125
8455,-1.953125
8456,0.000000
8457,0.000000
8458,0.000000
8459,0.000000
8460,0.000000
8461,0.000000
8462,0.000000
8463,1.953125
8464,1.953125
8465,0.000000
8466,1.953125
8467,1.953125
8468,1.953125
8469,1.953125
8470,1.953125
8471,1.953125
8472,1.953125
8473,1.953125
8474,3.906250
8475,3.906250
8476,3.906250
8477,5.859375
8478,3.906250
8479,3.906250
8480,3.906250
8481,3.906250
8482,3.906250
8483,5.859375
8484,3.906250
8485,3.906250
8486,5.859375
8487,3.906250
8488,5.859375
8489,5.859375
8490,5.859375
8491,5.859375
8492,5.859375
8493,5.859375
8494,5.859375
8495,5.859375
8496,5.859375
8497,5.859375
8498,5.859375
8499,5.859375
8500,5.859375
8501,5.859375
8502,5.859375
8503,5.859375
8504,5.859375
8505,5.859375
8506,5.859375
8507,5.859375
8508,5.859375
8509,5.859375
8510,5.859375
8511,5.859375
8512,5.859375
8513,3.906250
8514,5.859375
8515,5.859375
8516,3.906250
8517,3.906250
8518,3.906250
8519,5.859375
8520,3.906250
8521,3.906250
8522,5.859375
8523,3.906250
8524,3.906250
8525,3.906250
8526,3.906250
8527,3.906250
8528,3.906250
8529,3.906250
8530,3.906250
8531,3.906250
8532,3.906250
8533,3.906250
8534,1.953125
8535,3.906250
8536,1.953125
8537,1.953125
8538,1.953125
8539,1.953125
8540,1.953125
8541,1.953125
8542,1.953125
8543,1.953125
8544,1.953125
8545,1.953125
8546,0.000000
8547,1.953125
8548,0.000000
8549,0.000000
8550,0.000000
8551,0.000000
8552,0.000000
8553,0.000000
8554,0.000000
8555,-1.953125
8556,-1.953125
8557,-1.953125
8558,-1.953125
8559,-1.953125
8560,-1.953125
8561,-1.953125
8562,-3.906250
8563,-1.953125
8564,-1.953125
8565,-3.906250
8566,-3.906250
8567,-3.906250
8568,-3.906250
8569,-5.859375
8570,-5.859375
8571,-5.859375
8572,-5.859375
8573,-5.859375
8574,-5.859375
8575,-5.859375
8576,-7.812500
8577,-7.812500
8578,-7.812500
8579,-7.812500
8580,-7.812500
8581,-7.812500
8582,-7.812500
8583,-9.765625
8584,-9.765625
8585,-9.765625
8586,-9.765625
8587,-9.765625
8588,-9.765625
8589,-9.765625
8590,-9.765625
8591,-9.765625
8592,-9.765625
8593,-11.718750
8594,-11.718750
8595,-11.718750
8596,-11.718750
8597,-11.718750
8598,-11.718750
8599,-11.718750
8600,-13.671875
8601,-13.671875
8602,-13.671875
8603,-13.671875
8604,-13.671875
8605,-13.671875
8606,-13.671875
8607,-13.671875
8608,-13.671875
8609,-15.625000
8610,-15.625000
8611,-15.625000
8612,-15.625000
8613,-15.625000
8614,-15.625000
8615,-15.625000
8616,-15.625000
8617,-15.625000
8618,-15.625000
8619,-15.625000
8620,-17.578125
8621,-17.578125
8622,-17.578125
8623,-17.578125
8624,-17.578125
8625,-17.578125
8626,-17.578125
8627,-17.578125
8628,-17.578125
8629,-17.578125
8630,-17.578125
8631,-17.578125
8632,-19.531250
8633,-19.531250
8634,-19.531250
8635,-19.531250
8636,-19.531250
8637,-17.578125
8638,-19.531250
8639,-19.531250
8640,-17.578125
8641,-19.531250
8642,-19.531250
8643,-19.531250
8644,-19.531250
8645,-19.531250
8646,-19.531250
8647,-19.531250
8648,-19.531250
8649,-19.531250
8650,-19.531250
8651,-19.531250
8652,-19.531250
8653,-19.531250
8654,-19.531250
8655,-19.531250
8656,-19.531250
8657,-17.578125
8658,-19.531250
8659,-19.531250
8660,-17.578125
8661,-17.578125
8662,-19.531250
8663,-17.578125
8664,-17.578125
8665,-17.578125
8666,-17.578125
8667,-17.578125
8668,-17.578125
8669,-17.578125
8670,-17.578125
8671,-17.578125
8672,-17.578125
8673,-17.578125
8674,-15.625000
8675,-15.625000
8676,-15.625000
8677,-15.625000
8678,-15.625000
8679,-15.625000
8680,-15.625000
8681,-15.625000
8682,-15.625000
8683,-13.671875
8684,-15.625000
8685,-15.625000
8686,-13.671875
8687,-13.671875
8688,-13.671875
8689,-13.671875
8690,-13.671875
8691,-11.718750
8692,-13.671875
8693,-13.671875
8694,-11.718750
8695,-11.718750
8696,-11.718750
8697,-11.718750
8698,-11.718750
8699,-11.718750
8700,-11.718750
8701,-11.718750
8702,-11.718750
8703,-9.765625
8704,-9.765625
8705,-9.765625
8706,-9.765625
8707,-9.765625
8708,-7.812500
8709,-9.765625
8710,-7.812500
8711,-7.812500
8712,-7.812500
8713,-7.812500
8714,-7.812500
8715,-5.859375
8716,-7.812500
8717,-5.859375
8718,-5.859375
8719,-5.859375
8720,-5.859375
8721,-5.859375
8722,-5.859375
8723,-3.906250
8724,-3.906250
8725,-3.906250
8726,-3.906250
8727,-3.906250
8728,-3.906250
8729,-3.906250
8730,-1.953125
8731,-1.953125
8732,-1.953125
8733,-1.953125
8734,-1.953125
8735,-1.953125
8736,-1.953125
8737,-1.953125
8738,0.000000
8739,0.000000
8740,0.000000
8741,0.000000
8742,0.000000
8743,0.000000
8744,0.000000
8745,0.000000
8746,0.000000
8747,1.953125
8748,1.953125
8749,1.953125
8750,1.953125
8751,1.953125
8752,1.953125
8753,1.953125
8754,1.953125
8755,3.906250
8756,3.906250
8757,1.953125
8758,1.953125
8759,3.906250
8760,3.906250
8761,3.906250
8762,3.906250
8763,3.906250
8764,3.906250
8765,3.906250
8766,3.906250
8767,3.906250
8768,3.906250
8769,3.906250
8770,3.906250
8771,3.906250
8772,3.906250
8773,5.859375
8774,5.859375
8775,5.859375
8776,3.906250
8777,5.859375
8778,5.859375
8779,5.859375
8780,5.859375
8781,5.859375
8782,5.859375
8783,5.859375
8784,5.859375
8785,5.859375
8786,5.859375
8787,5.859375
8788,5.859375
8789,5.859375
8790,5.859375
8791,5.859375
8792,5.859375
8793,5.859375
8794,5.859375
8795,5.859375
8796,5.859375
8797,5.859375
8798,3.906250
8799,5.859375
8800,5.859375
8801,5.859375
8802,5.859375
8803,5.859375
8804,5.859375
8805,5.859375
8806,3.906250
8807,3.906250
8808,3.906250
8809,3.906250
8810,3.906250
8811,3.906250
8812,3.906250
8813,3.906250
8814,3.906250
8815,3.906250
8816,3.906250
8817,3.906250
8818,3.906250
8819,3.906250
8820,1.953125
8821,1.953125
8822,1.953125
8823,1.953125
8824,1.953125
8825,1.953125
8826,1.953125
8827,1.953125
8828,0.000000
8829,0.000000
8830,0.000000
8831,0.000000
8832,0.000000
8833,0.000000
8834,0.000000
8835,0.000000
8836,0.000000
8837,-1.953125
8838,0.000000
8839,-1.953125
8840,-1.953125
8841,-1.953125
8842,-1.953125
8843,-1.953125
8844,-3.906250
8845,-3.906250
8846,-3.906250
8847,-3.906250
8848,-3.906250
8849,-3.906250
8850,-3.906250
8851,-3.906250
8852,-5.859375
8853,-5.859375
8854,-3.906250
8855,-5.859375
8856,-5.859375
8857,-5.859375
8858,-5.859375
8859,-5.859375
8860,-7.812500
8861,-7.812500
8862,-7.812500
8863,-7.812500
8864,-7.812500
8865,-7.812500
8866,-7.812500
8867,-9.765625
8868,-9.765625
8869,-9.765625
8870,-9.765625
8871,-9.765625
8872,-9.765625
8873,-9.765625
8874,-9.765625
8875,-11.718750
8876,-11.718750
8877,-11.718750
8878,-11.718750
8879,-11.718750
8880,-11.718750
8881,-11.718750
8882,-13.671875
8883,-13.671875
8884,-13.671875
8885,-13.671875
8886,-13.671875
8887,-13.671875
8888,-13.671875
8889,-11.718750
8890,-15.625000
8891,-15.625000
8892,-15.625000
8893,-15.625000
8894,-15.625000
8895,-15.625000
8896,-15.625000
8897,-15.625000
8898,-15.625000
8899,-15.625000
8900,-17.578125
8901,-15.625000
8902,-17.578125
8903,-17.578125
8904,-17.578125
8905,-17.578125
8906,-17.578125
8907,-19.531250
8908,-17.578125
8909,-17.578125
8910,-17.578125
8911,-19.531250
8912,-19.531250
8913,-19.531250
8914,-17.578125
8915,-19.531250
8916,-19.531250
8917,-19.531250
8918,-19.531250
8919,-19.531250
8920,-19.531250
8921,-19.531250
8922,-19.531250
8923,-19.531250
8924,-19.531250
8925,-19.531250
8926,-19.531250
8927,-19.531250
8928,-19.531250
8929,-19.531250
8930,-19.531250
8931,-19.531250
8932,-19.531250
8933,-19.531250
8934,-19.531250
8935,-19.531250
8936,-19.531250
8937,-19.531250
8938,-19.531250
8939,-17.578125
8940,-19.531250
8941,-19.531250
8942,-17.578125
8943,-19.531250
8944,-19.531250
8945,-19.531250
8946,-17.578125
8947,-17.578125
8948,-17.578125
8949,-17.578125
8950,-17.578125
8951,-17.578125
8952,-17.578125
8953,-17.578125
8954,-17.578125
8955,-17.578125
8956,-17.578125
8957,-17.578125
8958,-15.625000
8959,-15.625000
8960,-15.625000
8961,-15.625000
8962,-15.625000
8963,-15.625000
8964,-15.625000
8965,-15.625000
8966,-15.625000
8967,-13.671875
8968,-13.671875
8969,-13.671875
8970,-13.671875
8971,-13.671875
8972,-13.671875
8973,-13.671875
8974,-13.671875
8975,-13.671875
8976,-11.718750
8977,-11.718750
8978,-11.718750
8979,-11.718750
8980,-11.718750
8981,-11.718750
8982,-11.718750
8983,-9.765625
8984,-9.765625
8985,-9.765625
8986,-9.765625
8987,-9.765625
8988,-9.765625
8989,-9.765625
8990,-9.765625
8991,-7.812500
8992,-7.812500
8993,-7.812500
8994,-7.812500
8995,-7.812500
8996,-5.859375
8997,-7.812500
8998,-7.812500
8999,-5.859375
9000,-5.859375
9001,-5.859375
9002,-5.859375
9003,-5.859375
9004,-3.906250
9005,-3.906250
9006,-3.906250
9007,-3.906250
9008,-3.906250
9009,-1.953125
9010,-3.906250
9011,-3.906250
9012,-1.953125
9013,-1.953125
9014,-1.953125
9015,-1.953125
9016,-1.953125
9017,0.000000
9018,0.000000
9019,-1.953125
9020,-1.953125
9021,0.000000
9022,0.000000
9023,0.000000
9024,0.000000
9025,0.000000
9026,1.953125
9027,0.000000
9028,0.000000
9029,1.953125
9030,1.953125
9031,1.953125
9032,1.953125
9033,1.953125
9034,1.953125
9035,1.953125
9036,1.953125
9037,3.906250
9038,3.906250
9039,1.953125
9040,3.906250
9041,3.906250
9042,3.906250
9043,3.906250
9044,3.906250
9045,3.906250
9046,3.906250
9047,3.906250
9048,3.906250
9049,3.906250
9050,3.906250
9051,5.859375
9052,3.906250
9053,3.906250
9054,5.859375
9055,5.859375
9056,5.859375
9057,3.906250
9058,5.859375
9059,5.859375
9060,5.859375
9061,5.859375
9062,5.859375
9063,5.859375
9064,5.859375
9065,5.859375
9066,5.859375
9067,5.859375
9068,5.859375
9069,5.859375
9070,5.859375
9071,5.859375
9072,5.859375
9073,5.859375
9074,5.859375
9075,5.859375
9076,5.859375
9077,5.859375
9078,5.859375
9079,3.906250
9080,5.859375
9081,5.859375
9082,5.859375
9083,3.906250
9084,5.859375
9085,3.906250
9086,3.906250
9087,3.906250
9088,3.906250
9089,3.906250
9090,3.906250
9091,3.906250
9092,3.906250
9093,3.906250
9094,3.906250
9095,3.906250
9096,3.906250
9097,3.906250
9098,1.953125
9099,1.953125
9100,1.953125
9101,1.953125
9102,1.953125
9103,1.953125
9104,1.953125
9105,1.953125
9106,1.953125
9107,1.953125
9108,0.000000
9109,0.000000
9110,0.000000
9111,0.000000
9112,0.000000
9113,0.000000
9114,0.000000
9115,0.000000
9116,0.000000
9117,0.000000
9118,0.000000
9119,-1.953125
9120,-1.953125
9121,-1.953125
9122,-1.953125
9123,-1.953125
9124,-1.953125
9125,-1.953125
9126,-1.953125
9127,-1.953125
9128,-3.906250
9129,-3.906250
9130,-3.906250
9131,-3.906250
9132,-3.906250
9133,-3.906250
9134,-5.859375
9135,-5.859375
9136,-5.859375
9137,-5.859375
9138,-5.859375
9139,-5.859375
9140,-5.859375
9141,-5.859375
9142,-5.859375
9143,-5.859375
9144,-7.812500
9145,-7.812500
9146,-7.812500
9147,-7.812500
9148,-9.765625
9149,-9.765625
9150,-9.765625
9151,-9.765625
9152,-9.765625
9153,-9.765625
9154,-9.765625
9155,-11.718750
9156,-11.718750
9157,-11.718750
9158,-11.718750
9159,-11.718750
9160,-11.718750
9161,-11.718750
9162,-11.718750
9163,-13.671875
9164,-13.671875
9165,-13.671875
9166,-13.671875
9167,-13.671875
9168,-13.671875
9169,-13.671875
9170,-13.671875
9171,-13.671875
9172,-13.671875
9173,-15.625000
9174,-13.671875
9175,-15.625000
9176,-15.625000
9177,-15.625000
9178,-15.625000
9179,-15.625000
9180,-17.578125
9181,-15.625000
9182,-15.625000
9183,-15.625000
9184,-17.578125
9185,-17.578125
9186,-17.578125
9187,-17.578125
9188,-17.578125
9189,-17.578125
9190,-17.578125
9191,-17.578125
9192,-17.578125
9193,-17.578125
9194,-17.578125
9195,-19.531250
9196,-17.578125
9197,-17.578125
9198,-17.578125
9199,-19.531250
9200,-19.531250
9201,-17.578125
9202,-19.531250
9203,-19.531250
9204,-19.531250
9205,-19.531250
9206,-19.531250
9207,-19.531250
9208,-19.531250
9209,-19.531250
9210,-19.531250
9211,-19.531250
9212,-19.531250
9213,-19.531250
9214,-19.531250
9215,-19.531250
9216,-19.531250
9217,-19.531250
9218,-19.531250
9219,-19.531250
9220,-19.531250
9221,-19.531250
9222,-19.531250
9223,-17.578125
9224,-19.531250
9225,-19.531250
9226,-17.578125
9227,-17.578125
9228,-17.578125
9229,-17.578125
9230,-17.578125
9231,-17.578125
9232,-17.578125
9233,-17.578125
9234,-17.578125
9235,-17.578125
9236,-17.578125
9237,-17.578125
9238,-17.578125
9239,-15.625000
9240,-15.625000
9241,-15.625000
9242,-13.671875
9243,-15.625000
9244,-15.625000
9245,-15.625000
9246,-15.625000
9247,-15.625000
9248,-15.625000
9249,-15.625000
9250,-13.671875
9251,-15.625000
9252,-13.671875
9253,-13.671875
9254,-13.671875
9255,-11.718750
9256,-13.671875
9257,-13.671875
9258,-11.718750
9259,-11.718750
9260,-15.625000
9261,-15.625000
9262,-11.718750
9263,-11.718750
9264,-9.765625
9265,-11.718750
9266,-9.765625
9267,-9.765625
9268,-9.765625
9269,-9.765625
9270,-9.765625
9271,-9.765625
9272,-7.812500
9273,-7.812500
9274,-7.812500
9275,-7.812500
9276,-7.812500
9277,-7.812500
9278,-7.812500
9279,-7.812500
9280,-5.859375
9281,-5.859375
9282,-5.859375
9283,-5.859375
9284,-5.859375
9285,-1.953125
9286,-5.859375
9287,-3.906250
9288,-3.906250
9289,-3.906250
9290,-3.906250
9291,-3.906250
9292,-3.906250
9293,-1.953125
9294,-3.906250
9295,0.000000
9296,-1.953125
9297,-1.953125
9298,-1.953125
9299,-1.953125
9300,-1.953125
9301,0.000000
9302,0.000000
9303,-1.953125
9304,0.000000
9305,0.000000
9306,0.000000
9307,0.000000
9308,0.000000
9309,0.000000
9310,0.000000
9311,0.000000
9312,0.000000
9313,1.953125
9314,1.953125
9315,1.953125
9316,1.953125
9317,1.953125
9318,1.953125
9319,1.953125
9320,1.953125
9321,3.906250
9322,3.906250
9323,3.906250
9324,3.906250
9325,3.906250
9326,3.906250
9327,3.906250
9328,3.906250
9329,3.906250
9330,3.906250
9331,3.906250
9332,3.906250
9333,3.906250
9334,3.906250
9335,5.859375
9336,5.859375
9337,5.859375
9338,5.859375
9339,5.859375
9340,5.859375
9341,5.859375
9342,5.859375
9343,5.859375
9344,5.859375
9345,5.859375
9346,5.859375
9347,5.859375
9348,5.859375
9349,5.859375
9350,5.859375
9351,5.859375
9352,5.859375
9353,5.859375
9354,5.859375
9355,5.859375
9356,5.859375
9357,5.859375
9358,5.859375
9359,5.859375
9360,5.859375
9361,5.859375
9362,3.906250
9363,5.859375
9364,5.859375
9365,3.906250
9366,3.906250
9367,3.906250
9368,3.906250
9369,3.906250
9370,3.906250
9371,3.906250
9372,3.906250
9373,3.906250
9374,3.906250
9375,3.906250
9376,3.906250
9377,3.906250
9378,3.906250
9379,3.906250
9380,3.906250
9381,3.906250
9382,3.906250
9383,1.953125
9384,1.953125
9385,3.906250
9386,1.953125
9387,1.953125
9388,1.953125
9389,1.953125
9390,1.953125
9391,0.000000
9392,1.953125
9393,1.953125
9394,1.953125
9395,0.000000
9396,0.000000
9397,0.000000
9398,0.000000
9399,0.000000
9400,0.000000
9401,-1.953125
9402,0.000000
9403,-1.953125
9404,-1.953125
9405,-1.953125
9406,-1.953125
9407,-1.953125
9408,-3.906250
9409,-3.906250
9410,-3.906250
9411,-3.906250
9412,-3.906250
9413,-3.906250
9414,-3.906250
9415,-3.906250
9416,-5.859375
9417,-5.859375
9418,-5.859375
9419,-5.859375
9420,-5.859375
9421,-5.859375
9422,-5.859375
9423,-7.812500
9424,-7.812500
9425,-7.812500
9426,-7.812500
9427,-7.812500
9428,-7.812500
9429,-7.812500
9430,-9.765625
9431,-9.765625
9432,-9.765625
9433,-9.765625
9434,-9.765625
9435,-9.765625
9436,-9.765625
9437,-9.765625
9438,-11.718750
9439,-11.718750
9440,-11.718750
9441,-11.718750
9442,-11.718750
9443,-11.718750
9444,-11.718750
9445,-11.718750
9446,-11.718750
9447,-13.671875
9448,-13.671875
9449,-13.671875
9450,-13.671875
9451,-13.671875
9452,-13.671875
9453,-13.671875
9454,-13.671875
9455,-15.625000
9456,-15.625000
9457,-15.625000
9458,-15.625000
9459,-15.625000
9460,-15.625000
9461,-15.625000
9462,-15.625000
9463,-15.625000
9464,-15.625000
9465,-17.578125
9466,-17.578125
9467,-17.578125
9468,-17.578125
9469,-17.578125
9470,-17.578125
9471,-17.578125
9472,-15.625000
9473,-17.578125
9474,-17.578125
9475,-17.578125
9476,-17.578125
9477,-17.578125
9478,-19.531250
9479,-19.531250
9480,-17.578125
9481,-19.531250
9482,-19.531250
9483,-19.531250
9484,-19.531250
9485,-19.531250
9486,-19.531250
9487,-19.531250
9488,-19.531250
9489,-19.531250
9490,-19.531250
9491,-19.531250
9492,-19.531250
9493,-19.531250
9494,-19.531250
9495,-19.531250
9496,-19.531250
9497,-19.531250
9498,-19.531250
9499,-19.531250
9500,-19.531250
9501,-19.531250
9502,-17.578125
9503,-19.531250
9504,-17.578125
9505,-19.531250
9506,-19.531250
9507,-17.578125
9508,-19.531250
9509,-17.578125
9510,-19.531250
9511,-17.578125
9512,-17.578125
9513,-17.578125
9514,-17.578125
9515,-17.578125
9516,-17.578125
9517,-17.578125
9518,-17.578125
9519,-17.578125
9520,-15.625000
9521,-15.625000
9522,-15.625000
9523,-15.625000
9524,-15.625000
9525,-15.625000
9526,-15.625000
9527,-15.625000
9528,-15.625000
9529,-15.625000
9530,-15.625000
9531,-15.625000
9532,-13.671875
9533,-13.671875
9534,-13.671875
9535,-13.671875
9536,-13.671875
9537,-13.671875
9538,-13.671875
9539,-13.671875
9540,-13.671875
9541,-11.718750
9542,-11.718750
9543,-11.718750
9544,-11.718750
9545,-11.718750
9546,-11.718750
9547,-11.718750
9548,-11.718750
9549,-11.718750
9550,-9.765625
9551,-9.765625
9552,-9.765625
9553,-9.765625
9554,-9.765625
9555,-7.812500
9556,-7.812500
9557,-7.812500
9558,-7.812500
9559,-7.812500
9560,-7.812500
9561,-7.812500
9562,-7.812500
9563,-5.859375
9564,-5.859375
9565,-5.859375
9566,-5.859375
9567,-5.859375
9568,-3.906250
9569,-3.906250
9570,-3.906250
9571,-3.906250
9572,-3.906250
9573,-3.906250
9574,-1.953125
9575,-3.906250
9576,-1.953125
9577,-1.953125
9578,-1.953125
9579,-1.953125
9580,-1.953125
9581,-1.953125
9582,0.000000
9583,0.000000
9584,0.000000
9585,0.000000
9586,0.000000
9587,0.000000
9588,0.000000
9589,0.000000
9590,0.000000
9591,1.953125
9592,1.953125
9593,1.953125
9594,1.953125
9595,1.953125
9596,1.953125
9597,1.953125
9598,1.953125
9599,1.953125
9600,3.906250
9601,1.953125
9602,1.953125
9603,3.906250
9604,3.906250
9605,3.906250
9606,3.906250
9607,3.906250
9608,3.906250
9609,3.906250
9610,3.906250
9611,3.906250
9612,3.906250
9613,3.906250
9614,3.906250
9615,3.906250
9616,3.906250
9617,3.906250
9618,5.859375
9619,3.906250
9620,3.906250
9621,5.859375
9622,5.859375
9623,5.859375
9624,5.859375
9625,5.859375
9626,5.859375
9627,5.859375
9628,5.859375
9629,5.859375
9630,5.859375
9631,5.859375
9632,5.859375
9633,5.859375
9634,5.859375
9635,5.859375
9636,5.859375
9637,5.859375
9638,5.859375
9639,5.859375
9640,5.859375
9641,5.859375
9642,5.859375
9643,5.859375
9644,5.859375
9645,5.859375
9646,5.859375
9647,3.906250
9648,5.859375
9649,5.859375
9650,3.906250
9651,3.906250
9652,3.906250
9653,3.906250
9654,3.906250
9655,3.906250
9656,3.906250
9657,3.906250
9658,3.906250
9659,3.906250
9660,3.906250
9661,3.906250
9662,3.906250
9663,3.906250
9664,1.953125
9665,1.953125
9666,1.953125
9667,1.953125
9668,1.953125
9669,1.953125
9670,1.953125
9671,1.953125
9672,1.953125
9673,0.000000
9674,0.000000
9675,0.000000
9676,0.000000
9677,0.000000
9678,0.000000
9679,0.000000
9680,0.000000
9681,0.000000
9682,-1.953125
9683,0.000000
9684,-1.953125
9685,-1.953125
9686,-1.953125
9687,-1.953125
9688,-1.953125
9689,-1.953125
9690,-1.953125
9691,-3.906250
9692,-3.906250
9693,-3.906250
9694,-3.906250
9695,-3.906250
9696,-3.906250
9697,-3.906250
9698,-5.859375
9699,-3.906250
9700,-5.859375
9701,-5.859375
9702,-5.859375
9703,-5.859375
9704,-5.859375
9705,-5.859375
9706,-7.812500
9707,-7.812500
9708,-7.812500
9709,-7.812500
9710,-7.812500
9711,-7.812500
9712,-7.812500
9713,-7.812500
9714,-7.812500
9715,-9.765625
9716,-9.765625
9717,-9.765625
9718,-9.765625
9719,-9.765625
9720,-11.718750
9721,-11.718750
9722,-11.718750
9723,-11.718750
9724,-11.718750
9725,-11.718750
9726,-11.718750
9727,-11.718750
9728,-13.671875
9729,-13.671875
9730,-13.671875
9731,-13.671875
9732,-13.671875
9733,-13.671875
9734,-13.671875
9735,-13.671875
9736,-13.671875
9737,-15.625000
9738,-15.625000
9739,-15.625000
9740,-15.625000
9741,-15.625000
9742,-15.625000
9743,-15.625000
9744,-15.625000
9745,-15.625000
9746,-15.625000
9747,-17.578125
9748,-17.578125
9749,-17.578125
9750,-17.578125
9751,-17.578125
9752,-17.578125
9753,-17.578125
9754,-17.578125
9755,-17.578125
9756,-17.578125
9757,-17.578125
9758,-17.578125
9759,-17.578125
9760,-17.578125
9761,-19.531250
9762,-19.531250
9763,-19.531250
9764,-19.531250
9765,-19.531250
9766,-19.531250
9767,-17.578125
9768,-19.531250
9769,-19.531250
9770,-19.531250
9771,-19.531250
9772,-19.531250
9773,-19.531250
9774,-19.531250
9775,-19.531250
9776,-19.531250
9777,-19.531250
9778,-17.578125
9779,-19.531250
9780,-19.531250
9781,-19.531250
9782,-19.531250
9783,-19.531250
9784,-19.531250
9785,-19.531250
9786,-17.578125
9787,-17.578125
9788,-17.578125
9789,-17.578125
9790,-17.578125
9791,-17.578125
9792,-19.531250
9793,-17.578125
9794,-17.578125
9795,-17.578125
9796,-17.578125
9797,-17.578125
9798,-17.578125
9799,-17.578125
9800,-17.578125
9801,-17.578125
9802,-17.578125
9803,-15.625000
9804,-17.578125
9805,-17.578125
9806,-17.578125
9807,-15.625000
9808,-15.625000
9809,-15.625000
9810,-15.625000
9811,-15.625000
9812,-15.625000
9813,-15.625000
9814,-13.671875
9815,-15.625000
9816,-15.625000
9817,-13.671875
9818,-13.671875
9819,-13.671875
9820,-13.671875
9821,-13.671875
9822,-11.718750
9823,-11.718750
9824,-13.671875
9825,-11.718750
9826,-11.718750
9827,-11.718750
9828,-11.718750
9829,-11.718750
9830,-11.718750
9831,-9.765625
9832,-9.765625
9833,-9.765625
9834,-9.765625
9835,-9.765625
9836,-9.765625
9837,-7.812500
9838,-7.812500
9839,-7.812500
9840,-7.812500
9841,-7.812500
9842,-7.812500
9843,-7.812500
9844,-5.859375
9845,-5.859375
9846,-5.859375
9847,-5.859375
9848,-5.859375
9849,-5.859375
9850,-5.859375
9851,-3.906250
9852,-3.906250
9853,-3.906250
9854,-3.906250
9855,-3.906250
9856,-3.906250
9857,-1.953125
9858,-3.906250
9859,-1.953125
9860,-1.953125
9861,-1.953125
9862,-1.953125
9863,-1.953125
9864,-1.953125
9865,0.000000
9866,0.000000
9867,0.000000
9868,-1.953125
9869,0.000000
9870,0.000000
9871,0.000000
9872,0.000000
9873,0.000000
9874,1.953125
9875,1.953125
9876,0.000000
9877,1.953125
9878,1.953125
9879,1.953125
9880,1.953125
9881,1.953125
9882,1.953125
9883,3.906250
9884,3.906250
9885,3.906250
9886,1.953125
9887,1.953125
9888,3.906250
9889,3.906250
9890,3.906250
9891,3.906250
9892,3.906250
9893,3.906250
9894,3.906250
9895,3.906250
9896,3.906250
9897,3.906250
9898,3.906250
9899,3.906250
9900,3.906250
9901,3.906250
9902,5.859375
9903,5.859375
9904,5.859375
9905,5.859375
9906,5.859375
9907,5.859375
9908,5.859375
9909,5.859375
9910,5.859375
9911,5.859375
9912,5.859375
9913,5.859375
9914,5.859375
9915,5.859375
9916,5.859375
9917,5.859375
9918,5.859375
9919,5.859375
9920,5.859375
9921,5.859375
9922,5.859375
9923,5.859375
9924,5.859375
9925,5.859375
9926,5.859375
9927,3.906250
9928,5.859375
9929,5.859375
9930,3.906250
9931,3.906250
9932,3.906250
9933,5.859375
9934,3.906250
9935,3.906250
9936,3.906250
9937,3.906250
9938,3.906250
9939,3.906250
9940,3.906250
9941,3.906250
9942,3.906250
9943,3.906250
9944,3.906250
9945,1.953125
9946,1.953125
9947,1.953125
9948,3.906250
9949,1.953125
9950,1.953125
9951,1.953125
9952,1.953125
9953,1.953125
9954,1.953125
9955,1.953125
9956,1.953125
9957,1.953125
9958,0.000000
9959,0.000000
9960,0.000000
9961,0.000000
9962,0.000000
9963,0.000000
9964,-1.953125
9965,0.000000
9966,0.000000
9967,0.000000
9968,-1.953125
9969,-1.953125
9970,-1.953125
9971,-1.953125
9972,-1.953125
9973,-1.953125
9974,-3.906250
9975,-3.906250
9976,-3.906250
9977,-3.906250
9978,-3.906250
9979,-3.906250
9980,-3.906250
9981,-3.906250
9982,-3.906250
9983,-5.859375
9984,-5.859375
9985,-3.906250
9986,-5.859375
9987,-5.859375
9988,-5.859375
9989,-7.812500
9990,-7.812500
9991,-7.812500
9992,-7.812500
9993,-7.812500
9994,-7.812500
9995,-7.812500
9996,-7.812500
9997,-9.765625
9998,-9.765625
9999,-9.765625
10000,-9.765625
