Channel              :,CH1
Frequency            :,1.771kHz
Period               :,0.565ms
PK-PK                :,238.3mV
Probe attenuation    :,1X
Voltage per ADC value:,0.122070mV
Time interval        :,2.00000us

index,CH1_Voltage(mV)
1,105.468750
2,105.468750
3,103.515625
4,103.515625
5,105.468750
6,103.515625
7,103.515625
8,103.515625
9,103.515625
10,101.562500
11,101.562500
12,101.562500
13,99.609375
14,99.609375
15,97.656250
16,97.656250
17,97.656250
18,95.703125
19,95.703125
20,93.750000
21,93.750000
22,91.796875
23,91.796875
24,89.843750
25,89.843750
26,85.937500
27,85.937500
28,85.937500
29,83.984375
30,82.031250
31,80.078125
32,80.078125
33,78.125000
34,76.171875
35,74.218750
36,72.265625
37,70.312500
38,68.359375
39,66.406250
40,64.453125
41,62.500000
42,60.546875
43,58.593750
44,56.640625
45,54.687500
46,52.734375
47,50.781250
48,48.828125
49,46.875000
50,42.968750
51,41.015625
52,39.062500
53,37.109375
54,35.156250
55,33.203125
56,31.250000
57,29.296875
58,25.390625
59,23.437500
60,19.531250
61,17.578125
62,15.625000
63,13.671875
64,11.718750
65,7.812500
66,5.859375
67,3.906250
68,0.000000
69,-1.953125
70,-3.906250
71,-7.812500
72,-9.765625
73,-13.671875
74,-15.625000
75,-17.578125
76,-21.484375
77,-23.437500
78,-27.343750
79,-29.296875
80,-31.250000
81,-33.203125
82,-37.109375
83,-39.062500
84,-41.015625
85,-42.968750
86,-46.875000
87,-48.828125
88,-52.734375
89,-54.687500
90,-56.640625
91,-60.546875
92,-62.500000
93,-64.453125
94,-66.406250
95,-70.312500
96,-72.265625
97,-74.218750
98,-76.171875
99,-78.125000
100,-80.078125
101,-83.984375
102,-85.937500
103,-87.890625
104,-89.843750
105,-91.796875
106,-93.750000
107,-95.703125
108,-97.656250
109,-99.609375
110,-101.562500
111,-101.562500
112,-103.515625
113,-105.468750
114,-107.421875
115,-109.375000
116,-109.375000
117,-111.328125
118,-113.281250
119,-113.281250
120,-115.234375
121,-117.187500
122,-119.140625
123,-119.140625
124,-121.093750
125,-121.093750
126,-123.046875
127,-123.046875
128,-123.046875
129,-125.000000
130,-125.000000
131,-125.000000
132,-125.000000
133,-126.953125
134,-126.953125
135,-126.953125
136,-126.953125
137,-126.953125
138,-126.953125
139,-128.906250
140,-128.906250
141,-128.906250
142,-128.906250
143,-126.953125
144,-126.953125
145,-126.953125
146,-126.953125
147,-126.953125
148,-125.000000
149,-125.000000
150,-125.000000
151,-125.000000
152,-123.046875
153,-123.046875
154,-121.093750
155,-121.093750
156,-121.093750
157,-119.140625
158,-117.187500
159,-117.187500
160,-115.234375
161,-115.234375
162,-113.281250
163,-111.328125
164,-109.375000
165,-109.375000
166,-107.421875
167,-105.468750
168,-103.515625
169,-101.562500
170,-101.562500
171,-97.656250
172,-95.703125
173,-95.703125
174,-93.750000
175,-89.843750
176,-87.890625
177,-85.937500
178,-83.984375
179,-82.031250
180,-80.078125
181,-78.125000
182,-74.218750
183,-72.265625
184,-72.265625
185,-68.359375
186,-66.406250
187,-64.453125
188,-60.546875
189,-58.593750
190,-56.640625
191,-54.687500
192,-50.781250
193,-48.828125
194,-44.921875
195,-42.968750
196,-41.015625
197,-39.062500
198,-35.156250
199,-33.203125
200,-31.250000
201,-27.343750
202,-25.390625
203,-23.437500
204,-19.531250
205,-17.578125
206,-15.625000
207,-11.718750
208,-9.765625
209,-7.812500
210,-5.859375
211,-1.953125
212,0.000000
213,3.906250
214,5.859375
215,7.812500
216,11.718750
217,13.671875
218,15.625000
219,17.578125
220,21.484375
221,23.437500
222,27.343750
223,29.296875
224,31.250000
225,33.203125
226,35.156250
227,37.109375
228,39.062500
229,42.968750
230,44.921875
231,48.828125
232,48.828125
233,50.781250
234,52.734375
235,54.687500
236,56.640625
237,58.593750
238,60.546875
239,62.500000
240,64.453125
241,66.406250
242,68.359375
243,70.312500
244,72.265625
245,74.218750
246,74.218750
247,76.171875
248,78.125000
249,80.078125
250,82.031250
251,82.031250
252,83.984375
253,85.937500
254,87.890625
255,87.890625
256,89.843750
257,89.843750
258,91.796875
259,91.796875
260,93.750000
261,95.703125
262,95.703125
263,97.656250
264,97.656250
265,99.609375
266,99.609375
267,99.609375
268,99.609375
269,101.562500
270,101.562500
271,101.562500
272,103.515625
273,103.515625
274,103.515625
275,103.515625
276,105.468750
277,103.515625
278,105.468750
279,105.468750
280,103.515625
281,103.515625
282,105.468750
283,105.468750
284,105.468750
285,103.515625
286,103.515625
287,103.515625
288,103.515625
289,103.515625
290,101.562500
291,101.562500
292,101.562500
293,101.562500
294,99.609375
295,99.609375
296,99.609375
297,97.656250
298,97.656250
299,97.656250
300,95.703125
301,95.703125
302,93.750000
303,93.750000
304,91.796875
305,91.796875
306,89.843750
307,87.890625
308,87.890625
309,85.937500
310,85.937500
311,83.984375
312,82.031250
313,82.031250
314,80.078125
315,78.125000
316,76.171875
317,74.218750
318,72.265625
319,70.312500
320,68.359375
321,66.406250
322,66.406250
323,62.500000
324,62.500000
325,60.546875
326,56.640625
327,56.640625
328,54.687500
329,50.781250
330,50.781250
331,46.875000
332,44.921875
333,42.968750
334,41.015625
335,39.062500
336,35.156250
337,33.203125
338,31.250000
339,29.296875
340,25.390625
341,25.390625
342,21.484375
343,19.531250
344,15.625000
345,13.671875
346,11.718750
347,9.765625
348,5.859375
349,3.906250
350,0.000000
351,-1.953125
352,-3.906250
353,-7.812500
354,-9.765625
355,-11.718750
356,-15.625000
357,-17.578125
358,-19.531250
359,-23.437500
360,-25.390625
361,-29.296875
362,-31.250000
363,-33.203125
364,-37.109375
365,-39.062500
366,-41.015625
367,-42.968750
368,-46.875000
369,-48.828125
370,-50.781250
371,-54.687500
372,-56.640625
373,-58.593750
374,-60.546875
375,-64.453125
376,-66.406250
377,-68.359375
378,-72.265625
379,-74.218750
380,-76.171875
381,-78.125000
382,-80.078125
383,-82.031250
384,-83.984375
385,-85.937500
386,-89.843750
387,-91.796875
388,-91.796875
389,-95.703125
390,-95.703125
391,-97.656250
392,-99.609375
393,-101.562500
394,-103.515625
395,-105.468750
396,-107.421875
397,-109.375000
398,-109.375000
399,-111.328125
400,-113.281250
401,-115.234375
402,-115.234375
403,-117.187500
404,-117.187500
405,-119.140625
406,-119.140625
407,-121.093750
408,-121.093750
409,-123.046875
410,-123.046875
411,-125.000000
412,-125.000000
413,-126.953125
414,-126.953125
415,-126.953125
416,-126.953125
417,-128.906250
418,-126.953125
419,-128.906250
420,-128.906250
421,-128.906250
422,-128.906250
423,-128.906250
424,-128.906250
425,-128.906250
426,-128.906250
427,-126.953125
428,-126.953125
429,-126.953125
430,-126.953125
431,-126.953125
432,-125.000000
433,-125.000000
434,-125.000000
435,-123.046875
436,-123.046875
437,-121.093750
438,-121.093750
439,-121.093750
440,-119.140625
441,-117.187500
442,-115.234375
443,-115.234375
444,-113.281250
445,-111.328125
446,-111.328125
447,-109.375000
448,-107.421875
449,-105.468750
450,-103.515625
451,-101.562500
452,-101.562500
453,-99.609375
454,-97.656250
455,-95.703125
456,-93.750000
457,-91.796875
458,-89.843750
459,-87.890625
460,-85.937500
461,-83.984375
462,-82.031250
463,-78.125000
464,-76.171875
465,-74.218750
466,-72.265625
467,-70.312500
468,-66.406250
469,-64.453125
470,-62.500000
471,-60.546875
472,-58.593750
473,-54.687500
474,-52.734375
475,-50.781250
476,-46.875000
477,-44.921875
478,-42.968750
479,-39.062500
480,-37.109375
481,-35.156250
482,-33.203125
483,-29.296875
484,-27.343750
485,-23.437500
486,-21.484375
487,-17.578125
488,-15.625000
489,-13.671875
490,-9.765625
491,-7.812500
492,-5.859375
493,-1.953125
494,0.000000
495,1.953125
496,3.906250
497,7.812500
498,9.765625
499,11.718750
500,13.671875
501,17.578125
502,19.531250
503,23.437500
504,25.390625
505,27.343750
506,31.250000
507,33.203125
508,33.203125
509,37.109375
510,39.062500
511,41.015625
512,42.968750
513,46.875000
514,48.828125
515,50.781250
516,52.734375
517,54.687500
518,56.640625
519,58.593750
520,60.546875
521,62.500000
522,64.453125
523,66.406250
524,68.359375
525,70.312500
526,72.265625
527,74.218750
528,76.171875
529,76.171875
530,78.125000
531,80.078125
532,82.031250
533,82.031250
534,83.984375
535,85.937500
536,87.890625
537,87.890625
538,89.843750
539,91.796875
540,91.796875
541,93.750000
542,93.750000
543,93.750000
544,95.703125
545,95.703125
546,97.656250
547,97.656250
548,99.609375
549,99.609375
550,99.609375
551,101.562500
552,101.562500
553,101.562500
554,103.515625
555,103.515625
556,103.515625
557,103.515625
558,105.468750
559,103.515625
560,103.515625
561,103.515625
562,105.468750
563,105.468750
564,103.515625
565,105.468750
566,105.468750
567,105.468750
568,103.515625
569,103.515625
570,103.515625
571,103.515625
572,103.515625
573,103.515625
574,101.562500
575,101.562500
576,101.562500
577,99.609375
578,99.609375
579,99.609375
580,97.656250
581,97.656250
582,97.656250
583,95.703125
584,93.750000
585,93.750000
586,91.796875
587,91.796875
588,91.796875
589,89.843750
590,87.890625
591,85.937500
592,85.937500
593,83.984375
594,83.984375
595,82.031250
596,80.078125
597,78.125000
598,76.171875
599,76.171875
600,74.218750
601,72.265625
602,70.312500
603,68.359375
604,66.406250
605,64.453125
606,62.500000
607,60.546875
608,58.593750
609,56.640625
610,54.687500
611,54.687500
612,50.781250
613,48.828125
614,46.875000
615,42.968750
616,41.015625
617,39.062500
618,37.109375
619,35.156250
620,33.203125
621,29.296875
622,27.343750
623,23.437500
624,21.484375
625,19.531250
626,17.578125
627,15.625000
628,11.718750
629,9.765625
630,7.812500
631,3.906250
632,1.953125
633,0.000000
634,-3.906250
635,-5.859375
636,-7.812500
637,-11.718750
638,-13.671875
639,-17.578125
640,-17.578125
641,-21.484375
642,-23.437500
643,-27.343750
644,-29.296875
645,-31.250000
646,-35.156250
647,-37.109375
648,-41.015625
649,-42.968750
650,-44.921875
651,-46.875000
652,-50.781250
653,-52.734375
654,-54.687500
655,-56.640625
656,-60.546875
657,-62.500000
658,-64.453125
659,-66.406250
660,-70.312500
661,-72.265625
662,-74.218750
663,-76.171875
664,-78.125000
665,-82.031250
666,-83.984375
667,-85.937500
668,-85.937500
669,-89.843750
670,-91.796875
671,-93.750000
672,-95.703125
673,-97.656250
674,-99.609375
675,-101.562500
676,-103.515625
677,-103.515625
678,-107.421875
679,-107.421875
680,-109.375000
681,-111.328125
682,-111.328125
683,-113.281250
684,-115.234375
685,-117.187500
686,-117.187500
687,-117.187500
688,-119.140625
689,-121.093750
690,-121.093750
691,-123.046875
692,-123.046875
693,-125.000000
694,-125.000000
695,-125.000000
696,-125.000000
697,-126.953125
698,-126.953125
699,-126.953125
700,-126.953125
701,-126.953125
702,-128.906250
703,-128.906250
704,-126.953125
705,-128.906250
706,-128.906250
707,-126.953125
708,-126.953125
709,-126.953125
710,-126.953125
711,-126.953125
712,-125.000000
713,-125.000000
714,-125.000000
715,-123.046875
716,-123.046875
717,-123.046875
718,-123.046875
719,-121.093750
720,-121.093750
721,-119.140625
722,-119.140625
723,-117.187500
724,-115.234375
725,-115.234375
726,-113.281250
727,-111.328125
728,-111.328125
729,-109.375000
730,-107.421875
731,-107.421875
732,-103.515625
733,-101.562500
734,-101.562500
735,-99.609375
736,-97.656250
737,-95.703125
738,-93.750000
739,-91.796875
740,-89.843750
741,-87.890625
742,-85.937500
743,-83.984375
744,-82.031250
745,-80.078125
746,-76.171875
747,-74.218750
748,-72.265625
749,-70.312500
750,-68.359375
751,-64.453125
752,-62.500000
753,-60.546875
754,-58.593750
755,-54.687500
756,-52.734375
757,-50.781250
758,-46.875000
759,-44.921875
760,-42.968750
761,-39.062500
762,-37.109375
763,-35.156250
764,-31.250000
765,-29.296875
766,-27.343750
767,-25.390625
768,-21.484375
769,-19.531250
770,-17.578125
771,-13.671875
772,-11.718750
773,-7.812500
774,-5.859375
775,-3.906250
776,0.000000
777,1.953125
778,5.859375
779,7.812500
780,9.765625
781,11.718750
782,13.671875
783,17.578125
784,19.531250
785,21.484375
786,25.390625
787,27.343750
788,29.296875
789,31.250000
790,35.156250
791,37.109375
792,39.062500
793,41.015625
794,42.968750
795,46.875000
796,46.875000
797,48.828125
798,52.734375
799,54.687500
800,56.640625
801,58.593750
802,60.546875
803,62.500000
804,62.500000
805,66.406250
806,68.359375
807,68.359375
808,72.265625
809,72.265625
810,74.218750
811,76.171875
812,78.125000
813,80.078125
814,83.984375
815,82.031250
816,83.984375
817,85.937500
818,85.937500
819,87.890625
820,87.890625
821,93.750000
822,89.843750
823,91.796875
824,93.750000
825,93.750000
826,95.703125
827,95.703125
828,95.703125
829,97.656250
830,97.656250
831,99.609375
832,99.609375
833,99.609375
834,101.562500
835,101.562500
836,101.562500
837,101.562500
838,103.515625
839,103.515625
840,103.515625
841,105.468750
842,105.468750
843,103.515625
844,105.468750
845,103.515625
846,105.468750
847,105.468750
848,103.515625
849,103.515625
850,103.515625
851,103.515625
852,103.515625
853,103.515625
854,103.515625
855,103.515625
856,101.562500
857,101.562500
858,101.562500
859,99.609375
860,99.609375
861,99.609375
862,97.656250
863,97.656250
864,97.656250
865,95.703125
866,93.750000
867,93.750000
868,93.750000
869,91.796875
870,89.843750
871,89.843750
872,87.890625
873,85.937500
874,85.937500
875,83.984375
876,82.031250
877,82.031250
878,80.078125
879,78.125000
880,76.171875
881,76.171875
882,74.218750
883,72.265625
884,70.312500
885,68.359375
886,66.406250
887,64.453125
888,62.500000
889,60.546875
890,58.593750
891,56.640625
892,54.687500
893,52.734375
894,50.781250
895,48.828125
896,46.875000
897,42.968750
898,41.015625
899,39.062500
900,37.109375
901,35.156250
902,33.203125
903,29.296875
904,27.343750
905,25.390625
906,23.437500
907,19.531250
908,17.578125
909,15.625000
910,13.671875
911,11.718750
912,7.812500
913,5.859375
914,1.953125
915,0.000000
916,-1.953125
917,-5.859375
918,-7.812500
919,-9.765625
920,-13.671875
921,-15.625000
922,-17.578125
923,-21.484375
924,-23.437500
925,-27.343750
926,-29.296875
927,-31.250000
928,-35.156250
929,-37.109375
930,-39.062500
931,-42.968750
932,-44.921875
933,-46.875000
934,-50.781250
935,-52.734375
936,-54.687500
937,-58.593750
938,-60.546875
939,-62.500000
940,-64.453125
941,-66.406250
942,-70.312500
943,-72.265625
944,-74.218750
945,-76.171875
946,-78.125000
947,-82.031250
948,-83.984375
949,-85.937500
950,-87.890625
951,-89.843750
952,-91.796875
953,-93.750000
954,-95.703125
955,-93.750000
956,-99.609375
957,-103.515625
958,-103.515625
959,-109.375000
960,-105.468750
961,-107.421875
962,-109.375000
963,-107.421875
964,-111.328125
965,-113.281250
966,-113.281250
967,-117.187500
968,-117.187500
969,-117.187500
970,-119.140625
971,-123.046875
972,-121.093750
973,-123.046875
974,-123.046875
975,-125.000000
976,-125.000000
977,-125.000000
978,-125.000000
979,-126.953125
980,-126.953125
981,-126.953125
982,-126.953125
983,-128.906250
984,-128.906250
985,-128.906250
986,-128.906250
987,-128.906250
988,-128.906250
989,-128.906250
990,-128.906250
991,-128.906250
992,-126.953125
993,-126.953125
994,-125.000000
995,-125.000000
996,-125.000000
997,-126.953125
998,-123.046875
999,-123.046875
1000,-123.046875
1001,-121.093750
1002,-121.093750
1003,-121.093750
1004,-119.140625
1005,-117.187500
1006,-117.187500
1007,-115.234375
1008,-113.281250
1009,-113.281250
1010,-111.328125
1011,-109.375000
1012,-109.375000
1013,-109.375000
1014,-105.468750
1015,-103.515625
1016,-101.562500
1017,-99.609375
1018,-97.656250
1019,-97.656250
1020,-93.750000
1021,-93.750000
1022,-89.843750
1023,-87.890625
1024,-87.890625
1025,-83.984375
1026,-82.031250
1027,-80.078125
1028,-78.125000
1029,-76.171875
1030,-74.218750
1031,-70.312500
1032,-68.359375
1033,-66.406250
1034,-62.500000
1035,-60.546875
1036,-58.593750
1037,-56.640625
1038,-52.734375
1039,-50.781250
1040,-48.828125
1041,-46.875000
1042,-42.968750
1043,-41.015625
1044,-39.062500
1045,-35.156250
1046,-33.203125
1047,-29.296875
1048,-27.343750
1049,-25.390625
1050,-23.437500
1051,-19.531250
1052,-17.578125
1053,-13.671875
1054,-11.718750
1055,-9.765625
1056,-5.859375
1057,-3.906250
1058,-1.953125
1059,0.000000
1060,3.906250
1061,5.859375
1062,9.765625
1063,11.718750
1064,13.671875
1065,15.625000
1066,19.531250
1067,21.484375
1068,23.437500
1069,25.390625
1070,29.296875
1071,31.250000
1072,33.203125
1073,35.156250
1074,37.109375
1075,41.015625
1076,42.968750
1077,44.921875
1078,46.875000
1079,48.828125
1080,50.781250
1081,52.734375
1082,54.687500
1083,56.640625
1084,58.593750
1085,60.546875
1086,62.500000
1087,64.453125
1088,66.406250
1089,68.359375
1090,70.312500
1091,72.265625
1092,74.218750
1093,76.171875
1094,76.171875
1095,78.125000
1096,80.078125
1097,82.031250
1098,83.984375
1099,85.937500
1100,85.937500
1101,87.890625
1102,87.890625
1103,89.843750
1104,91.796875
1105,91.796875
1106,93.750000
1107,93.750000
1108,95.703125
1109,95.703125
1110,97.656250
1111,97.656250
1112,99.609375
1113,99.609375
1114,99.609375
1115,101.562500
1116,99.609375
1117,101.562500
1118,101.562500
1119,103.515625
1120,103.515625
1121,103.515625
1122,103.515625
1123,103.515625
1124,103.515625
1125,103.515625
1126,105.468750
1127,105.468750
1128,105.468750
1129,103.515625
1130,105.468750
1131,103.515625
1132,103.515625
1133,103.515625
1134,103.515625
1135,103.515625
1136,103.515625
1137,103.515625
1138,103.515625
1139,101.562500
1140,101.562500
1141,101.562500
1142,99.609375
1143,99.609375
1144,99.609375
1145,97.656250
1146,97.656250
1147,95.703125
1148,95.703125
1149,93.750000
1150,93.750000
1151,91.796875
1152,91.796875
1153,89.843750
1154,89.843750
1155,87.890625
1156,85.937500
1157,85.937500
1158,83.984375
1159,82.031250
1160,80.078125
1161,78.125000
1162,78.125000
1163,76.171875
1164,74.218750
1165,72.265625
1166,70.312500
1167,72.265625
1168,68.359375
1169,66.406250
1170,62.500000
1171,62.500000
1172,60.546875
1173,56.640625
1174,56.640625
1175,54.687500
1176,52.734375
1177,48.828125
1178,46.875000
1179,44.921875
1180,42.968750
1181,41.015625
1182,39.062500
1183,35.156250
1184,35.156250
1185,31.250000
1186,29.296875
1187,25.390625
1188,23.437500
1189,21.484375
1190,19.531250
1191,15.625000
1192,13.671875
1193,11.718750
1194,9.765625
1195,5.859375
1196,3.906250
1197,0.000000
1198,-1.953125
1199,-3.906250
1200,-5.859375
1201,-9.765625
1202,-11.718750
1203,-15.625000
1204,-17.578125
1205,-19.531250
1206,-23.437500
1207,-25.390625
1208,-29.296875
1209,-31.250000
1210,-33.203125
1211,-37.109375
1212,-39.062500
1213,-41.015625
1214,-42.968750
1215,-46.875000
1216,-46.875000
1217,-50.781250
1218,-54.687500
1219,-56.640625
1220,-58.593750
1221,-60.546875
1222,-64.453125
1223,-66.406250
1224,-68.359375
1225,-70.312500
1226,-74.218750
1227,-76.171875
1228,-78.125000
1229,-80.078125
1230,-82.031250
1231,-83.984375
1232,-85.937500
1233,-87.890625
1234,-89.843750
1235,-91.796875
1236,-93.750000
1237,-97.656250
1238,-97.656250
1239,-101.562500
1240,-101.562500
1241,-103.515625
1242,-105.468750
1243,-107.421875
1244,-107.421875
1245,-109.375000
1246,-111.328125
1247,-113.281250
1248,-113.281250
1249,-115.234375
1250,-117.187500
1251,-117.187500
1252,-119.140625
1253,-119.140625
1254,-121.093750
1255,-121.093750
1256,-123.046875
1257,-123.046875
1258,-125.000000
1259,-125.000000
1260,-125.000000
1261,-126.953125
1262,-126.953125
1263,-126.953125
1264,-126.953125
1265,-128.906250
1266,-128.906250
1267,-128.906250
1268,-128.906250
1269,-128.906250
1270,-128.906250
1271,-128.906250
1272,-128.906250
1273,-126.953125
1274,-126.953125
1275,-126.953125
1276,-126.953125
1277,-126.953125
1278,-125.000000
1279,-125.000000
1280,-125.000000
1281,-123.046875
1282,-123.046875
1283,-123.046875
1284,-121.093750
1285,-119.140625
1286,-119.140625
1287,-117.187500
1288,-117.187500
1289,-115.234375
1290,-113.281250
1291,-113.281250
1292,-111.328125
1293,-109.375000
1294,-107.421875
1295,-107.421875
1296,-105.468750
1297,-103.515625
1298,-101.562500
1299,-99.609375
1300,-97.656250
1301,-97.656250
1302,-93.750000
1303,-91.796875
1304,-91.796875
1305,-89.843750
1306,-85.937500
1307,-85.937500
1308,-82.031250
1309,-80.078125
1310,-78.125000
1311,-76.171875
1312,-72.265625
1313,-72.265625
1314,-68.359375
1315,-66.406250
1316,-64.453125
1317,-60.546875
1318,-58.593750
1319,-56.640625
1320,-54.687500
1321,-52.734375
1322,-48.828125
1323,-46.875000
1324,-44.921875
1325,-41.015625
1326,-39.062500
1327,-37.109375
1328,-33.203125
1329,-31.250000
1330,-29.296875
1331,-25.390625
1332,-23.437500
1333,-21.484375
1334,-17.578125
1335,-15.625000
1336,-13.671875
1337,-9.765625
1338,-7.812500
1339,-3.906250
1340,-1.953125
1341,0.000000
1342,3.906250
1343,5.859375
1344,7.812500
1345,9.765625
1346,13.671875
1347,15.625000
1348,19.531250
1349,19.531250
1350,23.437500
1351,29.296875
1352,27.343750
1353,31.250000
1354,33.203125
1355,35.156250
1356,37.109375
1357,39.062500
1358,42.968750
1359,44.921875
1360,46.875000
1361,48.828125
1362,50.781250
1363,52.734375
1364,54.687500
1365,56.640625
1366,58.593750
1367,60.546875
1368,62.500000
1369,64.453125
1370,66.406250
1371,68.359375
1372,70.312500
1373,72.265625
1374,74.218750
1375,76.171875
1376,76.171875
1377,78.125000
1378,80.078125
1379,82.031250
1380,82.031250
1381,83.984375
1382,85.937500
1383,87.890625
1384,87.890625
1385,89.843750
1386,89.843750
1387,91.796875
1388,93.750000
1389,93.750000
1390,95.703125
1391,95.703125
1392,95.703125
1393,97.656250
1394,97.656250
1395,99.609375
1396,99.609375
1397,101.562500
1398,101.562500
1399,101.562500
1400,99.609375
1401,99.609375
1402,103.515625
1403,103.515625
1404,103.515625
1405,103.515625
1406,103.515625
1407,105.468750
1408,105.468750
1409,103.515625
1410,105.468750
1411,103.515625
1412,105.468750
1413,105.468750
1414,103.515625
1415,103.515625
1416,103.515625
1417,103.515625
1418,103.515625
1419,103.515625
1420,103.515625
1421,101.562500
1422,101.562500
1423,101.562500
1424,101.562500
1425,99.609375
1426,99.609375
1427,97.656250
1428,97.656250
1429,95.703125
1430,95.703125
1431,95.703125
1432,93.750000
1433,91.796875
1434,91.796875
1435,91.796875
1436,87.890625
1437,87.890625
1438,85.937500
1439,85.937500
1440,83.984375
1441,82.031250
1442,82.031250
1443,80.078125
1444,78.125000
1445,76.171875
1446,74.218750
1447,72.265625
1448,70.312500
1449,70.312500
1450,68.359375
1451,64.453125
1452,64.453125
1453,62.500000
1454,60.546875
1455,58.593750
1456,56.640625
1457,54.687500
1458,52.734375
1459,50.781250
1460,46.875000
1461,44.921875
1462,42.968750
1463,41.015625
1464,39.062500
1465,37.109375
1466,35.156250
1467,31.250000
1468,29.296875
1469,27.343750
1470,23.437500
1471,21.484375
1472,19.531250
1473,15.625000
1474,15.625000
1475,11.718750
1476,9.765625
1477,7.812500
1478,3.906250
1479,1.953125
1480,0.000000
1481,-1.953125
1482,-5.859375
1483,-9.765625
1484,-11.718750
1485,-13.671875
1486,-17.578125
1487,-19.531250
1488,-21.484375
1489,-25.390625
1490,-27.343750
1491,-29.296875
1492,-33.203125
1493,-35.156250
1494,-37.109375
1495,-41.015625
1496,-42.968750
1497,-44.921875
1498,-48.828125
1499,-50.781250
1500,-52.734375
1501,-54.687500
1502,-56.640625
1503,-60.546875
1504,-62.500000
1505,-66.406250
1506,-68.359375
1507,-70.312500
1508,-72.265625
1509,-74.218750
1510,-76.171875
1511,-80.078125
1512,-82.031250
1513,-83.984375
1514,-85.937500
1515,-87.890625
1516,-89.843750
1517,-91.796875
1518,-95.703125
1519,-97.656250
1520,-99.609375
1521,-99.609375
1522,-101.562500
1523,-103.515625
1524,-105.468750
1525,-107.421875
1526,-107.421875
1527,-109.375000
1528,-111.328125
1529,-111.328125
1530,-113.281250
1531,-115.234375
1532,-117.187500
1533,-117.187500
1534,-119.140625
1535,-119.140625
1536,-119.140625
1537,-121.093750
1538,-123.046875
1539,-123.046875
1540,-123.046875
1541,-125.000000
1542,-125.000000
1543,-126.953125
1544,-125.000000
1545,-126.953125
1546,-126.953125
1547,-128.906250
1548,-128.906250
1549,-128.906250
1550,-128.906250
1551,-128.906250
1552,-126.953125
1553,-128.906250
1554,-128.906250
1555,-126.953125
1556,-126.953125
1557,-126.953125
1558,-126.953125
1559,-128.906250
1560,-125.000000
1561,-125.000000
1562,-125.000000
1563,-123.046875
1564,-123.046875
1565,-123.046875
1566,-121.093750
1567,-121.093750
1568,-119.140625
1569,-117.187500
1570,-119.140625
1571,-117.187500
1572,-113.281250
1573,-113.281250
1574,-111.328125
1575,-109.375000
1576,-111.328125
1577,-107.421875
1578,-107.421875
1579,-105.468750
1580,-103.515625
1581,-101.562500
1582,-99.609375
1583,-97.656250
1584,-95.703125
1585,-93.750000
1586,-91.796875
1587,-89.843750
1588,-87.890625
1589,-85.937500
1590,-82.031250
1591,-82.031250
1592,-80.078125
1593,-76.171875
1594,-74.218750
1595,-72.265625
1596,-70.312500
1597,-66.406250
1598,-64.453125
1599,-62.500000
1600,-60.546875
1601,-56.640625
1602,-56.640625
1603,-52.734375
1604,-48.828125
1605,-46.875000
1606,-44.921875
1607,-42.968750
1608,-39.062500
1609,-37.109375
1610,-35.156250
1611,-33.203125
1612,-29.296875
1613,-27.343750
1614,-23.437500
1615,-21.484375
1616,-19.531250
1617,-15.625000
1618,-13.671875
1619,-11.718750
1620,-7.812500
1621,-5.859375
1622,-1.953125
1623,0.000000
1624,1.953125
1625,3.906250
1626,7.812500
1627,9.765625
1628,13.671875
1629,15.625000
1630,17.578125
1631,19.531250
1632,23.437500
1633,25.390625
1634,27.343750
1635,31.250000
1636,33.203125
1637,35.156250
1638,37.109375
1639,39.062500
1640,42.968750
1641,44.921875
1642,44.921875
1643,48.828125
1644,50.781250
1645,52.734375
1646,54.687500
1647,56.640625
1648,58.593750
1649,60.546875
1650,62.500000
1651,64.453125
1652,66.406250
1653,68.359375
1654,70.312500
1655,72.265625
1656,72.265625
1657,74.218750
1658,76.171875
1659,78.125000
1660,80.078125
1661,82.031250
1662,82.031250
1663,83.984375
1664,85.937500
1665,85.937500
1666,87.890625
1667,89.843750
1668,89.843750
1669,89.843750
1670,93.750000
1671,93.750000
1672,93.750000
1673,95.703125
1674,97.656250
1675,97.656250
1676,97.656250
1677,99.609375
1678,99.609375
1679,99.609375
1680,101.562500
1681,101.562500
1682,101.562500
1683,101.562500
1684,103.515625
1685,103.515625
1686,103.515625
1687,103.515625
1688,105.468750
1689,105.468750
1690,105.468750
1691,105.468750
1692,105.468750
1693,105.468750
1694,105.468750
1695,105.468750
1696,105.468750
1697,105.468750
1698,105.468750
1699,103.515625
1700,103.515625
1701,103.515625
1702,103.515625
1703,101.562500
1704,101.562500
1705,101.562500
1706,101.562500
1707,99.609375
1708,99.609375
1709,99.609375
1710,97.656250
1711,97.656250
1712,95.703125
1713,93.750000
1714,93.750000
1715,93.750000
1716,91.796875
1717,91.796875
1718,89.843750
1719,87.890625
1720,85.937500
1721,85.937500
1722,83.984375
1723,82.031250
1724,82.031250
1725,80.078125
1726,78.125000
1727,76.171875
1728,76.171875
1729,74.218750
1730,72.265625
1731,70.312500
1732,68.359375
1733,66.406250
1734,64.453125
1735,62.500000
1736,60.546875
1737,58.593750
1738,54.687500
1739,54.687500
1740,52.734375
1741,50.781250
1742,48.828125
1743,46.875000
1744,44.921875
1745,42.968750
1746,39.062500
1747,37.109375
1748,35.156250
1749,33.203125
1750,29.296875
1751,27.343750
1752,25.390625
1753,23.437500
1754,21.484375
1755,17.578125
1756,15.625000
1757,13.671875
1758,11.718750
1759,7.812500
1760,5.859375
1761,3.906250
1762,1.953125
1763,-1.953125
1764,-3.906250
1765,-7.812500
1766,-9.765625
1767,-13.671875
1768,-15.625000
1769,-17.578125
1770,-19.531250
1771,-23.437500
1772,-27.343750
1773,-29.296875
1774,-31.250000
1775,-35.156250
1776,-37.109375
1777,-41.015625
1778,-42.968750
1779,-44.921875
1780,-46.875000
1781,-48.828125
1782,-52.734375
1783,-54.687500
1784,-56.640625
1785,-60.546875
1786,-62.500000
1787,-64.453125
1788,-66.406250
1789,-72.265625
1790,-72.265625
1791,-74.218750
1792,-76.171875
1793,-80.078125
1794,-82.031250
1795,-83.984375
1796,-85.937500
1797,-87.890625
1798,-89.843750
1799,-91.796875
1800,-93.750000
1801,-95.703125
1802,-97.656250
1803,-99.609375
1804,-101.562500
1805,-103.515625
1806,-103.515625
1807,-105.468750
1808,-107.421875
1809,-109.375000
1810,-111.328125
1811,-111.328125
1812,-113.281250
1813,-115.234375
1814,-115.234375
1815,-117.187500
1816,-117.187500
1817,-119.140625
1818,-121.093750
1819,-121.093750
1820,-123.046875
1821,-123.046875
1822,-123.046875
1823,-125.000000
1824,-125.000000
1825,-125.000000
1826,-126.953125
1827,-126.953125
1828,-126.953125
1829,-126.953125
1830,-126.953125
1831,-128.906250
1832,-128.906250
1833,-128.906250
1834,-128.906250
1835,-128.906250
1836,-128.906250
1837,-126.953125
1838,-128.906250
1839,-126.953125
1840,-126.953125
1841,-126.953125
1842,-126.953125
1843,-126.953125
1844,-125.000000
1845,-125.000000
1846,-123.046875
1847,-123.046875
1848,-123.046875
1849,-121.093750
1850,-119.140625
1851,-119.140625
1852,-117.187500
1853,-117.187500
1854,-115.234375
1855,-113.281250
1856,-113.281250
1857,-111.328125
1858,-109.375000
1859,-107.421875
1860,-107.421875
1861,-105.468750
1862,-103.515625
1863,-101.562500
1864,-99.609375
1865,-97.656250
1866,-95.703125
1867,-93.750000
1868,-91.796875
1869,-89.843750
1870,-87.890625
1871,-85.937500
1872,-83.984375
1873,-82.031250
1874,-80.078125
1875,-76.171875
1876,-74.218750
1877,-72.265625
1878,-68.359375
1879,-68.359375
1880,-66.406250
1881,-64.453125
1882,-60.546875
1883,-58.593750
1884,-56.640625
1885,-52.734375
1886,-50.781250
1887,-48.828125
1888,-46.875000
1889,-42.968750
1890,-41.015625
1891,-37.109375
1892,-35.156250
1893,-33.203125
1894,-29.296875
1895,-27.343750
1896,-25.390625
1897,-21.484375
1898,-19.531250
1899,-17.578125
1900,-13.671875
1901,-11.718750
1902,-7.812500
1903,-7.812500
1904,-3.906250
1905,0.000000
1906,1.953125
1907,3.906250
1908,5.859375
1909,9.765625
1910,11.718750
1911,13.671875
1912,15.625000
1913,19.531250
1914,21.484375
1915,23.437500
1916,25.390625
1917,29.296875
1918,31.250000
1919,33.203125
1920,35.156250
1921,39.062500
1922,42.968750
1923,42.968750
1924,44.921875
1925,46.875000
1926,48.828125
1927,50.781250
1928,52.734375
1929,56.640625
1930,56.640625
1931,60.546875
1932,62.500000
1933,64.453125
1934,64.453125
1935,66.406250
1936,68.359375
1937,72.265625
1938,72.265625
1939,72.265625
1940,76.171875
1941,78.125000
1942,80.078125
1943,80.078125
1944,82.031250
1945,83.984375
1946,85.937500
1947,85.937500
1948,87.890625
1949,89.843750
1950,89.843750
1951,91.796875
1952,91.796875
1953,93.750000
1954,93.750000
1955,95.703125
1956,95.703125
1957,97.656250
1958,97.656250
1959,97.656250
1960,99.609375
1961,99.609375
1962,101.562500
1963,101.562500
1964,101.562500
1965,103.515625
1966,103.515625
1967,103.515625
1968,103.515625
1969,103.515625
1970,103.515625
1971,103.515625
1972,101.562500
1973,105.468750
1974,105.468750
1975,103.515625
1976,103.515625
1977,103.515625
1978,105.468750
1979,103.515625
1980,103.515625
1981,103.515625
1982,103.515625
1983,103.515625
1984,101.562500
1985,101.562500
1986,101.562500
1987,101.562500
1988,99.609375
1989,101.562500
1990,99.609375
1991,99.609375
1992,97.656250
1993,97.656250
1994,95.703125
1995,95.703125
1996,93.750000
1997,93.750000
1998,91.796875
1999,91.796875
2000,89.843750
2001,89.843750
2002,87.890625
2003,85.937500
2004,85.937500
2005,83.984375
2006,82.031250
2007,80.078125
2008,78.125000
2009,78.125000
2010,76.171875
2011,74.218750
2012,74.218750
2013,72.265625
2014,68.359375
2015,66.406250
2016,66.406250
2017,62.500000
2018,60.546875
2019,60.546875
2020,58.593750
2021,54.687500
2022,52.734375
2023,50.781250
2024,48.828125
2025,46.875000
2026,44.921875
2027,44.921875
2028,41.015625
2029,37.109375
2030,35.156250
2031,33.203125
2032,31.250000
2033,29.296875
2034,25.390625
2035,23.437500
2036,21.484375
2037,17.578125
2038,15.625000
2039,13.671875
2040,11.718750
2041,7.812500
2042,5.859375
2043,3.906250
2044,0.000000
2045,-1.953125
2046,-3.906250
2047,-7.812500
2048,-9.765625
2049,-13.671875
2050,-15.625000
2051,-17.578125
2052,-19.531250
2053,-23.437500
2054,-25.390625
2055,-29.296875
2056,-31.250000
2057,-33.203125
2058,-35.156250
2059,-39.062500
2060,-41.015625
2061,-44.921875
2062,-46.875000
2063,-48.828125
2064,-52.734375
2065,-54.687500
2066,-56.640625
2067,-58.593750
2068,-60.546875
2069,-64.453125
2070,-66.406250
2071,-68.359375
2072,-70.312500
2073,-72.265625
2074,-76.171875
2075,-78.125000
2076,-80.078125
2077,-82.031250
2078,-83.984375
2079,-85.937500
2080,-87.890625
2081,-89.843750
2082,-91.796875
2083,-93.750000
2084,-95.703125
2085,-97.656250
2086,-99.609375
2087,-101.562500
2088,-103.515625
2089,-105.468750
2090,-107.421875
2091,-109.375000
2092,-109.375000
2093,-111.328125
2094,-113.281250
2095,-115.234375
2096,-115.234375
2097,-117.187500
2098,-119.140625
2099,-119.140625
2100,-119.140625
2101,-121.093750
2102,-123.046875
2103,-123.046875
2104,-123.046875
2105,-125.000000
2106,-125.000000
2107,-125.000000
2108,-126.953125
2109,-126.953125
2110,-126.953125
2111,-128.906250
2112,-126.953125
2113,-128.906250
2114,-128.906250
2115,-128.906250
2116,-126.953125
2117,-128.906250
2118,-126.953125
2119,-126.953125
2120,-126.953125
2121,-126.953125
2122,-126.953125
2123,-126.953125
2124,-126.953125
2125,-125.000000
2126,-125.000000
2127,-123.046875
2128,-123.046875
2129,-123.046875
2130,-121.093750
2131,-121.093750
2132,-119.140625
2133,-119.140625
2134,-117.187500
2135,-115.234375
2136,-115.234375
2137,-113.281250
2138,-111.328125
2139,-111.328125
2140,-109.375000
2141,-107.421875
2142,-107.421875
2143,-105.468750
2144,-103.515625
2145,-101.562500
2146,-99.609375
2147,-97.656250
2148,-95.703125
2149,-93.750000
2150,-91.796875
2151,-89.843750
2152,-87.890625
2153,-85.937500
2154,-83.984375
2155,-82.031250
2156,-80.078125
2157,-78.125000
2158,-72.265625
2159,-74.218750
2160,-70.312500
2161,-68.359375
2162,-66.406250
2163,-64.453125
2164,-60.546875
2165,-58.593750
2166,-56.640625
2167,-54.687500
2168,-50.781250
2169,-48.828125
2170,-46.875000
2171,-42.968750
2172,-41.015625
2173,-39.062500
2174,-35.156250
2175,-33.203125
2176,-31.250000
2177,-27.343750
2178,-25.390625
2179,-23.437500
2180,-21.484375
2181,-17.578125
2182,-15.625000
2183,-11.718750
2184,-9.765625
2185,-7.812500
2186,-3.906250
2187,-1.953125
2188,0.000000
2189,3.906250
2190,5.859375
2191,7.812500
2192,11.718750
2193,13.671875
2194,15.625000
2195,17.578125
2196,21.484375
2197,23.437500
2198,25.390625
2199,29.296875
2200,31.250000
2201,33.203125
2202,35.156250
2203,37.109375
2204,39.062500
2205,42.968750
2206,44.921875
2207,46.875000
2208,46.875000
2209,50.781250
2210,52.734375
2211,54.687500
2212,56.640625
2213,58.593750
2214,60.546875
2215,62.500000
2216,64.453125
2217,66.406250
2218,68.359375
2219,70.312500
2220,72.265625
2221,74.218750
2222,76.171875
2223,78.125000
2224,78.125000
2225,80.078125
2226,82.031250
2227,82.031250
2228,83.984375
2229,85.937500
2230,87.890625
2231,87.890625
2232,89.843750
2233,89.843750
2234,91.796875
2235,93.750000
2236,93.750000
2237,93.750000
2238,95.703125
2239,97.656250
2240,97.656250
2241,97.656250
2242,99.609375
2243,99.609375
2244,101.562500
2245,99.609375
2246,101.562500
2247,101.562500
2248,103.515625
2249,103.515625
2250,103.515625
2251,103.515625
2252,103.515625
2253,103.515625
2254,103.515625
2255,105.468750
2256,105.468750
2257,105.468750
2258,103.515625
2259,105.468750
2260,105.468750
2261,103.515625
2262,103.515625
2263,103.515625
2264,103.515625
2265,103.515625
2266,103.515625
2267,103.515625
2268,101.562500
2269,101.562500
2270,101.562500
2271,99.609375
2272,99.609375
2273,99.609375
2274,99.609375
2275,97.656250
2276,97.656250
2277,95.703125
2278,93.750000
2279,93.750000
2280,93.750000
2281,91.796875
2282,89.843750
2283,87.890625
2284,87.890625
2285,85.937500
2286,85.937500
2287,82.031250
2288,83.984375
2289,82.031250
2290,80.078125
2291,78.125000
2292,76.171875
2293,74.218750
2294,72.265625
2295,70.312500
2296,70.312500
2297,68.359375
2298,66.406250
2299,64.453125
2300,62.500000
2301,60.546875
2302,56.640625
2303,56.640625
2304,52.734375
2305,50.781250
2306,50.781250
2307,46.875000
2308,44.921875
2309,42.968750
2310,39.062500
2311,39.062500
2312,35.156250
2313,33.203125
2314,31.250000
2315,29.296875
2316,27.343750
2317,23.437500
2318,21.484375
2319,19.531250
2320,17.578125
2321,13.671875
2322,11.718750
2323,9.765625
2324,5.859375
2325,3.906250
2326,1.953125
2327,-3.906250
2328,-3.906250
2329,-5.859375
2330,-9.765625
2331,-11.718750
2332,-15.625000
2333,-17.578125
2334,-19.531250
2335,-21.484375
2336,-25.390625
2337,-27.343750
2338,-29.296875
2339,-33.203125
2340,-35.156250
2341,-37.109375
2342,-41.015625
2343,-42.968750
2344,-46.875000
2345,-48.828125
2346,-50.781250
2347,-54.687500
2348,-56.640625
2349,-58.593750
2350,-60.546875
2351,-64.453125
2352,-66.406250
2353,-68.359375
2354,-70.312500
2355,-74.218750
2356,-76.171875
2357,-78.125000
2358,-80.078125
2359,-82.031250
2360,-85.937500
2361,-85.937500
2362,-87.890625
2363,-89.843750
2364,-93.750000
2365,-93.750000
2366,-97.656250
2367,-99.609375
2368,-97.656250
2369,-101.562500
2370,-105.468750
2371,-103.515625
2372,-107.421875
2373,-109.375000
2374,-109.375000
2375,-111.328125
2376,-113.281250
2377,-115.234375
2378,-115.234375
2379,-117.187500
2380,-117.187500
2381,-119.140625
2382,-119.140625
2383,-121.093750
2384,-121.093750
2385,-123.046875
2386,-123.046875
2387,-125.000000
2388,-125.000000
2389,-125.000000
2390,-126.953125
2391,-126.953125
2392,-126.953125
2393,-126.953125
2394,-126.953125
2395,-126.953125
2396,-128.906250
2397,-128.906250
2398,-128.906250
2399,-128.906250
2400,-128.906250
2401,-126.953125
2402,-126.953125
2403,-126.953125
2404,-126.953125
2405,-126.953125
2406,-126.953125
2407,-126.953125
2408,-125.000000
2409,-125.000000
2410,-123.046875
2411,-123.046875
2412,-123.046875
2413,-121.093750
2414,-119.140625
2415,-119.140625
2416,-119.140625
2417,-117.187500
2418,-117.187500
2419,-113.281250
2420,-113.281250
2421,-113.281250
2422,-111.328125
2423,-109.375000
2424,-107.421875
2425,-105.468750
2426,-105.468750
2427,-103.515625
2428,-101.562500
2429,-99.609375
2430,-97.656250
2431,-95.703125
2432,-93.750000
2433,-91.796875
2434,-89.843750
2435,-87.890625
2436,-85.937500
2437,-83.984375
2438,-82.031250
2439,-78.125000
2440,-76.171875
2441,-74.218750
2442,-72.265625
2443,-70.312500
2444,-66.406250
2445,-64.453125
2446,-62.500000
2447,-58.593750
2448,-56.640625
2449,-54.687500
2450,-52.734375
2451,-50.781250
2452,-46.875000
2453,-44.921875
2454,-42.968750
2455,-39.062500
2456,-37.109375
2457,-35.156250
2458,-31.250000
2459,-29.296875
2460,-25.390625
2461,-21.484375
2462,-21.484375
2463,-17.578125
2464,-15.625000
2465,-13.671875
2466,-9.765625
2467,-7.812500
2468,-5.859375
2469,-1.953125
2470,0.000000
2471,1.953125
2472,5.859375
2473,7.812500
2474,9.765625
2475,13.671875
2476,15.625000
2477,17.578125
2478,19.531250
2479,23.437500
2480,25.390625
2481,27.343750
2482,29.296875
2483,33.203125
2484,35.156250
2485,39.062500
2486,39.062500
2487,41.015625
2488,42.968750
2489,46.875000
2490,48.828125
2491,50.781250
2492,52.734375
2493,54.687500
2494,56.640625
2495,58.593750
2496,60.546875
2497,62.500000
2498,64.453125
2499,66.406250
2500,68.359375
2501,70.312500
2502,70.312500
2503,74.218750
2504,76.171875
2505,76.171875
2506,78.125000
2507,80.078125
2508,80.078125
2509,83.984375
2510,83.984375
2511,85.937500
2512,85.937500
2513,87.890625
2514,89.843750
2515,89.843750
2516,91.796875
2517,91.796875
2518,93.750000
2519,95.703125
2520,95.703125
2521,95.703125
2522,97.656250
2523,97.656250
2524,97.656250
2525,99.609375
2526,99.609375
2527,101.562500
2528,101.562500
2529,101.562500
2530,103.515625
2531,103.515625
2532,103.515625
2533,103.515625
2534,105.468750
2535,103.515625
2536,105.468750
2537,105.468750
2538,105.468750
2539,105.468750
2540,105.468750
2541,105.468750
2542,105.468750
2543,105.468750
2544,103.515625
2545,103.515625
2546,103.515625
2547,103.515625
2548,103.515625
2549,103.515625
2550,101.562500
2551,101.562500
2552,101.562500
2553,101.562500
2554,99.609375
2555,99.609375
2556,97.656250
2557,97.656250
2558,95.703125
2559,95.703125
2560,93.750000
2561,93.750000
2562,93.750000
2563,91.796875
2564,89.843750
2565,89.843750
2566,87.890625
2567,85.937500
2568,85.937500
2569,83.984375
2570,83.984375
2571,82.031250
2572,80.078125
2573,78.125000
2574,76.171875
2575,74.218750
2576,72.265625
2577,72.265625
2578,70.312500
2579,68.359375
2580,66.406250
2581,64.453125
2582,62.500000
2583,60.546875
2584,58.593750
2585,56.640625
2586,54.687500
2587,52.734375
2588,48.828125
2589,46.875000
2590,44.921875
2591,44.921875
2592,41.015625
2593,39.062500
2594,37.109375
2595,35.156250
2596,33.203125
2597,29.296875
2598,27.343750
2599,25.390625
2600,23.437500
2601,19.531250
2602,17.578125
2603,15.625000
2604,13.671875
2605,11.718750
2606,7.812500
2607,5.859375
2608,1.953125
2609,0.000000
2610,-1.953125
2611,-5.859375
2612,-7.812500
2613,-11.718750
2614,-13.671875
2615,-15.625000
2616,-19.531250
2617,-21.484375
2618,-23.437500
2619,-27.343750
2620,-29.296875
2621,-31.250000
2622,-35.156250
2623,-37.109375
2624,-39.062500
2625,-42.968750
2626,-44.921875
2627,-48.828125
2628,-50.781250
2629,-52.734375
2630,-54.687500
2631,-58.593750
2632,-60.546875
2633,-62.500000
2634,-66.406250
2635,-68.359375
2636,-70.312500
2637,-72.265625
2638,-74.218750
2639,-76.171875
2640,-78.125000
2641,-80.078125
2642,-83.984375
2643,-85.937500
2644,-87.890625
2645,-89.843750
2646,-91.796875
2647,-93.750000
2648,-95.703125
2649,-97.656250
2650,-99.609375
2651,-101.562500
2652,-101.562500
2653,-103.515625
2654,-105.468750
2655,-107.421875
2656,-109.375000
2657,-111.328125
2658,-111.328125
2659,-113.281250
2660,-113.281250
2661,-117.187500
2662,-117.187500
2663,-119.140625
2664,-119.140625
2665,-121.093750
2666,-121.093750
2667,-121.093750
2668,-123.046875
2669,-123.046875
2670,-125.000000
2671,-123.046875
2672,-125.000000
2673,-126.953125
2674,-126.953125
2675,-126.953125
2676,-126.953125
2677,-126.953125
2678,-126.953125
2679,-126.953125
2680,-128.906250
2681,-128.906250
2682,-128.906250
2683,-128.906250
2684,-126.953125
2685,-126.953125
2686,-126.953125
2687,-126.953125
2688,-126.953125
2689,-126.953125
2690,-125.000000
2691,-125.000000
2692,-123.046875
2693,-123.046875
2694,-123.046875
2695,-121.093750
2696,-121.093750
2697,-119.140625
2698,-119.140625
2699,-117.187500
2700,-117.187500
2701,-115.234375
2702,-115.234375
2703,-111.328125
2704,-111.328125
2705,-109.375000
2706,-107.421875
2707,-105.468750
2708,-103.515625
2709,-103.515625
2710,-101.562500
2711,-99.609375
2712,-97.656250
2713,-95.703125
2714,-93.750000
2715,-91.796875
2716,-89.843750
2717,-87.890625
2718,-85.937500
2719,-80.078125
2720,-82.031250
2721,-78.125000
2722,-76.171875
2723,-74.218750
2724,-72.265625
2725,-70.312500
2726,-68.359375
2727,-64.453125
2728,-62.500000
2729,-60.546875
2730,-56.640625
2731,-54.687500
2732,-52.734375
2733,-50.781250
2734,-46.875000
2735,-44.921875
2736,-42.968750
2737,-39.062500
2738,-37.109375
2739,-35.156250
2740,-31.250000
2741,-29.296875
2742,-27.343750
2743,-25.390625
2744,-21.484375
2745,-19.531250
2746,-17.578125
2747,-13.671875
2748,-11.718750
2749,-7.812500
2750,-5.859375
2751,-3.906250
2752,-1.953125
2753,1.953125
2754,3.906250
2755,5.859375
2756,9.765625
2757,11.718750
2758,13.671875
2759,15.625000
2760,19.531250
2761,21.484375
2762,25.390625
2763,29.296875
2764,29.296875
2765,31.250000
2766,35.156250
2767,37.109375
2768,37.109375
2769,41.015625
2770,42.968750
2771,46.875000
2772,46.875000
2773,50.781250
2774,52.734375
2775,52.734375
2776,56.640625
2777,58.593750
2778,60.546875
2779,62.500000
2780,64.453125
2781,66.406250
2782,68.359375
2783,68.359375
2784,70.312500
2785,72.265625
2786,74.218750
2787,76.171875
2788,78.125000
2789,80.078125
2790,80.078125
2791,82.031250
2792,83.984375
2793,85.937500
2794,85.937500
2795,87.890625
2796,87.890625
2797,89.843750
2798,91.796875
2799,91.796875
2800,93.750000
2801,93.750000
2802,95.703125
2803,97.656250
2804,97.656250
2805,97.656250
2806,97.656250
2807,99.609375
2808,101.562500
2809,99.609375
2810,101.562500
2811,101.562500
2812,101.562500
2813,103.515625
2814,103.515625
2815,103.515625
2816,103.515625
2817,103.515625
2818,103.515625
2819,103.515625
2820,105.468750
2821,105.468750
2822,105.468750
2823,105.468750
2824,105.468750
2825,103.515625
2826,103.515625
2827,103.515625
2828,103.515625
2829,103.515625
2830,103.515625
2831,101.562500
2832,101.562500
2833,101.562500
2834,101.562500
2835,99.609375
2836,99.609375
2837,99.609375
2838,99.609375
2839,97.656250
2840,95.703125
2841,95.703125
2842,95.703125
2843,93.750000
2844,93.750000
2845,91.796875
2846,91.796875
2847,89.843750
2848,89.843750
2849,87.890625
2850,85.937500
2851,83.984375
2852,83.984375
2853,82.031250
2854,80.078125
2855,78.125000
2856,76.171875
2857,76.171875
2858,74.218750
2859,72.265625
2860,70.312500
2861,68.359375
2862,66.406250
2863,66.406250
2864,62.500000
2865,60.546875
2866,58.593750
2867,56.640625
2868,54.687500
2869,52.734375
2870,50.781250
2871,48.828125
2872,46.875000
2873,44.921875
2874,42.968750
2875,39.062500
2876,37.109375
2877,35.156250
2878,33.203125
2879,29.296875
2880,27.343750
2881,25.390625
2882,23.437500
2883,19.531250
2884,17.578125
2885,15.625000
2886,11.718750
2887,9.765625
2888,7.812500
2889,5.859375
2890,1.953125
2891,0.000000
2892,-1.953125
2893,-5.859375
2894,-7.812500
2895,-9.765625
2896,-13.671875
2897,-15.625000
2898,-19.531250
2899,-21.484375
2900,-23.437500
2901,-25.390625
2902,-29.296875
2903,-31.250000
2904,-33.203125
2905,-37.109375
2906,-39.062500
2907,-41.015625
2908,-44.921875
2909,-46.875000
2910,-50.781250
2911,-52.734375
2912,-54.687500
2913,-56.640625
2914,-60.546875
2915,-60.546875
2916,-64.453125
2917,-66.406250
2918,-70.312500
2919,-72.265625
2920,-74.218750
2921,-76.171875
2922,-78.125000
2923,-80.078125
2924,-83.984375
2925,-83.984375
2926,-87.890625
2927,-89.843750
2928,-91.796875
2929,-95.703125
2930,-95.703125
2931,-97.656250
2932,-99.609375
2933,-101.562500
2934,-103.515625
2935,-103.515625
2936,-105.468750
2937,-107.421875
2938,-109.375000
2939,-109.375000
2940,-111.328125
2941,-113.281250
2942,-115.234375
2943,-115.234375
2944,-117.187500
2945,-119.140625
2946,-119.140625
2947,-123.046875
2948,-121.093750
2949,-123.046875
2950,-123.046875
2951,-125.000000
2952,-125.000000
2953,-125.000000
2954,-125.000000
2955,-126.953125
2956,-126.953125
2957,-126.953125
2958,-128.906250
2959,-128.906250
2960,-128.906250
2961,-128.906250
2962,-128.906250
2963,-128.906250
2964,-128.906250
2965,-128.906250
2966,-126.953125
2967,-128.906250
2968,-126.953125
2969,-126.953125
2970,-126.953125
2971,-126.953125
2972,-126.953125
2973,-125.000000
2974,-125.000000
2975,-123.046875
2976,-123.046875
2977,-123.046875
2978,-121.093750
2979,-121.093750
2980,-119.140625
2981,-117.187500
2982,-115.234375
2983,-115.234375
2984,-113.281250
2985,-113.281250
2986,-111.328125
2987,-109.375000
2988,-109.375000
2989,-107.421875
2990,-105.468750
2991,-103.515625
2992,-101.562500
2993,-99.609375
2994,-97.656250
2995,-95.703125
2996,-93.750000
2997,-91.796875
2998,-89.843750
2999,-89.843750
3000,-85.937500
3001,-83.984375
3002,-82.031250
3003,-80.078125
3004,-78.125000
3005,-76.171875
3006,-74.218750
3007,-70.312500
3008,-68.359375
3009,-66.406250
3010,-64.453125
3011,-62.500000
3012,-58.593750
3013,-56.640625
3014,-52.734375
3015,-50.781250
3016,-48.828125
3017,-46.875000
3018,-42.968750
3019,-41.015625
3020,-39.062500
3021,-35.156250
3022,-33.203125
3023,-31.250000
3024,-29.296875
3025,-25.390625
3026,-21.484375
3027,-19.531250
3028,-17.578125
3029,-15.625000
3030,-11.718750
3031,-9.765625
3032,-5.859375
3033,-3.906250
3034,-1.953125
3035,1.953125
3036,3.906250
3037,5.859375
3038,7.812500
3039,11.718750
3040,13.671875
3041,17.578125
3042,19.531250
3043,21.484375
3044,23.437500
3045,25.390625
3046,29.296875
3047,31.250000
3048,33.203125
3049,35.156250
3050,39.062500
3051,41.015625
3052,42.968750
3053,44.921875
3054,46.875000
3055,50.781250
3056,50.781250
3057,52.734375
3058,56.640625
3059,58.593750
3060,58.593750
3061,60.546875
3062,62.500000
3063,66.406250
3064,66.406250
3065,68.359375
3066,70.312500
3067,72.265625
3068,74.218750
3069,76.171875
3070,78.125000
3071,78.125000
3072,80.078125
3073,82.031250
3074,82.031250
3075,83.984375
3076,85.937500
3077,87.890625
3078,87.890625
3079,89.843750
3080,91.796875
3081,91.796875
3082,93.750000
3083,95.703125
3084,95.703125
3085,95.703125
3086,97.656250
3087,97.656250
3088,99.609375
3089,101.562500
3090,99.609375
3091,101.562500
3092,101.562500
3093,101.562500
3094,101.562500
3095,101.562500
3096,103.515625
3097,103.515625
3098,103.515625
3099,107.421875
3100,105.468750
3101,105.468750
3102,105.468750
3103,105.468750
3104,105.468750
3105,105.468750
3106,105.468750
3107,105.468750
3108,105.468750
3109,105.468750
3110,103.515625
3111,103.515625
3112,103.515625
3113,103.515625
3114,103.515625
3115,103.515625
3116,103.515625
3117,101.562500
3118,99.609375
3119,99.609375
3120,99.609375
3121,97.656250
3122,97.656250
3123,97.656250
3124,95.703125
3125,93.750000
3126,93.750000
3127,91.796875
3128,91.796875
3129,89.843750
3130,89.843750
3131,87.890625
3132,85.937500
3133,85.937500
3134,83.984375
3135,82.031250
3136,82.031250
3137,78.125000
3138,78.125000
3139,76.171875
3140,74.218750
3141,72.265625
3142,70.312500
3143,70.312500
3144,66.406250
3145,64.453125
3146,64.453125
3147,62.500000
3148,58.593750
3149,60.546875
3150,56.640625
3151,54.687500
3152,50.781250
3153,48.828125
3154,46.875000
3155,44.921875
3156,42.968750
3157,41.015625
3158,39.062500
3159,37.109375
3160,33.203125
3161,31.250000
3162,29.296875
3163,27.343750
3164,23.437500
3165,21.484375
3166,19.531250
3167,17.578125
3168,13.671875
3169,11.718750
3170,9.765625
3171,5.859375
3172,3.906250
3173,1.953125
3174,-1.953125
3175,-3.906250
3176,-5.859375
3177,-9.765625
3178,-11.718750
3179,-13.671875
3180,-17.578125
3181,-19.531250
3182,-21.484375
3183,-25.390625
3184,-27.343750
3185,-29.296875
3186,-33.203125
3187,-35.156250
3188,-39.062500
3189,-41.015625
3190,-42.968750
3191,-46.875000
3192,-48.828125
3193,-50.781250
3194,-52.734375
3195,-56.640625
3196,-58.593750
3197,-60.546875
3198,-64.453125
3199,-64.453125
3200,-68.359375
3201,-72.265625
3202,-74.218750
3203,-76.171875
3204,-78.125000
3205,-80.078125
3206,-82.031250
3207,-83.984375
3208,-85.937500
3209,-87.890625
3210,-89.843750
3211,-91.796875
3212,-95.703125
3213,-95.703125
3214,-97.656250
3215,-99.609375
3216,-101.562500
3217,-103.515625
3218,-105.468750
3219,-107.421875
3220,-109.375000
3221,-109.375000
3222,-111.328125
3223,-111.328125
3224,-113.281250
3225,-115.234375
3226,-117.187500
3227,-117.187500
3228,-119.140625
3229,-121.093750
3230,-121.093750
3231,-121.093750
3232,-123.046875
3233,-123.046875
3234,-125.000000
3235,-125.000000
3236,-125.000000
3237,-125.000000
3238,-126.953125
3239,-126.953125
3240,-126.953125
3241,-126.953125
3242,-128.906250
3243,-126.953125
3244,-126.953125
3245,-126.953125
3246,-128.906250
3247,-128.906250
3248,-126.953125
3249,-126.953125
3250,-126.953125
3251,-126.953125
3252,-126.953125
3253,-126.953125
3254,-125.000000
3255,-125.000000
3256,-125.000000
3257,-121.093750
3258,-123.046875
3259,-121.093750
3260,-121.093750
3261,-119.140625
3262,-119.140625
3263,-117.187500
3264,-117.187500
3265,-115.234375
3266,-113.281250
3267,-113.281250
3268,-111.328125
3269,-111.328125
3270,-109.375000
3271,-107.421875
3272,-105.468750
3273,-103.515625
3274,-101.562500
3275,-101.562500
3276,-97.656250
3277,-97.656250
3278,-95.703125
3279,-93.750000
3280,-91.796875
3281,-87.890625
3282,-89.843750
3283,-85.937500
3284,-82.031250
3285,-80.078125
3286,-78.125000
3287,-76.171875
3288,-74.218750
3289,-72.265625
3290,-70.312500
3291,-66.406250
3292,-60.546875
3293,-64.453125
3294,-58.593750
3295,-56.640625
3296,-56.640625
3297,-52.734375
3298,-44.921875
3299,-46.875000
3300,-46.875000
3301,-41.015625
3302,-39.062500
3303,-37.109375
3304,-35.156250
3305,-31.250000
3306,-29.296875
3307,-27.343750
3308,-23.437500
3309,-19.531250
3310,-17.578125
3311,-15.625000
3312,-13.671875
3313,-9.765625
3314,-7.812500
3315,-3.906250
3316,-1.953125
3317,0.000000
3318,3.906250
3319,5.859375
3320,7.812500
3321,9.765625
3322,13.671875
3323,15.625000
3324,17.578125
3325,21.484375
3326,23.437500
3327,29.296875
3328,27.343750
3329,29.296875
3330,33.203125
3331,35.156250
3332,37.109375
3333,39.062500
3334,41.015625
3335,46.875000
3336,46.875000
3337,48.828125
3338,50.781250
3339,52.734375
3340,54.687500
3341,56.640625
3342,58.593750
3343,60.546875
3344,62.500000
3345,64.453125
3346,66.406250
3347,68.359375
3348,70.312500
3349,72.265625
3350,74.218750
3351,74.218750
3352,76.171875
3353,78.125000
3354,80.078125
3355,82.031250
3356,82.031250
3357,83.984375
3358,85.937500
3359,87.890625
3360,87.890625
3361,89.843750
3362,89.843750
3363,91.796875
3364,91.796875
3365,93.750000
3366,93.750000
3367,95.703125
3368,95.703125
3369,97.656250
3370,99.609375
3371,99.609375
3372,99.609375
3373,99.609375
3374,101.562500
3375,101.562500
3376,101.562500
3377,101.562500
3378,103.515625
3379,103.515625
3380,103.515625
3381,103.515625
3382,103.515625
3383,103.515625
3384,105.468750
3385,105.468750
3386,105.468750
3387,105.468750
3388,105.468750
3389,105.468750
3390,105.468750
3391,103.515625
3392,103.515625
3393,103.515625
3394,103.515625
3395,103.515625
3396,101.562500
3397,101.562500
3398,101.562500
3399,101.562500
3400,99.609375
3401,99.609375
3402,97.656250
3403,97.656250
3404,97.656250
3405,95.703125
3406,95.703125
3407,95.703125
3408,93.750000
3409,91.796875
3410,91.796875
3411,89.843750
3412,87.890625
3413,87.890625
3414,85.937500
3415,85.937500
3416,83.984375
3417,82.031250
3418,80.078125
3419,80.078125
3420,78.125000
3421,76.171875
3422,74.218750
3423,74.218750
3424,72.265625
3425,70.312500
3426,68.359375
3427,64.453125
3428,64.453125
3429,62.500000
3430,60.546875
3431,58.593750
3432,56.640625
3433,54.687500
3434,52.734375
3435,50.781250
3436,48.828125
3437,46.875000
3438,42.968750
3439,41.015625
3440,39.062500
3441,37.109375
3442,35.156250
3443,33.203125
3444,29.296875
3445,27.343750
3446,25.390625
3447,21.484375
3448,19.531250
3449,17.578125
3450,15.625000
3451,11.718750
3452,9.765625
3453,5.859375
3454,3.906250
3455,1.953125
3456,0.000000
3457,-3.906250
3458,-5.859375
3459,-7.812500
3460,-11.718750
3461,-13.671875
3462,-15.625000
3463,-19.531250
3464,-21.484375
3465,-25.390625
3466,-27.343750
3467,-29.296875
3468,-31.250000
3469,-35.156250
3470,-39.062500
3471,-41.015625
3472,-42.968750
3473,-44.921875
3474,-46.875000
3475,-50.781250
3476,-54.687500
3477,-56.640625
3478,-58.593750
3479,-60.546875
3480,-62.500000
3481,-66.406250
3482,-68.359375
3483,-70.312500
3484,-72.265625
3485,-74.218750
3486,-76.171875
3487,-80.078125
3488,-82.031250
3489,-83.984375
3490,-85.937500
3491,-87.890625
3492,-89.843750
3493,-91.796875
3494,-93.750000
3495,-95.703125
3496,-97.656250
3497,-99.609375
3498,-101.562500
3499,-103.515625
3500,-103.515625
3501,-105.468750
3502,-107.421875
3503,-109.375000
3504,-111.328125
3505,-113.281250
3506,-113.281250
3507,-115.234375
3508,-115.234375
3509,-117.187500
3510,-119.140625
3511,-119.140625
3512,-121.093750
3513,-121.093750
3514,-123.046875
3515,-123.046875
3516,-123.046875
3517,-125.000000
3518,-125.000000
3519,-126.953125
3520,-126.953125
3521,-126.953125
3522,-126.953125
3523,-128.906250
3524,-128.906250
3525,-128.906250
3526,-126.953125
3527,-128.906250
3528,-128.906250
3529,-128.906250
3530,-128.906250
3531,-126.953125
3532,-126.953125
3533,-128.906250
3534,-126.953125
3535,-126.953125
3536,-125.000000
3537,-123.046875
3538,-125.000000
3539,-125.000000
3540,-123.046875
3541,-123.046875
3542,-121.093750
3543,-121.093750
3544,-119.140625
3545,-119.140625
3546,-117.187500
3547,-117.187500
3548,-115.234375
3549,-113.281250
3550,-111.328125
3551,-109.375000
3552,-109.375000
3553,-107.421875
3554,-105.468750
3555,-103.515625
3556,-103.515625
3557,-99.609375
3558,-99.609375
3559,-97.656250
3560,-95.703125
3561,-93.750000
3562,-91.796875
3563,-89.843750
3564,-87.890625
3565,-85.937500
3566,-82.031250
3567,-82.031250
3568,-80.078125
3569,-76.171875
3570,-74.218750
3571,-72.265625
3572,-70.312500
3573,-66.406250
3574,-64.453125
3575,-62.500000
3576,-60.546875
3577,-58.593750
3578,-54.687500
3579,-52.734375
3580,-50.781250
3581,-46.875000
3582,-44.921875
3583,-42.968750
3584,-41.015625
3585,-37.109375
3586,-35.156250
3587,-31.250000
3588,-29.296875
3589,-27.343750
3590,-23.437500
3591,-21.484375
3592,-19.531250
3593,-15.625000
3594,-13.671875
3595,-9.765625
3596,-7.812500
3597,-5.859375
3598,-3.906250
3599,-1.953125
3600,1.953125
3601,3.906250
3602,7.812500
3603,9.765625
3604,11.718750
3605,15.625000
3606,17.578125
3607,19.531250
3608,23.437500
3609,23.437500
3610,27.343750
3611,29.296875
3612,31.250000
3613,35.156250
3614,37.109375
3615,39.062500
3616,41.015625
3617,42.968750
3618,44.921875
3619,48.828125
3620,50.781250
3621,52.734375
3622,54.687500
3623,56.640625
3624,58.593750
3625,60.546875
3626,62.500000
3627,64.453125
3628,66.406250
3629,68.359375
3630,70.312500
3631,72.265625
3632,74.218750
3633,74.218750
3634,76.171875
3635,78.125000
3636,80.078125
3637,82.031250
3638,82.031250
3639,83.984375
3640,85.937500
3641,85.937500
3642,87.890625
3643,89.843750
3644,89.843750
3645,91.796875
3646,91.796875
3647,93.750000
3648,95.703125
3649,95.703125
3650,95.703125
3651,97.656250
3652,97.656250
3653,97.656250
3654,99.609375
3655,99.609375
3656,101.562500
3657,101.562500
3658,101.562500
3659,101.562500
3660,103.515625
3661,103.515625
3662,103.515625
3663,103.515625
3664,103.515625
3665,103.515625
3666,103.515625
3667,105.468750
3668,105.468750
3669,105.468750
3670,105.468750
3671,105.468750
3672,105.468750
3673,103.515625
3674,103.515625
3675,103.515625
3676,103.515625
3677,99.609375
3678,103.515625
3679,101.562500
3680,101.562500
3681,101.562500
3682,101.562500
3683,99.609375
3684,99.609375
3685,97.656250
3686,97.656250
3687,95.703125
3688,99.609375
3689,95.703125
3690,93.750000
3691,93.750000
3692,91.796875
3693,91.796875
3694,89.843750
3695,87.890625
3696,87.890625
3697,85.937500
3698,83.984375
3699,83.984375
3700,82.031250
3701,80.078125
3702,78.125000
3703,78.125000
3704,76.171875
3705,74.218750
3706,72.265625
3707,70.312500
3708,70.312500
3709,66.406250
3710,64.453125
3711,62.500000
3712,60.546875
3713,58.593750
3714,56.640625
3715,54.687500
3716,52.734375
3717,50.781250
3718,48.828125
3719,46.875000
3720,42.968750
3721,41.015625
3722,39.062500
3723,37.109375
3724,35.156250
3725,33.203125
3726,29.296875
3727,27.343750
3728,25.390625
3729,23.437500
3730,19.531250
3731,17.578125
3732,15.625000
3733,13.671875
3734,9.765625
3735,7.812500
3736,5.859375
3737,1.953125
3738,0.000000
3739,-1.953125
3740,-5.859375
3741,-7.812500
3742,-11.718750
3743,-13.671875
3744,-15.625000
3745,-17.578125
3746,-21.484375
3747,-23.437500
3748,-27.343750
3749,-29.296875
3750,-31.250000
3751,-35.156250
3752,-37.109375
3753,-39.062500
3754,-42.968750
3755,-44.921875
3756,-46.875000
3757,-50.781250
3758,-52.734375
3759,-54.687500
3760,-56.640625
3761,-60.546875
3762,-62.500000
3763,-64.453125
3764,-66.406250
3765,-68.359375
3766,-72.265625
3767,-74.218750
3768,-76.171875
3769,-78.125000
3770,-80.078125
3771,-83.984375
3772,-85.937500
3773,-87.890625
3774,-89.843750
3775,-91.796875
3776,-93.750000
3777,-95.703125
3778,-97.656250
3779,-99.609375
3780,-101.562500
3781,-103.515625
3782,-103.515625
3783,-105.468750
3784,-107.421875
3785,-109.375000
3786,-111.328125
3787,-111.328125
3788,-113.281250
3789,-115.234375
3790,-117.187500
3791,-117.187500
3792,-119.140625
3793,-119.140625
3794,-121.093750
3795,-121.093750
3796,-121.093750
3797,-123.046875
3798,-125.000000
3799,-125.000000
3800,-125.000000
3801,-125.000000
3802,-126.953125
3803,-126.953125
3804,-126.953125
3805,-126.953125
3806,-128.906250
3807,-128.906250
3808,-128.906250
3809,-128.906250
3810,-128.906250
3811,-128.906250
3812,-128.906250
3813,-126.953125
3814,-128.906250
3815,-126.953125
3816,-126.953125
3817,-126.953125
3818,-126.953125
3819,-125.000000
3820,-125.000000
3821,-123.046875
3822,-123.046875
3823,-123.046875
3824,-121.093750
3825,-121.093750
3826,-119.140625
3827,-119.140625
3828,-117.187500
3829,-115.234375
3830,-115.234375
3831,-113.281250
3832,-111.328125
3833,-111.328125
3834,-109.375000
3835,-107.421875
3836,-105.468750
3837,-105.468750
3838,-101.562500
3839,-101.562500
3840,-99.609375
3841,-97.656250
3842,-95.703125
3843,-93.750000
3844,-93.750000
3845,-89.843750
3846,-87.890625
3847,-85.937500
3848,-83.984375
3849,-82.031250
3850,-80.078125
3851,-78.125000
3852,-76.171875
3853,-72.265625
3854,-70.312500
3855,-68.359375
3856,-64.453125
3857,-64.453125
3858,-60.546875
3859,-58.593750
3860,-56.640625
3861,-54.687500
3862,-50.781250
3863,-48.828125
3864,-46.875000
3865,-42.968750
3866,-41.015625
3867,-39.062500
3868,-35.156250
3869,-33.203125
3870,-31.250000
3871,-27.343750
3872,-25.390625
3873,-21.484375
3874,-19.531250
3875,-17.578125
3876,-15.625000
3877,-11.718750
3878,-9.765625
3879,-3.906250
3880,-3.906250
3881,-1.953125
3882,1.953125
3883,3.906250
3884,5.859375
3885,9.765625
3886,11.718750
3887,15.625000
3888,15.625000
3889,19.531250
3890,21.484375
3891,23.437500
3892,27.343750
3893,29.296875
3894,31.250000
3895,33.203125
3896,35.156250
3897,37.109375
3898,41.015625
3899,42.968750
3900,44.921875
3901,46.875000
3902,48.828125
3903,52.734375
3904,54.687500
3905,54.687500
3906,56.640625
3907,62.500000
3908,60.546875
3909,62.500000
3910,64.453125
3911,66.406250
3912,68.359375
3913,70.312500
3914,70.312500
3915,74.218750
3916,76.171875
3917,76.171875
3918,78.125000
3919,80.078125
3920,80.078125
3921,83.984375
3922,83.984375
3923,85.937500
3924,87.890625
3925,87.890625
3926,89.843750
3927,89.843750
3928,91.796875
3929,91.796875
3930,93.750000
3931,95.703125
3932,95.703125
3933,97.656250
3934,97.656250
3935,97.656250
3936,99.609375
3937,99.609375
3938,101.562500
3939,101.562500
3940,101.562500
3941,101.562500
3942,103.515625
3943,103.515625
3944,103.515625
3945,103.515625
3946,105.468750
3947,103.515625
3948,103.515625
3949,105.468750
3950,105.468750
3951,105.468750
3952,103.515625
3953,105.468750
3954,105.468750
3955,105.468750
3956,103.515625
3957,103.515625
3958,103.515625
3959,103.515625
3960,103.515625
3961,103.515625
3962,101.562500
3963,101.562500
3964,101.562500
3965,99.609375
3966,99.609375
3967,97.656250
3968,97.656250
3969,97.656250
3970,95.703125
3971,95.703125
3972,93.750000
3973,93.750000
3974,91.796875
3975,91.796875
3976,89.843750
3977,87.890625
3978,87.890625
3979,85.937500
3980,85.937500
3981,83.984375
3982,82.031250
3983,80.078125
3984,78.125000
3985,78.125000
3986,76.171875
3987,74.218750
3988,72.265625
3989,70.312500
3990,70.312500
3991,66.406250
3992,64.453125
3993,64.453125
3994,60.546875
3995,58.593750
3996,56.640625
3997,56.640625
3998,52.734375
3999,50.781250
4000,48.828125
4001,46.875000
4002,44.921875
4003,42.968750
4004,41.015625
4005,39.062500
4006,35.156250
4007,33.203125
4008,31.250000
4009,29.296875
4010,27.343750
4011,23.437500
4012,21.484375
4013,19.531250
4014,17.578125
4015,13.671875
4016,11.718750
4017,9.765625
4018,5.859375
4019,3.906250
4020,1.953125
4021,-1.953125
4022,-3.906250
4023,-7.812500
4024,-9.765625
4025,-11.718750
4026,-15.625000
4027,-17.578125
4028,-21.484375
4029,-23.437500
4030,-25.390625
4031,-27.343750
4032,-31.250000
4033,-33.203125
4034,-35.156250
4035,-39.062500
4036,-41.015625
4037,-42.968750
4038,-46.875000
4039,-48.828125
4040,-52.734375
4041,-54.687500
4042,-56.640625
4043,-58.593750
4044,-62.500000
4045,-62.500000
4046,-66.406250
4047,-68.359375
4048,-72.265625
4049,-72.265625
4050,-76.171875
4051,-78.125000
4052,-80.078125
4053,-82.031250
4054,-83.984375
4055,-85.937500
4056,-89.843750
4057,-91.796875
4058,-93.750000
4059,-93.750000
4060,-95.703125
4061,-97.656250
4062,-99.609375
4063,-101.562500
4064,-103.515625
4065,-105.468750
4066,-107.421875
4067,-107.421875
4068,-109.375000
4069,-111.328125
4070,-111.328125
4071,-113.281250
4072,-115.234375
4073,-115.234375
4074,-117.187500
4075,-119.140625
4076,-119.140625
4077,-121.093750
4078,-121.093750
4079,-123.046875
4080,-123.046875
4081,-125.000000
4082,-123.046875
4083,-125.000000
4084,-125.000000
4085,-126.953125
4086,-126.953125
4087,-126.953125
4088,-126.953125
4089,-126.953125
4090,-128.906250
4091,-126.953125
4092,-128.906250
4093,-128.906250
4094,-128.906250
4095,-126.953125
4096,-126.953125
4097,-126.953125
4098,-126.953125
4099,-126.953125
4100,-126.953125
4101,-125.000000
4102,-125.000000
4103,-123.046875
4104,-123.046875
4105,-123.046875
4106,-123.046875
4107,-121.093750
4108,-119.140625
4109,-119.140625
4110,-117.187500
4111,-117.187500
4112,-115.234375
4113,-113.281250
4114,-113.281250
4115,-111.328125
4116,-109.375000
4117,-109.375000
4118,-107.421875
4119,-105.468750
4120,-103.515625
4121,-101.562500
4122,-101.562500
4123,-99.609375
4124,-95.703125
4125,-93.750000
4126,-93.750000
4127,-89.843750
4128,-89.843750
4129,-85.937500
4130,-83.984375
4131,-82.031250
4132,-80.078125
4133,-78.125000
4134,-76.171875
4135,-74.218750
4136,-70.312500
4137,-68.359375
4138,-66.406250
4139,-64.453125
4140,-60.546875
4141,-58.593750
4142,-56.640625
4143,-54.687500
4144,-50.781250
4145,-48.828125
4146,-46.875000
4147,-42.968750
4148,-41.015625
4149,-39.062500
4150,-35.156250
4151,-33.203125
4152,-31.250000
4153,-29.296875
4154,-25.390625
4155,-23.437500
4156,-19.531250
4157,-17.578125
4158,-15.625000
4159,-11.718750
4160,-9.765625
4161,-7.812500
4162,-3.906250
4163,-1.953125
4164,0.000000
4165,3.906250
4166,5.859375
4167,7.812500
4168,9.765625
4169,13.671875
4170,15.625000
4171,17.578125
4172,19.531250
4173,23.437500
4174,25.390625
4175,27.343750
4176,29.296875
4177,33.203125
4178,35.156250
4179,37.109375
4180,39.062500
4181,42.968750
4182,44.921875
4183,46.875000
4184,48.828125
4185,50.781250
4186,52.734375
4187,54.687500
4188,56.640625
4189,58.593750
4190,60.546875
4191,62.500000
4192,64.453125
4193,66.406250
4194,68.359375
4195,70.312500
4196,72.265625
4197,74.218750
4198,76.171875
4199,76.171875
4200,78.125000
4201,80.078125
4202,82.031250
4203,83.984375
4204,83.984375
4205,85.937500
4206,87.890625
4207,87.890625
4208,89.843750
4209,89.843750
4210,91.796875
4211,93.750000
4212,93.750000
4213,95.703125
4214,95.703125
4215,97.656250
4216,97.656250
4217,97.656250
4218,99.609375
4219,99.609375
4220,99.609375
4221,101.562500
4222,101.562500
4223,103.515625
4224,103.515625
4225,103.515625
4226,103.515625
4227,103.515625
4228,105.468750
4229,105.468750
4230,103.515625
4231,105.468750
4232,103.515625
4233,103.515625
4234,103.515625
4235,105.468750
4236,103.515625
4237,103.515625
4238,103.515625
4239,103.515625
4240,103.515625
4241,103.515625
4242,103.515625
4243,103.515625
4244,101.562500
4245,101.562500
4246,101.562500
4247,99.609375
4248,99.609375
4249,99.609375
4250,97.656250
4251,97.656250
4252,97.656250
4253,95.703125
4254,93.750000
4255,97.656250
4256,91.796875
4257,91.796875
4258,89.843750
4259,89.843750
4260,87.890625
4261,85.937500
4262,85.937500
4263,83.984375
4264,82.031250
4265,80.078125
4266,80.078125
4267,78.125000
4268,76.171875
4269,76.171875
4270,74.218750
4271,72.265625
4272,70.312500
4273,68.359375
4274,66.406250
4275,64.453125
4276,62.500000
4277,60.546875
4278,58.593750
4279,56.640625
4280,54.687500
4281,52.734375
4282,48.828125
4283,48.828125
4284,46.875000
4285,42.968750
4286,41.015625
4287,39.062500
4288,37.109375
4289,35.156250
4290,31.250000
4291,29.296875
4292,27.343750
4293,25.390625
4294,21.484375
4295,19.531250
4296,17.578125
4297,13.671875
4298,11.718750
4299,7.812500
4300,7.812500
4301,3.906250
4302,1.953125
4303,-1.953125
4304,-3.906250
4305,-5.859375
4306,-9.765625
4307,-11.718750
4308,-13.671875
4309,-17.578125
4310,-19.531250
4311,-23.437500
4312,-25.390625
4313,-27.343750
4314,-31.250000
4315,-33.203125
4316,-35.156250
4317,-37.109375
4318,-41.015625
4319,-44.921875
4320,-44.921875
4321,-48.828125
4322,-50.781250
4323,-54.687500
4324,-56.640625
4325,-58.593750
4326,-62.500000
4327,-62.500000
4328,-66.406250
4329,-68.359375
4330,-70.312500
4331,-74.218750
4332,-76.171875
4333,-78.125000
4334,-80.078125
4335,-82.031250
4336,-83.984375
4337,-85.937500
4338,-87.890625
4339,-89.843750
4340,-91.796875
4341,-93.750000
4342,-95.703125
4343,-97.656250
4344,-99.609375
4345,-101.562500
4346,-103.515625
4347,-105.468750
4348,-105.468750
4349,-107.421875
4350,-109.375000
4351,-111.328125
4352,-113.281250
4353,-113.281250
4354,-115.234375
4355,-115.234375
4356,-117.187500
4357,-119.140625
4358,-121.093750
4359,-121.093750
4360,-121.093750
4361,-123.046875
4362,-123.046875
4363,-125.000000
4364,-125.000000
4365,-125.000000
4366,-126.953125
4367,-126.953125
4368,-126.953125
4369,-126.953125
4370,-128.906250
4371,-128.906250
4372,-128.906250
4373,-128.906250
4374,-128.906250
4375,-128.906250
4376,-128.906250
4377,-128.906250
4378,-128.906250
4379,-126.953125
4380,-126.953125
4381,-126.953125
4382,-126.953125
4383,-125.000000
4384,-125.000000
4385,-125.000000
4386,-125.000000
4387,-123.046875
4388,-123.046875
4389,-121.093750
4390,-121.093750
4391,-119.140625
4392,-117.187500
4393,-117.187500
4394,-115.234375
4395,-115.234375
4396,-113.281250
4397,-111.328125
4398,-111.328125
4399,-109.375000
4400,-107.421875
4401,-105.468750
4402,-103.515625
4403,-101.562500
4404,-101.562500
4405,-99.609375
4406,-97.656250
4407,-95.703125
4408,-93.750000
4409,-91.796875
4410,-87.890625
4411,-87.890625
4412,-85.937500
4413,-83.984375
4414,-80.078125
4415,-80.078125
4416,-76.171875
4417,-74.218750
4418,-72.265625
4419,-70.312500
4420,-66.406250
4421,-64.453125
4422,-62.500000
4423,-60.546875
4424,-58.593750
4425,-54.687500
4426,-52.734375
4427,-50.781250
4428,-46.875000
4429,-44.921875
4430,-42.968750
4431,-39.062500
4432,-37.109375
4433,-35.156250
4434,-31.250000
4435,-29.296875
4436,-27.343750
4437,-25.390625
4438,-21.484375
4439,-19.531250
4440,-15.625000
4441,-13.671875
4442,-11.718750
4443,-9.765625
4444,-5.859375
4445,-3.906250
4446,0.000000
4447,1.953125
4448,3.906250
4449,7.812500
4450,9.765625
4451,11.718750
4452,15.625000
4453,17.578125
4454,19.531250
4455,23.437500
4456,25.390625
4457,27.343750
4458,29.296875
4459,33.203125
4460,35.156250
4461,37.109375
4462,39.062500
4463,41.015625
4464,42.968750
4465,44.921875
4466,48.828125
4467,48.828125
4468,52.734375
4469,54.687500
4470,56.640625
4471,58.593750
4472,60.546875
4473,62.500000
4474,64.453125
4475,66.406250
4476,68.359375
4477,70.312500
4478,72.265625
4479,72.265625
4480,74.218750
4481,76.171875
4482,78.125000
4483,80.078125
4484,80.078125
4485,82.031250
4486,83.984375
4487,85.937500
4488,85.937500
4489,87.890625
4490,89.843750
4491,89.843750
4492,91.796875
4493,91.796875
4494,93.750000
4495,93.750000
4496,95.703125
4497,97.656250
4498,97.656250
4499,97.656250
4500,97.656250
4501,99.609375
4502,99.609375
4503,101.562500
4504,101.562500
4505,101.562500
4506,101.562500
4507,103.515625
4508,103.515625
4509,103.515625
4510,103.515625
4511,103.515625
4512,105.468750
4513,105.468750
4514,105.468750
4515,105.468750
4516,105.468750
4517,105.468750
4518,103.515625
4519,103.515625
4520,105.468750
4521,103.515625
4522,103.515625
4523,103.515625
4524,103.515625
4525,103.515625
4526,103.515625
4527,101.562500
4528,99.609375
4529,101.562500
4530,99.609375
4531,99.609375
4532,97.656250
4533,97.656250
4534,97.656250
4535,95.703125
4536,95.703125
4537,93.750000
4538,93.750000
4539,91.796875
4540,91.796875
4541,89.843750
4542,87.890625
4543,87.890625
4544,87.890625
4545,85.937500
4546,83.984375
4547,82.031250
4548,80.078125
4549,78.125000
4550,76.171875
4551,76.171875
4552,74.218750
4553,72.265625
4554,70.312500
4555,68.359375
4556,66.406250
4557,64.453125
4558,62.500000
4559,60.546875
4560,58.593750
4561,56.640625
4562,54.687500
4563,52.734375
4564,50.781250
4565,48.828125
4566,46.875000
4567,42.968750
4568,41.015625
4569,39.062500
4570,37.109375
4571,35.156250
4572,33.203125
4573,31.250000
4574,27.343750
4575,25.390625
4576,23.437500
4577,19.531250
4578,17.578125
4579,15.625000
4580,13.671875
4581,9.765625
4582,7.812500
4583,5.859375
4584,1.953125
4585,0.000000
4586,-1.953125
4587,-5.859375
4588,-7.812500
4589,-9.765625
4590,-13.671875
4591,-15.625000
4592,-17.578125
4593,-21.484375
4594,-23.437500
4595,-25.390625
4596,-29.296875
4597,-31.250000
4598,-35.156250
4599,-37.109375
4600,-39.062500
4601,-41.015625
4602,-44.921875
4603,-46.875000
4604,-48.828125
4605,-52.734375
4606,-54.687500
4607,-56.640625
4608,-58.593750
4609,-62.500000
4610,-64.453125
4611,-66.406250
4612,-70.312500
4613,-74.218750
4614,-74.218750
4615,-76.171875
4616,-78.125000
4617,-80.078125
4618,-83.984375
4619,-85.937500
4620,-87.890625
4621,-89.843750
4622,-91.796875
4623,-93.750000
4624,-95.703125
4625,-97.656250
4626,-99.609375
4627,-101.562500
4628,-101.562500
4629,-103.515625
4630,-105.468750
4631,-107.421875
4632,-109.375000
4633,-109.375000
4634,-111.328125
4635,-113.281250
4636,-115.234375
4637,-115.234375
4638,-117.187500
4639,-119.140625
4640,-119.140625
4641,-119.140625
4642,-121.093750
4643,-123.046875
4644,-123.046875
4645,-123.046875
4646,-125.000000
4647,-125.000000
4648,-125.000000
4649,-126.953125
4650,-126.953125
4651,-126.953125
4652,-126.953125
4653,-128.906250
4654,-126.953125
4655,-126.953125
4656,-128.906250
4657,-128.906250
4658,-126.953125
4659,-128.906250
4660,-128.906250
4661,-126.953125
4662,-126.953125
4663,-126.953125
4664,-126.953125
4665,-125.000000
4666,-125.000000
4667,-125.000000
4668,-123.046875
4669,-123.046875
4670,-123.046875
4671,-121.093750
4672,-121.093750
4673,-119.140625
4674,-119.140625
4675,-117.187500
4676,-115.234375
4677,-115.234375
4678,-113.281250
4679,-111.328125
4680,-111.328125
4681,-109.375000
4682,-107.421875
4683,-105.468750
4684,-105.468750
4685,-103.515625
4686,-99.609375
4687,-99.609375
4688,-97.656250
4689,-95.703125
4690,-93.750000
4691,-91.796875
4692,-89.843750
4693,-87.890625
4694,-85.937500
4695,-83.984375
4696,-82.031250
4697,-80.078125
4698,-76.171875
4699,-76.171875
4700,-72.265625
4701,-70.312500
4702,-68.359375
4703,-64.453125
4704,-62.500000
4705,-60.546875
4706,-58.593750
4707,-56.640625
4708,-52.734375
4709,-50.781250
4710,-48.828125
4711,-46.875000
4712,-42.968750
4713,-41.015625
4714,-37.109375
4715,-35.156250
4716,-33.203125
4717,-29.296875
4718,-27.343750
4719,-25.390625
4720,-21.484375
4721,-19.531250
4722,-17.578125
4723,-13.671875
4724,-11.718750
4725,-9.765625
4726,-5.859375
4727,-3.906250
4728,0.000000
4729,1.953125
4730,3.906250
4731,5.859375
4732,9.765625
4733,11.718750
4734,13.671875
4735,17.578125
4736,19.531250
4737,21.484375
4738,23.437500
4739,27.343750
4740,29.296875
4741,31.250000
4742,33.203125
4743,35.156250
4744,39.062500
4745,41.015625
4746,42.968750
4747,44.921875
4748,46.875000
4749,48.828125
4750,50.781250
4751,52.734375
4752,56.640625
4753,58.593750
4754,58.593750
4755,60.546875
4756,62.500000
4757,64.453125
4758,66.406250
4759,68.359375
4760,70.312500
4761,72.265625
4762,74.218750
4763,76.171875
4764,78.125000
4765,78.125000
4766,80.078125
4767,82.031250
4768,83.984375
4769,83.984375
4770,85.937500
4771,87.890625
4772,89.843750
4773,89.843750
4774,91.796875
4775,91.796875
4776,93.750000
4777,95.703125
4778,95.703125
4779,95.703125
4780,97.656250
4781,97.656250
4782,99.609375
4783,99.609375
4784,99.609375
4785,101.562500
4786,101.562500
4787,101.562500
4788,103.515625
4789,103.515625
4790,103.515625
4791,103.515625
4792,103.515625
4793,103.515625
4794,103.515625
4795,105.468750
4796,105.468750
4797,105.468750
4798,105.468750
4799,105.468750
4800,105.468750
4801,105.468750
4802,105.468750
4803,103.515625
4804,103.515625
4805,103.515625
4806,103.515625
4807,101.562500
4808,101.562500
4809,103.515625
4810,101.562500
4811,99.609375
4812,99.609375
4813,99.609375
4814,97.656250
4815,97.656250
4816,97.656250
4817,95.703125
4818,95.703125
4819,93.750000
4820,93.750000
4821,91.796875
4822,89.843750
4823,89.843750
4824,87.890625
4825,87.890625
4826,85.937500
4827,83.984375
4828,82.031250
4829,82.031250
4830,80.078125
4831,78.125000
4832,76.171875
4833,76.171875
4834,74.218750
4835,72.265625
4836,70.312500
4837,68.359375
4838,66.406250
4839,64.453125
4840,62.500000
4841,60.546875
4842,60.546875
4843,56.640625
4844,54.687500
4845,52.734375
4846,50.781250
4847,48.828125
4848,46.875000
4849,44.921875
4850,42.968750
4851,39.062500
4852,37.109375
4853,35.156250
4854,33.203125
4855,31.250000
4856,27.343750
4857,25.390625
4858,23.437500
4859,21.484375
4860,17.578125
4861,15.625000
4862,13.671875
4863,9.765625
4864,7.812500
4865,5.859375
4866,3.906250
4867,0.000000
4868,-1.953125
4869,-3.906250
4870,-7.812500
4871,-9.765625
4872,-13.671875
4873,-15.625000
4874,-15.625000
4875,-21.484375
4876,-23.437500
4877,-23.437500
4878,-29.296875
4879,-31.250000
4880,-35.156250
4881,-37.109375
4882,-39.062500
4883,-41.015625
4884,-44.921875
4885,-46.875000
4886,-48.828125
4887,-50.781250
4888,-54.687500
4889,-58.593750
4890,-60.546875
4891,-62.500000
4892,-64.453125
4893,-68.359375
4894,-70.312500
4895,-72.265625
4896,-74.218750
4897,-76.171875
4898,-78.125000
4899,-80.078125
4900,-83.984375
4901,-85.937500
4902,-87.890625
4903,-87.890625
4904,-89.843750
4905,-93.750000
4906,-95.703125
4907,-97.656250
4908,-99.609375
4909,-99.609375
4910,-101.562500
4911,-103.515625
4912,-105.468750
4913,-107.421875
4914,-109.375000
4915,-111.328125
4916,-111.328125
4917,-113.281250
4918,-113.281250
4919,-115.234375
4920,-117.187500
4921,-119.140625
4922,-119.140625
4923,-119.140625
4924,-121.093750
4925,-123.046875
4926,-123.046875
4927,-123.046875
4928,-125.000000
4929,-125.000000
4930,-126.953125
4931,-126.953125
4932,-126.953125
4933,-126.953125
4934,-126.953125
4935,-128.906250
4936,-128.906250
4937,-128.906250
4938,-128.906250
4939,-128.906250
4940,-128.906250
4941,-128.906250
4942,-128.906250
4943,-126.953125
4944,-128.906250
4945,-126.953125
4946,-126.953125
4947,-126.953125
4948,-125.000000
4949,-125.000000
4950,-125.000000
4951,-123.046875
4952,-123.046875
4953,-123.046875
4954,-121.093750
4955,-119.140625
4956,-119.140625
4957,-117.187500
4958,-117.187500
4959,-115.234375
4960,-113.281250
4961,-113.281250
4962,-111.328125
4963,-111.328125
4964,-109.375000
4965,-107.421875
4966,-105.468750
4967,-103.515625
4968,-101.562500
4969,-99.609375
4970,-97.656250
4971,-97.656250
4972,-95.703125
4973,-93.750000
4974,-89.843750
4975,-87.890625
4976,-85.937500
4977,-83.984375
4978,-82.031250
4979,-80.078125
4980,-78.125000
4981,-76.171875
4982,-72.265625
4983,-70.312500
4984,-68.359375
4985,-66.406250
4986,-64.453125
4987,-60.546875
4988,-58.593750
4989,-56.640625
4990,-54.687500
4991,-50.781250
4992,-48.828125
4993,-46.875000
4994,-42.968750
4995,-41.015625
4996,-39.062500
4997,-35.156250
4998,-33.203125
4999,-31.250000
5000,-27.343750
5001,-25.390625
5002,-23.437500
5003,-19.531250
5004,-17.578125
5005,-15.625000
5006,-11.718750
5007,-9.765625
5008,-7.812500
5009,-3.906250
5010,-1.953125
5011,1.953125
5012,3.906250
5013,5.859375
5014,7.812500
5015,9.765625
5016,13.671875
5017,15.625000
5018,19.531250
5019,21.484375
5020,23.437500
5021,25.390625
5022,27.343750
5023,31.250000
5024,33.203125
5025,35.156250
5026,37.109375
5027,41.015625
5028,39.062500
5029,44.921875
5030,46.875000
5031,48.828125
5032,50.781250
5033,52.734375
5034,54.687500
5035,56.640625
5036,58.593750
5037,62.500000
5038,64.453125
5039,64.453125
5040,66.406250
5041,68.359375
5042,70.312500
5043,72.265625
5044,74.218750
5045,76.171875
5046,76.171875
5047,78.125000
5048,80.078125
5049,82.031250
5050,83.984375
5051,85.937500
5052,85.937500
5053,87.890625
5054,87.890625
5055,89.843750
5056,91.796875
5057,93.750000
5058,93.750000
5059,93.750000
5060,95.703125
5061,95.703125
5062,97.656250
5063,97.656250
5064,99.609375
5065,99.609375
5066,99.609375
5067,99.609375
5068,101.562500
5069,103.515625
5070,101.562500
5071,101.562500
5072,103.515625
5073,103.515625
5074,103.515625
5075,103.515625
5076,103.515625
5077,103.515625
5078,103.515625
5079,105.468750
5080,105.468750
5081,105.468750
5082,103.515625
5083,103.515625
5084,103.515625
5085,103.515625
5086,103.515625
5087,103.515625
5088,103.515625
5089,103.515625
5090,101.562500
5091,103.515625
5092,101.562500
5093,99.609375
5094,99.609375
5095,99.609375
5096,99.609375
5097,97.656250
5098,97.656250
5099,95.703125
5100,95.703125
5101,93.750000
5102,93.750000
5103,91.796875
5104,91.796875
5105,89.843750
5106,89.843750
5107,87.890625
5108,85.937500
5109,85.937500
5110,83.984375
5111,82.031250
5112,80.078125
5113,80.078125
5114,78.125000
5115,76.171875
5116,74.218750
5117,72.265625
5118,72.265625
5119,70.312500
5120,68.359375
5121,66.406250
5122,64.453125
5123,62.500000
5124,60.546875
5125,58.593750
5126,56.640625
5127,52.734375
5128,50.781250
5129,50.781250
5130,46.875000
5131,44.921875
5132,42.968750
5133,41.015625
5134,39.062500
5135,37.109375
5136,35.156250
5137,31.250000
5138,29.296875
5139,27.343750
5140,25.390625
5141,21.484375
5142,19.531250
5143,15.625000
5144,13.671875
5145,11.718750
5146,9.765625
5147,5.859375
5148,3.906250
5149,1.953125
5150,-1.953125
5151,-3.906250
5152,-5.859375
5153,-9.765625
5154,-11.718750
5155,-15.625000
5156,-17.578125
5157,-19.531250
5158,-23.437500
5159,-25.390625
5160,-27.343750
5161,-29.296875
5162,-33.203125
5163,-35.156250
5164,-37.109375
5165,-41.015625
5166,-42.968750
5167,-44.921875
5168,-48.828125
5169,-50.781250
5170,-52.734375
5171,-56.640625
5172,-58.593750
5173,-60.546875
5174,-62.500000
5175,-66.406250
5176,-68.359375
5177,-70.312500
5178,-72.265625
5179,-76.171875
5180,-78.125000
5181,-80.078125
5182,-82.031250
5183,-83.984375
5184,-85.937500
5185,-87.890625
5186,-89.843750
5187,-91.796875
5188,-93.750000
5189,-95.703125
5190,-97.656250
5191,-99.609375
5192,-101.562500
5193,-103.515625
5194,-105.468750
5195,-107.421875
5196,-109.375000
5197,-109.375000
5198,-111.328125
5199,-113.281250
5200,-113.281250
5201,-115.234375
5202,-117.187500
5203,-117.187500
5204,-119.140625
5205,-121.093750
5206,-121.093750
5207,-121.093750
5208,-123.046875
5209,-123.046875
5210,-125.000000
5211,-125.000000
5212,-125.000000
5213,-126.953125
5214,-126.953125
5215,-126.953125
5216,-128.906250
5217,-128.906250
5218,-126.953125
5219,-128.906250
5220,-128.906250
5221,-128.906250
5222,-128.906250
5223,-128.906250
5224,-128.906250
5225,-126.953125
5226,-126.953125
5227,-128.906250
5228,-126.953125
5229,-126.953125
5230,-125.000000
5231,-125.000000
5232,-125.000000
5233,-123.046875
5234,-123.046875
5235,-123.046875
5236,-121.093750
5237,-121.093750
5238,-119.140625
5239,-119.140625
5240,-117.187500
5241,-115.234375
5242,-115.234375
5243,-113.281250
5244,-111.328125
5245,-109.375000
5246,-109.375000
5247,-107.421875
5248,-105.468750
5249,-103.515625
5250,-103.515625
5251,-101.562500
5252,-99.609375
5253,-95.703125
5254,-95.703125
5255,-93.750000
5256,-91.796875
5257,-89.843750
5258,-87.890625
5259,-85.937500
5260,-83.984375
5261,-82.031250
5262,-78.125000
5263,-76.171875
5264,-74.218750
5265,-72.265625
5266,-68.359375
5267,-66.406250
5268,-64.453125
5269,-62.500000
5270,-58.593750
5271,-56.640625
5272,-54.687500
5273,-52.734375
5274,-48.828125
5275,-46.875000
5276,-44.921875
5277,-42.968750
5278,-39.062500
5279,-37.109375
5280,-35.156250
5281,-31.250000
5282,-29.296875
5283,-27.343750
5284,-23.437500
5285,-21.484375
5286,-17.578125
5287,-15.625000
5288,-13.671875
5289,-9.765625
5290,-7.812500
5291,-5.859375
5292,-1.953125
5293,0.000000
5294,1.953125
5295,3.906250
5296,7.812500
5297,9.765625
5298,11.718750
5299,15.625000
5300,17.578125
5301,19.531250
5302,23.437500
5303,25.390625
5304,27.343750
5305,31.250000
5306,31.250000
5307,35.156250
5308,37.109375
5309,39.062500
5310,41.015625
5311,42.968750
5312,46.875000
5313,48.828125
5314,50.781250
5315,52.734375
5316,54.687500
5317,56.640625
5318,58.593750
5319,60.546875
5320,62.500000
5321,64.453125
5322,66.406250
5323,68.359375
5324,70.312500
5325,72.265625
5326,74.218750
5327,74.218750
5328,76.171875
5329,78.125000
5330,80.078125
5331,80.078125
5332,82.031250
5333,83.984375
5334,85.937500
5335,87.890625
5336,87.890625
5337,89.843750
5338,89.843750
5339,91.796875
5340,91.796875
5341,93.750000
5342,93.750000
5343,95.703125
5344,95.703125
5345,97.656250
5346,97.656250
5347,99.609375
5348,99.609375
5349,99.609375
5350,99.609375
5351,101.562500
5352,101.562500
5353,101.562500
5354,101.562500
5355,103.515625
5356,103.515625
5357,103.515625
5358,105.468750
5359,103.515625
5360,103.515625
5361,103.515625
5362,105.468750
5363,103.515625
5364,105.468750
5365,105.468750
5366,103.515625
5367,103.515625
5368,103.515625
5369,103.515625
5370,103.515625
5371,103.515625
5372,103.515625
5373,101.562500
5374,101.562500
5375,99.609375
5376,99.609375
5377,99.609375
5378,99.609375
5379,97.656250
5380,97.656250
5381,97.656250
5382,97.656250
5383,93.750000
5384,93.750000
5385,91.796875
5386,91.796875
5387,91.796875
5388,89.843750
5389,87.890625
5390,85.937500
5391,85.937500
5392,83.984375
5393,82.031250
5394,82.031250
5395,80.078125
5396,78.125000
5397,76.171875
5398,76.171875
5399,72.265625
5400,72.265625
5401,70.312500
5402,68.359375
5403,66.406250
5404,64.453125
5405,62.500000
5406,60.546875
5407,58.593750
5408,56.640625
5409,54.687500
5410,52.734375
5411,50.781250
5412,48.828125
5413,44.921875
5414,42.968750
5415,41.015625
5416,39.062500
5417,37.109375
5418,35.156250
5419,31.250000
5420,29.296875
5421,27.343750
5422,25.390625
5423,21.484375
5424,19.531250
5425,17.578125
5426,15.625000
5427,11.718750
5428,9.765625
5429,7.812500
5430,5.859375
5431,1.953125
5432,0.000000
5433,-1.953125
5434,-5.859375
5435,-7.812500
5436,-11.718750
5437,-13.671875
5438,-15.625000
5439,-19.531250
5440,-21.484375
5441,-23.437500
5442,-27.343750
5443,-29.296875
5444,-31.250000
5445,-35.156250
5446,-37.109375
5447,-41.015625
5448,-41.015625
5449,-44.921875
5450,-48.828125
5451,-50.781250
5452,-52.734375
5453,-54.687500
5454,-58.593750
5455,-60.546875
5456,-62.500000
5457,-64.453125
5458,-68.359375
5459,-70.312500
5460,-72.265625
5461,-74.218750
5462,-76.171875
5463,-80.078125
5464,-82.031250
5465,-83.984375
5466,-85.937500
5467,-87.890625
5468,-89.843750
5469,-91.796875
5470,-93.750000
5471,-95.703125
5472,-97.656250
5473,-99.609375
5474,-101.562500
5475,-103.515625
5476,-103.515625
5477,-105.468750
5478,-107.421875
5479,-109.375000
5480,-111.328125
5481,-113.281250
5482,-113.281250
5483,-115.234375
5484,-115.234375
5485,-117.187500
5486,-119.140625
5487,-119.140625
5488,-121.093750
5489,-121.093750
5490,-123.046875
5491,-123.046875
5492,-123.046875
5493,-125.000000
5494,-125.000000
5495,-125.000000
5496,-125.000000
5497,-126.953125
5498,-126.953125
5499,-126.953125
5500,-126.953125
5501,-126.953125
5502,-128.906250
5503,-128.906250
5504,-128.906250
5505,-126.953125
5506,-126.953125
5507,-126.953125
5508,-126.953125
5509,-126.953125
5510,-126.953125
5511,-126.953125
5512,-125.000000
5513,-125.000000
5514,-125.000000
5515,-125.000000
5516,-123.046875
5517,-123.046875
5518,-121.093750
5519,-121.093750
5520,-119.140625
5521,-119.140625
5522,-117.187500
5523,-117.187500
5524,-115.234375
5525,-113.281250
5526,-111.328125
5527,-111.328125
5528,-109.375000
5529,-107.421875
5530,-107.421875
5531,-103.515625
5532,-103.515625
5533,-101.562500
5534,-99.609375
5535,-97.656250
5536,-95.703125
5537,-93.750000
5538,-91.796875
5539,-89.843750
5540,-87.890625
5541,-85.937500
5542,-83.984375
5543,-82.031250
5544,-80.078125
5545,-78.125000
5546,-74.218750
5547,-72.265625
5548,-70.312500
5549,-68.359375
5550,-66.406250
5551,-62.500000
5552,-60.546875
5553,-58.593750
5554,-54.687500
5555,-52.734375
5556,-50.781250
5557,-48.828125
5558,-44.921875
5559,-42.968750
5560,-39.062500
5561,-37.109375
5562,-35.156250
5563,-31.250000
5564,-29.296875
5565,-27.343750
5566,-23.437500
5567,-21.484375
5568,-19.531250
5569,-15.625000
5570,-13.671875
5571,-11.718750
5572,-7.812500
5573,-5.859375
5574,-3.906250
5575,0.000000
5576,1.953125
5577,3.906250
5578,5.859375
5579,9.765625
5580,11.718750
5581,13.671875
5582,17.578125
5583,19.531250
5584,23.437500
5585,25.390625
5586,27.343750
5587,29.296875
5588,31.250000
5589,33.203125
5590,37.109375
5591,39.062500
5592,41.015625
5593,42.968750
5594,44.921875
5595,46.875000
5596,50.781250
5597,52.734375
5598,54.687500
5599,56.640625
5600,58.593750
5601,60.546875
5602,62.500000
5603,64.453125
5604,66.406250
5605,68.359375
5606,68.359375
5607,70.312500
5608,72.265625
5609,74.218750
5610,76.171875
5611,78.125000
5612,80.078125
5613,80.078125
5614,82.031250
5615,83.984375
5616,87.890625
5617,85.937500
5618,87.890625
5619,89.843750
5620,89.843750
5621,91.796875
5622,91.796875
5623,93.750000
5624,95.703125
5625,95.703125
5626,95.703125
5627,97.656250
5628,97.656250
5629,99.609375
5630,99.609375
5631,99.609375
5632,101.562500
5633,101.562500
5634,101.562500
5635,103.515625
5636,103.515625
5637,103.515625
5638,103.515625
5639,103.515625
5640,105.468750
5641,105.468750
5642,105.468750
5643,105.468750
5644,105.468750
5645,105.468750
5646,105.468750
5647,105.468750
5648,103.515625
5649,105.468750
5650,103.515625
5651,103.515625
5652,105.468750
5653,103.515625
5654,103.515625
5655,101.562500
5656,101.562500
5657,101.562500
5658,101.562500
5659,99.609375
5660,99.609375
5661,99.609375
5662,97.656250
5663,97.656250
5664,95.703125
5665,95.703125
5666,93.750000
5667,93.750000
5668,91.796875
5669,91.796875
5670,89.843750
5671,87.890625
5672,87.890625
5673,85.937500
5674,85.937500
5675,83.984375
5676,82.031250
5677,80.078125
5678,78.125000
5679,76.171875
5680,76.171875
5681,74.218750
5682,72.265625
5683,70.312500
5684,68.359375
5685,66.406250
5686,64.453125
5687,62.500000
5688,60.546875
5689,58.593750
5690,56.640625
5691,54.687500
5692,52.734375
5693,50.781250
5694,48.828125
5695,46.875000
5696,44.921875
5697,42.968750
5698,41.015625
5699,37.109375
5700,35.156250
5701,33.203125
5702,31.250000
5703,29.296875
5704,25.390625
5705,23.437500
5706,21.484375
5707,19.531250
5708,15.625000
5709,13.671875
5710,11.718750
5711,7.812500
5712,5.859375
5713,3.906250
5714,0.000000
5715,-1.953125
5716,-5.859375
5717,-7.812500
5718,-9.765625
5719,-13.671875
5720,-15.625000
5721,-19.531250
5722,-21.484375
5723,-23.437500
5724,-25.390625
5725,-29.296875
5726,-31.250000
5727,-35.156250
5728,-37.109375
5729,-39.062500
5730,-42.968750
5731,-44.921875
5732,-46.875000
5733,-48.828125
5734,-52.734375
5735,-54.687500
5736,-56.640625
5737,-60.546875
5738,-62.500000
5739,-64.453125
5740,-66.406250
5741,-70.312500
5742,-72.265625
5743,-74.218750
5744,-76.171875
5745,-78.125000
5746,-80.078125
5747,-82.031250
5748,-83.984375
5749,-85.937500
5750,-89.843750
5751,-91.796875
5752,-93.750000
5753,-95.703125
5754,-97.656250
5755,-97.656250
5756,-99.609375
5757,-101.562500
5758,-103.515625
5759,-105.468750
5760,-107.421875
5761,-109.375000
5762,-109.375000
5763,-111.328125
5764,-113.281250
5765,-113.281250
5766,-115.234375
5767,-117.187500
5768,-119.140625
5769,-119.140625
5770,-119.140625
5771,-121.093750
5772,-123.046875
5773,-123.046875
5774,-123.046875
5775,-125.000000
5776,-125.000000
5777,-125.000000
5778,-126.953125
5779,-126.953125
5780,-126.953125
5781,-128.906250
5782,-128.906250
5783,-128.906250
5784,-128.906250
5785,-128.906250
5786,-128.906250
5787,-128.906250
5788,-128.906250
5789,-128.906250
5790,-126.953125
5791,-128.906250
5792,-126.953125
5793,-126.953125
5794,-126.953125
5795,-126.953125
5796,-125.000000
5797,-123.046875
5798,-123.046875
5799,-123.046875
5800,-123.046875
5801,-121.093750
5802,-121.093750
5803,-119.140625
5804,-117.187500
5805,-117.187500
5806,-115.234375
5807,-115.234375
5808,-113.281250
5809,-111.328125
5810,-109.375000
5811,-107.421875
5812,-107.421875
5813,-105.468750
5814,-103.515625
5815,-101.562500
5816,-99.609375
5817,-97.656250
5818,-95.703125
5819,-93.750000
5820,-91.796875
5821,-89.843750
5822,-87.890625
5823,-85.937500
5824,-83.984375
5825,-82.031250
5826,-80.078125
5827,-78.125000
5828,-76.171875
5829,-74.218750
5830,-70.312500
5831,-68.359375
5832,-66.406250
5833,-62.500000
5834,-60.546875
5835,-58.593750
5836,-56.640625
5837,-54.687500
5838,-52.734375
5839,-48.828125
5840,-46.875000
5841,-42.968750
5842,-41.015625
5843,-39.062500
5844,-35.156250
5845,-33.203125
5846,-31.250000
5847,-27.343750
5848,-25.390625
5849,-23.437500
5850,-21.484375
5851,-17.578125
5852,-15.625000
5853,-11.718750
5854,-9.765625
5855,-7.812500
5856,-3.906250
5857,-1.953125
5858,0.000000
5859,3.906250
5860,5.859375
5861,7.812500
5862,11.718750
5863,13.671875
5864,15.625000
5865,17.578125
5866,21.484375
5867,23.437500
5868,25.390625
5869,29.296875
5870,31.250000
5871,33.203125
5872,35.156250
5873,37.109375
5874,39.062500
5875,42.968750
5876,44.921875
5877,46.875000
5878,48.828125
5879,50.781250
5880,54.687500
5881,54.687500
5882,56.640625
5883,60.546875
5884,60.546875
5885,62.500000
5886,64.453125
5887,68.359375
5888,70.312500
5889,70.312500
5890,72.265625
5891,74.218750
5892,76.171875
5893,78.125000
5894,78.125000
5895,80.078125
5896,82.031250
5897,83.984375
5898,83.984375
5899,85.937500
5900,87.890625
5901,87.890625
5902,89.843750
5903,91.796875
5904,91.796875
5905,93.750000
5906,93.750000
5907,95.703125
5908,95.703125
5909,97.656250
5910,97.656250
5911,97.656250
5912,99.609375
5913,99.609375
5914,101.562500
5915,101.562500
5916,101.562500
5917,103.515625
5918,103.515625
5919,103.515625
5920,103.515625
5921,103.515625
5922,103.515625
5923,103.515625
5924,105.468750
5925,105.468750
5926,105.468750
5927,103.515625
5928,105.468750
5929,103.515625
5930,105.468750
5931,105.468750
5932,105.468750
5933,103.515625
5934,103.515625
5935,103.515625
5936,103.515625
5937,103.515625
5938,101.562500
5939,101.562500
5940,99.609375
5941,99.609375
5942,99.609375
5943,99.609375
5944,97.656250
5945,97.656250
5946,95.703125
5947,95.703125
5948,93.750000
5949,93.750000
5950,93.750000
5951,91.796875
5952,89.843750
5953,89.843750
5954,87.890625
5955,85.937500
5956,83.984375
5957,83.984375
5958,82.031250
5959,80.078125
5960,80.078125
5961,78.125000
5962,76.171875
5963,74.218750
5964,74.218750
5965,70.312500
5966,68.359375
5967,68.359375
5968,66.406250
5969,64.453125
5970,60.546875
5971,60.546875
5972,58.593750
5973,56.640625
5974,54.687500
5975,52.734375
5976,48.828125
5977,46.875000
5978,44.921875
5979,42.968750
5980,41.015625
5981,39.062500
5982,35.156250
5983,33.203125
5984,31.250000
5985,29.296875
5986,27.343750
5987,23.437500
5988,21.484375
5989,19.531250
5990,17.578125
5991,13.671875
5992,11.718750
5993,9.765625
5994,5.859375
5995,3.906250
5996,1.953125
5997,-1.953125
5998,-3.906250
5999,-7.812500
6000,-9.765625
6001,-11.718750
6002,-13.671875
6003,-17.578125
6004,-19.531250
6005,-21.484375
6006,-25.390625
6007,-27.343750
6008,-31.250000
6009,-33.203125
6010,-35.156250
6011,-39.062500
6012,-41.015625
6013,-42.968750
6014,-46.875000
6015,-48.828125
6016,-50.781250
6017,-54.687500
6018,-56.640625
6019,-58.593750
6020,-60.546875
6021,-64.453125
6022,-66.406250
6023,-68.359375
6024,-70.312500
6025,-74.218750
6026,-76.171875
6027,-78.125000
6028,-80.078125
6029,-82.031250
6030,-83.984375
6031,-85.937500
6032,-89.843750
6033,-89.843750
6034,-91.796875
6035,-93.750000
6036,-95.703125
6037,-97.656250
6038,-99.609375
6039,-101.562500
6040,-103.515625
6041,-105.468750
6042,-107.421875
6043,-109.375000
6044,-109.375000
6045,-111.328125
6046,-113.281250
6047,-113.281250
6048,-115.234375
6049,-117.187500
6050,-119.140625
6051,-119.140625
6052,-121.093750
6053,-121.093750
6054,-121.093750
6055,-123.046875
6056,-125.000000
6057,-125.000000
6058,-125.000000
6059,-125.000000
6060,-126.953125
6061,-126.953125
6062,-126.953125
6063,-126.953125
6064,-126.953125
6065,-128.906250
6066,-126.953125
6067,-128.906250
6068,-128.906250
6069,-126.953125
6070,-128.906250
6071,-128.906250
6072,-126.953125
6073,-126.953125
6074,-126.953125
6075,-126.953125
6076,-126.953125
6077,-125.000000
6078,-125.000000
6079,-125.000000
6080,-123.046875
6081,-123.046875
6082,-121.093750
6083,-121.093750
6084,-119.140625
6085,-119.140625
6086,-119.140625
6087,-117.187500
6088,-115.234375
6089,-115.234375
6090,-113.281250
6091,-111.328125
6092,-109.375000
6093,-107.421875
6094,-107.421875
6095,-105.468750
6096,-103.515625
6097,-101.562500
6098,-99.609375
6099,-97.656250
6100,-95.703125
6101,-95.703125
6102,-93.750000
6103,-91.796875
6104,-89.843750
6105,-87.890625
6106,-83.984375
6107,-82.031250
6108,-80.078125
6109,-78.125000
6110,-76.171875
6111,-74.218750
6112,-72.265625
6113,-70.312500
6114,-66.406250
6115,-64.453125
6116,-62.500000
6117,-58.593750
6118,-56.640625
6119,-54.687500
6120,-52.734375
6121,-48.828125
6122,-46.875000
6123,-44.921875
6124,-41.015625
6125,-39.062500
6126,-37.109375
6127,-35.156250
6128,-31.250000
6129,-29.296875
6130,-27.343750
6131,-23.437500
6132,-21.484375
6133,-17.578125
6134,-15.625000
6135,-13.671875
6136,-11.718750
6137,-7.812500
6138,-3.906250
6139,-1.953125
6140,0.000000
6141,3.906250
6142,5.859375
6143,7.812500
6144,11.718750
6145,13.671875
6146,15.625000
6147,17.578125
6148,21.484375
6149,23.437500
6150,25.390625
6151,25.390625
6152,31.250000
6153,33.203125
6154,35.156250
6155,37.109375
6156,39.062500
6157,41.015625
6158,44.921875
6159,46.875000
6160,48.828125
6161,50.781250
6162,52.734375
6163,54.687500
6164,56.640625
6165,60.546875
6166,60.546875
6167,62.500000
6168,64.453125
6169,64.453125
6170,68.359375
6171,70.312500
6172,72.265625
6173,74.218750
6174,74.218750
6175,76.171875
6176,78.125000
6177,80.078125
6178,82.031250
6179,83.984375
6180,83.984375
6181,85.937500
6182,87.890625
6183,87.890625
6184,87.890625
6185,89.843750
6186,91.796875
6187,91.796875
6188,93.750000
6189,93.750000
6190,95.703125
6191,97.656250
6192,97.656250
6193,97.656250
6194,99.609375
6195,99.609375
6196,99.609375
6197,101.562500
6198,101.562500
6199,107.421875
6200,103.515625
6201,103.515625
6202,103.515625
6203,97.656250
6204,103.515625
6205,103.515625
6206,105.468750
6207,105.468750
6208,105.468750
6209,105.468750
6210,105.468750
6211,105.468750
6212,105.468750
6213,103.515625
6214,103.515625
6215,103.515625
6216,103.515625
6217,103.515625
6218,105.468750
6219,103.515625
6220,99.609375
6221,101.562500
6222,101.562500
6223,99.609375
6224,99.609375
6225,99.609375
6226,97.656250
6227,97.656250
6228,97.656250
6229,95.703125
6230,95.703125
6231,93.750000
6232,91.796875
6233,91.796875
6234,87.890625
6235,87.890625
6236,87.890625
6237,87.890625
6238,85.937500
6239,83.984375
6240,82.031250
6241,82.031250
6242,80.078125
6243,78.125000
6244,76.171875
6245,74.218750
6246,72.265625
6247,70.312500
6248,68.359375
6249,68.359375
6250,66.406250
6251,64.453125
6252,62.500000
6253,58.593750
6254,58.593750
6255,56.640625
6256,54.687500
6257,50.781250
6258,48.828125
6259,48.828125
6260,44.921875
6261,42.968750
6262,41.015625
6263,39.062500
6264,37.109375
6265,33.203125
6266,31.250000
6267,29.296875
6268,27.343750
6269,25.390625
6270,21.484375
6271,19.531250
6272,17.578125
6273,15.625000
6274,11.718750
6275,9.765625
6276,7.812500
6277,3.906250
6278,1.953125
6279,0.000000
6280,-3.906250
6281,-5.859375
6282,-7.812500
6283,-11.718750
6284,-13.671875
6285,-17.578125
6286,-19.531250
6287,-21.484375
6288,-25.390625
6289,-27.343750
6290,-29.296875
6291,-33.203125
6292,-35.156250
6293,-37.109375
6294,-41.015625
6295,-42.968750
6296,-44.921875
6297,-46.875000
6298,-50.781250
6299,-52.734375
6300,-56.640625
6301,-58.593750
6302,-60.546875
6303,-62.500000
6304,-66.406250
6305,-68.359375
6306,-70.312500
6307,-72.265625
6308,-76.171875
6309,-78.125000
6310,-80.078125
6311,-82.031250
6312,-83.984375
6313,-85.937500
6314,-87.890625
6315,-89.843750
6316,-91.796875
6317,-93.750000
6318,-95.703125
6319,-97.656250
6320,-99.609375
6321,-101.562500
6322,-103.515625
6323,-105.468750
6324,-107.421875
6325,-109.375000
6326,-109.375000
6327,-111.328125
6328,-113.281250
6329,-113.281250
6330,-115.234375
6331,-117.187500
6332,-117.187500
6333,-119.140625
6334,-119.140625
6335,-121.093750
6336,-121.093750
6337,-121.093750
6338,-123.046875
6339,-125.000000
6340,-125.000000
6341,-125.000000
6342,-125.000000
6343,-126.953125
6344,-126.953125
6345,-126.953125
6346,-128.906250
6347,-126.953125
6348,-126.953125
6349,-128.906250
6350,-128.906250
6351,-128.906250
6352,-128.906250
6353,-126.953125
6354,-126.953125
6355,-128.906250
6356,-126.953125
6357,-126.953125
6358,-126.953125
6359,-126.953125
6360,-125.000000
6361,-125.000000
6362,-125.000000
6363,-123.046875
6364,-123.046875
6365,-121.093750
6366,-121.093750
6367,-119.140625
6368,-117.187500
6369,-117.187500
6370,-117.187500
6371,-115.234375
6372,-113.281250
6373,-111.328125
6374,-111.328125
6375,-109.375000
6376,-107.421875
6377,-105.468750
6378,-105.468750
6379,-103.515625
6380,-101.562500
6381,-99.609375
6382,-97.656250
6383,-95.703125
6384,-93.750000
6385,-91.796875
6386,-89.843750
6387,-87.890625
6388,-85.937500
6389,-83.984375
6390,-80.078125
6391,-78.125000
6392,-76.171875
6393,-74.218750
6394,-72.265625
6395,-70.312500
6396,-66.406250
6397,-64.453125
6398,-62.500000
6399,-60.546875
6400,-60.546875
6401,-54.687500
6402,-52.734375
6403,-50.781250
6404,-48.828125
6405,-44.921875
6406,-42.968750
6407,-41.015625
6408,-37.109375
6409,-35.156250
6410,-33.203125
6411,-29.296875
6412,-27.343750
6413,-25.390625
6414,-21.484375
6415,-19.531250
6416,-15.625000
6417,-13.671875
6418,-11.718750
6419,-9.765625
6420,-5.859375
6421,-3.906250
6422,0.000000
6423,1.953125
6424,3.906250
6425,7.812500
6426,9.765625
6427,11.718750
6428,15.625000
6429,17.578125
6430,19.531250
6431,21.484375
6432,23.437500
6433,27.343750
6434,29.296875
6435,31.250000
6436,33.203125
6437,37.109375
6438,39.062500
6439,41.015625
6440,42.968750
6441,44.921875
6442,48.828125
6443,50.781250
6444,52.734375
6445,54.687500
6446,56.640625
6447,58.593750
6448,60.546875
6449,62.500000
6450,64.453125
6451,66.406250
6452,68.359375
6453,70.312500
6454,72.265625
6455,72.265625
6456,74.218750
6457,76.171875
6458,78.125000
6459,80.078125
6460,80.078125
6461,82.031250
6462,83.984375
6463,85.937500
6464,85.937500
6465,87.890625
6466,89.843750
6467,89.843750
6468,91.796875
6469,93.750000
6470,93.750000
6471,93.750000
6472,95.703125
6473,95.703125
6474,97.656250
6475,97.656250
6476,99.609375
6477,99.609375
6478,99.609375
6479,101.562500
6480,101.562500
6481,101.562500
6482,101.562500
6483,103.515625
6484,103.515625
6485,103.515625
6486,105.468750
6487,103.515625
6488,103.515625
6489,103.515625
6490,105.468750
6491,105.468750
6492,105.468750
6493,105.468750
6494,103.515625
6495,103.515625
6496,103.515625
6497,103.515625
6498,103.515625
6499,103.515625
6500,101.562500
6501,103.515625
6502,101.562500
6503,101.562500
6504,101.562500
6505,101.562500
6506,99.609375
6507,99.609375
6508,97.656250
6509,97.656250
6510,95.703125
6511,95.703125
6512,95.703125
6513,93.750000
6514,93.750000
6515,91.796875
6516,89.843750
6517,89.843750
6518,87.890625
6519,87.890625
6520,85.937500
6521,85.937500
6522,83.984375
6523,82.031250
6524,80.078125
6525,78.125000
6526,76.171875
6527,76.171875
6528,74.218750
6529,72.265625
6530,70.312500
6531,68.359375
6532,66.406250
6533,64.453125
6534,62.500000
6535,60.546875
6536,60.546875
6537,56.640625
6538,54.687500
6539,52.734375
6540,50.781250
6541,48.828125
6542,46.875000
6543,44.921875
6544,42.968750
6545,39.062500
6546,37.109375
6547,35.156250
6548,33.203125
6549,31.250000
6550,27.343750
6551,25.390625
6552,23.437500
6553,21.484375
6554,17.578125
6555,15.625000
6556,13.671875
6557,9.765625
6558,7.812500
6559,5.859375
6560,1.953125
6561,0.000000
6562,-3.906250
6563,-5.859375
6564,-7.812500
6565,-9.765625
6566,-13.671875
6567,-15.625000
6568,-19.531250
6569,-21.484375
6570,-23.437500
6571,-25.390625
6572,-29.296875
6573,-31.250000
6574,-35.156250
6575,-37.109375
6576,-39.062500
6577,-42.968750
6578,-44.921875
6579,-46.875000
6580,-50.781250
6581,-52.734375
6582,-54.687500
6583,-58.593750
6584,-60.546875
6585,-62.500000
6586,-64.453125
6587,-66.406250
6588,-68.359375
6589,-72.265625
6590,-74.218750
6591,-76.171875
6592,-80.078125
6593,-82.031250
6594,-83.984375
6595,-83.984375
6596,-87.890625
6597,-89.843750
6598,-91.796875
6599,-93.750000
6600,-95.703125
6601,-97.656250
6602,-99.609375
6603,-101.562500
6604,-103.515625
6605,-105.468750
6606,-105.468750
6607,-107.421875
6608,-109.375000
6609,-111.328125
6610,-111.328125
6611,-113.281250
6612,-115.234375
6613,-115.234375
6614,-117.187500
6615,-119.140625
6616,-119.140625
6617,-121.093750
6618,-121.093750
6619,-123.046875
6620,-123.046875
6621,-125.000000
6622,-125.000000
6623,-125.000000
6624,-126.953125
6625,-126.953125
6626,-126.953125
6627,-126.953125
6628,-126.953125
6629,-128.906250
6630,-128.906250
6631,-128.906250
6632,-128.906250
6633,-128.906250
6634,-128.906250
6635,-128.906250
6636,-128.906250
6637,-128.906250
6638,-126.953125
6639,-126.953125
6640,-126.953125
6641,-126.953125
6642,-126.953125
6643,-125.000000
6644,-125.000000
6645,-125.000000
6646,-123.046875
6647,-123.046875
6648,-121.093750
6649,-119.140625
6650,-119.140625
6651,-117.187500
6652,-117.187500
6653,-115.234375
6654,-113.281250
6655,-111.328125
6656,-111.328125
6657,-109.375000
6658,-109.375000
6659,-107.421875
6660,-105.468750
6661,-103.515625
6662,-101.562500
6663,-101.562500
6664,-97.656250
6665,-95.703125
6666,-93.750000
6667,-91.796875
6668,-89.843750
6669,-87.890625
6670,-85.937500
6671,-83.984375
6672,-82.031250
6673,-80.078125
6674,-78.125000
6675,-74.218750
6676,-72.265625
6677,-70.312500
6678,-68.359375
6679,-66.406250
6680,-64.453125
6681,-60.546875
6682,-58.593750
6683,-56.640625
6684,-54.687500
6685,-50.781250
6686,-48.828125
6687,-46.875000
6688,-42.968750
6689,-41.015625
6690,-39.062500
6691,-35.156250
6692,-33.203125
6693,-31.250000
6694,-27.343750
6695,-25.390625
6696,-23.437500
6697,-19.531250
6698,-17.578125
6699,-13.671875
6700,-11.718750
6701,-9.765625
6702,-7.812500
6703,-3.906250
6704,-1.953125
6705,0.000000
6706,3.906250
6707,5.859375
6708,7.812500
6709,9.765625
6710,13.671875
6711,15.625000
6712,17.578125
6713,21.484375
6714,23.437500
6715,25.390625
6716,29.296875
6717,31.250000
6718,33.203125
6719,35.156250
6720,39.062500
6721,41.015625
6722,42.968750
6723,44.921875
6724,46.875000
6725,48.828125
6726,50.781250
6727,54.687500
6728,56.640625
6729,56.640625
6730,60.546875
6731,62.500000
6732,64.453125
6733,66.406250
6734,66.406250
6735,68.359375
6736,70.312500
6737,72.265625
6738,74.218750
6739,76.171875
6740,78.125000
6741,78.125000
6742,80.078125
6743,82.031250
6744,83.984375
6745,85.937500
6746,85.937500
6747,87.890625
6748,87.890625
6749,89.843750
6750,91.796875
6751,91.796875
6752,93.750000
6753,93.750000
6754,95.703125
6755,97.656250
6756,97.656250
6757,97.656250
6758,99.609375
6759,99.609375
6760,99.609375
6761,99.609375
6762,101.562500
6763,101.562500
6764,103.515625
6765,101.562500
6766,101.562500
6767,103.515625
6768,103.515625
6769,103.515625
6770,103.515625
6771,105.468750
6772,105.468750
6773,103.515625
6774,105.468750
6775,105.468750
6776,103.515625
6777,105.468750
6778,103.515625
6779,103.515625
6780,103.515625
6781,103.515625
6782,103.515625
6783,103.515625
6784,103.515625
6785,101.562500
6786,101.562500
6787,101.562500
6788,99.609375
6789,97.656250
6790,99.609375
6791,97.656250
6792,97.656250
6793,95.703125
6794,95.703125
6795,93.750000
6796,93.750000
6797,91.796875
6798,91.796875
6799,89.843750
6800,89.843750
6801,87.890625
6802,85.937500
6803,83.984375
6804,83.984375
6805,82.031250
6806,80.078125
6807,80.078125
6808,78.125000
6809,76.171875
6810,74.218750
6811,72.265625
6812,72.265625
6813,68.359375
6814,66.406250
6815,64.453125
6816,64.453125
6817,62.500000
6818,58.593750
6819,56.640625
6820,54.687500
6821,52.734375
6822,50.781250
6823,48.828125
6824,46.875000
6825,44.921875
6826,42.968750
6827,39.062500
6828,37.109375
6829,35.156250
6830,33.203125
6831,31.250000
6832,27.343750
6833,25.390625
6834,23.437500
6835,21.484375
6836,19.531250
6837,15.625000
6838,13.671875
6839,11.718750
6840,7.812500
6841,5.859375
6842,1.953125
6843,0.000000
6844,-1.953125
6845,-5.859375
6846,-7.812500
6847,-9.765625
6848,-13.671875
6849,-15.625000
6850,-17.578125
6851,-19.531250
6852,-23.437500
6853,-25.390625
6854,-29.296875
6855,-31.250000
6856,-33.203125
6857,-35.156250
6858,-39.062500
6859,-41.015625
6860,-44.921875
6861,-46.875000
6862,-48.828125
6863,-52.734375
6864,-54.687500
6865,-56.640625
6866,-58.593750
6867,-62.500000
6868,-64.453125
6869,-66.406250
6870,-68.359375
6871,-70.312500
6872,-74.218750
6873,-76.171875
6874,-78.125000
6875,-80.078125
6876,-82.031250
6877,-85.937500
6878,-87.890625
6879,-87.890625
6880,-89.843750
6881,-93.750000
6882,-95.703125
6883,-95.703125
6884,-99.609375
6885,-99.609375
6886,-101.562500
6887,-105.468750
6888,-105.468750
6889,-107.421875
6890,-109.375000
6891,-109.375000
6892,-111.328125
6893,-113.281250
6894,-115.234375
6895,-117.187500
6896,-117.187500
6897,-117.187500
6898,-119.140625
6899,-121.093750
6900,-121.093750
6901,-123.046875
6902,-123.046875
6903,-123.046875
6904,-125.000000
6905,-125.000000
6906,-125.000000
6907,-126.953125
6908,-126.953125
6909,-126.953125
6910,-126.953125
6911,-126.953125
6912,-128.906250
6913,-128.906250
6914,-128.906250
6915,-128.906250
6916,-128.906250
6917,-128.906250
6918,-128.906250
6919,-128.906250
6920,-126.953125
6921,-126.953125
6922,-126.953125
6923,-125.000000
6924,-125.000000
6925,-125.000000
6926,-125.000000
6927,-123.046875
6928,-123.046875
6929,-123.046875
6930,-121.093750
6931,-119.140625
6932,-119.140625
6933,-117.187500
6934,-117.187500
6935,-115.234375
6936,-115.234375
6937,-113.281250
6938,-111.328125
6939,-109.375000
6940,-109.375000
6941,-107.421875
6942,-105.468750
6943,-103.515625
6944,-101.562500
6945,-99.609375
6946,-97.656250
6947,-97.656250
6948,-95.703125
6949,-93.750000
6950,-91.796875
6951,-89.843750
6952,-85.937500
6953,-83.984375
6954,-82.031250
6955,-80.078125
6956,-78.125000
6957,-76.171875
6958,-74.218750
6959,-70.312500
6960,-70.312500
6961,-66.406250
6962,-64.453125
6963,-62.500000
6964,-58.593750
6965,-56.640625
6966,-54.687500
6967,-52.734375
6968,-48.828125
6969,-46.875000
6970,-44.921875
6971,-41.015625
6972,-39.062500
6973,-37.109375
6974,-35.156250
6975,-31.250000
6976,-29.296875
6977,-25.390625
6978,-23.437500
6979,-19.531250
6980,-17.578125
6981,-15.625000
6982,-13.671875
6983,-9.765625
6984,-7.812500
6985,-3.906250
6986,-1.953125
6987,0.000000
6988,1.953125
6989,5.859375
6990,7.812500
6991,11.718750
6992,13.671875
6993,15.625000
6994,19.531250
6995,21.484375
6996,23.437500
6997,25.390625
6998,29.296875
6999,29.296875
7000,33.203125
7001,35.156250
7002,37.109375
7003,39.062500
7004,42.968750
7005,44.921875
7006,46.875000
7007,48.828125
7008,50.781250
7009,52.734375
7010,54.687500
7011,56.640625
7012,58.593750
7013,60.546875
7014,62.500000
7015,64.453125
7016,66.406250
7017,68.359375
7018,70.312500
7019,72.265625
7020,74.218750
7021,74.218750
7022,76.171875
7023,78.125000
7024,80.078125
7025,80.078125
7026,82.031250
7027,83.984375
7028,85.937500
7029,85.937500
7030,87.890625
7031,89.843750
7032,89.843750
7033,91.796875
7034,93.750000
7035,93.750000
7036,95.703125
7037,95.703125
7038,95.703125
7039,97.656250
7040,97.656250
7041,99.609375
7042,99.609375
7043,99.609375
7044,101.562500
7045,101.562500
7046,101.562500
7047,103.515625
7048,103.515625
7049,103.515625
7050,103.515625
7051,103.515625
7052,103.515625
7053,105.468750
7054,105.468750
7055,105.468750
7056,105.468750
7057,105.468750
7058,105.468750
7059,105.468750
7060,105.468750
7061,103.515625
7062,103.515625
7063,103.515625
7064,103.515625
7065,103.515625
7066,103.515625
7067,101.562500
7068,101.562500
7069,101.562500
7070,99.609375
7071,99.609375
7072,99.609375
7073,97.656250
7074,97.656250
7075,97.656250
7076,95.703125
7077,93.750000
7078,93.750000
7079,93.750000
7080,91.796875
7081,89.843750
7082,89.843750
7083,87.890625
7084,85.937500
7085,85.937500
7086,83.984375
7087,82.031250
7088,80.078125
7089,80.078125
7090,78.125000
7091,76.171875
7092,74.218750
7093,72.265625
7094,70.312500
7095,68.359375
7096,68.359375
7097,66.406250
7098,64.453125
7099,62.500000
7100,60.546875
7101,58.593750
7102,54.687500
7103,54.687500
7104,52.734375
7105,50.781250
7106,46.875000
7107,44.921875
7108,44.921875
7109,41.015625
7110,39.062500
7111,37.109375
7112,35.156250
7113,31.250000
7114,29.296875
7115,27.343750
7116,25.390625
7117,21.484375
7118,19.531250
7119,17.578125
7120,15.625000
7121,11.718750
7122,9.765625
7123,7.812500
7124,3.906250
7125,1.953125
7126,0.000000
7127,-3.906250
7128,-5.859375
7129,-7.812500
7130,-11.718750
7131,-13.671875
7132,-17.578125
7133,-19.531250
7134,-21.484375
7135,-25.390625
7136,-27.343750
7137,-29.296875
7138,-33.203125
7139,-35.156250
7140,-37.109375
7141,-41.015625
7142,-42.968750
7143,-46.875000
7144,-48.828125
7145,-50.781250
7146,-52.734375
7147,-56.640625
7148,-58.593750
7149,-60.546875
7150,-64.453125
7151,-66.406250
7152,-68.359375
7153,-70.312500
7154,-72.265625
7155,-76.171875
7156,-78.125000
7157,-80.078125
7158,-82.031250
7159,-83.984375
7160,-85.937500
7161,-87.890625
7162,-91.796875
7163,-93.750000
7164,-93.750000
7165,-95.703125
7166,-97.656250
7167,-99.609375
7168,-101.562500
7169,-103.515625
7170,-105.468750
7171,-107.421875
7172,-107.421875
7173,-109.375000
7174,-111.328125
7175,-111.328125
7176,-115.234375
7177,-115.234375
7178,-117.187500
7179,-117.187500
7180,-119.140625
7181,-119.140625
7182,-121.093750
7183,-121.093750
7184,-123.046875
7185,-123.046875
7186,-125.000000
7187,-125.000000
7188,-125.000000
7189,-126.953125
7190,-126.953125
7191,-126.953125
7192,-126.953125
7193,-126.953125
7194,-126.953125
7195,-128.906250
7196,-128.906250
7197,-128.906250
7198,-128.906250
7199,-128.906250
7200,-128.906250
7201,-126.953125
7202,-126.953125
7203,-126.953125
7204,-126.953125
7205,-126.953125
7206,-125.000000
7207,-125.000000
7208,-125.000000
7209,-125.000000
7210,-123.046875
7211,-123.046875
7212,-121.093750
7213,-121.093750
7214,-119.140625
7215,-119.140625
7216,-117.187500
7217,-115.234375
7218,-115.234375
7219,-113.281250
7220,-113.281250
7221,-111.328125
7222,-109.375000
7223,-107.421875
7224,-107.421875
7225,-105.468750
7226,-103.515625
7227,-101.562500
7228,-99.609375
7229,-97.656250
7230,-95.703125
7231,-93.750000
7232,-91.796875
7233,-89.843750
7234,-87.890625
7235,-85.937500
7236,-83.984375
7237,-82.031250
7238,-80.078125
7239,-76.171875
7240,-74.218750
7241,-72.265625
7242,-70.312500
7243,-68.359375
7244,-64.453125
7245,-62.500000
7246,-60.546875
7247,-58.593750
7248,-54.687500
7249,-52.734375
7250,-50.781250
7251,-46.875000
7252,-44.921875
7253,-42.968750
7254,-39.062500
7255,-37.109375
7256,-35.156250
7257,-31.250000
7258,-29.296875
7259,-27.343750
7260,-25.390625
7261,-21.484375
7262,-19.531250
7263,-15.625000
7264,-13.671875
7265,-11.718750
7266,-9.765625
7267,-5.859375
7268,-3.906250
7269,0.000000
7270,1.953125
7271,3.906250
7272,5.859375
7273,9.765625
7274,11.718750
7275,15.625000
7276,17.578125
7277,19.531250
7278,21.484375
7279,23.437500
7280,27.343750
7281,29.296875
7282,31.250000
7283,35.156250
7284,35.156250
7285,39.062500
7286,41.015625
7287,42.968750
7288,44.921875
7289,46.875000
7290,48.828125
7291,52.734375
7292,54.687500
7293,56.640625
7294,58.593750
7295,60.546875
7296,62.500000
7297,64.453125
7298,66.406250
7299,68.359375
7300,70.312500
7301,72.265625
7302,72.265625
7303,74.218750
7304,76.171875
7305,78.125000
7306,80.078125
7307,80.078125
7308,82.031250
7309,83.984375
7310,85.937500
7311,87.890625
7312,87.890625
7313,89.843750
7314,89.843750
7315,91.796875
7316,91.796875
7317,93.750000
7318,95.703125
7319,95.703125
7320,95.703125
7321,97.656250
7322,97.656250
7323,97.656250
7324,99.609375
7325,99.609375
7326,101.562500
7327,101.562500
7328,101.562500
7329,101.562500
7330,101.562500
7331,103.515625
7332,103.515625
7333,103.515625
7334,103.515625
7335,105.468750
7336,105.468750
7337,103.515625
7338,105.468750
7339,105.468750
7340,103.515625
7341,103.515625
7342,103.515625
7343,103.515625
7344,103.515625
7345,103.515625
7346,103.515625
7347,103.515625
7348,101.562500
7349,101.562500
7350,101.562500
7351,101.562500
7352,101.562500
7353,99.609375
7354,99.609375
7355,97.656250
7356,97.656250
7357,95.703125
7358,95.703125
7359,93.750000
7360,93.750000
7361,93.750000
7362,91.796875
7363,91.796875
7364,89.843750
7365,87.890625
7366,85.937500
7367,85.937500
7368,83.984375
7369,83.984375
7370,82.031250
7371,80.078125
7372,78.125000
7373,76.171875
7374,74.218750
7375,72.265625
7376,72.265625
7377,70.312500
7378,68.359375
7379,66.406250
7380,64.453125
7381,62.500000
7382,60.546875
7383,58.593750
7384,56.640625
7385,54.687500
7386,52.734375
7387,50.781250
7388,48.828125
7389,46.875000
7390,42.968750
7391,41.015625
7392,39.062500
7393,37.109375
7394,35.156250
7395,31.250000
7396,29.296875
7397,27.343750
7398,25.390625
7399,23.437500
7400,19.531250
7401,17.578125
7402,13.671875
7403,11.718750
7404,9.765625
7405,5.859375
7406,3.906250
7407,1.953125
7408,0.000000
7409,-3.906250
7410,-5.859375
7411,-7.812500
7412,-11.718750
7413,-13.671875
7414,-17.578125
7415,-19.531250
7416,-21.484375
7417,-23.437500
7418,-27.343750
7419,-29.296875
7420,-33.203125
7421,-35.156250
7422,-37.109375
7423,-41.015625
7424,-41.015625
7425,-44.921875
7426,-46.875000
7427,-50.781250
7428,-52.734375
7429,-54.687500
7430,-58.593750
7431,-60.546875
7432,-62.500000
7433,-64.453125
7434,-66.406250
7435,-70.312500
7436,-72.265625
7437,-74.218750
7438,-76.171875
7439,-78.125000
7440,-82.031250
7441,-83.984375
7442,-85.937500
7443,-87.890625
7444,-89.843750
7445,-91.796875
7446,-93.750000
7447,-95.703125
7448,-97.656250
7449,-99.609375
7450,-101.562500
7451,-103.515625
7452,-103.515625
7453,-105.468750
7454,-107.421875
7455,-109.375000
7456,-111.328125
7457,-111.328125
7458,-113.281250
7459,-115.234375
7460,-117.187500
7461,-117.187500
7462,-117.187500
7463,-119.140625
7464,-121.093750
7465,-121.093750
7466,-123.046875
7467,-123.046875
7468,-123.046875
7469,-125.000000
7470,-125.000000
7471,-126.953125
7472,-126.953125
7473,-126.953125
7474,-126.953125
7475,-126.953125
7476,-128.906250
7477,-128.906250
7478,-126.953125
7479,-128.906250
7480,-128.906250
7481,-128.906250
7482,-128.906250
7483,-126.953125
7484,-126.953125
7485,-126.953125
7486,-126.953125
7487,-126.953125
7488,-126.953125
7489,-125.000000
7490,-125.000000
7491,-125.000000
7492,-123.046875
7493,-123.046875
7494,-121.093750
7495,-121.093750
7496,-119.140625
7497,-119.140625
7498,-117.187500
7499,-117.187500
7500,-115.234375
7501,-113.281250
7502,-111.328125
7503,-111.328125
7504,-109.375000
7505,-107.421875
7506,-107.421875
7507,-105.468750
7508,-103.515625
7509,-101.562500
7510,-99.609375
7511,-97.656250
7512,-95.703125
7513,-93.750000
7514,-91.796875
7515,-89.843750
7516,-87.890625
7517,-85.937500
7518,-83.984375
7519,-82.031250
7520,-78.125000
7521,-78.125000
7522,-76.171875
7523,-72.265625
7524,-70.312500
7525,-68.359375
7526,-66.406250
7527,-62.500000
7528,-60.546875
7529,-58.593750
7530,-54.687500
7531,-52.734375
7532,-50.781250
7533,-48.828125
7534,-46.875000
7535,-42.968750
7536,-41.015625
7537,-37.109375
7538,-35.156250
7539,-31.250000
7540,-31.250000
7541,-27.343750
7542,-25.390625
7543,-23.437500
7544,-19.531250
7545,-17.578125
7546,-13.671875
7547,-11.718750
7548,-9.765625
7549,-5.859375
7550,-3.906250
7551,-1.953125
7552,1.953125
7553,3.906250
7554,7.812500
7555,9.765625
7556,11.718750
7557,13.671875
7558,17.578125
7559,19.531250
7560,21.484375
7561,23.437500
7562,27.343750
7563,29.296875
7564,33.203125
7565,33.203125
7566,35.156250
7567,39.062500
7568,41.015625
7569,42.968750
7570,44.921875
7571,46.875000
7572,48.828125
7573,52.734375
7574,54.687500
7575,56.640625
7576,58.593750
7577,60.546875
7578,62.500000
7579,64.453125
7580,66.406250
7581,68.359375
7582,68.359375
7583,70.312500
7584,72.265625
7585,74.218750
7586,76.171875
7587,78.125000
7588,80.078125
7589,80.078125
7590,82.031250
7591,83.984375
7592,83.984375
7593,85.937500
7594,87.890625
7595,87.890625
7596,89.843750
7597,91.796875
7598,91.796875
7599,93.750000
7600,93.750000
7601,95.703125
7602,95.703125
7603,97.656250
7604,97.656250
7605,97.656250
7606,99.609375
7607,99.609375
7608,99.609375
7609,101.562500
7610,101.562500
7611,101.562500
7612,103.515625
7613,103.515625
7614,103.515625
7615,103.515625
7616,103.515625
7617,103.515625
7618,103.515625
7619,103.515625
7620,103.515625
7621,103.515625
7622,105.468750
7623,105.468750
7624,103.515625
7625,103.515625
7626,103.515625
7627,103.515625
7628,103.515625
7629,103.515625
7630,103.515625
7631,101.562500
7632,101.562500
7633,101.562500
7634,99.609375
7635,99.609375
7636,99.609375
7637,97.656250
7638,97.656250
7639,97.656250
7640,95.703125
7641,95.703125
7642,93.750000
7643,93.750000
7644,91.796875
7645,91.796875
7646,89.843750
7647,87.890625
7648,87.890625
7649,85.937500
7650,85.937500
7651,83.984375
7652,82.031250
7653,80.078125
7654,78.125000
7655,78.125000
7656,76.171875
7657,74.218750
7658,70.312500
7659,70.312500
7660,68.359375
7661,66.406250
7662,64.453125
7663,62.500000
7664,60.546875
7665,58.593750
7666,56.640625
7667,54.687500
7668,52.734375
7669,50.781250
7670,48.828125
7671,46.875000
7672,42.968750
7673,41.015625
7674,41.015625
7675,37.109375
7676,35.156250
7677,33.203125
7678,31.250000
7679,27.343750
7680,25.390625
7681,21.484375
7682,19.531250
7683,19.531250
7684,15.625000
7685,13.671875
7686,9.765625
7687,7.812500
7688,5.859375
7689,3.906250
7690,0.000000
7691,-1.953125
7692,-5.859375
7693,-7.812500
7694,-9.765625
7695,-11.718750
7696,-15.625000
7697,-17.578125
7698,-21.484375
7699,-23.437500
7700,-27.343750
7701,-29.296875
7702,-31.250000
7703,-33.203125
7704,-37.109375
7705,-39.062500
7706,-41.015625
7707,-44.921875
7708,-46.875000
7709,-48.828125
7710,-52.734375
7711,-54.687500
7712,-56.640625
7713,-60.546875
7714,-62.500000
7715,-64.453125
7716,-66.406250
7717,-70.312500
7718,-72.265625
7719,-74.218750
7720,-76.171875
7721,-78.125000
7722,-82.031250
7723,-82.031250
7724,-85.937500
7725,-87.890625
7726,-89.843750
7727,-89.843750
7728,-93.750000
7729,-95.703125
7730,-97.656250
7731,-99.609375
7732,-101.562500
7733,-103.515625
7734,-103.515625
7735,-105.468750
7736,-107.421875
7737,-107.421875
7738,-111.328125
7739,-111.328125
7740,-113.281250
7741,-115.234375
7742,-115.234375
7743,-117.187500
7744,-119.140625
7745,-119.140625
7746,-121.093750
7747,-121.093750
7748,-123.046875
7749,-123.046875
7750,-125.000000
7751,-125.000000
7752,-125.000000
7753,-126.953125
7754,-126.953125
7755,-126.953125
7756,-126.953125
7757,-128.906250
7758,-128.906250
7759,-128.906250
7760,-128.906250
7761,-128.906250
7762,-128.906250
7763,-128.906250
7764,-128.906250
7765,-126.953125
7766,-128.906250
7767,-126.953125
7768,-126.953125
7769,-126.953125
7770,-126.953125
7771,-126.953125
7772,-125.000000
7773,-125.000000
7774,-125.000000
7775,-123.046875
7776,-121.093750
7777,-121.093750
7778,-121.093750
7779,-119.140625
7780,-119.140625
7781,-117.187500
7782,-115.234375
7783,-115.234375
7784,-113.281250
7785,-111.328125
7786,-111.328125
7787,-107.421875
7788,-107.421875
7789,-105.468750
7790,-103.515625
7791,-101.562500
7792,-101.562500
7793,-99.609375
7794,-97.656250
7795,-95.703125
7796,-93.750000
7797,-91.796875
7798,-89.843750
7799,-85.937500
7800,-85.937500
7801,-83.984375
7802,-80.078125
7803,-78.125000
7804,-78.125000
7805,-74.218750
7806,-70.312500
7807,-70.312500
7808,-66.406250
7809,-64.453125
7810,-62.500000
7811,-60.546875
7812,-56.640625
7813,-54.687500
7814,-52.734375
7815,-48.828125
7816,-46.875000
7817,-44.921875
7818,-42.968750
7819,-39.062500
7820,-37.109375
7821,-35.156250
7822,-31.250000
7823,-29.296875
7824,-25.390625
7825,-23.437500
7826,-21.484375
7827,-17.578125
7828,-15.625000
7829,-13.671875
7830,-9.765625
7831,-7.812500
7832,-3.906250
7833,-1.953125
7834,0.000000
7835,3.906250
7836,5.859375
7837,7.812500
7838,11.718750
7839,13.671875
7840,15.625000
7841,17.578125
7842,19.531250
7843,23.437500
7844,25.390625
7845,29.296875
7846,31.250000
7847,33.203125
7848,35.156250
7849,37.109375
7850,39.062500
7851,42.968750
7852,44.921875
7853,46.875000
7854,48.828125
7855,50.781250
7856,52.734375
7857,54.687500
7858,56.640625
7859,58.593750
7860,60.546875
7861,62.500000
7862,64.453125
7863,66.406250
7864,68.359375
7865,68.359375
7866,70.312500
7867,74.218750
7868,76.171875
7869,76.171875
7870,78.125000
7871,80.078125
7872,82.031250
7873,82.031250
7874,83.984375
7875,85.937500
7876,85.937500
7877,87.890625
7878,89.843750
7879,89.843750
7880,91.796875
7881,91.796875
7882,93.750000
7883,93.750000
7884,95.703125
7885,95.703125
7886,97.656250
7887,99.609375
7888,99.609375
7889,101.562500
7890,99.609375
7891,101.562500
7892,101.562500
7893,101.562500
7894,103.515625
7895,103.515625
7896,103.515625
7897,103.515625
7898,103.515625
7899,103.515625
7900,103.515625
7901,105.468750
7902,105.468750
7903,105.468750
7904,105.468750
7905,105.468750
7906,105.468750
7907,105.468750
7908,105.468750
7909,103.515625
7910,103.515625
7911,103.515625
7912,103.515625
7913,101.562500
7914,103.515625
7915,101.562500
7916,101.562500
7917,99.609375
7918,99.609375
7919,97.656250
7920,97.656250
7921,97.656250
7922,95.703125
7923,95.703125
7924,93.750000
7925,91.796875
7926,91.796875
7927,91.796875
7928,89.843750
7929,87.890625
7930,87.890625
7931,85.937500
7932,83.984375
7933,83.984375
7934,82.031250
7935,82.031250
7936,80.078125
7937,78.125000
7938,76.171875
7939,70.312500
7940,72.265625
7941,70.312500
7942,68.359375
7943,68.359375
7944,64.453125
7945,64.453125
7946,62.500000
7947,60.546875
7948,58.593750
7949,54.687500
7950,52.734375
7951,52.734375
7952,48.828125
7953,46.875000
7954,44.921875
7955,42.968750
7956,35.156250
7957,39.062500
7958,37.109375
7959,33.203125
7960,31.250000
7961,29.296875
7962,27.343750
7963,23.437500
7964,21.484375
7965,19.531250
7966,15.625000
7967,13.671875
7968,11.718750
7969,9.765625
7970,5.859375
7971,3.906250
7972,1.953125
7973,-1.953125
7974,-3.906250
7975,-5.859375
7976,-9.765625
7977,-11.718750
7978,-15.625000
7979,-17.578125
7980,-19.531250
7981,-21.484375
7982,-25.390625
7983,-27.343750
7984,-31.250000
7985,-33.203125
7986,-35.156250
7987,-39.062500
7988,-41.015625
7989,-42.968750
7990,-46.875000
7991,-48.828125
7992,-50.781250
7993,-52.734375
7994,-56.640625
7995,-58.593750
7996,-60.546875
7997,-64.453125
7998,-66.406250
7999,-68.359375
8000,-70.312500
8001,-72.265625
8002,-76.171875
8003,-78.125000
8004,-80.078125
8005,-82.031250
8006,-83.984375
8007,-85.937500
8008,-87.890625
8009,-89.843750
8010,-91.796875
8011,-93.750000
8012,-95.703125
8013,-97.656250
8014,-99.609375
8015,-101.562500
8016,-103.515625
8017,-105.468750
8018,-107.421875
8019,-107.421875
8020,-109.375000
8021,-111.328125
8022,-113.281250
8023,-113.281250
8024,-115.234375
8025,-115.234375
8026,-117.187500
8027,-119.140625
8028,-119.140625
8029,-121.093750
8030,-121.093750
8031,-123.046875
8032,-123.046875
8033,-125.000000
8034,-125.000000
8035,-125.000000
8036,-125.000000
8037,-126.953125
8038,-126.953125
8039,-126.953125
8040,-128.906250
8041,-128.906250
8042,-128.906250
8043,-128.906250
8044,-128.906250
8045,-128.906250
8046,-128.906250
8047,-126.953125
8048,-126.953125
8049,-128.906250
8050,-126.953125
8051,-126.953125
8052,-126.953125
8053,-125.000000
8054,-125.000000
8055,-125.000000
8056,-123.046875
8057,-123.046875
8058,-123.046875
8059,-121.093750
8060,-121.093750
8061,-119.140625
8062,-117.187500
8063,-117.187500
8064,-117.187500
8065,-115.234375
8066,-113.281250
8067,-111.328125
8068,-111.328125
8069,-109.375000
8070,-107.421875
8071,-105.468750
8072,-103.515625
8073,-101.562500
8074,-99.609375
8075,-99.609375
8076,-97.656250
8077,-95.703125
8078,-93.750000
8079,-89.843750
8080,-89.843750
8081,-87.890625
8082,-83.984375
8083,-82.031250
8084,-80.078125
8085,-78.125000
8086,-76.171875
8087,-72.265625
8088,-72.265625
8089,-68.359375
8090,-66.406250
8091,-66.406250
8092,-62.500000
8093,-60.546875
8094,-56.640625
8095,-54.687500
8096,-52.734375
8097,-50.781250
8098,-46.875000
8099,-44.921875
8100,-42.968750
8101,-39.062500
8102,-37.109375
8103,-33.203125
8104,-31.250000
8105,-29.296875
8106,-25.390625
8107,-23.437500
8108,-21.484375
8109,-19.531250
8110,-15.625000
8111,-13.671875
8112,-9.765625
8113,-7.812500
8114,-5.859375
8115,-3.906250
8116,0.000000
8117,1.953125
8118,3.906250
8119,7.812500
8120,9.765625
8121,13.671875
8122,15.625000
8123,17.578125
8124,21.484375
8125,23.437500
8126,25.390625
8127,27.343750
8128,29.296875
8129,31.250000
8130,35.156250
8131,37.109375
8132,39.062500
8133,42.968750
8134,44.921875
8135,44.921875
8136,48.828125
8137,50.781250
8138,52.734375
8139,54.687500
8140,56.640625
8141,58.593750
8142,60.546875
8143,62.500000
8144,64.453125
8145,66.406250
8146,68.359375
8147,70.312500
8148,72.265625
8149,72.265625
8150,74.218750
8151,76.171875
8152,78.125000
8153,80.078125
8154,82.031250
8155,82.031250
8156,83.984375
8157,85.937500
8158,85.937500
8159,87.890625
8160,89.843750
8161,89.843750
8162,91.796875
8163,91.796875
8164,93.750000
8165,93.750000
8166,95.703125
8167,95.703125
8168,97.656250
8169,97.656250
8170,99.609375
8171,99.609375
8172,99.609375
8173,99.609375
8174,101.562500
8175,101.562500
8176,101.562500
8177,103.515625
8178,103.515625
8179,103.515625
8180,103.515625
8181,105.468750
8182,103.515625
8183,105.468750
8184,103.515625
8185,103.515625
8186,103.515625
8187,103.515625
8188,103.515625
8189,103.515625
8190,103.515625
8191,103.515625
8192,103.515625
8193,103.515625
8194,103.515625
8195,103.515625
8196,101.562500
8197,101.562500
8198,101.562500
8199,99.609375
8200,99.609375
8201,99.609375
8202,97.656250
8203,97.656250
8204,97.656250
8205,95.703125
8206,93.750000
8207,93.750000
8208,91.796875
8209,91.796875
8210,89.843750
8211,89.843750
8212,87.890625
8213,85.937500
8214,85.937500
8215,83.984375
8216,82.031250
8217,82.031250
8218,80.078125
8219,78.125000
8220,76.171875
8221,76.171875
8222,74.218750
8223,72.265625
8224,70.312500
8225,68.359375
8226,66.406250
8227,64.453125
8228,62.500000
8229,60.546875
8230,58.593750
8231,56.640625
8232,54.687500
8233,52.734375
8234,50.781250
8235,46.875000
8236,44.921875
8237,42.968750
8238,41.015625
8239,39.062500
8240,35.156250
8241,35.156250
8242,33.203125
8243,29.296875
8244,27.343750
8245,25.390625
8246,21.484375
8247,19.531250
8248,17.578125
8249,15.625000
8250,11.718750
8251,9.765625
8252,7.812500
8253,3.906250
8254,1.953125
8255,0.000000
8256,-3.906250
8257,-5.859375
8258,-7.812500
8259,-11.718750
8260,-13.671875
8261,-15.625000
8262,-19.531250
8263,-21.484375
8264,-25.390625
8265,-27.343750
8266,-29.296875
8267,-33.203125
8268,-35.156250
8269,-37.109375
8270,-41.015625
8271,-42.968750
8272,-44.921875
8273,-46.875000
8274,-50.781250
8275,-52.734375
8276,-54.687500
8277,-58.593750
8278,-60.546875
8279,-62.500000
8280,-64.453125
8281,-66.406250
8282,-70.312500
8283,-72.265625
8284,-74.218750
8285,-78.125000
8286,-80.078125
8287,-82.031250
8288,-83.984375
8289,-83.984375
8290,-87.890625
8291,-89.843750
8292,-91.796875
8293,-93.750000
8294,-95.703125
8295,-97.656250
8296,-99.609375
8297,-101.562500
8298,-103.515625
8299,-105.468750
8300,-105.468750
8301,-107.421875
8302,-109.375000
8303,-111.328125
8304,-113.281250
8305,-115.234375
8306,-115.234375
8307,-117.187500
8308,-117.187500
8309,-119.140625
8310,-119.140625
8311,-121.093750
8312,-121.093750
8313,-123.046875
8314,-123.046875
8315,-125.000000
8316,-125.000000
8317,-125.000000
8318,-126.953125
8319,-126.953125
8320,-126.953125
8321,-126.953125
8322,-126.953125
8323,-128.906250
8324,-128.906250
8325,-128.906250
8326,-128.906250
8327,-128.906250
8328,-128.906250
8329,-126.953125
8330,-128.906250
8331,-128.906250
8332,-126.953125
8333,-126.953125
8334,-126.953125
8335,-125.000000
8336,-125.000000
8337,-125.000000
8338,-125.000000
8339,-123.046875
8340,-123.046875
8341,-123.046875
8342,-121.093750
8343,-119.140625
8344,-119.140625
8345,-117.187500
8346,-117.187500
8347,-115.234375
8348,-113.281250
8349,-113.281250
8350,-111.328125
8351,-109.375000
8352,-107.421875
8353,-107.421875
8354,-105.468750
8355,-101.562500
8356,-101.562500
8357,-99.609375
8358,-97.656250
8359,-95.703125
8360,-93.750000
8361,-91.796875
8362,-89.843750
8363,-87.890625
8364,-85.937500
8365,-83.984375
8366,-82.031250
8367,-80.078125
8368,-78.125000
8369,-74.218750
8370,-72.265625
8371,-70.312500
8372,-68.359375
8373,-66.406250
8374,-62.500000
8375,-60.546875
8376,-58.593750
8377,-56.640625
8378,-52.734375
8379,-50.781250
8380,-48.828125
8381,-46.875000
8382,-42.968750
8383,-41.015625
8384,-37.109375
8385,-35.156250
8386,-33.203125
8387,-29.296875
8388,-27.343750
8389,-25.390625
8390,-21.484375
8391,-19.531250
8392,-17.578125
8393,-13.671875
8394,-11.718750
8395,-9.765625
8396,-5.859375
8397,-3.906250
8398,0.000000
8399,1.953125
8400,3.906250
8401,7.812500
8402,7.812500
8403,11.718750
8404,13.671875
8405,17.578125
8406,19.531250
8407,21.484375
8408,25.390625
8409,27.343750
8410,29.296875
8411,31.250000
8412,33.203125
8413,37.109375
8414,39.062500
8415,41.015625
8416,42.968750
8417,44.921875
8418,46.875000
8419,50.781250
8420,52.734375
8421,52.734375
8422,56.640625
8423,58.593750
8424,60.546875
8425,62.500000
8426,62.500000
8427,66.406250
8428,66.406250
8429,70.312500
8430,70.312500
8431,72.265625
8432,74.218750
8433,76.171875
8434,78.125000
8435,80.078125
8436,80.078125
8437,82.031250
8438,83.984375
8439,83.984375
8440,85.937500
8441,87.890625
8442,89.843750
8443,89.843750
8444,91.796875
8445,91.796875
8446,93.750000
8447,93.750000
8448,95.703125
8449,95.703125
8450,97.656250
8451,97.656250
8452,97.656250
8453,99.609375
8454,99.609375
8455,101.562500
8456,101.562500
8457,101.562500
8458,101.562500
8459,103.515625
8460,103.515625
8461,103.515625
8462,103.515625
8463,103.515625
8464,105.468750
8465,105.468750
8466,105.468750
8467,105.468750
8468,105.468750
8469,105.468750
8470,103.515625
8471,103.515625
8472,105.468750
8473,103.515625
8474,103.515625
8475,103.515625
8476,103.515625
8477,103.515625
8478,101.562500
8479,101.562500
8480,101.562500
8481,101.562500
8482,101.562500
8483,99.609375
8484,99.609375
8485,97.656250
8486,97.656250
8487,95.703125
8488,95.703125
8489,95.703125
8490,93.750000
8491,91.796875
8492,91.796875
8493,89.843750
8494,89.843750
8495,87.890625
8496,85.937500
8497,85.937500
8498,83.984375
8499,82.031250
8500,80.078125
8501,78.125000
8502,78.125000
8503,76.171875
8504,74.218750
8505,72.265625
8506,70.312500
8507,68.359375
8508,66.406250
8509,64.453125
8510,62.500000
8511,60.546875
8512,58.593750
8513,58.593750
8514,54.687500
8515,52.734375
8516,50.781250
8517,48.828125
8518,46.875000
8519,44.921875
8520,42.968750
8521,39.062500
8522,39.062500
8523,35.156250
8524,33.203125
8525,31.250000
8526,29.296875
8527,25.390625
8528,23.437500
8529,21.484375
8530,17.578125
8531,15.625000
8532,13.671875
8533,11.718750
8534,7.812500
8535,5.859375
8536,1.953125
8537,0.000000
8538,-1.953125
8539,-3.906250
8540,-7.812500
8541,-9.765625
8542,-13.671875
8543,-15.625000
8544,-17.578125
8545,-21.484375
8546,-23.437500
8547,-25.390625
8548,-29.296875
8549,-31.250000
8550,-33.203125
8551,-37.109375
8552,-39.062500
8553,-41.015625
8554,-42.968750
8555,-46.875000
8556,-48.828125
8557,-52.734375
8558,-52.734375
8559,-56.640625
8560,-60.546875
8561,-62.500000
8562,-64.453125
8563,-66.406250
8564,-70.312500
8565,-72.265625
8566,-74.218750
8567,-76.171875
8568,-78.125000
8569,-82.031250
8570,-82.031250
8571,-85.937500
8572,-87.890625
8573,-87.890625
8574,-91.796875
8575,-93.750000
8576,-95.703125
8577,-97.656250
8578,-99.609375
8579,-101.562500
8580,-101.562500
8581,-103.515625
8582,-105.468750
8583,-107.421875
8584,-109.375000
8585,-111.328125
8586,-111.328125
8587,-113.281250
8588,-115.234375
8589,-117.187500
8590,-117.187500
8591,-117.187500
8592,-119.140625
8593,-121.093750
8594,-121.093750
8595,-121.093750
8596,-123.046875
8597,-123.046875
8598,-123.046875
8599,-125.000000
8600,-126.953125
8601,-126.953125
8602,-126.953125
8603,-126.953125
8604,-126.953125
8605,-126.953125
8606,-128.906250
8607,-128.906250
8608,-128.906250
8609,-128.906250
8610,-128.906250
8611,-126.953125
8612,-128.906250
8613,-126.953125
8614,-126.953125
8615,-126.953125
8616,-126.953125
8617,-125.000000
8618,-125.000000
8619,-125.000000
8620,-125.000000
8621,-123.046875
8622,-123.046875
8623,-121.093750
8624,-121.093750
8625,-121.093750
8626,-119.140625
8627,-117.187500
8628,-117.187500
8629,-115.234375
8630,-113.281250
8631,-113.281250
8632,-111.328125
8633,-109.375000
8634,-109.375000
8635,-107.421875
8636,-105.468750
8637,-103.515625
8638,-101.562500
8639,-99.609375
8640,-97.656250
8641,-97.656250
8642,-95.703125
8643,-93.750000
8644,-91.796875
8645,-87.890625
8646,-85.937500
8647,-85.937500
8648,-82.031250
8649,-80.078125
8650,-78.125000
8651,-76.171875
8652,-74.218750
8653,-70.312500
8654,-68.359375
8655,-66.406250
8656,-64.453125
8657,-60.546875
8658,-58.593750
8659,-56.640625
8660,-54.687500
8661,-50.781250
8662,-48.828125
8663,-46.875000
8664,-42.968750
8665,-41.015625
8666,-37.109375
8667,-35.156250
8668,-33.203125
8669,-31.250000
8670,-27.343750
8671,-25.390625
8672,-23.437500
8673,-19.531250
8674,-17.578125
8675,-13.671875
8676,-11.718750
8677,-9.765625
8678,-5.859375
8679,-3.906250
8680,-1.953125
8681,0.000000
8682,3.906250
8683,7.812500
8684,7.812500
8685,11.718750
8686,13.671875
8687,17.578125
8688,17.578125
8689,21.484375
8690,23.437500
8691,27.343750
8692,27.343750
8693,31.250000
8694,33.203125
8695,35.156250
8696,37.109375
8697,41.015625
8698,42.968750
8699,44.921875
8700,46.875000
8701,48.828125
8702,50.781250
8703,52.734375
8704,54.687500
8705,56.640625
8706,60.546875
8707,60.546875
8708,62.500000
8709,64.453125
8710,66.406250
8711,68.359375
8712,70.312500
8713,72.265625
8714,74.218750
8715,76.171875
8716,76.171875
8717,78.125000
8718,80.078125
8719,82.031250
8720,83.984375
8721,83.984375
8722,85.937500
8723,87.890625
8724,87.890625
8725,89.843750
8726,89.843750
8727,91.796875
8728,93.750000
8729,93.750000
8730,93.750000
8731,95.703125
8732,97.656250
8733,97.656250
8734,97.656250
8735,99.609375
8736,99.609375
8737,99.609375
8738,101.562500
8739,101.562500
8740,101.562500
8741,101.562500
8742,103.515625
8743,103.515625
8744,103.515625
8745,103.515625
8746,103.515625
8747,105.468750
8748,103.515625
8749,105.468750
8750,103.515625
8751,105.468750
8752,105.468750
8753,103.515625
8754,103.515625
8755,103.515625
8756,103.515625
8757,103.515625
8758,103.515625
8759,103.515625
8760,103.515625
8761,101.562500
8762,101.562500
8763,99.609375
8764,99.609375
8765,99.609375
8766,97.656250
8767,97.656250
8768,97.656250
8769,95.703125
8770,95.703125
8771,93.750000
8772,91.796875
8773,91.796875
8774,91.796875
8775,89.843750
8776,87.890625
8777,87.890625
8778,85.937500
8779,83.984375
8780,83.984375
8781,82.031250
8782,80.078125
8783,78.125000
8784,76.171875
8785,76.171875
8786,74.218750
8787,72.265625
8788,70.312500
8789,70.312500
8790,68.359375
8791,64.453125
8792,64.453125
8793,62.500000
8794,60.546875
8795,56.640625
8796,54.687500
8797,54.687500
8798,50.781250
8799,48.828125
8800,46.875000
8801,44.921875
8802,42.968750
8803,41.015625
8804,39.062500
8805,35.156250
8806,33.203125
8807,31.250000
8808,29.296875
8809,27.343750
8810,23.437500
8811,21.484375
8812,19.531250
8813,17.578125
8814,13.671875
8815,11.718750
8816,9.765625
8817,5.859375
8818,3.906250
8819,0.000000
8820,-1.953125
8821,-3.906250
8822,-7.812500
8823,-9.765625
8824,-13.671875
8825,-15.625000
8826,-17.578125
8827,-19.531250
8828,-23.437500
8829,-25.390625
8830,-27.343750
8831,-31.250000
8832,-33.203125
8833,-37.109375
8834,-39.062500
8835,-41.015625
8836,-42.968750
8837,-46.875000
8838,-48.828125
8839,-52.734375
8840,-54.687500
8841,-56.640625
8842,-58.593750
8843,-62.500000
8844,-64.453125
8845,-66.406250
8846,-68.359375
8847,-70.312500
8848,-74.218750
8849,-76.171875
8850,-78.125000
8851,-80.078125
8852,-82.031250
8853,-83.984375
8854,-85.937500
8855,-87.890625
8856,-89.843750
8857,-91.796875
8858,-93.750000
8859,-95.703125
8860,-97.656250
8861,-99.609375
8862,-101.562500
8863,-103.515625
8864,-105.468750
8865,-107.421875
8866,-107.421875
8867,-109.375000
8868,-111.328125
8869,-113.281250
8870,-113.281250
8871,-115.234375
8872,-117.187500
8873,-117.187500
8874,-119.140625
8875,-119.140625
8876,-121.093750
8877,-121.093750
8878,-123.046875
8879,-123.046875
8880,-125.000000
8881,-125.000000
8882,-125.000000
8883,-126.953125
8884,-126.953125
8885,-126.953125
8886,-126.953125
8887,-126.953125
8888,-126.953125
8889,-128.906250
8890,-128.906250
8891,-128.906250
8892,-128.906250
8893,-128.906250
8894,-126.953125
8895,-126.953125
8896,-126.953125
8897,-126.953125
8898,-126.953125
8899,-126.953125
8900,-125.000000
8901,-125.000000
8902,-125.000000
8903,-123.046875
8904,-123.046875
8905,-123.046875
8906,-121.093750
8907,-121.093750
8908,-119.140625
8909,-119.140625
8910,-117.187500
8911,-115.234375
8912,-115.234375
8913,-113.281250
8914,-111.328125
8915,-111.328125
8916,-109.375000
8917,-105.468750
8918,-105.468750
8919,-103.515625
8920,-101.562500
8921,-99.609375
8922,-97.656250
8923,-97.656250
8924,-95.703125
8925,-93.750000
8926,-89.843750
8927,-87.890625
8928,-85.937500
8929,-83.984375
8930,-82.031250
8931,-80.078125
8932,-78.125000
8933,-76.171875
8934,-74.218750
8935,-72.265625
8936,-68.359375
8937,-66.406250
8938,-64.453125
8939,-60.546875
8940,-60.546875
8941,-56.640625
8942,-54.687500
8943,-52.734375
8944,-48.828125
8945,-46.875000
8946,-44.921875
8947,-42.968750
8948,-39.062500
8949,-37.109375
8950,-35.156250
8951,-31.250000
8952,-29.296875
8953,-25.390625
8954,-23.437500
8955,-21.484375
8956,-19.531250
8957,-15.625000
8958,-13.671875
8959,-9.765625
8960,-7.812500
8961,-5.859375
8962,-1.953125
8963,-1.953125
8964,1.953125
8965,5.859375
8966,7.812500
8967,11.718750
8968,13.671875
8969,15.625000
8970,17.578125
8971,21.484375
8972,23.437500
8973,25.390625
8974,27.343750
8975,31.250000
8976,33.203125
8977,35.156250
8978,37.109375
8979,39.062500
8980,42.968750
8981,44.921875
8982,46.875000
8983,48.828125
8984,50.781250
8985,52.734375
8986,54.687500
8987,56.640625
8988,58.593750
8989,60.546875
8990,62.500000
8991,64.453125
8992,66.406250
8993,68.359375
8994,70.312500
8995,72.265625
8996,74.218750
8997,76.171875
8998,76.171875
8999,78.125000
9000,80.078125
9001,82.031250
9002,82.031250
9003,83.984375
9004,85.937500
9005,87.890625
9006,87.890625
9007,89.843750
9008,91.796875
9009,91.796875
9010,91.796875
9011,93.750000
9012,93.750000
9013,95.703125
9014,97.656250
9015,97.656250
9016,97.656250
9017,99.609375
9018,99.609375
9019,99.609375
9020,101.562500
9021,101.562500
9022,101.562500
9023,103.515625
9024,103.515625
9025,103.515625
9026,103.515625
9027,103.515625
9028,105.468750
9029,103.515625
9030,105.468750
9031,105.468750
9032,105.468750
9033,105.468750
9034,105.468750
9035,105.468750
9036,105.468750
9037,103.515625
9038,103.515625
9039,103.515625
9040,103.515625
9041,103.515625
9042,103.515625
9043,101.562500
9044,101.562500
9045,101.562500
9046,101.562500
9047,99.609375
9048,99.609375
9049,99.609375
9050,97.656250
9051,95.703125
9052,95.703125
9053,95.703125
9054,93.750000
9055,93.750000
9056,91.796875
9057,89.843750
9058,89.843750
9059,87.890625
9060,85.937500
9061,85.937500
9062,83.984375
9063,83.984375
9064,82.031250
9065,80.078125
9066,78.125000
9067,76.171875
9068,76.171875
9069,74.218750
9070,72.265625
9071,70.312500
9072,68.359375
9073,66.406250
9074,64.453125
9075,62.500000
9076,60.546875
9077,58.593750
9078,56.640625
9079,54.687500
9080,52.734375
9081,50.781250
9082,48.828125
9083,46.875000
9084,42.968750
9085,41.015625
9086,39.062500
9087,37.109375
9088,35.156250
9089,31.250000
9090,29.296875
9091,27.343750
9092,23.437500
9093,21.484375
9094,19.531250
9095,17.578125
9096,13.671875
9097,11.718750
9098,9.765625
9099,7.812500
9100,3.906250
9101,1.953125
9102,0.000000
9103,-3.906250
9104,-5.859375
9105,-7.812500
9106,-11.718750
9107,-13.671875
9108,-17.578125
9109,-17.578125
9110,-21.484375
9111,-23.437500
9112,-27.343750
9113,-29.296875
9114,-33.203125
9115,-35.156250
9116,-37.109375
9117,-41.015625
9118,-42.968750
9119,-44.921875
9120,-46.875000
9121,-50.781250
9122,-52.734375
9123,-56.640625
9124,-56.640625
9125,-60.546875
9126,-62.500000
9127,-66.406250
9128,-66.406250
9129,-70.312500
9130,-72.265625
9131,-74.218750
9132,-76.171875
9133,-78.125000
9134,-82.031250
9135,-83.984375
9136,-85.937500
9137,-87.890625
9138,-89.843750
9139,-91.796875
9140,-93.750000
9141,-95.703125
9142,-97.656250
9143,-99.609375
9144,-101.562500
9145,-103.515625
9146,-105.468750
9147,-105.468750
9148,-107.421875
9149,-109.375000
9150,-111.328125
9151,-111.328125
9152,-113.281250
9153,-115.234375
9154,-117.187500
9155,-117.187500
9156,-119.140625
9157,-119.140625
9158,-121.093750
9159,-123.046875
9160,-123.046875
9161,-123.046875
9162,-123.046875
9163,-125.000000
9164,-125.000000
9165,-126.953125
9166,-126.953125
9167,-126.953125
9168,-126.953125
9169,-128.906250
9170,-128.906250
9171,-128.906250
9172,-126.953125
9173,-128.906250
9174,-128.906250
9175,-128.906250
9176,-126.953125
9177,-126.953125
9178,-128.906250
9179,-126.953125
9180,-126.953125
9181,-126.953125
9182,-125.000000
9183,-125.000000
9184,-125.000000
9185,-125.000000
9186,-123.046875
9187,-123.046875
9188,-121.093750
9189,-121.093750
9190,-119.140625
9191,-119.140625
9192,-117.187500
9193,-115.234375
9194,-115.234375
9195,-113.281250
9196,-113.281250
9197,-111.328125
9198,-109.375000
9199,-107.421875
9200,-105.468750
9201,-103.515625
9202,-103.515625
9203,-101.562500
9204,-99.609375
9205,-97.656250
9206,-95.703125
9207,-93.750000
9208,-91.796875
9209,-89.843750
9210,-87.890625
9211,-85.937500
9212,-83.984375
9213,-82.031250
9214,-80.078125
9215,-78.125000
9216,-74.218750
9217,-72.265625
9218,-70.312500
9219,-68.359375
9220,-64.453125
9221,-62.500000
9222,-60.546875
9223,-58.593750
9224,-56.640625
9225,-52.734375
9226,-50.781250
9227,-48.828125
9228,-44.921875
9229,-42.968750
9230,-41.015625
9231,-37.109375
9232,-35.156250
9233,-33.203125
9234,-29.296875
9235,-27.343750
9236,-23.437500
9237,-21.484375
9238,-19.531250
9239,-17.578125
9240,-13.671875
9241,-9.765625
9242,-7.812500
9243,-5.859375
9244,-3.906250
9245,0.000000
9246,1.953125
9247,3.906250
9248,5.859375
9249,9.765625
9250,13.671875
9251,15.625000
9252,17.578125
9253,19.531250
9254,21.484375
9255,25.390625
9256,27.343750
9257,29.296875
9258,31.250000
9259,35.156250
9260,37.109375
9261,39.062500
9262,41.015625
9263,42.968750
9264,46.875000
9265,48.828125
9266,50.781250
9267,52.734375
9268,54.687500
9269,56.640625
9270,58.593750
9271,60.546875
9272,62.500000
9273,64.453125
9274,64.453125
9275,66.406250
9276,68.359375
9277,72.265625
9278,72.265625
9279,74.218750
9280,76.171875
9281,78.125000
9282,80.078125
9283,80.078125
9284,82.031250
9285,83.984375
9286,85.937500
9287,85.937500
9288,87.890625
9289,89.843750
9290,89.843750
9291,91.796875
9292,91.796875
9293,93.750000
9294,93.750000
9295,95.703125
9296,95.703125
9297,97.656250
9298,97.656250
9299,99.609375
9300,101.562500
9301,99.609375
9302,101.562500
9303,101.562500
9304,101.562500
9305,101.562500
9306,103.515625
9307,103.515625
9308,103.515625
9309,105.468750
9310,103.515625
9311,105.468750
9312,105.468750
9313,105.468750
9314,105.468750
9315,105.468750
9316,105.468750
9317,105.468750
9318,105.468750
9319,105.468750
9320,103.515625
9321,103.515625
9322,103.515625
9323,103.515625
9324,103.515625
9325,101.562500
9326,101.562500
9327,101.562500
9328,101.562500
9329,99.609375
9330,99.609375
9331,99.609375
9332,97.656250
9333,97.656250
9334,95.703125
9335,95.703125
9336,93.750000
9337,93.750000
9338,91.796875
9339,89.843750
9340,89.843750
9341,87.890625
9342,87.890625
9343,85.937500
9344,83.984375
9345,83.984375
9346,82.031250
9347,80.078125
9348,78.125000
9349,76.171875
9350,76.171875
9351,74.218750
9352,70.312500
9353,70.312500
9354,68.359375
9355,66.406250
9356,64.453125
9357,62.500000
9358,60.546875
9359,58.593750
9360,56.640625
9361,54.687500
9362,52.734375
9363,50.781250
9364,48.828125
9365,46.875000
9366,44.921875
9367,41.015625
9368,41.015625
9369,37.109375
9370,35.156250
9371,33.203125
9372,29.296875
9373,27.343750
9374,25.390625
9375,23.437500
9376,21.484375
9377,17.578125
9378,15.625000
9379,13.671875
9380,11.718750
9381,7.812500
9382,5.859375
9383,1.953125
9384,0.000000
9385,-1.953125
9386,-5.859375
9387,-7.812500
9388,-9.765625
9389,-13.671875
9390,-15.625000
9391,-17.578125
9392,-21.484375
9393,-23.437500
9394,-27.343750
9395,-29.296875
9396,-31.250000
9397,-33.203125
9398,-37.109375
9399,-39.062500
9400,-42.968750
9401,-44.921875
9402,-46.875000
9403,-50.781250
9404,-52.734375
9405,-54.687500
9406,-56.640625
9407,-60.546875
9408,-62.500000
9409,-64.453125
9410,-66.406250
9411,-70.312500
9412,-72.265625
9413,-74.218750
9414,-76.171875
9415,-80.078125
9416,-80.078125
9417,-83.984375
9418,-85.937500
9419,-87.890625
9420,-89.843750
9421,-91.796875
9422,-93.750000
9423,-95.703125
9424,-97.656250
9425,-99.609375
9426,-101.562500
9427,-103.515625
9428,-103.515625
9429,-105.468750
9430,-107.421875
9431,-109.375000
9432,-111.328125
9433,-111.328125
9434,-113.281250
9435,-115.234375
9436,-115.234375
9437,-117.187500
9438,-117.187500
9439,-119.140625
9440,-121.093750
9441,-121.093750
9442,-121.093750
9443,-123.046875
9444,-123.046875
9445,-125.000000
9446,-125.000000
9447,-125.000000
9448,-125.000000
9449,-126.953125
9450,-126.953125
9451,-126.953125
9452,-126.953125
9453,-126.953125
9454,-128.906250
9455,-126.953125
9456,-126.953125
9457,-126.953125
9458,-128.906250
9459,-126.953125
9460,-126.953125
9461,-126.953125
9462,-126.953125
9463,-126.953125
9464,-125.000000
9465,-125.000000
9466,-125.000000
9467,-123.046875
9468,-123.046875
9469,-123.046875
9470,-121.093750
9471,-121.093750
9472,-119.140625
9473,-119.140625
9474,-117.187500
9475,-117.187500
9476,-115.234375
9477,-113.281250
9478,-113.281250
9479,-111.328125
9480,-109.375000
9481,-107.421875
9482,-107.421875
9483,-105.468750
9484,-103.515625
9485,-101.562500
9486,-99.609375
9487,-97.656250
9488,-95.703125
9489,-93.750000
9490,-93.750000
9491,-89.843750
9492,-87.890625
9493,-85.937500
9494,-83.984375
9495,-82.031250
9496,-80.078125
9497,-78.125000
9498,-74.218750
9499,-72.265625
9500,-70.312500
9501,-68.359375
9502,-66.406250
9503,-62.500000
9504,-60.546875
9505,-58.593750
9506,-56.640625
9507,-52.734375
9508,-50.781250
9509,-46.875000
9510,-44.921875
9511,-42.968750
9512,-41.015625
9513,-37.109375
9514,-35.156250
9515,-33.203125
9516,-29.296875
9517,-27.343750
9518,-25.390625
9519,-21.484375
9520,-19.531250
9521,-17.578125
9522,-13.671875
9523,-11.718750
9524,-9.765625
9525,-5.859375
9526,-3.906250
9527,0.000000
9528,1.953125
9529,3.906250
9530,5.859375
9531,9.765625
9532,11.718750
9533,13.671875
9534,17.578125
9535,17.578125
9536,21.484375
9537,23.437500
9538,27.343750
9539,29.296875
9540,31.250000
9541,33.203125
9542,37.109375
9543,39.062500
9544,41.015625
9545,42.968750
9546,44.921875
9547,46.875000
9548,48.828125
9549,50.781250
9550,52.734375
9551,54.687500
9552,56.640625
9553,60.546875
9554,62.500000
9555,64.453125
9556,64.453125
9557,66.406250
9558,68.359375
9559,70.312500
9560,72.265625
9561,74.218750
9562,76.171875
9563,78.125000
9564,78.125000
9565,80.078125
9566,82.031250
9567,83.984375
9568,83.984375
9569,85.937500
9570,87.890625
9571,89.843750
9572,89.843750
9573,91.796875
9574,91.796875
9575,93.750000
9576,93.750000
9577,95.703125
9578,95.703125
9579,97.656250
9580,97.656250
9581,99.609375
9582,99.609375
9583,99.609375
9584,101.562500
9585,101.562500
9586,101.562500
9587,103.515625
9588,103.515625
9589,103.515625
9590,103.515625
9591,103.515625
9592,103.515625
9593,105.468750
9594,105.468750
9595,105.468750
9596,105.468750
9597,105.468750
9598,105.468750
9599,105.468750
9600,103.515625
9601,105.468750
9602,103.515625
9603,103.515625
9604,103.515625
9605,103.515625
9606,103.515625
9607,101.562500
9608,101.562500
9609,101.562500
9610,101.562500
9611,99.609375
9612,99.609375
9613,99.609375
9614,97.656250
9615,97.656250
9616,95.703125
9617,95.703125
9618,93.750000
9619,93.750000
9620,91.796875
9621,91.796875
9622,89.843750
9623,87.890625
9624,87.890625
9625,85.937500
9626,85.937500
9627,83.984375
9628,82.031250
9629,80.078125
9630,80.078125
9631,78.125000
9632,76.171875
9633,74.218750
9634,74.218750
9635,70.312500
9636,70.312500
9637,66.406250
9638,64.453125
9639,62.500000
9640,62.500000
9641,60.546875
9642,58.593750
9643,54.687500
9644,54.687500
9645,50.781250
9646,48.828125
9647,46.875000
9648,44.921875
9649,42.968750
9650,41.015625
9651,39.062500
9652,35.156250
9653,33.203125
9654,31.250000
9655,29.296875
9656,25.390625
9657,23.437500
9658,21.484375
9659,19.531250
9660,15.625000
9661,13.671875
9662,11.718750
9663,7.812500
9664,5.859375
9665,3.906250
9666,0.000000
9667,-1.953125
9668,-5.859375
9669,-7.812500
9670,-9.765625
9671,-13.671875
9672,-15.625000
9673,-17.578125
9674,-19.531250
9675,-23.437500
9676,-25.390625
9677,-27.343750
9678,-31.250000
9679,-33.203125
9680,-37.109375
9681,-39.062500
9682,-41.015625
9683,-44.921875
9684,-46.875000
9685,-48.828125
9686,-50.781250
9687,-54.687500
9688,-56.640625
9689,-58.593750
9690,-62.500000
9691,-64.453125
9692,-66.406250
9693,-68.359375
9694,-72.265625
9695,-74.218750
9696,-76.171875
9697,-78.125000
9698,-78.125000
9699,-82.031250
9700,-83.984375
9701,-85.937500
9702,-87.890625
9703,-89.843750
9704,-93.750000
9705,-93.750000
9706,-95.703125
9707,-99.609375
9708,-99.609375
9709,-101.562500
9710,-103.515625
9711,-105.468750
9712,-107.421875
9713,-109.375000
9714,-109.375000
9715,-111.328125
9716,-113.281250
9717,-113.281250
9718,-115.234375
9719,-117.187500
9720,-117.187500
9721,-119.140625
9722,-121.093750
9723,-121.093750
9724,-123.046875
9725,-123.046875
9726,-125.000000
9727,-125.000000
9728,-125.000000
9729,-125.000000
9730,-126.953125
9731,-126.953125
9732,-126.953125
9733,-126.953125
9734,-128.906250
9735,-128.906250
9736,-128.906250
9737,-128.906250
9738,-128.906250
9739,-128.906250
9740,-128.906250
9741,-128.906250
9742,-128.906250
9743,-128.906250
9744,-126.953125
9745,-126.953125
9746,-126.953125
9747,-125.000000
9748,-125.000000
9749,-125.000000
9750,-123.046875
9751,-123.046875
9752,-121.093750
9753,-121.093750
9754,-121.093750
9755,-119.140625
9756,-117.187500
9757,-117.187500
9758,-115.234375
9759,-113.281250
9760,-113.281250
9761,-111.328125
9762,-109.375000
9763,-109.375000
9764,-107.421875
9765,-107.421875
9766,-103.515625
9767,-101.562500
9768,-101.562500
9769,-99.609375
9770,-95.703125
9771,-93.750000
9772,-93.750000
9773,-91.796875
9774,-87.890625
9775,-87.890625
9776,-85.937500
9777,-82.031250
9778,-80.078125
9779,-78.125000
9780,-76.171875
9781,-74.218750
9782,-70.312500
9783,-68.359375
9784,-66.406250
9785,-64.453125
9786,-62.500000
9787,-58.593750
9788,-56.640625
9789,-54.687500
9790,-52.734375
9791,-48.828125
9792,-46.875000
9793,-44.921875
9794,-42.968750
9795,-39.062500
9796,-37.109375
9797,-33.203125
9798,-31.250000
9799,-29.296875
9800,-25.390625
9801,-23.437500
9802,-21.484375
9803,-17.578125
9804,-15.625000
9805,-13.671875
9806,-9.765625
9807,-7.812500
9808,-5.859375
9809,-1.953125
9810,0.000000
9811,1.953125
9812,5.859375
9813,7.812500
9814,9.765625
9815,11.718750
9816,15.625000
9817,17.578125
9818,21.484375
9819,23.437500
9820,25.390625
9821,27.343750
9822,31.250000
9823,33.203125
9824,35.156250
9825,37.109375
9826,41.015625
9827,42.968750
9828,44.921875
9829,46.875000
9830,48.828125
9831,50.781250
9832,52.734375
9833,54.687500
9834,56.640625
9835,58.593750
9836,60.546875
9837,64.453125
9838,66.406250
9839,66.406250
9840,68.359375
9841,70.312500
9842,72.265625
9843,74.218750
9844,76.171875
9845,78.125000
9846,78.125000
9847,80.078125
9848,82.031250
9849,83.984375
9850,83.984375
9851,85.937500
9852,87.890625
9853,87.890625
9854,89.843750
9855,91.796875
9856,91.796875
9857,91.796875
9858,93.750000
9859,93.750000
9860,95.703125
9861,95.703125
9862,97.656250
9863,97.656250
9864,99.609375
9865,99.609375
9866,99.609375
9867,101.562500
9868,101.562500
9869,103.515625
9870,103.515625
9871,101.562500
9872,103.515625
9873,103.515625
9874,103.515625
9875,105.468750
9876,105.468750
9877,103.515625
9878,103.515625
9879,103.515625
9880,105.468750
9881,105.468750
9882,105.468750
9883,103.515625
9884,107.421875
9885,103.515625
9886,103.515625
9887,107.421875
9888,101.562500
9889,103.515625
9890,101.562500
9891,97.656250
9892,101.562500
9893,101.562500
9894,99.609375
9895,99.609375
9896,97.656250
9897,97.656250
9898,95.703125
9899,95.703125
9900,95.703125
9901,93.750000
9902,91.796875
9903,91.796875
9904,89.843750
9905,89.843750
9906,89.843750
9907,87.890625
9908,85.937500
9909,83.984375
9910,82.031250
9911,80.078125
9912,80.078125
9913,78.125000
9914,76.171875
9915,76.171875
9916,72.265625
9917,72.265625
9918,70.312500
9919,68.359375
9920,66.406250
9921,64.453125
9922,62.500000
9923,60.546875
9924,58.593750
9925,56.640625
9926,54.687500
9927,52.734375
9928,50.781250
9929,46.875000
9930,44.921875
9931,42.968750
9932,41.015625
9933,39.062500
9934,37.109375
9935,33.203125
9936,31.250000
9937,27.343750
9938,27.343750
9939,25.390625
9940,21.484375
9941,21.484375
9942,15.625000
9943,13.671875
9944,11.718750
9945,9.765625
9946,7.812500
9947,3.906250
9948,1.953125
9949,-1.953125
9950,-3.906250
9951,-5.859375
9952,-7.812500
9953,-11.718750
9954,-13.671875
9955,-15.625000
9956,-19.531250
9957,-23.437500
9958,-25.390625
9959,-27.343750
9960,-29.296875
9961,-33.203125
9962,-35.156250
9963,-37.109375
9964,-41.015625
9965,-42.968750
9966,-44.921875
9967,-46.875000
9968,-50.781250
9969,-52.734375
9970,-54.687500
9971,-58.593750
9972,-60.546875
9973,-62.500000
9974,-66.406250
9975,-68.359375
9976,-70.312500
9977,-72.265625
9978,-74.218750
9979,-76.171875
9980,-80.078125
9981,-82.031250
9982,-83.984375
9983,-85.937500
9984,-87.890625
9985,-89.843750
9986,-91.796875
9987,-93.750000
9988,-95.703125
9989,-97.656250
9990,-99.609375
9991,-101.562500
9992,-103.515625
9993,-105.468750
9994,-107.421875
9995,-107.421875
9996,-109.375000
9997,-111.328125
9998,-113.281250
9999,-113.281250
10000,-115.234375
