Channel              :,CH1
Frequency            :,1.771kHz
Period               :,0.565ms
PK-PK                :,253.9mV
Probe attenuation    :,1X
Voltage per ADC value:,0.122070mV
Time interval        :,2.00000us

index,CH1_Voltage(mV)
1,111.328125
2,111.328125
3,107.421875
4,109.375000
5,111.328125
6,109.375000
7,109.375000
8,109.375000
9,107.421875
10,107.421875
11,107.421875
12,107.421875
13,105.468750
14,105.468750
15,103.515625
16,103.515625
17,101.562500
18,101.562500
19,99.609375
20,99.609375
21,97.656250
22,97.656250
23,95.703125
24,93.750000
25,93.750000
26,91.796875
27,91.796875
28,87.890625
29,87.890625
30,85.937500
31,83.984375
32,82.031250
33,82.031250
34,78.125000
35,76.171875
36,74.218750
37,72.265625
38,72.265625
39,68.359375
40,66.406250
41,64.453125
42,62.500000
43,60.546875
44,58.593750
45,56.640625
46,54.687500
47,52.734375
48,48.828125
49,46.875000
50,44.921875
51,42.968750
52,39.062500
53,37.109375
54,35.156250
55,31.250000
56,29.296875
57,27.343750
58,25.390625
59,21.484375
60,19.531250
61,15.625000
62,13.671875
63,9.765625
64,7.812500
65,5.859375
66,1.953125
67,0.000000
68,-3.906250
69,-5.859375
70,-7.812500
71,-11.718750
72,-13.671875
73,-17.578125
74,-19.531250
75,-23.437500
76,-25.390625
77,-29.296875
78,-31.250000
79,-35.156250
80,-37.109375
81,-39.062500
82,-42.968750
83,-44.921875
84,-48.828125
85,-50.781250
86,-52.734375
87,-56.640625
88,-60.546875
89,-62.500000
90,-64.453125
91,-66.406250
92,-70.312500
93,-74.218750
94,-74.218750
95,-78.125000
96,-80.078125
97,-83.984375
98,-85.937500
99,-87.890625
100,-89.843750
101,-91.796875
102,-95.703125
103,-97.656250
104,-99.609375
105,-101.562500
106,-103.515625
107,-105.468750
108,-109.375000
109,-109.375000
110,-111.328125
111,-113.281250
112,-115.234375
113,-117.187500
114,-119.140625
115,-121.093750
116,-121.093750
117,-125.000000
118,-125.000000
119,-125.000000
120,-126.953125
121,-128.906250
122,-130.859375
123,-130.859375
124,-132.812500
125,-132.812500
126,-134.765625
127,-134.765625
128,-136.718750
129,-136.718750
130,-136.718750
131,-136.718750
132,-138.671875
133,-138.671875
134,-138.671875
135,-138.671875
136,-138.671875
137,-138.671875
138,-140.625000
139,-140.625000
140,-140.625000
141,-140.625000
142,-138.671875
143,-140.625000
144,-138.671875
145,-138.671875
146,-136.718750
147,-138.671875
148,-136.718750
149,-136.718750
150,-134.765625
151,-134.765625
152,-134.765625
153,-132.812500
154,-132.812500
155,-130.859375
156,-128.906250
157,-128.906250
158,-126.953125
159,-125.000000
160,-125.000000
161,-123.046875
162,-123.046875
163,-119.140625
164,-119.140625
165,-117.187500
166,-115.234375
167,-113.281250
168,-111.328125
169,-111.328125
170,-107.421875
171,-105.468750
172,-103.515625
173,-101.562500
174,-99.609375
175,-97.656250
176,-95.703125
177,-91.796875
178,-91.796875
179,-87.890625
180,-85.937500
181,-83.984375
182,-82.031250
183,-78.125000
184,-76.171875
185,-74.218750
186,-70.312500
187,-68.359375
188,-66.406250
189,-62.500000
190,-60.546875
191,-56.640625
192,-54.687500
193,-52.734375
194,-48.828125
195,-46.875000
196,-42.968750
197,-41.015625
198,-37.109375
199,-35.156250
200,-33.203125
201,-29.296875
202,-25.390625
203,-23.437500
204,-21.484375
205,-17.578125
206,-15.625000
207,-11.718750
208,-9.765625
209,-5.859375
210,-3.906250
211,0.000000
212,1.953125
213,5.859375
214,7.812500
215,9.765625
216,13.671875
217,15.625000
218,19.531250
219,21.484375
220,23.437500
221,27.343750
222,29.296875
223,31.250000
224,35.156250
225,37.109375
226,39.062500
227,41.015625
228,44.921875
229,46.875000
230,48.828125
231,50.781250
232,52.734375
233,56.640625
234,58.593750
235,60.546875
236,62.500000
237,64.453125
238,66.406250
239,68.359375
240,70.312500
241,72.265625
242,74.218750
243,76.171875
244,78.125000
245,80.078125
246,80.078125
247,82.031250
248,83.984375
249,87.890625
250,87.890625
251,89.843750
252,89.843750
253,91.796875
254,93.750000
255,95.703125
256,95.703125
257,97.656250
258,99.609375
259,99.609375
260,101.562500
261,101.562500
262,103.515625
263,103.515625
264,103.515625
265,105.468750
266,105.468750
267,107.421875
268,107.421875
269,107.421875
270,107.421875
271,109.375000
272,109.375000
273,109.375000
274,109.375000
275,111.328125
276,111.328125
277,111.328125
278,111.328125
279,111.328125
280,111.328125
281,111.328125
282,111.328125
283,111.328125
284,111.328125
285,111.328125
286,111.328125
287,111.328125
288,109.375000
289,109.375000
290,109.375000
291,107.421875
292,107.421875
293,107.421875
294,107.421875
295,105.468750
296,105.468750
297,103.515625
298,103.515625
299,103.515625
300,101.562500
301,101.562500
302,99.609375
303,97.656250
304,97.656250
305,97.656250
306,95.703125
307,93.750000
308,91.796875
309,89.843750
310,89.843750
311,87.890625
312,85.937500
313,83.984375
314,83.984375
315,80.078125
316,80.078125
317,78.125000
318,76.171875
319,74.218750
320,72.265625
321,70.312500
322,68.359375
323,66.406250
324,64.453125
325,62.500000
326,58.593750
327,58.593750
328,54.687500
329,52.734375
330,50.781250
331,48.828125
332,44.921875
333,42.968750
334,41.015625
335,39.062500
336,35.156250
337,33.203125
338,31.250000
339,29.296875
340,25.390625
341,23.437500
342,19.531250
343,17.578125
344,15.625000
345,11.718750
346,9.765625
347,7.812500
348,3.906250
349,1.953125
350,-1.953125
351,-3.906250
352,-7.812500
353,-9.765625
354,-13.671875
355,-15.625000
356,-19.531250
357,-21.484375
358,-23.437500
359,-27.343750
360,-31.250000
361,-33.203125
362,-35.156250
363,-39.062500
364,-42.968750
365,-44.921875
366,-46.875000
367,-50.781250
368,-52.734375
369,-56.640625
370,-58.593750
371,-60.546875
372,-64.453125
373,-66.406250
374,-70.312500
375,-72.265625
376,-74.218750
377,-78.125000
378,-80.078125
379,-82.031250
380,-85.937500
381,-87.890625
382,-89.843750
383,-91.796875
384,-93.750000
385,-97.656250
386,-99.609375
387,-101.562500
388,-103.515625
389,-105.468750
390,-107.421875
391,-109.375000
392,-111.328125
393,-113.281250
394,-115.234375
395,-117.187500
396,-119.140625
397,-119.140625
398,-121.093750
399,-123.046875
400,-125.000000
401,-125.000000
402,-126.953125
403,-128.906250
404,-128.906250
405,-130.859375
406,-130.859375
407,-132.812500
408,-132.812500
409,-134.765625
410,-134.765625
411,-136.718750
412,-136.718750
413,-136.718750
414,-138.671875
415,-138.671875
416,-138.671875
417,-138.671875
418,-138.671875
419,-138.671875
420,-140.625000
421,-140.625000
422,-140.625000
423,-140.625000
424,-140.625000
425,-140.625000
426,-138.671875
427,-138.671875
428,-138.671875
429,-138.671875
430,-138.671875
431,-136.718750
432,-136.718750
433,-134.765625
434,-134.765625
435,-132.812500
436,-132.812500
437,-132.812500
438,-130.859375
439,-128.906250
440,-128.906250
441,-126.953125
442,-125.000000
443,-123.046875
444,-123.046875
445,-121.093750
446,-119.140625
447,-117.187500
448,-115.234375
449,-115.234375
450,-113.281250
451,-111.328125
452,-107.421875
453,-107.421875
454,-105.468750
455,-101.562500
456,-101.562500
457,-97.656250
458,-95.703125
459,-93.750000
460,-91.796875
461,-89.843750
462,-85.937500
463,-83.984375
464,-82.031250
465,-80.078125
466,-76.171875
467,-74.218750
468,-72.265625
469,-68.359375
470,-66.406250
471,-62.500000
472,-60.546875
473,-58.593750
474,-54.687500
475,-50.781250
476,-50.781250
477,-46.875000
478,-44.921875
479,-41.015625
480,-39.062500
481,-35.156250
482,-33.203125
483,-29.296875
484,-27.343750
485,-25.390625
486,-21.484375
487,-19.531250
488,-15.625000
489,-13.671875
490,-9.765625
491,-7.812500
492,-3.906250
493,-1.953125
494,0.000000
495,3.906250
496,5.859375
497,9.765625
498,11.718750
499,13.671875
500,17.578125
501,19.531250
502,23.437500
503,25.390625
504,27.343750
505,31.250000
506,33.203125
507,35.156250
508,39.062500
509,41.015625
510,42.968750
511,44.921875
512,48.828125
513,50.781250
514,52.734375
515,54.687500
516,56.640625
517,58.593750
518,60.546875
519,64.453125
520,66.406250
521,68.359375
522,70.312500
523,72.265625
524,74.218750
525,76.171875
526,78.125000
527,80.078125
528,80.078125
529,82.031250
530,83.984375
531,85.937500
532,87.890625
533,89.843750
534,91.796875
535,91.796875
536,93.750000
537,93.750000
538,95.703125
539,97.656250
540,97.656250
541,99.609375
542,101.562500
543,101.562500
544,103.515625
545,103.515625
546,103.515625
547,105.468750
548,105.468750
549,107.421875
550,107.421875
551,107.421875
552,109.375000
553,109.375000
554,109.375000
555,109.375000
556,109.375000
557,111.328125
558,111.328125
559,111.328125
560,111.328125
561,111.328125
562,111.328125
563,111.328125
564,111.328125
565,111.328125
566,111.328125
567,111.328125
568,109.375000
569,111.328125
570,109.375000
571,109.375000
572,109.375000
573,109.375000
574,107.421875
575,107.421875
576,107.421875
577,105.468750
578,105.468750
579,103.515625
580,103.515625
581,103.515625
582,101.562500
583,101.562500
584,99.609375
585,99.609375
586,95.703125
587,95.703125
588,95.703125
589,93.750000
590,93.750000
591,91.796875
592,89.843750
593,87.890625
594,85.937500
595,83.984375
596,83.984375
597,82.031250
598,80.078125
599,78.125000
600,76.171875
601,74.218750
602,74.218750
603,70.312500
604,68.359375
605,66.406250
606,66.406250
607,62.500000
608,60.546875
609,58.593750
610,56.640625
611,54.687500
612,50.781250
613,48.828125
614,46.875000
615,44.921875
616,41.015625
617,39.062500
618,37.109375
619,35.156250
620,31.250000
621,29.296875
622,27.343750
623,23.437500
624,21.484375
625,17.578125
626,15.625000
627,11.718750
628,9.765625
629,5.859375
630,3.906250
631,1.953125
632,0.000000
633,-3.906250
634,-7.812500
635,-9.765625
636,-11.718750
637,-15.625000
638,-19.531250
639,-21.484375
640,-23.437500
641,-27.343750
642,-29.296875
643,-33.203125
644,-35.156250
645,-39.062500
646,-41.015625
647,-42.968750
648,-46.875000
649,-50.781250
650,-52.734375
651,-54.687500
652,-58.593750
653,-60.546875
654,-62.500000
655,-66.406250
656,-68.359375
657,-72.265625
658,-74.218750
659,-76.171875
660,-78.125000
661,-82.031250
662,-83.984375
663,-85.937500
664,-87.890625
665,-91.796875
666,-93.750000
667,-95.703125
668,-97.656250
669,-99.609375
670,-101.562500
671,-103.515625
672,-105.468750
673,-109.375000
674,-109.375000
675,-111.328125
676,-113.281250
677,-115.234375
678,-117.187500
679,-119.140625
680,-121.093750
681,-121.093750
682,-123.046875
683,-125.000000
684,-126.953125
685,-128.906250
686,-128.906250
687,-130.859375
688,-130.859375
689,-132.812500
690,-132.812500
691,-134.765625
692,-134.765625
693,-136.718750
694,-136.718750
695,-138.671875
696,-138.671875
697,-138.671875
698,-138.671875
699,-140.625000
700,-140.625000
701,-138.671875
702,-140.625000
703,-140.625000
704,-140.625000
705,-140.625000
706,-140.625000
707,-140.625000
708,-140.625000
709,-138.671875
710,-138.671875
711,-138.671875
712,-138.671875
713,-136.718750
714,-136.718750
715,-136.718750
716,-134.765625
717,-134.765625
718,-132.812500
719,-132.812500
720,-130.859375
721,-128.906250
722,-128.906250
723,-126.953125
724,-125.000000
725,-125.000000
726,-123.046875
727,-121.093750
728,-119.140625
729,-119.140625
730,-115.234375
731,-115.234375
732,-113.281250
733,-111.328125
734,-109.375000
735,-107.421875
736,-103.515625
737,-103.515625
738,-99.609375
739,-97.656250
740,-95.703125
741,-93.750000
742,-91.796875
743,-89.843750
744,-85.937500
745,-85.937500
746,-82.031250
747,-78.125000
748,-78.125000
749,-76.171875
750,-72.265625
751,-68.359375
752,-68.359375
753,-64.453125
754,-62.500000
755,-60.546875
756,-56.640625
757,-52.734375
758,-50.781250
759,-48.828125
760,-44.921875
761,-42.968750
762,-39.062500
763,-37.109375
764,-33.203125
765,-31.250000
766,-29.296875
767,-25.390625
768,-23.437500
769,-19.531250
770,-17.578125
771,-15.625000
772,-11.718750
773,-7.812500
774,-5.859375
775,-1.953125
776,0.000000
777,3.906250
778,5.859375
779,7.812500
780,11.718750
781,13.671875
782,17.578125
783,19.531250
784,21.484375
785,25.390625
786,25.390625
787,29.296875
788,33.203125
789,35.156250
790,37.109375
791,41.015625
792,42.968750
793,44.921875
794,46.875000
795,50.781250
796,52.734375
797,50.781250
798,56.640625
799,58.593750
800,60.546875
801,62.500000
802,66.406250
803,68.359375
804,70.312500
805,72.265625
806,74.218750
807,76.171875
808,76.171875
809,78.125000
810,80.078125
811,82.031250
812,83.984375
813,85.937500
814,87.890625
815,87.890625
816,89.843750
817,91.796875
818,91.796875
819,93.750000
820,99.609375
821,95.703125
822,97.656250
823,97.656250
824,99.609375
825,101.562500
826,101.562500
827,103.515625
828,101.562500
829,105.468750
830,105.468750
831,105.468750
832,107.421875
833,107.421875
834,107.421875
835,109.375000
836,109.375000
837,109.375000
838,109.375000
839,109.375000
840,109.375000
841,111.328125
842,111.328125
843,111.328125
844,111.328125
845,111.328125
846,111.328125
847,111.328125
848,111.328125
849,111.328125
850,111.328125
851,109.375000
852,109.375000
853,109.375000
854,111.328125
855,109.375000
856,107.421875
857,107.421875
858,107.421875
859,105.468750
860,105.468750
861,105.468750
862,103.515625
863,103.515625
864,103.515625
865,101.562500
866,101.562500
867,99.609375
868,97.656250
869,97.656250
870,95.703125
871,93.750000
872,93.750000
873,91.796875
874,89.843750
875,87.890625
876,87.890625
877,85.937500
878,85.937500
879,82.031250
880,80.078125
881,80.078125
882,76.171875
883,76.171875
884,72.265625
885,72.265625
886,70.312500
887,66.406250
888,64.453125
889,62.500000
890,60.546875
891,58.593750
892,56.640625
893,54.687500
894,52.734375
895,48.828125
896,46.875000
897,44.921875
898,42.968750
899,41.015625
900,37.109375
901,35.156250
902,33.203125
903,29.296875
904,27.343750
905,23.437500
906,21.484375
907,19.531250
908,15.625000
909,13.671875
910,11.718750
911,7.812500
912,5.859375
913,1.953125
914,0.000000
915,-1.953125
916,-5.859375
917,-7.812500
918,-11.718750
919,-13.671875
920,-15.625000
921,-19.531250
922,-21.484375
923,-25.390625
924,-27.343750
925,-31.250000
926,-33.203125
927,-37.109375
928,-39.062500
929,-42.968750
930,-46.875000
931,-48.828125
932,-50.781250
933,-54.687500
934,-56.640625
935,-58.593750
936,-62.500000
937,-64.453125
938,-68.359375
939,-70.312500
940,-72.265625
941,-76.171875
942,-78.125000
943,-80.078125
944,-82.031250
945,-85.937500
946,-87.890625
947,-91.796875
948,-93.750000
949,-95.703125
950,-97.656250
951,-99.609375
952,-101.562500
953,-103.515625
954,-105.468750
955,-107.421875
956,-109.375000
957,-111.328125
958,-113.281250
959,-115.234375
960,-117.187500
961,-119.140625
962,-121.093750
963,-123.046875
964,-123.046875
965,-125.000000
966,-125.000000
967,-126.953125
968,-128.906250
969,-130.859375
970,-132.812500
971,-130.859375
972,-132.812500
973,-132.812500
974,-134.765625
975,-136.718750
976,-136.718750
977,-136.718750
978,-138.671875
979,-138.671875
980,-138.671875
981,-142.578125
982,-138.671875
983,-138.671875
984,-138.671875
985,-138.671875
986,-140.625000
987,-140.625000
988,-140.625000
989,-140.625000
990,-138.671875
991,-138.671875
992,-138.671875
993,-136.718750
994,-138.671875
995,-136.718750
996,-136.718750
997,-136.718750
998,-134.765625
999,-132.812500
1000,-132.812500
1001,-132.812500
1002,-130.859375
1003,-130.859375
1004,-128.906250
1005,-126.953125
1006,-126.953125
1007,-125.000000
1008,-123.046875
1009,-123.046875
1010,-121.093750
1011,-119.140625
1012,-117.187500
1013,-115.234375
1014,-113.281250
1015,-111.328125
1016,-113.281250
1017,-107.421875
1018,-105.468750
1019,-107.421875
1020,-101.562500
1021,-99.609375
1022,-97.656250
1023,-91.796875
1024,-93.750000
1025,-91.796875
1026,-87.890625
1027,-85.937500
1028,-83.984375
1029,-80.078125
1030,-78.125000
1031,-74.218750
1032,-74.218750
1033,-70.312500
1034,-68.359375
1035,-66.406250
1036,-62.500000
1037,-60.546875
1038,-56.640625
1039,-54.687500
1040,-50.781250
1041,-48.828125
1042,-46.875000
1043,-42.968750
1044,-41.015625
1045,-39.062500
1046,-33.203125
1047,-33.203125
1048,-29.296875
1049,-25.390625
1050,-23.437500
1051,-21.484375
1052,-17.578125
1053,-13.671875
1054,-9.765625
1055,-9.765625
1056,-5.859375
1057,-3.906250
1058,0.000000
1059,1.953125
1060,3.906250
1061,7.812500
1062,11.718750
1063,13.671875
1064,15.625000
1065,19.531250
1066,21.484375
1067,23.437500
1068,25.390625
1069,29.296875
1070,33.203125
1071,35.156250
1072,37.109375
1073,39.062500
1074,41.015625
1075,44.921875
1076,46.875000
1077,48.828125
1078,50.781250
1079,54.687500
1080,54.687500
1081,58.593750
1082,60.546875
1083,62.500000
1084,64.453125
1085,66.406250
1086,68.359375
1087,70.312500
1088,72.265625
1089,74.218750
1090,76.171875
1091,78.125000
1092,80.078125
1093,82.031250
1094,82.031250
1095,83.984375
1096,85.937500
1097,87.890625
1098,89.843750
1099,91.796875
1100,89.843750
1101,93.750000
1102,95.703125
1103,95.703125
1104,97.656250
1105,97.656250
1106,99.609375
1107,101.562500
1108,101.562500
1109,101.562500
1110,103.515625
1111,103.515625
1112,105.468750
1113,105.468750
1114,107.421875
1115,107.421875
1116,109.375000
1117,109.375000
1118,109.375000
1119,111.328125
1120,109.375000
1121,109.375000
1122,111.328125
1123,111.328125
1124,111.328125
1125,111.328125
1126,111.328125
1127,111.328125
1128,111.328125
1129,111.328125
1130,111.328125
1131,111.328125
1132,111.328125
1133,111.328125
1134,109.375000
1135,109.375000
1136,109.375000
1137,109.375000
1138,107.421875
1139,109.375000
1140,109.375000
1141,105.468750
1142,105.468750
1143,105.468750
1144,105.468750
1145,103.515625
1146,101.562500
1147,101.562500
1148,99.609375
1149,99.609375
1150,97.656250
1151,97.656250
1152,95.703125
1153,95.703125
1154,93.750000
1155,91.796875
1156,91.796875
1157,89.843750
1158,85.937500
1159,85.937500
1160,83.984375
1161,82.031250
1162,82.031250
1163,80.078125
1164,76.171875
1165,76.171875
1166,74.218750
1167,72.265625
1168,70.312500
1169,68.359375
1170,66.406250
1171,64.453125
1172,62.500000
1173,60.546875
1174,56.640625
1175,54.687500
1176,52.734375
1177,50.781250
1178,48.828125
1179,46.875000
1180,42.968750
1181,41.015625
1182,39.062500
1183,35.156250
1184,33.203125
1185,31.250000
1186,29.296875
1187,25.390625
1188,23.437500
1189,19.531250
1190,17.578125
1191,15.625000
1192,11.718750
1193,9.765625
1194,7.812500
1195,3.906250
1196,0.000000
1197,-1.953125
1198,-5.859375
1199,-7.812500
1200,-11.718750
1201,-13.671875
1202,-15.625000
1203,-19.531250
1204,-21.484375
1205,-25.390625
1206,-27.343750
1207,-33.203125
1208,-29.296875
1209,-37.109375
1210,-39.062500
1211,-42.968750
1212,-44.921875
1213,-46.875000
1214,-52.734375
1215,-52.734375
1216,-56.640625
1217,-58.593750
1218,-60.546875
1219,-64.453125
1220,-68.359375
1221,-70.312500
1222,-72.265625
1223,-76.171875
1224,-78.125000
1225,-80.078125
1226,-82.031250
1227,-85.937500
1228,-87.890625
1229,-89.843750
1230,-91.796875
1231,-93.750000
1232,-97.656250
1233,-99.609375
1234,-101.562500
1235,-103.515625
1236,-105.468750
1237,-107.421875
1238,-109.375000
1239,-111.328125
1240,-113.281250
1241,-115.234375
1242,-115.234375
1243,-117.187500
1244,-119.140625
1245,-121.093750
1246,-123.046875
1247,-123.046875
1248,-125.000000
1249,-126.953125
1250,-128.906250
1251,-128.906250
1252,-130.859375
1253,-130.859375
1254,-132.812500
1255,-134.765625
1256,-134.765625
1257,-134.765625
1258,-136.718750
1259,-136.718750
1260,-136.718750
1261,-136.718750
1262,-138.671875
1263,-138.671875
1264,-138.671875
1265,-138.671875
1266,-140.625000
1267,-140.625000
1268,-140.625000
1269,-140.625000
1270,-140.625000
1271,-138.671875
1272,-138.671875
1273,-138.671875
1274,-138.671875
1275,-138.671875
1276,-138.671875
1277,-136.718750
1278,-136.718750
1279,-136.718750
1280,-134.765625
1281,-134.765625
1282,-134.765625
1283,-132.812500
1284,-130.859375
1285,-130.859375
1286,-128.906250
1287,-128.906250
1288,-126.953125
1289,-125.000000
1290,-125.000000
1291,-123.046875
1292,-121.093750
1293,-119.140625
1294,-117.187500
1295,-117.187500
1296,-115.234375
1297,-113.281250
1298,-109.375000
1299,-109.375000
1300,-107.421875
1301,-103.515625
1302,-101.562500
1303,-101.562500
1304,-97.656250
1305,-95.703125
1306,-93.750000
1307,-91.796875
1308,-89.843750
1309,-85.937500
1310,-83.984375
1311,-82.031250
1312,-78.125000
1313,-76.171875
1314,-74.218750
1315,-70.312500
1316,-68.359375
1317,-66.406250
1318,-64.453125
1319,-60.546875
1320,-56.640625
1321,-54.687500
1322,-52.734375
1323,-48.828125
1324,-46.875000
1325,-44.921875
1326,-41.015625
1327,-39.062500
1328,-35.156250
1329,-33.203125
1330,-29.296875
1331,-27.343750
1332,-23.437500
1333,-21.484375
1334,-19.531250
1335,-15.625000
1336,-13.671875
1337,-9.765625
1338,-7.812500
1339,-3.906250
1340,-1.953125
1341,0.000000
1342,5.859375
1343,5.859375
1344,9.765625
1345,11.718750
1346,15.625000
1347,17.578125
1348,19.531250
1349,21.484375
1350,25.390625
1351,29.296875
1352,31.250000
1353,33.203125
1354,35.156250
1355,39.062500
1356,41.015625
1357,42.968750
1358,44.921875
1359,48.828125
1360,50.781250
1361,52.734375
1362,54.687500
1363,56.640625
1364,58.593750
1365,60.546875
1366,64.453125
1367,66.406250
1368,68.359375
1369,70.312500
1370,72.265625
1371,74.218750
1372,76.171875
1373,78.125000
1374,80.078125
1375,80.078125
1376,83.984375
1377,85.937500
1378,85.937500
1379,87.890625
1380,89.843750
1381,91.796875
1382,91.796875
1383,93.750000
1384,93.750000
1385,97.656250
1386,97.656250
1387,97.656250
1388,99.609375
1389,101.562500
1390,101.562500
1391,101.562500
1392,103.515625
1393,105.468750
1394,105.468750
1395,105.468750
1396,105.468750
1397,107.421875
1398,107.421875
1399,107.421875
1400,109.375000
1401,109.375000
1402,109.375000
1403,111.328125
1404,111.328125
1405,109.375000
1406,111.328125
1407,111.328125
1408,109.375000
1409,111.328125
1410,111.328125
1411,111.328125
1412,111.328125
1413,111.328125
1414,111.328125
1415,111.328125
1416,109.375000
1417,109.375000
1418,109.375000
1419,107.421875
1420,109.375000
1421,109.375000
1422,107.421875
1423,107.421875
1424,105.468750
1425,105.468750
1426,105.468750
1427,103.515625
1428,103.515625
1429,101.562500
1430,101.562500
1431,99.609375
1432,97.656250
1433,97.656250
1434,95.703125
1435,95.703125
1436,93.750000
1437,93.750000
1438,91.796875
1439,89.843750
1440,87.890625
1441,85.937500
1442,83.984375
1443,83.984375
1444,82.031250
1445,80.078125
1446,78.125000
1447,78.125000
1448,74.218750
1449,72.265625
1450,70.312500
1451,68.359375
1452,68.359375
1453,64.453125
1454,62.500000
1455,60.546875
1456,58.593750
1457,56.640625
1458,54.687500
1459,50.781250
1460,48.828125
1461,46.875000
1462,44.921875
1463,41.015625
1464,39.062500
1465,37.109375
1466,33.203125
1467,31.250000
1468,29.296875
1469,27.343750
1470,23.437500
1471,21.484375
1472,17.578125
1473,15.625000
1474,11.718750
1475,9.765625
1476,7.812500
1477,3.906250
1478,1.953125
1479,-1.953125
1480,-3.906250
1481,-5.859375
1482,-9.765625
1483,-11.718750
1484,-15.625000
1485,-19.531250
1486,-21.484375
1487,-23.437500
1488,-27.343750
1489,-29.296875
1490,-33.203125
1491,-35.156250
1492,-37.109375
1493,-41.015625
1494,-42.968750
1495,-46.875000
1496,-50.781250
1497,-52.734375
1498,-54.687500
1499,-56.640625
1500,-60.546875
1501,-62.500000
1502,-64.453125
1503,-68.359375
1504,-70.312500
1505,-74.218750
1506,-76.171875
1507,-78.125000
1508,-82.031250
1509,-83.984375
1510,-85.937500
1511,-87.890625
1512,-89.843750
1513,-93.750000
1514,-95.703125
1515,-97.656250
1516,-99.609375
1517,-101.562500
1518,-103.515625
1519,-105.468750
1520,-107.421875
1521,-109.375000
1522,-111.328125
1523,-113.281250
1524,-115.234375
1525,-117.187500
1526,-117.187500
1527,-119.140625
1528,-123.046875
1529,-123.046875
1530,-125.000000
1531,-126.953125
1532,-128.906250
1533,-128.906250
1534,-128.906250
1535,-130.859375
1536,-132.812500
1537,-132.812500
1538,-134.765625
1539,-134.765625
1540,-136.718750
1541,-136.718750
1542,-136.718750
1543,-138.671875
1544,-138.671875
1545,-138.671875
1546,-138.671875
1547,-138.671875
1548,-140.625000
1549,-140.625000
1550,-140.625000
1551,-140.625000
1552,-140.625000
1553,-140.625000
1554,-140.625000
1555,-138.671875
1556,-138.671875
1557,-138.671875
1558,-138.671875
1559,-138.671875
1560,-136.718750
1561,-136.718750
1562,-134.765625
1563,-134.765625
1564,-134.765625
1565,-132.812500
1566,-130.859375
1567,-130.859375
1568,-128.906250
1569,-126.953125
1570,-126.953125
1571,-125.000000
1572,-125.000000
1573,-123.046875
1574,-121.093750
1575,-119.140625
1576,-117.187500
1577,-117.187500
1578,-115.234375
1579,-111.328125
1580,-111.328125
1581,-109.375000
1582,-107.421875
1583,-105.468750
1584,-103.515625
1585,-101.562500
1586,-99.609375
1587,-97.656250
1588,-93.750000
1589,-91.796875
1590,-89.843750
1591,-87.890625
1592,-85.937500
1593,-82.031250
1594,-80.078125
1595,-74.218750
1596,-76.171875
1597,-72.265625
1598,-70.312500
1599,-66.406250
1600,-64.453125
1601,-62.500000
1602,-60.546875
1603,-56.640625
1604,-52.734375
1605,-50.781250
1606,-48.828125
1607,-44.921875
1608,-42.968750
1609,-41.015625
1610,-37.109375
1611,-33.203125
1612,-31.250000
1613,-27.343750
1614,-25.390625
1615,-23.437500
1616,-19.531250
1617,-17.578125
1618,-13.671875
1619,-11.718750
1620,-7.812500
1621,-5.859375
1622,-1.953125
1623,0.000000
1624,3.906250
1625,5.859375
1626,7.812500
1627,11.718750
1628,13.671875
1629,17.578125
1630,19.531250
1631,21.484375
1632,25.390625
1633,27.343750
1634,29.296875
1635,33.203125
1636,35.156250
1637,37.109375
1638,41.015625
1639,42.968750
1640,44.921875
1641,46.875000
1642,48.828125
1643,52.734375
1644,54.687500
1645,58.593750
1646,58.593750
1647,60.546875
1648,62.500000
1649,66.406250
1650,68.359375
1651,70.312500
1652,72.265625
1653,74.218750
1654,76.171875
1655,76.171875
1656,78.125000
1657,80.078125
1658,82.031250
1659,83.984375
1660,83.984375
1661,85.937500
1662,87.890625
1663,89.843750
1664,91.796875
1665,93.750000
1666,93.750000
1667,95.703125
1668,95.703125
1669,97.656250
1670,99.609375
1671,99.609375
1672,101.562500
1673,101.562500
1674,103.515625
1675,103.515625
1676,105.468750
1677,105.468750
1678,105.468750
1679,107.421875
1680,107.421875
1681,107.421875
1682,109.375000
1683,109.375000
1684,109.375000
1685,111.328125
1686,109.375000
1687,111.328125
1688,111.328125
1689,111.328125
1690,111.328125
1691,111.328125
1692,111.328125
1693,111.328125
1694,111.328125
1695,111.328125
1696,109.375000
1697,111.328125
1698,111.328125
1699,111.328125
1700,109.375000
1701,109.375000
1702,109.375000
1703,109.375000
1704,107.421875
1705,107.421875
1706,107.421875
1707,105.468750
1708,105.468750
1709,105.468750
1710,103.515625
1711,101.562500
1712,101.562500
1713,99.609375
1714,99.609375
1715,99.609375
1716,97.656250
1717,95.703125
1718,95.703125
1719,95.703125
1720,91.796875
1721,89.843750
1722,87.890625
1723,87.890625
1724,85.937500
1725,83.984375
1726,82.031250
1727,80.078125
1728,78.125000
1729,76.171875
1730,76.171875
1731,74.218750
1732,70.312500
1733,70.312500
1734,66.406250
1735,64.453125
1736,62.500000
1737,60.546875
1738,58.593750
1739,56.640625
1740,54.687500
1741,52.734375
1742,50.781250
1743,46.875000
1744,44.921875
1745,42.968750
1746,39.062500
1747,37.109375
1748,35.156250
1749,33.203125
1750,29.296875
1751,27.343750
1752,25.390625
1753,23.437500
1754,15.625000
1755,15.625000
1756,13.671875
1757,11.718750
1758,7.812500
1759,5.859375
1760,1.953125
1761,0.000000
1762,-1.953125
1763,-5.859375
1764,-9.765625
1765,-9.765625
1766,-13.671875
1767,-17.578125
1768,-19.531250
1769,-23.437500
1770,-25.390625
1771,-29.296875
1772,-31.250000
1773,-33.203125
1774,-37.109375
1775,-39.062500
1776,-42.968750
1777,-44.921875
1778,-48.828125
1779,-50.781250
1780,-54.687500
1781,-56.640625
1782,-60.546875
1783,-62.500000
1784,-64.453125
1785,-68.359375
1786,-70.312500
1787,-70.312500
1788,-74.218750
1789,-78.125000
1790,-80.078125
1791,-82.031250
1792,-85.937500
1793,-87.890625
1794,-89.843750
1795,-93.750000
1796,-95.703125
1797,-97.656250
1798,-99.609375
1799,-101.562500
1800,-103.515625
1801,-105.468750
1802,-107.421875
1803,-113.281250
1804,-111.328125
1805,-113.281250
1806,-115.234375
1807,-117.187500
1808,-119.140625
1809,-119.140625
1810,-123.046875
1811,-123.046875
1812,-125.000000
1813,-126.953125
1814,-126.953125
1815,-128.906250
1816,-130.859375
1817,-130.859375
1818,-132.812500
1819,-134.765625
1820,-134.765625
1821,-134.765625
1822,-134.765625
1823,-136.718750
1824,-136.718750
1825,-136.718750
1826,-138.671875
1827,-138.671875
1828,-138.671875
1829,-138.671875
1830,-140.625000
1831,-140.625000
1832,-138.671875
1833,-140.625000
1834,-140.625000
1835,-138.671875
1836,-140.625000
1837,-138.671875
1838,-138.671875
1839,-138.671875
1840,-138.671875
1841,-138.671875
1842,-136.718750
1843,-136.718750
1844,-134.765625
1845,-134.765625
1846,-132.812500
1847,-132.812500
1848,-132.812500
1849,-130.859375
1850,-128.906250
1851,-128.906250
1852,-128.906250
1853,-126.953125
1854,-125.000000
1855,-123.046875
1856,-123.046875
1857,-121.093750
1858,-119.140625
1859,-117.187500
1860,-115.234375
1861,-113.281250
1862,-111.328125
1863,-109.375000
1864,-109.375000
1865,-105.468750
1866,-103.515625
1867,-103.515625
1868,-99.609375
1869,-97.656250
1870,-95.703125
1871,-93.750000
1872,-91.796875
1873,-87.890625
1874,-85.937500
1875,-83.984375
1876,-82.031250
1877,-78.125000
1878,-76.171875
1879,-74.218750
1880,-70.312500
1881,-68.359375
1882,-64.453125
1883,-62.500000
1884,-60.546875
1885,-56.640625
1886,-54.687500
1887,-52.734375
1888,-48.828125
1889,-44.921875
1890,-42.968750
1891,-41.015625
1892,-37.109375
1893,-35.156250
1894,-31.250000
1895,-29.296875
1896,-27.343750
1897,-23.437500
1898,-19.531250
1899,-17.578125
1900,-15.625000
1901,-11.718750
1902,-7.812500
1903,-5.859375
1904,-3.906250
1905,0.000000
1906,1.953125
1907,5.859375
1908,7.812500
1909,11.718750
1910,13.671875
1911,15.625000
1912,19.531250
1913,21.484375
1914,25.390625
1915,27.343750
1916,29.296875
1917,31.250000
1918,35.156250
1919,37.109375
1920,39.062500
1921,41.015625
1922,42.968750
1923,46.875000
1924,48.828125
1925,50.781250
1926,54.687500
1927,56.640625
1928,56.640625
1929,60.546875
1930,62.500000
1931,64.453125
1932,66.406250
1933,68.359375
1934,70.312500
1935,72.265625
1936,74.218750
1937,76.171875
1938,78.125000
1939,80.078125
1940,82.031250
1941,82.031250
1942,85.937500
1943,85.937500
1944,87.890625
1945,89.843750
1946,91.796875
1947,91.796875
1948,93.750000
1949,95.703125
1950,95.703125
1951,97.656250
1952,99.609375
1953,101.562500
1954,101.562500
1955,101.562500
1956,101.562500
1957,103.515625
1958,105.468750
1959,105.468750
1960,105.468750
1961,107.421875
1962,107.421875
1963,107.421875
1964,109.375000
1965,107.421875
1966,109.375000
1967,111.328125
1968,109.375000
1969,111.328125
1970,111.328125
1971,111.328125
1972,111.328125
1973,111.328125
1974,111.328125
1975,111.328125
1976,111.328125
1977,111.328125
1978,111.328125
1979,111.328125
1980,109.375000
1981,109.375000
1982,109.375000
1983,109.375000
1984,109.375000
1985,109.375000
1986,109.375000
1987,107.421875
1988,107.421875
1989,105.468750
1990,105.468750
1991,105.468750
1992,103.515625
1993,103.515625
1994,101.562500
1995,99.609375
1996,99.609375
1997,97.656250
1998,99.609375
1999,95.703125
2000,95.703125
2001,93.750000
2002,91.796875
2003,91.796875
2004,87.890625
2005,87.890625
2006,85.937500
2007,85.937500
2008,82.031250
2009,82.031250
2010,80.078125
2011,78.125000
2012,76.171875
2013,74.218750
2014,72.265625
2015,70.312500
2016,68.359375
2017,66.406250
2018,64.453125
2019,62.500000
2020,60.546875
2021,58.593750
2022,54.687500
2023,52.734375
2024,50.781250
2025,48.828125
2026,44.921875
2027,44.921875
2028,41.015625
2029,39.062500
2030,35.156250
2031,33.203125
2032,31.250000
2033,29.296875
2034,25.390625
2035,23.437500
2036,19.531250
2037,17.578125
2038,15.625000
2039,11.718750
2040,9.765625
2041,5.859375
2042,3.906250
2043,0.000000
2044,-1.953125
2045,-3.906250
2046,-7.812500
2047,-9.765625
2048,-13.671875
2049,-15.625000
2050,-19.531250
2051,-21.484375
2052,-23.437500
2053,-27.343750
2054,-31.250000
2055,-33.203125
2056,-35.156250
2057,-39.062500
2058,-41.015625
2059,-44.921875
2060,-46.875000
2061,-50.781250
2062,-52.734375
2063,-54.687500
2064,-58.593750
2065,-62.500000
2066,-64.453125
2067,-66.406250
2068,-70.312500
2069,-72.265625
2070,-74.218750
2071,-76.171875
2072,-80.078125
2073,-82.031250
2074,-85.937500
2075,-87.890625
2076,-89.843750
2077,-91.796875
2078,-93.750000
2079,-95.703125
2080,-99.609375
2081,-99.609375
2082,-103.515625
2083,-105.468750
2084,-105.468750
2085,-109.375000
2086,-111.328125
2087,-113.281250
2088,-113.281250
2089,-115.234375
2090,-119.140625
2091,-119.140625
2092,-121.093750
2093,-123.046875
2094,-123.046875
2095,-125.000000
2096,-126.953125
2097,-128.906250
2098,-128.906250
2099,-128.906250
2100,-130.859375
2101,-132.812500
2102,-132.812500
2103,-134.765625
2104,-134.765625
2105,-136.718750
2106,-136.718750
2107,-136.718750
2108,-138.671875
2109,-138.671875
2110,-138.671875
2111,-138.671875
2112,-140.625000
2113,-138.671875
2114,-140.625000
2115,-138.671875
2116,-140.625000
2117,-140.625000
2118,-138.671875
2119,-140.625000
2120,-138.671875
2121,-138.671875
2122,-138.671875
2123,-138.671875
2124,-136.718750
2125,-136.718750
2126,-136.718750
2127,-136.718750
2128,-134.765625
2129,-134.765625
2130,-132.812500
2131,-130.859375
2132,-130.859375
2133,-128.906250
2134,-126.953125
2135,-128.906250
2136,-125.000000
2137,-125.000000
2138,-123.046875
2139,-121.093750
2140,-119.140625
2141,-117.187500
2142,-117.187500
2143,-113.281250
2144,-111.328125
2145,-109.375000
2146,-109.375000
2147,-105.468750
2148,-105.468750
2149,-103.515625
2150,-99.609375
2151,-97.656250
2152,-95.703125
2153,-93.750000
2154,-91.796875
2155,-89.843750
2156,-85.937500
2157,-83.984375
2158,-82.031250
2159,-78.125000
2160,-78.125000
2161,-74.218750
2162,-70.312500
2163,-68.359375
2164,-66.406250
2165,-64.453125
2166,-60.546875
2167,-58.593750
2168,-54.687500
2169,-52.734375
2170,-50.781250
2171,-46.875000
2172,-44.921875
2173,-41.015625
2174,-39.062500
2175,-35.156250
2176,-33.203125
2177,-29.296875
2178,-27.343750
2179,-23.437500
2180,-21.484375
2181,-19.531250
2182,-15.625000
2183,-13.671875
2184,-9.765625
2185,-7.812500
2186,-5.859375
2187,-1.953125
2188,0.000000
2189,3.906250
2190,5.859375
2191,9.765625
2192,11.718750
2193,13.671875
2194,17.578125
2195,19.531250
2196,23.437500
2197,25.390625
2198,29.296875
2199,29.296875
2200,33.203125
2201,35.156250
2202,39.062500
2203,41.015625
2204,42.968750
2205,44.921875
2206,46.875000
2207,50.781250
2208,52.734375
2209,54.687500
2210,56.640625
2211,60.546875
2212,62.500000
2213,64.453125
2214,66.406250
2215,68.359375
2216,70.312500
2217,72.265625
2218,74.218750
2219,76.171875
2220,78.125000
2221,80.078125
2222,80.078125
2223,82.031250
2224,83.984375
2225,85.937500
2226,87.890625
2227,89.843750
2228,89.843750
2229,91.796875
2230,93.750000
2231,93.750000
2232,95.703125
2233,97.656250
2234,97.656250
2235,99.609375
2236,101.562500
2237,101.562500
2238,103.515625
2239,103.515625
2240,105.468750
2241,105.468750
2242,105.468750
2243,107.421875
2244,107.421875
2245,107.421875
2246,107.421875
2247,109.375000
2248,109.375000
2249,109.375000
2250,111.328125
2251,111.328125
2252,111.328125
2253,111.328125
2254,111.328125
2255,111.328125
2256,111.328125
2257,111.328125
2258,111.328125
2259,111.328125
2260,111.328125
2261,111.328125
2262,111.328125
2263,109.375000
2264,109.375000
2265,109.375000
2266,109.375000
2267,109.375000
2268,107.421875
2269,107.421875
2270,107.421875
2271,105.468750
2272,105.468750
2273,103.515625
2274,103.515625
2275,103.515625
2276,101.562500
2277,101.562500
2278,99.609375
2279,99.609375
2280,97.656250
2281,95.703125
2282,95.703125
2283,93.750000
2284,93.750000
2285,91.796875
2286,89.843750
2287,89.843750
2288,87.890625
2289,85.937500
2290,83.984375
2291,82.031250
2292,80.078125
2293,78.125000
2294,78.125000
2295,76.171875
2296,74.218750
2297,70.312500
2298,68.359375
2299,66.406250
2300,64.453125
2301,62.500000
2302,60.546875
2303,58.593750
2304,56.640625
2305,52.734375
2306,50.781250
2307,48.828125
2308,46.875000
2309,44.921875
2310,42.968750
2311,39.062500
2312,37.109375
2313,35.156250
2314,31.250000
2315,29.296875
2316,27.343750
2317,23.437500
2318,21.484375
2319,17.578125
2320,15.625000
2321,13.671875
2322,9.765625
2323,7.812500
2324,3.906250
2325,1.953125
2326,-1.953125
2327,-3.906250
2328,-5.859375
2329,-9.765625
2330,-11.718750
2331,-15.625000
2332,-17.578125
2333,-21.484375
2334,-23.437500
2335,-27.343750
2336,-29.296875
2337,-31.250000
2338,-35.156250
2339,-39.062500
2340,-44.921875
2341,-42.968750
2342,-46.875000
2343,-48.828125
2344,-50.781250
2345,-54.687500
2346,-58.593750
2347,-60.546875
2348,-62.500000
2349,-64.453125
2350,-68.359375
2351,-68.359375
2352,-74.218750
2353,-76.171875
2354,-78.125000
2355,-82.031250
2356,-83.984375
2357,-85.937500
2358,-87.890625
2359,-89.843750
2360,-91.796875
2361,-95.703125
2362,-97.656250
2363,-99.609375
2364,-101.562500
2365,-105.468750
2366,-105.468750
2367,-109.375000
2368,-111.328125
2369,-111.328125
2370,-113.281250
2371,-115.234375
2372,-117.187500
2373,-119.140625
2374,-121.093750
2375,-123.046875
2376,-125.000000
2377,-125.000000
2378,-126.953125
2379,-126.953125
2380,-128.906250
2381,-130.859375
2382,-132.812500
2383,-134.765625
2384,-134.765625
2385,-134.765625
2386,-134.765625
2387,-136.718750
2388,-136.718750
2389,-136.718750
2390,-138.671875
2391,-138.671875
2392,-136.718750
2393,-138.671875
2394,-138.671875
2395,-138.671875
2396,-140.625000
2397,-140.625000
2398,-140.625000
2399,-140.625000
2400,-138.671875
2401,-140.625000
2402,-140.625000
2403,-138.671875
2404,-138.671875
2405,-138.671875
2406,-138.671875
2407,-138.671875
2408,-136.718750
2409,-134.765625
2410,-134.765625
2411,-132.812500
2412,-132.812500
2413,-132.812500
2414,-130.859375
2415,-128.906250
2416,-128.906250
2417,-126.953125
2418,-125.000000
2419,-123.046875
2420,-123.046875
2421,-121.093750
2422,-121.093750
2423,-119.140625
2424,-117.187500
2425,-115.234375
2426,-113.281250
2427,-111.328125
2428,-109.375000
2429,-107.421875
2430,-105.468750
2431,-103.515625
2432,-101.562500
2433,-99.609375
2434,-97.656250
2435,-95.703125
2436,-91.796875
2437,-89.843750
2438,-87.890625
2439,-85.937500
2440,-82.031250
2441,-80.078125
2442,-78.125000
2443,-76.171875
2444,-72.265625
2445,-70.312500
2446,-68.359375
2447,-64.453125
2448,-62.500000
2449,-58.593750
2450,-56.640625
2451,-52.734375
2452,-50.781250
2453,-48.828125
2454,-44.921875
2455,-42.968750
2456,-39.062500
2457,-37.109375
2458,-33.203125
2459,-31.250000
2460,-27.343750
2461,-25.390625
2462,-21.484375
2463,-19.531250
2464,-17.578125
2465,-13.671875
2466,-11.718750
2467,-7.812500
2468,-3.906250
2469,-1.953125
2470,0.000000
2471,1.953125
2472,5.859375
2473,7.812500
2474,11.718750
2475,13.671875
2476,17.578125
2477,19.531250
2478,21.484375
2479,25.390625
2480,27.343750
2481,29.296875
2482,33.203125
2483,37.109375
2484,37.109375
2485,41.015625
2486,42.968750
2487,44.921875
2488,46.875000
2489,50.781250
2490,52.734375
2491,54.687500
2492,56.640625
2493,58.593750
2494,60.546875
2495,62.500000
2496,64.453125
2497,66.406250
2498,70.312500
2499,72.265625
2500,72.265625
2501,74.218750
2502,76.171875
2503,78.125000
2504,80.078125
2505,82.031250
2506,83.984375
2507,85.937500
2508,87.890625
2509,87.890625
2510,89.843750
2511,91.796875
2512,91.796875
2513,93.750000
2514,95.703125
2515,95.703125
2516,97.656250
2517,99.609375
2518,99.609375
2519,99.609375
2520,101.562500
2521,103.515625
2522,103.515625
2523,105.468750
2524,105.468750
2525,105.468750
2526,105.468750
2527,107.421875
2528,109.375000
2529,109.375000
2530,109.375000
2531,105.468750
2532,109.375000
2533,111.328125
2534,111.328125
2535,111.328125
2536,111.328125
2537,111.328125
2538,111.328125
2539,111.328125
2540,111.328125
2541,111.328125
2542,111.328125
2543,111.328125
2544,111.328125
2545,111.328125
2546,109.375000
2547,109.375000
2548,109.375000
2549,109.375000
2550,109.375000
2551,107.421875
2552,107.421875
2553,107.421875
2554,105.468750
2555,105.468750
2556,105.468750
2557,103.515625
2558,101.562500
2559,101.562500
2560,99.609375
2561,99.609375
2562,97.656250
2563,99.609375
2564,95.703125
2565,93.750000
2566,93.750000
2567,91.796875
2568,93.750000
2569,87.890625
2570,89.843750
2571,85.937500
2572,83.984375
2573,82.031250
2574,80.078125
2575,78.125000
2576,76.171875
2577,74.218750
2578,74.218750
2579,70.312500
2580,70.312500
2581,66.406250
2582,66.406250
2583,64.453125
2584,60.546875
2585,58.593750
2586,56.640625
2587,54.687500
2588,52.734375
2589,50.781250
2590,46.875000
2591,44.921875
2592,42.968750
2593,41.015625
2594,39.062500
2595,35.156250
2596,33.203125
2597,29.296875
2598,27.343750
2599,25.390625
2600,21.484375
2601,19.531250
2602,15.625000
2603,13.671875
2604,11.718750
2605,7.812500
2606,5.859375
2607,3.906250
2608,0.000000
2609,-3.906250
2610,-5.859375
2611,-9.765625
2612,-9.765625
2613,-13.671875
2614,-17.578125
2615,-21.484375
2616,-21.484375
2617,-25.390625
2618,-27.343750
2619,-31.250000
2620,-33.203125
2621,-37.109375
2622,-39.062500
2623,-42.968750
2624,-44.921875
2625,-48.828125
2626,-50.781250
2627,-52.734375
2628,-56.640625
2629,-60.546875
2630,-62.500000
2631,-64.453125
2632,-68.359375
2633,-70.312500
2634,-74.218750
2635,-76.171875
2636,-78.125000
2637,-82.031250
2638,-83.984375
2639,-85.937500
2640,-87.890625
2641,-89.843750
2642,-91.796875
2643,-95.703125
2644,-97.656250
2645,-99.609375
2646,-101.562500
2647,-103.515625
2648,-105.468750
2649,-107.421875
2650,-111.328125
2651,-111.328125
2652,-113.281250
2653,-115.234375
2654,-117.187500
2655,-119.140625
2656,-121.093750
2657,-121.093750
2658,-123.046875
2659,-125.000000
2660,-126.953125
2661,-128.906250
2662,-128.906250
2663,-128.906250
2664,-130.859375
2665,-132.812500
2666,-132.812500
2667,-134.765625
2668,-134.765625
2669,-136.718750
2670,-136.718750
2671,-136.718750
2672,-136.718750
2673,-138.671875
2674,-138.671875
2675,-138.671875
2676,-138.671875
2677,-140.625000
2678,-140.625000
2679,-140.625000
2680,-140.625000
2681,-138.671875
2682,-140.625000
2683,-138.671875
2684,-138.671875
2685,-138.671875
2686,-138.671875
2687,-138.671875
2688,-136.718750
2689,-136.718750
2690,-136.718750
2691,-134.765625
2692,-134.765625
2693,-134.765625
2694,-132.812500
2695,-132.812500
2696,-130.859375
2697,-128.906250
2698,-128.906250
2699,-126.953125
2700,-126.953125
2701,-125.000000
2702,-123.046875
2703,-123.046875
2704,-121.093750
2705,-119.140625
2706,-117.187500
2707,-115.234375
2708,-113.281250
2709,-111.328125
2710,-111.328125
2711,-107.421875
2712,-107.421875
2713,-103.515625
2714,-101.562500
2715,-99.609375
2716,-97.656250
2717,-95.703125
2718,-93.750000
2719,-91.796875
2720,-87.890625
2721,-83.984375
2722,-83.984375
2723,-82.031250
2724,-78.125000
2725,-74.218750
2726,-74.218750
2727,-68.359375
2728,-68.359375
2729,-66.406250
2730,-62.500000
2731,-60.546875
2732,-56.640625
2733,-54.687500
2734,-50.781250
2735,-48.828125
2736,-46.875000
2737,-46.875000
2738,-41.015625
2739,-37.109375
2740,-35.156250
2741,-31.250000
2742,-29.296875
2743,-25.390625
2744,-23.437500
2745,-21.484375
2746,-17.578125
2747,-15.625000
2748,-11.718750
2749,-9.765625
2750,-5.859375
2751,-3.906250
2752,0.000000
2753,1.953125
2754,3.906250
2755,7.812500
2756,9.765625
2757,13.671875
2758,15.625000
2759,17.578125
2760,19.531250
2761,23.437500
2762,27.343750
2763,27.343750
2764,31.250000
2765,33.203125
2766,35.156250
2767,39.062500
2768,41.015625
2769,44.921875
2770,46.875000
2771,48.828125
2772,50.781250
2773,52.734375
2774,54.687500
2775,56.640625
2776,60.546875
2777,62.500000
2778,64.453125
2779,66.406250
2780,68.359375
2781,70.312500
2782,72.265625
2783,74.218750
2784,76.171875
2785,78.125000
2786,80.078125
2787,82.031250
2788,83.984375
2789,83.984375
2790,85.937500
2791,87.890625
2792,89.843750
2793,91.796875
2794,91.796875
2795,93.750000
2796,95.703125
2797,95.703125
2798,97.656250
2799,99.609375
2800,99.609375
2801,101.562500
2802,101.562500
2803,101.562500
2804,105.468750
2805,105.468750
2806,105.468750
2807,105.468750
2808,107.421875
2809,107.421875
2810,107.421875
2811,109.375000
2812,109.375000
2813,109.375000
2814,109.375000
2815,109.375000
2816,111.328125
2817,111.328125
2818,111.328125
2819,111.328125
2820,111.328125
2821,111.328125
2822,111.328125
2823,111.328125
2824,111.328125
2825,111.328125
2826,111.328125
2827,111.328125
2828,109.375000
2829,109.375000
2830,109.375000
2831,109.375000
2832,107.421875
2833,107.421875
2834,107.421875
2835,105.468750
2836,105.468750
2837,105.468750
2838,105.468750
2839,103.515625
2840,103.515625
2841,101.562500
2842,99.609375
2843,99.609375
2844,97.656250
2845,97.656250
2846,97.656250
2847,95.703125
2848,93.750000
2849,91.796875
2850,91.796875
2851,89.843750
2852,87.890625
2853,85.937500
2854,85.937500
2855,83.984375
2856,80.078125
2857,80.078125
2858,78.125000
2859,76.171875
2860,74.218750
2861,72.265625
2862,70.312500
2863,68.359375
2864,66.406250
2865,64.453125
2866,62.500000
2867,60.546875
2868,58.593750
2869,56.640625
2870,54.687500
2871,50.781250
2872,48.828125
2873,44.921875
2874,42.968750
2875,41.015625
2876,39.062500
2877,37.109375
2878,33.203125
2879,31.250000
2880,29.296875
2881,25.390625
2882,23.437500
2883,19.531250
2884,17.578125
2885,13.671875
2886,11.718750
2887,9.765625
2888,5.859375
2889,3.906250
2890,0.000000
2891,-1.953125
2892,-3.906250
2893,-7.812500
2894,-9.765625
2895,-13.671875
2896,-15.625000
2897,-19.531250
2898,-21.484375
2899,-25.390625
2900,-27.343750
2901,-31.250000
2902,-33.203125
2903,-37.109375
2904,-39.062500
2905,-41.015625
2906,-46.875000
2907,-48.828125
2908,-50.781250
2909,-52.734375
2910,-56.640625
2911,-58.593750
2912,-62.500000
2913,-64.453125
2914,-66.406250
2915,-70.312500
2916,-72.265625
2917,-74.218750
2918,-76.171875
2919,-80.078125
2920,-82.031250
2921,-83.984375
2922,-87.890625
2923,-85.937500
2924,-91.796875
2925,-93.750000
2926,-95.703125
2927,-99.609375
2928,-99.609375
2929,-103.515625
2930,-105.468750
2931,-107.421875
2932,-109.375000
2933,-111.328125
2934,-111.328125
2935,-115.234375
2936,-115.234375
2937,-119.140625
2938,-119.140625
2939,-121.093750
2940,-123.046875
2941,-125.000000
2942,-125.000000
2943,-126.953125
2944,-128.906250
2945,-128.906250
2946,-130.859375
2947,-132.812500
2948,-132.812500
2949,-134.765625
2950,-134.765625
2951,-134.765625
2952,-136.718750
2953,-136.718750
2954,-136.718750
2955,-138.671875
2956,-140.625000
2957,-138.671875
2958,-138.671875
2959,-140.625000
2960,-138.671875
2961,-140.625000
2962,-140.625000
2963,-140.625000
2964,-140.625000
2965,-140.625000
2966,-140.625000
2967,-140.625000
2968,-138.671875
2969,-138.671875
2970,-138.671875
2971,-136.718750
2972,-136.718750
2973,-136.718750
2974,-134.765625
2975,-134.765625
2976,-134.765625
2977,-132.812500
2978,-130.859375
2979,-130.859375
2980,-130.859375
2981,-128.906250
2982,-126.953125
2983,-125.000000
2984,-125.000000
2985,-123.046875
2986,-121.093750
2987,-119.140625
2988,-119.140625
2989,-117.187500
2990,-115.234375
2991,-111.328125
2992,-111.328125
2993,-109.375000
2994,-107.421875
2995,-105.468750
2996,-103.515625
2997,-101.562500
2998,-97.656250
2999,-95.703125
3000,-93.750000
3001,-91.796875
3002,-89.843750
3003,-87.890625
3004,-83.984375
3005,-82.031250
3006,-78.125000
3007,-76.171875
3008,-74.218750
3009,-72.265625
3010,-68.359375
3011,-66.406250
3012,-64.453125
3013,-60.546875
3014,-58.593750
3015,-54.687500
3016,-52.734375
3017,-50.781250
3018,-46.875000
3019,-44.921875
3020,-41.015625
3021,-39.062500
3022,-35.156250
3023,-33.203125
3024,-31.250000
3025,-27.343750
3026,-25.390625
3027,-21.484375
3028,-19.531250
3029,-15.625000
3030,-13.671875
3031,-9.765625
3032,-7.812500
3033,-5.859375
3034,-1.953125
3035,1.953125
3036,3.906250
3037,5.859375
3038,9.765625
3039,11.718750
3040,15.625000
3041,17.578125
3042,21.484375
3043,21.484375
3044,25.390625
3045,27.343750
3046,31.250000
3047,33.203125
3048,35.156250
3049,39.062500
3050,41.015625
3051,42.968750
3052,46.875000
3053,48.828125
3054,50.781250
3055,52.734375
3056,54.687500
3057,56.640625
3058,60.546875
3059,62.500000
3060,64.453125
3061,66.406250
3062,68.359375
3063,70.312500
3064,72.265625
3065,74.218750
3066,76.171875
3067,78.125000
3068,80.078125
3069,82.031250
3070,83.984375
3071,83.984375
3072,85.937500
3073,89.843750
3074,89.843750
3075,89.843750
3076,91.796875
3077,93.750000
3078,95.703125
3079,95.703125
3080,95.703125
3081,99.609375
3082,99.609375
3083,99.609375
3084,101.562500
3085,101.562500
3086,103.515625
3087,103.515625
3088,105.468750
3089,105.468750
3090,105.468750
3091,107.421875
3092,107.421875
3093,109.375000
3094,109.375000
3095,109.375000
3096,109.375000
3097,109.375000
3098,109.375000
3099,111.328125
3100,111.328125
3101,111.328125
3102,111.328125
3103,111.328125
3104,111.328125
3105,109.375000
3106,111.328125
3107,111.328125
3108,111.328125
3109,111.328125
3110,111.328125
3111,111.328125
3112,109.375000
3113,107.421875
3114,109.375000
3115,107.421875
3116,107.421875
3117,107.421875
3118,105.468750
3119,105.468750
3120,105.468750
3121,103.515625
3122,101.562500
3123,101.562500
3124,101.562500
3125,101.562500
3126,99.609375
3127,97.656250
3128,95.703125
3129,95.703125
3130,93.750000
3131,93.750000
3132,91.796875
3133,89.843750
3134,87.890625
3135,87.890625
3136,85.937500
3137,83.984375
3138,82.031250
3139,80.078125
3140,78.125000
3141,76.171875
3142,74.218750
3143,72.265625
3144,72.265625
3145,68.359375
3146,68.359375
3147,64.453125
3148,62.500000
3149,60.546875
3150,58.593750
3151,56.640625
3152,52.734375
3153,50.781250
3154,48.828125
3155,46.875000
3156,44.921875
3157,41.015625
3158,39.062500
3159,37.109375
3160,35.156250
3161,31.250000
3162,29.296875
3163,25.390625
3164,23.437500
3165,21.484375
3166,19.531250
3167,15.625000
3168,11.718750
3169,9.765625
3170,7.812500
3171,3.906250
3172,1.953125
3173,-1.953125
3174,-3.906250
3175,-7.812500
3176,-9.765625
3177,-11.718750
3178,-15.625000
3179,-17.578125
3180,-21.484375
3181,-23.437500
3182,-27.343750
3183,-29.296875
3184,-31.250000
3185,-35.156250
3186,-37.109375
3187,-41.015625
3188,-42.968750
3189,-46.875000
3190,-48.828125
3191,-52.734375
3192,-54.687500
3193,-58.593750
3194,-60.546875
3195,-62.500000
3196,-66.406250
3197,-68.359375
3198,-70.312500
3199,-72.265625
3200,-76.171875
3201,-78.125000
3202,-82.031250
3203,-83.984375
3204,-85.937500
3205,-87.890625
3206,-91.796875
3207,-93.750000
3208,-95.703125
3209,-97.656250
3210,-99.609375
3211,-103.515625
3212,-103.515625
3213,-105.468750
3214,-107.421875
3215,-109.375000
3216,-113.281250
3217,-113.281250
3218,-115.234375
3219,-117.187500
3220,-119.140625
3221,-121.093750
3222,-123.046875
3223,-123.046875
3224,-126.953125
3225,-126.953125
3226,-126.953125
3227,-128.906250
3228,-130.859375
3229,-132.812500
3230,-132.812500
3231,-132.812500
3232,-134.765625
3233,-134.765625
3234,-136.718750
3235,-136.718750
3236,-136.718750
3237,-138.671875
3238,-138.671875
3239,-138.671875
3240,-138.671875
3241,-140.625000
3242,-140.625000
3243,-140.625000
3244,-140.625000
3245,-140.625000
3246,-140.625000
3247,-138.671875
3248,-138.671875
3249,-138.671875
3250,-138.671875
3251,-138.671875
3252,-136.718750
3253,-136.718750
3254,-136.718750
3255,-136.718750
3256,-134.765625
3257,-134.765625
3258,-134.765625
3259,-132.812500
3260,-130.859375
3261,-130.859375
3262,-128.906250
3263,-128.906250
3264,-126.953125
3265,-125.000000
3266,-125.000000
3267,-123.046875
3268,-121.093750
3269,-119.140625
3270,-117.187500
3271,-117.187500
3272,-115.234375
3273,-111.328125
3274,-111.328125
3275,-109.375000
3276,-107.421875
3277,-105.468750
3278,-103.515625
3279,-101.562500
3280,-99.609375
3281,-97.656250
3282,-95.703125
3283,-91.796875
3284,-89.843750
3285,-87.890625
3286,-83.984375
3287,-83.984375
3288,-80.078125
3289,-76.171875
3290,-76.171875
3291,-72.265625
3292,-70.312500
3293,-68.359375
3294,-64.453125
3295,-62.500000
3296,-58.593750
3297,-56.640625
3298,-54.687500
3299,-48.828125
3300,-48.828125
3301,-44.921875
3302,-42.968750
3303,-41.015625
3304,-37.109375
3305,-35.156250
3306,-31.250000
3307,-29.296875
3308,-25.390625
3309,-23.437500
3310,-19.531250
3311,-17.578125
3312,-13.671875
3313,-9.765625
3314,-7.812500
3315,-5.859375
3316,-1.953125
3317,0.000000
3318,1.953125
3319,5.859375
3320,9.765625
3321,11.718750
3322,13.671875
3323,15.625000
3324,19.531250
3325,23.437500
3326,25.390625
3327,27.343750
3328,31.250000
3329,33.203125
3330,35.156250
3331,37.109375
3332,41.015625
3333,42.968750
3334,44.921875
3335,46.875000
3336,50.781250
3337,52.734375
3338,54.687500
3339,56.640625
3340,58.593750
3341,60.546875
3342,62.500000
3343,66.406250
3344,68.359375
3345,68.359375
3346,72.265625
3347,74.218750
3348,74.218750
3349,76.171875
3350,78.125000
3351,80.078125
3352,82.031250
3353,83.984375
3354,87.890625
3355,85.937500
3356,87.890625
3357,89.843750
3358,91.796875
3359,91.796875
3360,93.750000
3361,95.703125
3362,95.703125
3363,97.656250
3364,99.609375
3365,99.609375
3366,101.562500
3367,101.562500
3368,103.515625
3369,103.515625
3370,103.515625
3371,105.468750
3372,105.468750
3373,107.421875
3374,107.421875
3375,107.421875
3376,109.375000
3377,109.375000
3378,111.328125
3379,109.375000
3380,109.375000
3381,111.328125
3382,111.328125
3383,111.328125
3384,111.328125
3385,111.328125
3386,111.328125
3387,111.328125
3388,111.328125
3389,111.328125
3390,111.328125
3391,111.328125
3392,109.375000
3393,111.328125
3394,109.375000
3395,109.375000
3396,109.375000
3397,107.421875
3398,109.375000
3399,107.421875
3400,105.468750
3401,105.468750
3402,105.468750
3403,103.515625
3404,103.515625
3405,103.515625
3406,101.562500
3407,99.609375
3408,99.609375
3409,97.656250
3410,97.656250
3411,95.703125
3412,93.750000
3413,93.750000
3414,91.796875
3415,89.843750
3416,87.890625
3417,85.937500
3418,85.937500
3419,83.984375
3420,82.031250
3421,80.078125
3422,80.078125
3423,76.171875
3424,74.218750
3425,74.218750
3426,72.265625
3427,68.359375
3428,68.359375
3429,64.453125
3430,64.453125
3431,60.546875
3432,58.593750
3433,56.640625
3434,54.687500
3435,52.734375
3436,50.781250
3437,46.875000
3438,44.921875
3439,42.968750
3440,39.062500
3441,39.062500
3442,35.156250
3443,33.203125
3444,29.296875
3445,27.343750
3446,25.390625
3447,21.484375
3448,19.531250
3449,17.578125
3450,13.671875
3451,11.718750
3452,7.812500
3453,5.859375
3454,5.859375
3455,0.000000
3456,-3.906250
3457,-3.906250
3458,-7.812500
3459,-11.718750
3460,-13.671875
3461,-17.578125
3462,-19.531250
3463,-21.484375
3464,-25.390625
3465,-29.296875
3466,-31.250000
3467,-33.203125
3468,-37.109375
3469,-39.062500
3470,-42.968750
3471,-44.921875
3472,-48.828125
3473,-50.781250
3474,-54.687500
3475,-56.640625
3476,-58.593750
3477,-62.500000
3478,-64.453125
3479,-68.359375
3480,-70.312500
3481,-74.218750
3482,-76.171875
3483,-78.125000
3484,-80.078125
3485,-83.984375
3486,-85.937500
3487,-87.890625
3488,-89.843750
3489,-93.750000
3490,-95.703125
3491,-97.656250
3492,-99.609375
3493,-101.562500
3494,-103.515625
3495,-105.468750
3496,-107.421875
3497,-109.375000
3498,-113.281250
3499,-113.281250
3500,-115.234375
3501,-117.187500
3502,-119.140625
3503,-119.140625
3504,-121.093750
3505,-123.046875
3506,-125.000000
3507,-126.953125
3508,-126.953125
3509,-128.906250
3510,-128.906250
3511,-130.859375
3512,-130.859375
3513,-132.812500
3514,-132.812500
3515,-134.765625
3516,-136.718750
3517,-138.671875
3518,-134.765625
3519,-136.718750
3520,-138.671875
3521,-138.671875
3522,-138.671875
3523,-138.671875
3524,-138.671875
3525,-140.625000
3526,-140.625000
3527,-140.625000
3528,-140.625000
3529,-140.625000
3530,-140.625000
3531,-138.671875
3532,-138.671875
3533,-138.671875
3534,-138.671875
3535,-138.671875
3536,-136.718750
3537,-136.718750
3538,-136.718750
3539,-134.765625
3540,-134.765625
3541,-132.812500
3542,-132.812500
3543,-130.859375
3544,-130.859375
3545,-128.906250
3546,-128.906250
3547,-126.953125
3548,-125.000000
3549,-123.046875
3550,-123.046875
3551,-121.093750
3552,-119.140625
3553,-117.187500
3554,-115.234375
3555,-115.234375
3556,-111.328125
3557,-109.375000
3558,-109.375000
3559,-105.468750
3560,-103.515625
3561,-101.562500
3562,-99.609375
3563,-97.656250
3564,-95.703125
3565,-91.796875
3566,-91.796875
3567,-89.843750
3568,-85.937500
3569,-83.984375
3570,-80.078125
3571,-78.125000
3572,-76.171875
3573,-72.265625
3574,-70.312500
3575,-68.359375
3576,-66.406250
3577,-62.500000
3578,-60.546875
3579,-56.640625
3580,-54.687500
3581,-52.734375
3582,-48.828125
3583,-46.875000
3584,-42.968750
3585,-41.015625
3586,-37.109375
3587,-35.156250
3588,-31.250000
3589,-29.296875
3590,-25.390625
3591,-23.437500
3592,-21.484375
3593,-17.578125
3594,-15.625000
3595,-11.718750
3596,-9.765625
3597,-7.812500
3598,-3.906250
3599,0.000000
3600,1.953125
3601,3.906250
3602,7.812500
3603,9.765625
3604,13.671875
3605,15.625000
3606,17.578125
3607,21.484375
3608,23.437500
3609,25.390625
3610,29.296875
3611,31.250000
3612,35.156250
3613,35.156250
3614,39.062500
3615,41.015625
3616,44.921875
3617,46.875000
3618,48.828125
3619,50.781250
3620,54.687500
3621,54.687500
3622,58.593750
3623,60.546875
3624,62.500000
3625,64.453125
3626,66.406250
3627,68.359375
3628,70.312500
3629,72.265625
3630,74.218750
3631,76.171875
3632,78.125000
3633,80.078125
3634,82.031250
3635,82.031250
3636,85.937500
3637,85.937500
3638,87.890625
3639,89.843750
3640,91.796875
3641,91.796875
3642,93.750000
3643,95.703125
3644,97.656250
3645,97.656250
3646,97.656250
3647,99.609375
3648,101.562500
3649,101.562500
3650,103.515625
3651,103.515625
3652,105.468750
3653,105.468750
3654,105.468750
3655,107.421875
3656,107.421875
3657,109.375000
3658,109.375000
3659,109.375000
3660,109.375000
3661,109.375000
3662,109.375000
3663,109.375000
3664,111.328125
3665,111.328125
3666,111.328125
3667,111.328125
3668,111.328125
3669,111.328125
3670,111.328125
3671,111.328125
3672,111.328125
3673,111.328125
3674,109.375000
3675,111.328125
3676,111.328125
3677,109.375000
3678,107.421875
3679,109.375000
3680,107.421875
3681,107.421875
3682,105.468750
3683,105.468750
3684,105.468750
3685,103.515625
3686,103.515625
3687,101.562500
3688,101.562500
3689,101.562500
3690,99.609375
3691,99.609375
3692,97.656250
3693,95.703125
3694,93.750000
3695,93.750000
3696,93.750000
3697,89.843750
3698,89.843750
3699,87.890625
3700,85.937500
3701,83.984375
3702,82.031250
3703,82.031250
3704,80.078125
3705,78.125000
3706,76.171875
3707,74.218750
3708,72.265625
3709,70.312500
3710,68.359375
3711,66.406250
3712,64.453125
3713,62.500000
3714,60.546875
3715,58.593750
3716,54.687500
3717,52.734375
3718,50.781250
3719,48.828125
3720,46.875000
3721,42.968750
3722,41.015625
3723,39.062500
3724,35.156250
3725,33.203125
3726,31.250000
3727,29.296875
3728,29.296875
3729,23.437500
3730,21.484375
3731,17.578125
3732,15.625000
3733,11.718750
3734,9.765625
3735,7.812500
3736,3.906250
3737,0.000000
3738,-1.953125
3739,-3.906250
3740,-7.812500
3741,-9.765625
3742,-13.671875
3743,-15.625000
3744,-19.531250
3745,-23.437500
3746,-25.390625
3747,-27.343750
3748,-31.250000
3749,-33.203125
3750,-35.156250
3751,-39.062500
3752,-41.015625
3753,-44.921875
3754,-46.875000
3755,-50.781250
3756,-52.734375
3757,-56.640625
3758,-58.593750
3759,-60.546875
3760,-64.453125
3761,-66.406250
3762,-70.312500
3763,-72.265625
3764,-74.218750
3765,-78.125000
3766,-80.078125
3767,-82.031250
3768,-83.984375
3769,-87.890625
3770,-89.843750
3771,-91.796875
3772,-93.750000
3773,-95.703125
3774,-97.656250
3775,-101.562500
3776,-103.515625
3777,-105.468750
3778,-107.421875
3779,-109.375000
3780,-111.328125
3781,-113.281250
3782,-113.281250
3783,-115.234375
3784,-119.140625
3785,-119.140625
3786,-121.093750
3787,-123.046875
3788,-125.000000
3789,-125.000000
3790,-126.953125
3791,-128.906250
3792,-128.906250
3793,-130.859375
3794,-130.859375
3795,-132.812500
3796,-134.765625
3797,-134.765625
3798,-134.765625
3799,-136.718750
3800,-138.671875
3801,-136.718750
3802,-138.671875
3803,-138.671875
3804,-138.671875
3805,-138.671875
3806,-140.625000
3807,-140.625000
3808,-140.625000
3809,-140.625000
3810,-140.625000
3811,-140.625000
3812,-140.625000
3813,-138.671875
3814,-140.625000
3815,-138.671875
3816,-138.671875
3817,-138.671875
3818,-138.671875
3819,-136.718750
3820,-136.718750
3821,-134.765625
3822,-134.765625
3823,-132.812500
3824,-132.812500
3825,-130.859375
3826,-130.859375
3827,-128.906250
3828,-128.906250
3829,-126.953125
3830,-125.000000
3831,-125.000000
3832,-123.046875
3833,-121.093750
3834,-119.140625
3835,-117.187500
3836,-115.234375
3837,-113.281250
3838,-111.328125
3839,-111.328125
3840,-109.375000
3841,-105.468750
3842,-105.468750
3843,-103.515625
3844,-101.562500
3845,-97.656250
3846,-95.703125
3847,-93.750000
3848,-91.796875
3849,-87.890625
3850,-85.937500
3851,-83.984375
3852,-82.031250
3853,-78.125000
3854,-76.171875
3855,-74.218750
3856,-70.312500
3857,-68.359375
3858,-66.406250
3859,-62.500000
3860,-62.500000
3861,-58.593750
3862,-54.687500
3863,-52.734375
3864,-50.781250
3865,-46.875000
3866,-42.968750
3867,-41.015625
3868,-39.062500
3869,-35.156250
3870,-33.203125
3871,-29.296875
3872,-27.343750
3873,-25.390625
3874,-21.484375
3875,-19.531250
3876,-15.625000
3877,-13.671875
3878,-9.765625
3879,-7.812500
3880,-5.859375
3881,-1.953125
3882,0.000000
3883,3.906250
3884,5.859375
3885,9.765625
3886,11.718750
3887,13.671875
3888,17.578125
3889,19.531250
3890,23.437500
3891,25.390625
3892,29.296875
3893,31.250000
3894,33.203125
3895,35.156250
3896,39.062500
3897,39.062500
3898,42.968750
3899,46.875000
3900,48.828125
3901,50.781250
3902,52.734375
3903,54.687500
3904,58.593750
3905,58.593750
3906,62.500000
3907,64.453125
3908,66.406250
3909,68.359375
3910,70.312500
3911,72.265625
3912,74.218750
3913,76.171875
3914,78.125000
3915,80.078125
3916,82.031250
3917,82.031250
3918,85.937500
3919,85.937500
3920,89.843750
3921,89.843750
3922,89.843750
3923,91.796875
3924,91.796875
3925,93.750000
3926,95.703125
3927,97.656250
3928,97.656250
3929,97.656250
3930,99.609375
3931,101.562500
3932,101.562500
3933,103.515625
3934,103.515625
3935,105.468750
3936,105.468750
3937,107.421875
3938,107.421875
3939,107.421875
3940,107.421875
3941,107.421875
3942,109.375000
3943,109.375000
3944,109.375000
3945,109.375000
3946,111.328125
3947,111.328125
3948,111.328125
3949,111.328125
3950,111.328125
3951,111.328125
3952,111.328125
3953,111.328125
3954,111.328125
3955,111.328125
3956,111.328125
3957,111.328125
3958,109.375000
3959,109.375000
3960,109.375000
3961,107.421875
3962,107.421875
3963,107.421875
3964,107.421875
3965,105.468750
3966,105.468750
3967,105.468750
3968,103.515625
3969,103.515625
3970,101.562500
3971,101.562500
3972,99.609375
3973,99.609375
3974,97.656250
3975,97.656250
3976,95.703125
3977,93.750000
3978,91.796875
3979,91.796875
3980,89.843750
3981,87.890625
3982,87.890625
3983,85.937500
3984,83.984375
3985,82.031250
3986,80.078125
3987,78.125000
3988,76.171875
3989,74.218750
3990,72.265625
3991,70.312500
3992,68.359375
3993,68.359375
3994,66.406250
3995,62.500000
3996,60.546875
3997,58.593750
3998,56.640625
3999,52.734375
4000,50.781250
4001,48.828125
4002,46.875000
4003,44.921875
4004,41.015625
4005,39.062500
4006,37.109375
4007,35.156250
4008,31.250000
4009,29.296875
4010,27.343750
4011,23.437500
4012,21.484375
4013,17.578125
4014,15.625000
4015,13.671875
4016,9.765625
4017,7.812500
4018,3.906250
4019,1.953125
4020,0.000000
4021,-3.906250
4022,-5.859375
4023,-9.765625
4024,-11.718750
4025,-15.625000
4026,-17.578125
4027,-19.531250
4028,-23.437500
4029,-25.390625
4030,-29.296875
4031,-33.203125
4032,-35.156250
4033,-37.109375
4034,-41.015625
4035,-42.968750
4036,-46.875000
4037,-48.828125
4038,-52.734375
4039,-52.734375
4040,-56.640625
4041,-60.546875
4042,-62.500000
4043,-66.406250
4044,-68.359375
4045,-70.312500
4046,-72.265625
4047,-76.171875
4048,-78.125000
4049,-80.078125
4050,-83.984375
4051,-85.937500
4052,-89.843750
4053,-91.796875
4054,-93.750000
4055,-95.703125
4056,-97.656250
4057,-99.609375
4058,-101.562500
4059,-103.515625
4060,-105.468750
4061,-109.375000
4062,-109.375000
4063,-111.328125
4064,-113.281250
4065,-115.234375
4066,-119.140625
4067,-119.140625
4068,-121.093750
4069,-123.046875
4070,-125.000000
4071,-125.000000
4072,-126.953125
4073,-128.906250
4074,-128.906250
4075,-130.859375
4076,-130.859375
4077,-132.812500
4078,-132.812500
4079,-134.765625
4080,-134.765625
4081,-136.718750
4082,-136.718750
4083,-136.718750
4084,-138.671875
4085,-138.671875
4086,-138.671875
4087,-138.671875
4088,-138.671875
4089,-140.625000
4090,-140.625000
4091,-140.625000
4092,-140.625000
4093,-140.625000
4094,-138.671875
4095,-138.671875
4096,-140.625000
4097,-138.671875
4098,-140.625000
4099,-138.671875
4100,-136.718750
4101,-136.718750
4102,-134.765625
4103,-134.765625
4104,-134.765625
4105,-132.812500
4106,-132.812500
4107,-132.812500
4108,-130.859375
4109,-128.906250
4110,-128.906250
4111,-126.953125
4112,-125.000000
4113,-125.000000
4114,-123.046875
4115,-121.093750
4116,-117.187500
4117,-119.140625
4118,-117.187500
4119,-115.234375
4120,-113.281250
4121,-111.328125
4122,-109.375000
4123,-107.421875
4124,-105.468750
4125,-103.515625
4126,-99.609375
4127,-99.609375
4128,-97.656250
4129,-95.703125
4130,-93.750000
4131,-89.843750
4132,-87.890625
4133,-85.937500
4134,-82.031250
4135,-80.078125
4136,-78.125000
4137,-76.171875
4138,-72.265625
4139,-70.312500
4140,-68.359375
4141,-64.453125
4142,-60.546875
4143,-58.593750
4144,-56.640625
4145,-54.687500
4146,-50.781250
4147,-48.828125
4148,-44.921875
4149,-42.968750
4150,-39.062500
4151,-37.109375
4152,-35.156250
4153,-31.250000
4154,-27.343750
4155,-25.390625
4156,-23.437500
4157,-19.531250
4158,-15.625000
4159,-13.671875
4160,-11.718750
4161,-7.812500
4162,-5.859375
4163,-1.953125
4164,0.000000
4165,3.906250
4166,5.859375
4167,7.812500
4168,11.718750
4169,13.671875
4170,17.578125
4171,19.531250
4172,21.484375
4173,25.390625
4174,27.343750
4175,29.296875
4176,33.203125
4177,35.156250
4178,37.109375
4179,41.015625
4180,42.968750
4181,44.921875
4182,46.875000
4183,48.828125
4184,52.734375
4185,54.687500
4186,56.640625
4187,58.593750
4188,60.546875
4189,62.500000
4190,66.406250
4191,66.406250
4192,68.359375
4193,70.312500
4194,74.218750
4195,74.218750
4196,76.171875
4197,78.125000
4198,80.078125
4199,82.031250
4200,83.984375
4201,85.937500
4202,87.890625
4203,87.890625
4204,89.843750
4205,91.796875
4206,91.796875
4207,93.750000
4208,95.703125
4209,95.703125
4210,97.656250
4211,99.609375
4212,99.609375
4213,101.562500
4214,101.562500
4215,103.515625
4216,103.515625
4217,103.515625
4218,105.468750
4219,107.421875
4220,107.421875
4221,107.421875
4222,109.375000
4223,109.375000
4224,109.375000
4225,109.375000
4226,109.375000
4227,111.328125
4228,111.328125
4229,111.328125
4230,111.328125
4231,111.328125
4232,111.328125
4233,113.281250
4234,111.328125
4235,111.328125
4236,111.328125
4237,111.328125
4238,111.328125
4239,109.375000
4240,109.375000
4241,109.375000
4242,109.375000
4243,109.375000
4244,109.375000
4245,107.421875
4246,107.421875
4247,105.468750
4248,105.468750
4249,105.468750
4250,103.515625
4251,103.515625
4252,101.562500
4253,101.562500
4254,99.609375
4255,99.609375
4256,97.656250
4257,97.656250
4258,95.703125
4259,93.750000
4260,93.750000
4261,91.796875
4262,89.843750
4263,89.843750
4264,87.890625
4265,85.937500
4266,83.984375
4267,82.031250
4268,82.031250
4269,78.125000
4270,78.125000
4271,76.171875
4272,72.265625
4273,74.218750
4274,70.312500
4275,68.359375
4276,66.406250
4277,64.453125
4278,62.500000
4279,58.593750
4280,56.640625
4281,54.687500
4282,52.734375
4283,48.828125
4284,46.875000
4285,46.875000
4286,42.968750
4287,41.015625
4288,37.109375
4289,35.156250
4290,33.203125
4291,31.250000
4292,27.343750
4293,25.390625
4294,21.484375
4295,19.531250
4296,17.578125
4297,13.671875
4298,11.718750
4299,7.812500
4300,5.859375
4301,3.906250
4302,0.000000
4303,-1.953125
4304,-3.906250
4305,-7.812500
4306,-11.718750
4307,-13.671875
4308,-15.625000
4309,-19.531250
4310,-23.437500
4311,-25.390625
4312,-29.296875
4313,-31.250000
4314,-35.156250
4315,-37.109375
4316,-37.109375
4317,-42.968750
4318,-44.921875
4319,-48.828125
4320,-50.781250
4321,-52.734375
4322,-56.640625
4323,-58.593750
4324,-62.500000
4325,-64.453125
4326,-68.359375
4327,-70.312500
4328,-72.265625
4329,-76.171875
4330,-78.125000
4331,-80.078125
4332,-83.984375
4333,-85.937500
4334,-87.890625
4335,-89.843750
4336,-91.796875
4337,-93.750000
4338,-97.656250
4339,-99.609375
4340,-101.562500
4341,-103.515625
4342,-105.468750
4343,-107.421875
4344,-107.421875
4345,-111.328125
4346,-113.281250
4347,-115.234375
4348,-117.187500
4349,-117.187500
4350,-121.093750
4351,-121.093750
4352,-123.046875
4353,-125.000000
4354,-125.000000
4355,-125.000000
4356,-128.906250
4357,-130.859375
4358,-130.859375
4359,-130.859375
4360,-132.812500
4361,-132.812500
4362,-134.765625
4363,-136.718750
4364,-134.765625
4365,-136.718750
4366,-136.718750
4367,-138.671875
4368,-138.671875
4369,-138.671875
4370,-138.671875
4371,-138.671875
4372,-138.671875
4373,-140.625000
4374,-140.625000
4375,-138.671875
4376,-138.671875
4377,-140.625000
4378,-138.671875
4379,-138.671875
4380,-138.671875
4381,-138.671875
4382,-138.671875
4383,-136.718750
4384,-136.718750
4385,-134.765625
4386,-134.765625
4387,-134.765625
4388,-132.812500
4389,-132.812500
4390,-130.859375
4391,-130.859375
4392,-128.906250
4393,-126.953125
4394,-126.953125
4395,-125.000000
4396,-123.046875
4397,-121.093750
4398,-121.093750
4399,-119.140625
4400,-117.187500
4401,-115.234375
4402,-113.281250
4403,-111.328125
4404,-109.375000
4405,-107.421875
4406,-105.468750
4407,-103.515625
4408,-101.562500
4409,-99.609375
4410,-97.656250
4411,-95.703125
4412,-91.796875
4413,-89.843750
4414,-87.890625
4415,-85.937500
4416,-83.984375
4417,-80.078125
4418,-78.125000
4419,-76.171875
4420,-74.218750
4421,-70.312500
4422,-68.359375
4423,-66.406250
4424,-62.500000
4425,-60.546875
4426,-56.640625
4427,-54.687500
4428,-50.781250
4429,-48.828125
4430,-46.875000
4431,-42.968750
4432,-41.015625
4433,-37.109375
4434,-35.156250
4435,-31.250000
4436,-29.296875
4437,-27.343750
4438,-23.437500
4439,-21.484375
4440,-17.578125
4441,-15.625000
4442,-11.718750
4443,-9.765625
4444,-5.859375
4445,-3.906250
4446,-1.953125
4447,1.953125
4448,5.859375
4449,7.812500
4450,9.765625
4451,11.718750
4452,15.625000
4453,17.578125
4454,21.484375
4455,23.437500
4456,25.390625
4457,29.296875
4458,33.203125
4459,33.203125
4460,37.109375
4461,39.062500
4462,42.968750
4463,44.921875
4464,46.875000
4465,48.828125
4466,50.781250
4467,54.687500
4468,54.687500
4469,58.593750
4470,60.546875
4471,62.500000
4472,64.453125
4473,66.406250
4474,68.359375
4475,70.312500
4476,72.265625
4477,74.218750
4478,76.171875
4479,78.125000
4480,80.078125
4481,82.031250
4482,83.984375
4483,85.937500
4484,87.890625
4485,87.890625
4486,89.843750
4487,91.796875
4488,93.750000
4489,93.750000
4490,95.703125
4491,95.703125
4492,97.656250
4493,99.609375
4494,99.609375
4495,99.609375
4496,101.562500
4497,103.515625
4498,103.515625
4499,103.515625
4500,105.468750
4501,107.421875
4502,107.421875
4503,109.375000
4504,107.421875
4505,109.375000
4506,109.375000
4507,109.375000
4508,109.375000
4509,109.375000
4510,111.328125
4511,109.375000
4512,111.328125
4513,111.328125
4514,111.328125
4515,111.328125
4516,111.328125
4517,111.328125
4518,111.328125
4519,111.328125
4520,109.375000
4521,109.375000
4522,111.328125
4523,109.375000
4524,109.375000
4525,109.375000
4526,109.375000
4527,107.421875
4528,107.421875
4529,107.421875
4530,107.421875
4531,105.468750
4532,103.515625
4533,103.515625
4534,101.562500
4535,103.515625
4536,101.562500
4537,99.609375
4538,97.656250
4539,97.656250
4540,97.656250
4541,95.703125
4542,93.750000
4543,91.796875
4544,91.796875
4545,89.843750
4546,87.890625
4547,87.890625
4548,85.937500
4549,83.984375
4550,82.031250
4551,80.078125
4552,78.125000
4553,76.171875
4554,74.218750
4555,72.265625
4556,70.312500
4557,68.359375
4558,66.406250
4559,66.406250
4560,62.500000
4561,58.593750
4562,58.593750
4563,54.687500
4564,54.687500
4565,50.781250
4566,48.828125
4567,46.875000
4568,42.968750
4569,41.015625
4570,37.109375
4571,37.109375
4572,33.203125
4573,31.250000
4574,27.343750
4575,25.390625
4576,23.437500
4577,19.531250
4578,17.578125
4579,15.625000
4580,11.718750
4581,7.812500
4582,5.859375
4583,3.906250
4584,1.953125
4585,-1.953125
4586,-3.906250
4587,-7.812500
4588,-9.765625
4589,-13.671875
4590,-15.625000
4591,-19.531250
4592,-21.484375
4593,-23.437500
4594,-27.343750
4595,-29.296875
4596,-33.203125
4597,-35.156250
4598,-39.062500
4599,-41.015625
4600,-44.921875
4601,-46.875000
4602,-50.781250
4603,-52.734375
4604,-56.640625
4605,-58.593750
4606,-60.546875
4607,-64.453125
4608,-66.406250
4609,-68.359375
4610,-70.312500
4611,-74.218750
4612,-78.125000
4613,-78.125000
4614,-82.031250
4615,-83.984375
4616,-87.890625
4617,-89.843750
4618,-91.796875
4619,-93.750000
4620,-95.703125
4621,-97.656250
4622,-99.609375
4623,-101.562500
4624,-105.468750
4625,-107.421875
4626,-109.375000
4627,-111.328125
4628,-111.328125
4629,-113.281250
4630,-115.234375
4631,-119.140625
4632,-119.140625
4633,-121.093750
4634,-123.046875
4635,-123.046875
4636,-125.000000
4637,-126.953125
4638,-128.906250
4639,-128.906250
4640,-130.859375
4641,-130.859375
4642,-132.812500
4643,-132.812500
4644,-134.765625
4645,-134.765625
4646,-136.718750
4647,-136.718750
4648,-138.671875
4649,-138.671875
4650,-138.671875
4651,-138.671875
4652,-140.625000
4653,-138.671875
4654,-140.625000
4655,-140.625000
4656,-140.625000
4657,-140.625000
4658,-140.625000
4659,-140.625000
4660,-138.671875
4661,-140.625000
4662,-138.671875
4663,-138.671875
4664,-138.671875
4665,-136.718750
4666,-136.718750
4667,-136.718750
4668,-136.718750
4669,-134.765625
4670,-136.718750
4671,-132.812500
4672,-130.859375
4673,-130.859375
4674,-128.906250
4675,-126.953125
4676,-126.953125
4677,-123.046875
4678,-123.046875
4679,-123.046875
4680,-121.093750
4681,-119.140625
4682,-117.187500
4683,-115.234375
4684,-115.234375
4685,-111.328125
4686,-109.375000
4687,-109.375000
4688,-105.468750
4689,-105.468750
4690,-101.562500
4691,-99.609375
4692,-97.656250
4693,-95.703125
4694,-93.750000
4695,-91.796875
4696,-87.890625
4697,-87.890625
4698,-83.984375
4699,-82.031250
4700,-80.078125
4701,-76.171875
4702,-74.218750
4703,-72.265625
4704,-70.312500
4705,-66.406250
4706,-64.453125
4707,-60.546875
4708,-58.593750
4709,-56.640625
4710,-52.734375
4711,-50.781250
4712,-46.875000
4713,-44.921875
4714,-41.015625
4715,-39.062500
4716,-35.156250
4717,-33.203125
4718,-29.296875
4719,-27.343750
4720,-25.390625
4721,-21.484375
4722,-17.578125
4723,-15.625000
4724,-13.671875
4725,-9.765625
4726,-7.812500
4727,-5.859375
4728,-1.953125
4729,1.953125
4730,3.906250
4731,7.812500
4732,7.812500
4733,11.718750
4734,15.625000
4735,17.578125
4736,19.531250
4737,23.437500
4738,25.390625
4739,29.296875
4740,31.250000
4741,33.203125
4742,35.156250
4743,39.062500
4744,41.015625
4745,42.968750
4746,46.875000
4747,46.875000
4748,50.781250
4749,52.734375
4750,54.687500
4751,56.640625
4752,60.546875
4753,60.546875
4754,66.406250
4755,66.406250
4756,68.359375
4757,70.312500
4758,72.265625
4759,74.218750
4760,76.171875
4761,78.125000
4762,80.078125
4763,80.078125
4764,82.031250
4765,83.984375
4766,85.937500
4767,87.890625
4768,87.890625
4769,89.843750
4770,91.796875
4771,93.750000
4772,93.750000
4773,95.703125
4774,97.656250
4775,97.656250
4776,99.609375
4777,99.609375
4778,101.562500
4779,101.562500
4780,103.515625
4781,103.515625
4782,105.468750
4783,105.468750
4784,107.421875
4785,107.421875
4786,107.421875
4787,109.375000
4788,109.375000
4789,109.375000
4790,109.375000
4791,109.375000
4792,111.328125
4793,111.328125
4794,111.328125
4795,111.328125
4796,111.328125
4797,111.328125
4798,111.328125
4799,111.328125
4800,111.328125
4801,111.328125
4802,111.328125
4803,111.328125
4804,109.375000
4805,111.328125
4806,111.328125
4807,109.375000
4808,109.375000
4809,107.421875
4810,109.375000
4811,107.421875
4812,107.421875
4813,105.468750
4814,105.468750
4815,105.468750
4816,103.515625
4817,101.562500
4818,101.562500
4819,99.609375
4820,99.609375
4821,97.656250
4822,97.656250
4823,95.703125
4824,93.750000
4825,93.750000
4826,91.796875
4827,89.843750
4828,87.890625
4829,87.890625
4830,85.937500
4831,83.984375
4832,82.031250
4833,80.078125
4834,78.125000
4835,76.171875
4836,76.171875
4837,74.218750
4838,70.312500
4839,68.359375
4840,66.406250
4841,64.453125
4842,62.500000
4843,60.546875
4844,58.593750
4845,56.640625
4846,54.687500
4847,50.781250
4848,48.828125
4849,46.875000
4850,44.921875
4851,42.968750
4852,39.062500
4853,37.109375
4854,35.156250
4855,31.250000
4856,29.296875
4857,27.343750
4858,23.437500
4859,21.484375
4860,17.578125
4861,15.625000
4862,9.765625
4863,11.718750
4864,7.812500
4865,5.859375
4866,1.953125
4867,0.000000
4868,-3.906250
4869,-5.859375
4870,-9.765625
4871,-11.718750
4872,-13.671875
4873,-15.625000
4874,-19.531250
4875,-23.437500
4876,-27.343750
4877,-29.296875
4878,-31.250000
4879,-35.156250
4880,-39.062500
4881,-41.015625
4882,-42.968750
4883,-48.828125
4884,-48.828125
4885,-52.734375
4886,-54.687500
4887,-56.640625
4888,-60.546875
4889,-62.500000
4890,-66.406250
4891,-68.359375
4892,-70.312500
4893,-74.218750
4894,-76.171875
4895,-78.125000
4896,-82.031250
4897,-83.984375
4898,-85.937500
4899,-89.843750
4900,-91.796875
4901,-93.750000
4902,-91.796875
4903,-97.656250
4904,-99.609375
4905,-103.515625
4906,-105.468750
4907,-107.421875
4908,-109.375000
4909,-109.375000
4910,-111.328125
4911,-113.281250
4912,-113.281250
4913,-119.140625
4914,-119.140625
4915,-121.093750
4916,-121.093750
4917,-123.046875
4918,-125.000000
4919,-126.953125
4920,-126.953125
4921,-128.906250
4922,-130.859375
4923,-130.859375
4924,-132.812500
4925,-132.812500
4926,-134.765625
4927,-134.765625
4928,-136.718750
4929,-136.718750
4930,-136.718750
4931,-138.671875
4932,-138.671875
4933,-138.671875
4934,-138.671875
4935,-138.671875
4936,-138.671875
4937,-140.625000
4938,-140.625000
4939,-140.625000
4940,-138.671875
4941,-138.671875
4942,-138.671875
4943,-138.671875
4944,-138.671875
4945,-138.671875
4946,-138.671875
4947,-136.718750
4948,-136.718750
4949,-136.718750
4950,-136.718750
4951,-134.765625
4952,-132.812500
4953,-132.812500
4954,-132.812500
4955,-130.859375
4956,-128.906250
4957,-128.906250
4958,-126.953125
4959,-126.953125
4960,-125.000000
4961,-123.046875
4962,-121.093750
4963,-121.093750
4964,-117.187500
4965,-117.187500
4966,-115.234375
4967,-113.281250
4968,-111.328125
4969,-109.375000
4970,-107.421875
4971,-105.468750
4972,-103.515625
4973,-99.609375
4974,-99.609375
4975,-97.656250
4976,-93.750000
4977,-91.796875
4978,-89.843750
4979,-87.890625
4980,-85.937500
4981,-83.984375
4982,-80.078125
4983,-78.125000
4984,-76.171875
4985,-72.265625
4986,-70.312500
4987,-66.406250
4988,-64.453125
4989,-62.500000
4990,-58.593750
4991,-56.640625
4992,-54.687500
4993,-50.781250
4994,-46.875000
4995,-44.921875
4996,-42.968750
4997,-39.062500
4998,-37.109375
4999,-33.203125
5000,-31.250000
5001,-27.343750
5002,-25.390625
5003,-21.484375
5004,-19.531250
5005,-17.578125
5006,-13.671875
5007,-11.718750
5008,-7.812500
5009,-5.859375
5010,-1.953125
5011,0.000000
5012,3.906250
5013,5.859375
5014,9.765625
5015,11.718750
5016,13.671875
5017,17.578125
5018,19.531250
5019,23.437500
5020,25.390625
5021,27.343750
5022,29.296875
5023,33.203125
5024,35.156250
5025,39.062500
5026,41.015625
5027,42.968750
5028,44.921875
5029,48.828125
5030,48.828125
5031,52.734375
5032,54.687500
5033,56.640625
5034,58.593750
5035,62.500000
5036,62.500000
5037,64.453125
5038,68.359375
5039,68.359375
5040,70.312500
5041,74.218750
5042,74.218750
5043,76.171875
5044,78.125000
5045,80.078125
5046,82.031250
5047,83.984375
5048,85.937500
5049,85.937500
5050,87.890625
5051,89.843750
5052,91.796875
5053,93.750000
5054,93.750000
5055,95.703125
5056,97.656250
5057,97.656250
5058,99.609375
5059,99.609375
5060,101.562500
5061,101.562500
5062,103.515625
5063,103.515625
5064,105.468750
5065,105.468750
5066,107.421875
5067,107.421875
5068,107.421875
5069,109.375000
5070,109.375000
5071,109.375000
5072,109.375000
5073,109.375000
5074,111.328125
5075,111.328125
5076,111.328125
5077,111.328125
5078,111.328125
5079,111.328125
5080,111.328125
5081,113.281250
5082,111.328125
5083,111.328125
5084,111.328125
5085,111.328125
5086,111.328125
5087,109.375000
5088,111.328125
5089,109.375000
5090,109.375000
5091,109.375000
5092,107.421875
5093,105.468750
5094,105.468750
5095,105.468750
5096,105.468750
5097,103.515625
5098,103.515625
5099,101.562500
5100,101.562500
5101,99.609375
5102,99.609375
5103,97.656250
5104,97.656250
5105,95.703125
5106,93.750000
5107,93.750000
5108,91.796875
5109,89.843750
5110,87.890625
5111,87.890625
5112,85.937500
5113,83.984375
5114,82.031250
5115,82.031250
5116,80.078125
5117,78.125000
5118,74.218750
5119,74.218750
5120,72.265625
5121,70.312500
5122,68.359375
5123,64.453125
5124,62.500000
5125,60.546875
5126,60.546875
5127,56.640625
5128,54.687500
5129,52.734375
5130,50.781250
5131,48.828125
5132,44.921875
5133,42.968750
5134,41.015625
5135,39.062500
5136,35.156250
5137,33.203125
5138,31.250000
5139,27.343750
5140,25.390625
5141,21.484375
5142,19.531250
5143,15.625000
5144,15.625000
5145,11.718750
5146,9.765625
5147,5.859375
5148,3.906250
5149,0.000000
5150,-1.953125
5151,-5.859375
5152,-7.812500
5153,-11.718750
5154,-13.671875
5155,-17.578125
5156,-19.531250
5157,-21.484375
5158,-25.390625
5159,-27.343750
5160,-31.250000
5161,-35.156250
5162,-37.109375
5163,-39.062500
5164,-42.968750
5165,-44.921875
5166,-48.828125
5167,-50.781250
5168,-54.687500
5169,-56.640625
5170,-58.593750
5171,-62.500000
5172,-64.453125
5173,-68.359375
5174,-70.312500
5175,-72.265625
5176,-76.171875
5177,-78.125000
5178,-80.078125
5179,-82.031250
5180,-85.937500
5181,-87.890625
5182,-89.843750
5183,-91.796875
5184,-93.750000
5185,-97.656250
5186,-99.609375
5187,-101.562500
5188,-103.515625
5189,-105.468750
5190,-107.421875
5191,-109.375000
5192,-111.328125
5193,-113.281250
5194,-115.234375
5195,-115.234375
5196,-119.140625
5197,-119.140625
5198,-121.093750
5199,-123.046875
5200,-125.000000
5201,-125.000000
5202,-126.953125
5203,-128.906250
5204,-128.906250
5205,-130.859375
5206,-132.812500
5207,-132.812500
5208,-132.812500
5209,-134.765625
5210,-134.765625
5211,-134.765625
5212,-136.718750
5213,-136.718750
5214,-138.671875
5215,-138.671875
5216,-138.671875
5217,-138.671875
5218,-138.671875
5219,-140.625000
5220,-140.625000
5221,-140.625000
5222,-140.625000
5223,-140.625000
5224,-138.671875
5225,-138.671875
5226,-138.671875
5227,-138.671875
5228,-138.671875
5229,-138.671875
5230,-138.671875
5231,-136.718750
5232,-136.718750
5233,-134.765625
5234,-134.765625
5235,-132.812500
5236,-132.812500
5237,-130.859375
5238,-128.906250
5239,-128.906250
5240,-126.953125
5241,-126.953125
5242,-125.000000
5243,-123.046875
5244,-123.046875
5245,-121.093750
5246,-119.140625
5247,-117.187500
5248,-115.234375
5249,-113.281250
5250,-111.328125
5251,-109.375000
5252,-107.421875
5253,-105.468750
5254,-103.515625
5255,-101.562500
5256,-99.609375
5257,-97.656250
5258,-95.703125
5259,-91.796875
5260,-89.843750
5261,-87.890625
5262,-85.937500
5263,-83.984375
5264,-82.031250
5265,-78.125000
5266,-76.171875
5267,-74.218750
5268,-70.312500
5269,-68.359375
5270,-64.453125
5271,-62.500000
5272,-60.546875
5273,-56.640625
5274,-54.687500
5275,-52.734375
5276,-50.781250
5277,-46.875000
5278,-42.968750
5279,-41.015625
5280,-39.062500
5281,-35.156250
5282,-33.203125
5283,-29.296875
5284,-25.390625
5285,-23.437500
5286,-21.484375
5287,-17.578125
5288,-15.625000
5289,-11.718750
5290,-9.765625
5291,-7.812500
5292,-3.906250
5293,-1.953125
5294,1.953125
5295,3.906250
5296,7.812500
5297,9.765625
5298,13.671875
5299,15.625000
5300,17.578125
5301,21.484375
5302,23.437500
5303,27.343750
5304,29.296875
5305,31.250000
5306,33.203125
5307,37.109375
5308,39.062500
5309,41.015625
5310,44.921875
5311,46.875000
5312,48.828125
5313,50.781250
5314,52.734375
5315,56.640625
5316,58.593750
5317,60.546875
5318,62.500000
5319,64.453125
5320,66.406250
5321,68.359375
5322,70.312500
5323,72.265625
5324,74.218750
5325,76.171875
5326,78.125000
5327,80.078125
5328,82.031250
5329,83.984375
5330,85.937500
5331,87.890625
5332,87.890625
5333,89.843750
5334,91.796875
5335,91.796875
5336,93.750000
5337,95.703125
5338,95.703125
5339,97.656250
5340,99.609375
5341,99.609375
5342,101.562500
5343,101.562500
5344,103.515625
5345,103.515625
5346,105.468750
5347,105.468750
5348,105.468750
5349,105.468750
5350,107.421875
5351,109.375000
5352,107.421875
5353,109.375000
5354,109.375000
5355,109.375000
5356,111.328125
5357,111.328125
5358,111.328125
5359,111.328125
5360,111.328125
5361,111.328125
5362,111.328125
5363,111.328125
5364,111.328125
5365,111.328125
5366,111.328125
5367,111.328125
5368,111.328125
5369,111.328125
5370,109.375000
5371,109.375000
5372,109.375000
5373,109.375000
5374,107.421875
5375,107.421875
5376,107.421875
5377,105.468750
5378,105.468750
5379,103.515625
5380,103.515625
5381,103.515625
5382,101.562500
5383,101.562500
5384,99.609375
5385,99.609375
5386,97.656250
5387,95.703125
5388,95.703125
5389,93.750000
5390,91.796875
5391,91.796875
5392,89.843750
5393,89.843750
5394,87.890625
5395,85.937500
5396,83.984375
5397,82.031250
5398,80.078125
5399,78.125000
5400,76.171875
5401,76.171875
5402,72.265625
5403,72.265625
5404,68.359375
5405,66.406250
5406,64.453125
5407,62.500000
5408,60.546875
5409,58.593750
5410,54.687500
5411,52.734375
5412,50.781250
5413,48.828125
5414,44.921875
5415,42.968750
5416,41.015625
5417,39.062500
5418,35.156250
5419,33.203125
5420,31.250000
5421,29.296875
5422,25.390625
5423,23.437500
5424,21.484375
5425,17.578125
5426,15.625000
5427,11.718750
5428,9.765625
5429,5.859375
5430,3.906250
5431,0.000000
5432,-1.953125
5433,-7.812500
5434,-7.812500
5435,-9.765625
5436,-13.671875
5437,-15.625000
5438,-19.531250
5439,-21.484375
5440,-25.390625
5441,-27.343750
5442,-29.296875
5443,-33.203125
5444,-35.156250
5445,-39.062500
5446,-41.015625
5447,-44.921875
5448,-46.875000
5449,-50.781250
5450,-52.734375
5451,-54.687500
5452,-58.593750
5453,-60.546875
5454,-64.453125
5455,-66.406250
5456,-68.359375
5457,-72.265625
5458,-74.218750
5459,-78.125000
5460,-80.078125
5461,-82.031250
5462,-83.984375
5463,-85.937500
5464,-87.890625
5465,-91.796875
5466,-93.750000
5467,-95.703125
5468,-97.656250
5469,-101.562500
5470,-103.515625
5471,-105.468750
5472,-107.421875
5473,-109.375000
5474,-111.328125
5475,-113.281250
5476,-115.234375
5477,-115.234375
5478,-117.187500
5479,-119.140625
5480,-121.093750
5481,-123.046875
5482,-123.046875
5483,-125.000000
5484,-126.953125
5485,-128.906250
5486,-128.906250
5487,-130.859375
5488,-132.812500
5489,-132.812500
5490,-134.765625
5491,-134.765625
5492,-134.765625
5493,-136.718750
5494,-136.718750
5495,-136.718750
5496,-138.671875
5497,-138.671875
5498,-138.671875
5499,-138.671875
5500,-138.671875
5501,-140.625000
5502,-140.625000
5503,-138.671875
5504,-140.625000
5505,-140.625000
5506,-140.625000
5507,-138.671875
5508,-138.671875
5509,-138.671875
5510,-138.671875
5511,-138.671875
5512,-136.718750
5513,-136.718750
5514,-136.718750
5515,-134.765625
5516,-134.765625
5517,-132.812500
5518,-132.812500
5519,-130.859375
5520,-128.906250
5521,-128.906250
5522,-128.906250
5523,-126.953125
5524,-125.000000
5525,-123.046875
5526,-123.046875
5527,-121.093750
5528,-119.140625
5529,-117.187500
5530,-115.234375
5531,-113.281250
5532,-111.328125
5533,-111.328125
5534,-109.375000
5535,-107.421875
5536,-103.515625
5537,-101.562500
5538,-99.609375
5539,-97.656250
5540,-95.703125
5541,-93.750000
5542,-91.796875
5543,-89.843750
5544,-85.937500
5545,-83.984375
5546,-82.031250
5547,-80.078125
5548,-76.171875
5549,-74.218750
5550,-72.265625
5551,-68.359375
5552,-66.406250
5553,-64.453125
5554,-60.546875
5555,-58.593750
5556,-56.640625
5557,-52.734375
5558,-50.781250
5559,-46.875000
5560,-44.921875
5561,-41.015625
5562,-39.062500
5563,-35.156250
5564,-33.203125
5565,-31.250000
5566,-27.343750
5567,-23.437500
5568,-21.484375
5569,-19.531250
5570,-15.625000
5571,-13.671875
5572,-9.765625
5573,-5.859375
5574,-3.906250
5575,-1.953125
5576,1.953125
5577,3.906250
5578,7.812500
5579,9.765625
5580,11.718750
5581,15.625000
5582,17.578125
5583,21.484375
5584,23.437500
5585,25.390625
5586,27.343750
5587,31.250000
5588,33.203125
5589,37.109375
5590,39.062500
5591,41.015625
5592,42.968750
5593,46.875000
5594,48.828125
5595,50.781250
5596,52.734375
5597,54.687500
5598,58.593750
5599,60.546875
5600,62.500000
5601,62.500000
5602,66.406250
5603,68.359375
5604,70.312500
5605,72.265625
5606,74.218750
5607,76.171875
5608,78.125000
5609,80.078125
5610,80.078125
5611,82.031250
5612,83.984375
5613,85.937500
5614,87.890625
5615,89.843750
5616,89.843750
5617,91.796875
5618,93.750000
5619,93.750000
5620,95.703125
5621,97.656250
5622,97.656250
5623,99.609375
5624,99.609375
5625,101.562500
5626,101.562500
5627,101.562500
5628,105.468750
5629,105.468750
5630,105.468750
5631,107.421875
5632,107.421875
5633,107.421875
5634,107.421875
5635,109.375000
5636,107.421875
5637,109.375000
5638,109.375000
5639,111.328125
5640,111.328125
5641,111.328125
5642,111.328125
5643,111.328125
5644,111.328125
5645,111.328125
5646,111.328125
5647,111.328125
5648,111.328125
5649,111.328125
5650,111.328125
5651,111.328125
5652,109.375000
5653,109.375000
5654,109.375000
5655,109.375000
5656,109.375000
5657,107.421875
5658,107.421875
5659,105.468750
5660,105.468750
5661,105.468750
5662,103.515625
5663,103.515625
5664,101.562500
5665,101.562500
5666,99.609375
5667,99.609375
5668,97.656250
5669,97.656250
5670,95.703125
5671,93.750000
5672,93.750000
5673,91.796875
5674,89.843750
5675,87.890625
5676,85.937500
5677,85.937500
5678,83.984375
5679,83.984375
5680,80.078125
5681,78.125000
5682,76.171875
5683,76.171875
5684,72.265625
5685,72.265625
5686,68.359375
5687,66.406250
5688,64.453125
5689,62.500000
5690,60.546875
5691,58.593750
5692,56.640625
5693,54.687500
5694,50.781250
5695,48.828125
5696,46.875000
5697,44.921875
5698,41.015625
5699,39.062500
5700,37.109375
5701,33.203125
5702,33.203125
5703,29.296875
5704,27.343750
5705,23.437500
5706,21.484375
5707,17.578125
5708,15.625000
5709,13.671875
5710,11.718750
5711,7.812500
5712,3.906250
5713,1.953125
5714,0.000000
5715,-3.906250
5716,-5.859375
5717,-9.765625
5718,-11.718750
5719,-15.625000
5720,-17.578125
5721,-21.484375
5722,-23.437500
5723,-25.390625
5724,-29.296875
5725,-31.250000
5726,-35.156250
5727,-37.109375
5728,-41.015625
5729,-42.968750
5730,-46.875000
5731,-48.828125
5732,-50.781250
5733,-54.687500
5734,-56.640625
5735,-60.546875
5736,-62.500000
5737,-66.406250
5738,-68.359375
5739,-70.312500
5740,-72.265625
5741,-76.171875
5742,-78.125000
5743,-82.031250
5744,-83.984375
5745,-85.937500
5746,-89.843750
5747,-91.796875
5748,-91.796875
5749,-95.703125
5750,-97.656250
5751,-99.609375
5752,-101.562500
5753,-103.515625
5754,-105.468750
5755,-107.421875
5756,-109.375000
5757,-113.281250
5758,-113.281250
5759,-115.234375
5760,-117.187500
5761,-119.140625
5762,-121.093750
5763,-121.093750
5764,-123.046875
5765,-125.000000
5766,-125.000000
5767,-126.953125
5768,-128.906250
5769,-130.859375
5770,-130.859375
5771,-132.812500
5772,-132.812500
5773,-134.765625
5774,-134.765625
5775,-134.765625
5776,-136.718750
5777,-136.718750
5778,-136.718750
5779,-136.718750
5780,-138.671875
5781,-138.671875
5782,-138.671875
5783,-138.671875
5784,-138.671875
5785,-138.671875
5786,-140.625000
5787,-140.625000
5788,-138.671875
5789,-140.625000
5790,-140.625000
5791,-138.671875
5792,-136.718750
5793,-138.671875
5794,-136.718750
5795,-136.718750
5796,-136.718750
5797,-134.765625
5798,-134.765625
5799,-132.812500
5800,-132.812500
5801,-130.859375
5802,-130.859375
5803,-128.906250
5804,-128.906250
5805,-126.953125
5806,-125.000000
5807,-125.000000
5808,-123.046875
5809,-123.046875
5810,-119.140625
5811,-119.140625
5812,-117.187500
5813,-113.281250
5814,-113.281250
5815,-111.328125
5816,-109.375000
5817,-107.421875
5818,-105.468750
5819,-103.515625
5820,-101.562500
5821,-99.609375
5822,-97.656250
5823,-95.703125
5824,-91.796875
5825,-89.843750
5826,-87.890625
5827,-85.937500
5828,-82.031250
5829,-80.078125
5830,-78.125000
5831,-74.218750
5832,-72.265625
5833,-68.359375
5834,-68.359375
5835,-64.453125
5836,-62.500000
5837,-58.593750
5838,-56.640625
5839,-52.734375
5840,-50.781250
5841,-48.828125
5842,-44.921875
5843,-42.968750
5844,-39.062500
5845,-35.156250
5846,-33.203125
5847,-31.250000
5848,-27.343750
5849,-25.390625
5850,-21.484375
5851,-19.531250
5852,-17.578125
5853,-13.671875
5854,-9.765625
5855,-7.812500
5856,-5.859375
5857,-3.906250
5858,0.000000
5859,1.953125
5860,3.906250
5861,9.765625
5862,11.718750
5863,13.671875
5864,17.578125
5865,19.531250
5866,21.484375
5867,25.390625
5868,27.343750
5869,29.296875
5870,33.203125
5871,35.156250
5872,37.109375
5873,41.015625
5874,42.968750
5875,44.921875
5876,46.875000
5877,48.828125
5878,52.734375
5879,54.687500
5880,56.640625
5881,58.593750
5882,60.546875
5883,62.500000
5884,64.453125
5885,66.406250
5886,68.359375
5887,70.312500
5888,72.265625
5889,74.218750
5890,76.171875
5891,78.125000
5892,80.078125
5893,82.031250
5894,83.984375
5895,85.937500
5896,87.890625
5897,87.890625
5898,89.843750
5899,91.796875
5900,91.796875
5901,93.750000
5902,95.703125
5903,97.656250
5904,97.656250
5905,99.609375
5906,99.609375
5907,101.562500
5908,101.562500
5909,103.515625
5910,105.468750
5911,105.468750
5912,105.468750
5913,105.468750
5914,107.421875
5915,109.375000
5916,109.375000
5917,109.375000
5918,109.375000
5919,109.375000
5920,109.375000
5921,109.375000
5922,111.328125
5923,111.328125
5924,111.328125
5925,111.328125
5926,111.328125
5927,111.328125
5928,113.281250
5929,111.328125
5930,111.328125
5931,111.328125
5932,111.328125
5933,111.328125
5934,109.375000
5935,109.375000
5936,109.375000
5937,109.375000
5938,109.375000
5939,107.421875
5940,107.421875
5941,105.468750
5942,105.468750
5943,105.468750
5944,103.515625
5945,103.515625
5946,101.562500
5947,101.562500
5948,99.609375
5949,99.609375
5950,97.656250
5951,97.656250
5952,95.703125
5953,93.750000
5954,93.750000
5955,91.796875
5956,89.843750
5957,87.890625
5958,87.890625
5959,85.937500
5960,85.937500
5961,83.984375
5962,80.078125
5963,80.078125
5964,78.125000
5965,76.171875
5966,74.218750
5967,72.265625
5968,70.312500
5969,68.359375
5970,66.406250
5971,64.453125
5972,62.500000
5973,58.593750
5974,56.640625
5975,54.687500
5976,52.734375
5977,50.781250
5978,48.828125
5979,46.875000
5980,42.968750
5981,41.015625
5982,39.062500
5983,35.156250
5984,33.203125
5985,31.250000
5986,27.343750
5987,25.390625
5988,23.437500
5989,19.531250
5990,17.578125
5991,13.671875
5992,11.718750
5993,9.765625
5994,5.859375
5995,3.906250
5996,0.000000
5997,-1.953125
5998,-5.859375
5999,-7.812500
6000,-11.718750
6001,-13.671875
6002,-17.578125
6003,-19.531250
6004,-23.437500
6005,-25.390625
6006,-27.343750
6007,-31.250000
6008,-35.156250
6009,-37.109375
6010,-39.062500
6011,-42.968750
6012,-44.921875
6013,-48.828125
6014,-50.781250
6015,-52.734375
6016,-56.640625
6017,-58.593750
6018,-62.500000
6019,-64.453125
6020,-66.406250
6021,-70.312500
6022,-72.265625
6023,-76.171875
6024,-78.125000
6025,-80.078125
6026,-82.031250
6027,-85.937500
6028,-87.890625
6029,-89.843750
6030,-91.796875
6031,-93.750000
6032,-95.703125
6033,-99.609375
6034,-101.562500
6035,-103.515625
6036,-105.468750
6037,-105.468750
6038,-109.375000
6039,-111.328125
6040,-113.281250
6041,-115.234375
6042,-115.234375
6043,-117.187500
6044,-119.140625
6045,-121.093750
6046,-123.046875
6047,-125.000000
6048,-125.000000
6049,-126.953125
6050,-126.953125
6051,-128.906250
6052,-130.859375
6053,-132.812500
6054,-132.812500
6055,-132.812500
6056,-134.765625
6057,-134.765625
6058,-136.718750
6059,-136.718750
6060,-136.718750
6061,-138.671875
6062,-138.671875
6063,-138.671875
6064,-138.671875
6065,-140.625000
6066,-140.625000
6067,-140.625000
6068,-140.625000
6069,-140.625000
6070,-138.671875
6071,-140.625000
6072,-138.671875
6073,-138.671875
6074,-140.625000
6075,-138.671875
6076,-138.671875
6077,-136.718750
6078,-136.718750
6079,-136.718750
6080,-134.765625
6081,-134.765625
6082,-132.812500
6083,-132.812500
6084,-130.859375
6085,-130.859375
6086,-128.906250
6087,-126.953125
6088,-126.953125
6089,-125.000000
6090,-123.046875
6091,-121.093750
6092,-119.140625
6093,-119.140625
6094,-117.187500
6095,-115.234375
6096,-113.281250
6097,-111.328125
6098,-109.375000
6099,-107.421875
6100,-105.468750
6101,-103.515625
6102,-101.562500
6103,-99.609375
6104,-97.656250
6105,-93.750000
6106,-93.750000
6107,-89.843750
6108,-87.890625
6109,-85.937500
6110,-80.078125
6111,-80.078125
6112,-78.125000
6113,-76.171875
6114,-74.218750
6115,-70.312500
6116,-68.359375
6117,-64.453125
6118,-62.500000
6119,-60.546875
6120,-56.640625
6121,-54.687500
6122,-50.781250
6123,-48.828125
6124,-46.875000
6125,-42.968750
6126,-41.015625
6127,-37.109375
6128,-35.156250
6129,-31.250000
6130,-29.296875
6131,-27.343750
6132,-23.437500
6133,-19.531250
6134,-17.578125
6135,-15.625000
6136,-11.718750
6137,-9.765625
6138,-5.859375
6139,-3.906250
6140,0.000000
6141,1.953125
6142,3.906250
6143,7.812500
6144,11.718750
6145,13.671875
6146,15.625000
6147,17.578125
6148,21.484375
6149,23.437500
6150,27.343750
6151,29.296875
6152,31.250000
6153,35.156250
6154,37.109375
6155,39.062500
6156,41.015625
6157,44.921875
6158,46.875000
6159,48.828125
6160,50.781250
6161,52.734375
6162,56.640625
6163,58.593750
6164,60.546875
6165,62.500000
6166,64.453125
6167,66.406250
6168,68.359375
6169,70.312500
6170,74.218750
6171,74.218750
6172,76.171875
6173,78.125000
6174,80.078125
6175,82.031250
6176,83.984375
6177,87.890625
6178,85.937500
6179,87.890625
6180,89.843750
6181,91.796875
6182,91.796875
6183,93.750000
6184,95.703125
6185,97.656250
6186,97.656250
6187,99.609375
6188,99.609375
6189,101.562500
6190,101.562500
6191,103.515625
6192,105.468750
6193,103.515625
6194,105.468750
6195,105.468750
6196,107.421875
6197,107.421875
6198,107.421875
6199,109.375000
6200,109.375000
6201,109.375000
6202,109.375000
6203,111.328125
6204,111.328125
6205,111.328125
6206,111.328125
6207,107.421875
6208,111.328125
6209,107.421875
6210,111.328125
6211,111.328125
6212,111.328125
6213,111.328125
6214,111.328125
6215,111.328125
6216,109.375000
6217,111.328125
6218,111.328125
6219,109.375000
6220,107.421875
6221,107.421875
6222,107.421875
6223,107.421875
6224,101.562500
6225,109.375000
6226,103.515625
6227,105.468750
6228,103.515625
6229,103.515625
6230,101.562500
6231,99.609375
6232,99.609375
6233,97.656250
6234,95.703125
6235,95.703125
6236,93.750000
6237,91.796875
6238,91.796875
6239,89.843750
6240,87.890625
6241,85.937500
6242,83.984375
6243,83.984375
6244,80.078125
6245,80.078125
6246,78.125000
6247,76.171875
6248,74.218750
6249,72.265625
6250,70.312500
6251,68.359375
6252,66.406250
6253,64.453125
6254,62.500000
6255,60.546875
6256,56.640625
6257,54.687500
6258,52.734375
6259,50.781250
6260,48.828125
6261,44.921875
6262,42.968750
6263,41.015625
6264,39.062500
6265,37.109375
6266,33.203125
6267,31.250000
6268,29.296875
6269,25.390625
6270,23.437500
6271,21.484375
6272,17.578125
6273,15.625000
6274,11.718750
6275,9.765625
6276,5.859375
6277,3.906250
6278,1.953125
6279,-1.953125
6280,-5.859375
6281,-7.812500
6282,-9.765625
6283,-13.671875
6284,-15.625000
6285,-19.531250
6286,-21.484375
6287,-23.437500
6288,-27.343750
6289,-31.250000
6290,-33.203125
6291,-35.156250
6292,-39.062500
6293,-41.015625
6294,-44.921875
6295,-46.875000
6296,-48.828125
6297,-52.734375
6298,-54.687500
6299,-58.593750
6300,-60.546875
6301,-64.453125
6302,-66.406250
6303,-68.359375
6304,-70.312500
6305,-74.218750
6306,-78.125000
6307,-80.078125
6308,-82.031250
6309,-83.984375
6310,-85.937500
6311,-89.843750
6312,-91.796875
6313,-93.750000
6314,-95.703125
6315,-97.656250
6316,-101.562500
6317,-101.562500
6318,-105.468750
6319,-105.468750
6320,-109.375000
6321,-111.328125
6322,-111.328125
6323,-115.234375
6324,-115.234375
6325,-117.187500
6326,-119.140625
6327,-121.093750
6328,-123.046875
6329,-125.000000
6330,-125.000000
6331,-126.953125
6332,-128.906250
6333,-128.906250
6334,-130.859375
6335,-132.812500
6336,-132.812500
6337,-132.812500
6338,-134.765625
6339,-134.765625
6340,-136.718750
6341,-136.718750
6342,-136.718750
6343,-138.671875
6344,-138.671875
6345,-138.671875
6346,-138.671875
6347,-140.625000
6348,-138.671875
6349,-140.625000
6350,-138.671875
6351,-138.671875
6352,-140.625000
6353,-138.671875
6354,-140.625000
6355,-138.671875
6356,-138.671875
6357,-138.671875
6358,-136.718750
6359,-136.718750
6360,-136.718750
6361,-134.765625
6362,-134.765625
6363,-134.765625
6364,-132.812500
6365,-130.859375
6366,-130.859375
6367,-130.859375
6368,-128.906250
6369,-126.953125
6370,-126.953125
6371,-125.000000
6372,-125.000000
6373,-121.093750
6374,-121.093750
6375,-119.140625
6376,-119.140625
6377,-115.234375
6378,-113.281250
6379,-113.281250
6380,-111.328125
6381,-107.421875
6382,-107.421875
6383,-105.468750
6384,-101.562500
6385,-99.609375
6386,-97.656250
6387,-95.703125
6388,-93.750000
6389,-91.796875
6390,-89.843750
6391,-85.937500
6392,-83.984375
6393,-82.031250
6394,-80.078125
6395,-76.171875
6396,-74.218750
6397,-72.265625
6398,-70.312500
6399,-66.406250
6400,-64.453125
6401,-60.546875
6402,-58.593750
6403,-54.687500
6404,-52.734375
6405,-48.828125
6406,-46.875000
6407,-44.921875
6408,-41.015625
6409,-39.062500
6410,-35.156250
6411,-33.203125
6412,-31.250000
6413,-27.343750
6414,-23.437500
6415,-23.437500
6416,-19.531250
6417,-15.625000
6418,-13.671875
6419,-9.765625
6420,-7.812500
6421,-3.906250
6422,-1.953125
6423,1.953125
6424,3.906250
6425,5.859375
6426,9.765625
6427,11.718750
6428,15.625000
6429,17.578125
6430,21.484375
6431,23.437500
6432,25.390625
6433,27.343750
6434,29.296875
6435,33.203125
6436,35.156250
6437,39.062500
6438,41.015625
6439,42.968750
6440,44.921875
6441,46.875000
6442,50.781250
6443,52.734375
6444,54.687500
6445,56.640625
6446,58.593750
6447,62.500000
6448,64.453125
6449,66.406250
6450,70.312500
6451,70.312500
6452,72.265625
6453,74.218750
6454,74.218750
6455,78.125000
6456,80.078125
6457,80.078125
6458,82.031250
6459,82.031250
6460,85.937500
6461,87.890625
6462,87.890625
6463,89.843750
6464,91.796875
6465,93.750000
6466,93.750000
6467,95.703125
6468,95.703125
6469,99.609375
6470,99.609375
6471,99.609375
6472,101.562500
6473,101.562500
6474,103.515625
6475,103.515625
6476,105.468750
6477,105.468750
6478,107.421875
6479,107.421875
6480,107.421875
6481,107.421875
6482,109.375000
6483,109.375000
6484,109.375000
6485,109.375000
6486,111.328125
6487,111.328125
6488,111.328125
6489,111.328125
6490,111.328125
6491,111.328125
6492,111.328125
6493,111.328125
6494,111.328125
6495,111.328125
6496,111.328125
6497,111.328125
6498,109.375000
6499,111.328125
6500,109.375000
6501,109.375000
6502,109.375000
6503,107.421875
6504,107.421875
6505,107.421875
6506,105.468750
6507,105.468750
6508,105.468750
6509,103.515625
6510,103.515625
6511,101.562500
6512,101.562500
6513,99.609375
6514,97.656250
6515,97.656250
6516,95.703125
6517,95.703125
6518,93.750000
6519,91.796875
6520,89.843750
6521,89.843750
6522,87.890625
6523,87.890625
6524,85.937500
6525,83.984375
6526,82.031250
6527,80.078125
6528,78.125000
6529,76.171875
6530,74.218750
6531,72.265625
6532,70.312500
6533,68.359375
6534,66.406250
6535,64.453125
6536,62.500000
6537,60.546875
6538,58.593750
6539,56.640625
6540,54.687500
6541,52.734375
6542,50.781250
6543,46.875000
6544,44.921875
6545,42.968750
6546,41.015625
6547,37.109375
6548,35.156250
6549,31.250000
6550,29.296875
6551,27.343750
6552,23.437500
6553,21.484375
6554,19.531250
6555,15.625000
6556,13.671875
6557,11.718750
6558,7.812500
6559,5.859375
6560,1.953125
6561,0.000000
6562,-3.906250
6563,-5.859375
6564,-7.812500
6565,-11.718750
6566,-13.671875
6567,-17.578125
6568,-21.484375
6569,-23.437500
6570,-25.390625
6571,-29.296875
6572,-31.250000
6573,-35.156250
6574,-37.109375
6575,-39.062500
6576,-42.968750
6577,-46.875000
6578,-48.828125
6579,-52.734375
6580,-54.687500
6581,-56.640625
6582,-60.546875
6583,-62.500000
6584,-66.406250
6585,-68.359375
6586,-70.312500
6587,-74.218750
6588,-76.171875
6589,-78.125000
6590,-82.031250
6591,-83.984375
6592,-85.937500
6593,-87.890625
6594,-91.796875
6595,-91.796875
6596,-95.703125
6597,-97.656250
6598,-99.609375
6599,-101.562500
6600,-103.515625
6601,-105.468750
6602,-107.421875
6603,-109.375000
6604,-111.328125
6605,-113.281250
6606,-115.234375
6607,-117.187500
6608,-119.140625
6609,-119.140625
6610,-121.093750
6611,-123.046875
6612,-125.000000
6613,-125.000000
6614,-126.953125
6615,-128.906250
6616,-130.859375
6617,-130.859375
6618,-130.859375
6619,-132.812500
6620,-134.765625
6621,-134.765625
6622,-134.765625
6623,-136.718750
6624,-136.718750
6625,-138.671875
6626,-136.718750
6627,-138.671875
6628,-138.671875
6629,-138.671875
6630,-138.671875
6631,-138.671875
6632,-138.671875
6633,-140.625000
6634,-140.625000
6635,-138.671875
6636,-138.671875
6637,-138.671875
6638,-138.671875
6639,-138.671875
6640,-138.671875
6641,-136.718750
6642,-136.718750
6643,-136.718750
6644,-136.718750
6645,-134.765625
6646,-134.765625
6647,-132.812500
6648,-132.812500
6649,-130.859375
6650,-128.906250
6651,-128.906250
6652,-128.906250
6653,-125.000000
6654,-125.000000
6655,-123.046875
6656,-121.093750
6657,-119.140625
6658,-119.140625
6659,-117.187500
6660,-115.234375
6661,-113.281250
6662,-111.328125
6663,-109.375000
6664,-107.421875
6665,-105.468750
6666,-103.515625
6667,-101.562500
6668,-97.656250
6669,-95.703125
6670,-95.703125
6671,-91.796875
6672,-89.843750
6673,-87.890625
6674,-83.984375
6675,-82.031250
6676,-80.078125
6677,-78.125000
6678,-74.218750
6679,-72.265625
6680,-70.312500
6681,-66.406250
6682,-64.453125
6683,-62.500000
6684,-58.593750
6685,-56.640625
6686,-52.734375
6687,-50.781250
6688,-48.828125
6689,-44.921875
6690,-42.968750
6691,-39.062500
6692,-37.109375
6693,-33.203125
6694,-31.250000
6695,-27.343750
6696,-25.390625
6697,-21.484375
6698,-19.531250
6699,-17.578125
6700,-13.671875
6701,-11.718750
6702,-7.812500
6703,-5.859375
6704,-1.953125
6705,0.000000
6706,1.953125
6707,5.859375
6708,7.812500
6709,11.718750
6710,13.671875
6711,17.578125
6712,19.531250
6713,21.484375
6714,25.390625
6715,27.343750
6716,29.296875
6717,33.203125
6718,35.156250
6719,37.109375
6720,39.062500
6721,42.968750
6722,44.921875
6723,46.875000
6724,48.828125
6725,52.734375
6726,54.687500
6727,56.640625
6728,58.593750
6729,60.546875
6730,62.500000
6731,64.453125
6732,66.406250
6733,70.312500
6734,72.265625
6735,74.218750
6736,74.218750
6737,78.125000
6738,78.125000
6739,80.078125
6740,82.031250
6741,83.984375
6742,85.937500
6743,87.890625
6744,87.890625
6745,89.843750
6746,91.796875
6747,93.750000
6748,93.750000
6749,95.703125
6750,97.656250
6751,97.656250
6752,99.609375
6753,99.609375
6754,101.562500
6755,103.515625
6756,103.515625
6757,103.515625
6758,105.468750
6759,105.468750
6760,105.468750
6761,107.421875
6762,105.468750
6763,109.375000
6764,109.375000
6765,109.375000
6766,109.375000
6767,109.375000
6768,111.328125
6769,111.328125
6770,111.328125
6771,111.328125
6772,111.328125
6773,111.328125
6774,111.328125
6775,111.328125
6776,111.328125
6777,111.328125
6778,111.328125
6779,111.328125
6780,111.328125
6781,109.375000
6782,109.375000
6783,109.375000
6784,109.375000
6785,109.375000
6786,107.421875
6787,107.421875
6788,105.468750
6789,105.468750
6790,105.468750
6791,103.515625
6792,103.515625
6793,103.515625
6794,101.562500
6795,103.515625
6796,97.656250
6797,97.656250
6798,97.656250
6799,95.703125
6800,93.750000
6801,93.750000
6802,91.796875
6803,89.843750
6804,89.843750
6805,87.890625
6806,85.937500
6807,83.984375
6808,82.031250
6809,82.031250
6810,80.078125
6811,78.125000
6812,76.171875
6813,74.218750
6814,72.265625
6815,70.312500
6816,68.359375
6817,66.406250
6818,64.453125
6819,62.500000
6820,60.546875
6821,56.640625
6822,54.687500
6823,52.734375
6824,50.781250
6825,48.828125
6826,44.921875
6827,42.968750
6828,41.015625
6829,39.062500
6830,35.156250
6831,33.203125
6832,31.250000
6833,27.343750
6834,25.390625
6835,21.484375
6836,19.531250
6837,17.578125
6838,13.671875
6839,11.718750
6840,7.812500
6841,5.859375
6842,3.906250
6843,0.000000
6844,-1.953125
6845,-7.812500
6846,-7.812500
6847,-11.718750
6848,-13.671875
6849,-17.578125
6850,-19.531250
6851,-23.437500
6852,-25.390625
6853,-29.296875
6854,-31.250000
6855,-33.203125
6856,-37.109375
6857,-39.062500
6858,-42.968750
6859,-44.921875
6860,-48.828125
6861,-50.781250
6862,-54.687500
6863,-56.640625
6864,-58.593750
6865,-62.500000
6866,-64.453125
6867,-66.406250
6868,-70.312500
6869,-72.265625
6870,-74.218750
6871,-78.125000
6872,-80.078125
6873,-82.031250
6874,-85.937500
6875,-87.890625
6876,-89.843750
6877,-91.796875
6878,-93.750000
6879,-97.656250
6880,-99.609375
6881,-101.562500
6882,-103.515625
6883,-105.468750
6884,-107.421875
6885,-109.375000
6886,-111.328125
6887,-113.281250
6888,-115.234375
6889,-117.187500
6890,-117.187500
6891,-121.093750
6892,-121.093750
6893,-123.046875
6894,-125.000000
6895,-125.000000
6896,-126.953125
6897,-128.906250
6898,-130.859375
6899,-130.859375
6900,-130.859375
6901,-132.812500
6902,-132.812500
6903,-134.765625
6904,-134.765625
6905,-136.718750
6906,-136.718750
6907,-136.718750
6908,-138.671875
6909,-138.671875
6910,-138.671875
6911,-140.625000
6912,-138.671875
6913,-140.625000
6914,-140.625000
6915,-140.625000
6916,-140.625000
6917,-140.625000
6918,-138.671875
6919,-140.625000
6920,-140.625000
6921,-138.671875
6922,-138.671875
6923,-138.671875
6924,-136.718750
6925,-136.718750
6926,-134.765625
6927,-134.765625
6928,-134.765625
6929,-132.812500
6930,-130.859375
6931,-130.859375
6932,-130.859375
6933,-128.906250
6934,-126.953125
6935,-126.953125
6936,-125.000000
6937,-123.046875
6938,-121.093750
6939,-119.140625
6940,-119.140625
6941,-117.187500
6942,-115.234375
6943,-113.281250
6944,-111.328125
6945,-109.375000
6946,-107.421875
6947,-105.468750
6948,-103.515625
6949,-101.562500
6950,-99.609375
6951,-97.656250
6952,-95.703125
6953,-91.796875
6954,-91.796875
6955,-87.890625
6956,-85.937500
6957,-83.984375
6958,-80.078125
6959,-78.125000
6960,-76.171875
6961,-72.265625
6962,-72.265625
6963,-68.359375
6964,-66.406250
6965,-62.500000
6966,-60.546875
6967,-56.640625
6968,-54.687500
6969,-50.781250
6970,-48.828125
6971,-46.875000
6972,-42.968750
6973,-41.015625
6974,-37.109375
6975,-35.156250
6976,-33.203125
6977,-29.296875
6978,-27.343750
6979,-23.437500
6980,-21.484375
6981,-17.578125
6982,-15.625000
6983,-11.718750
6984,-9.765625
6985,-5.859375
6986,-3.906250
6987,0.000000
6988,1.953125
6989,3.906250
6990,7.812500
6991,9.765625
6992,13.671875
6993,15.625000
6994,17.578125
6995,21.484375
6996,23.437500
6997,27.343750
6998,29.296875
6999,31.250000
7000,35.156250
7001,37.109375
7002,39.062500
7003,41.015625
7004,44.921875
7005,46.875000
7006,48.828125
7007,50.781250
7008,54.687500
7009,56.640625
7010,58.593750
7011,60.546875
7012,62.500000
7013,64.453125
7014,66.406250
7015,68.359375
7016,70.312500
7017,72.265625
7018,74.218750
7019,76.171875
7020,78.125000
7021,80.078125
7022,82.031250
7023,83.984375
7024,85.937500
7025,85.937500
7026,87.890625
7027,89.843750
7028,89.843750
7029,91.796875
7030,93.750000
7031,95.703125
7032,95.703125
7033,97.656250
7034,97.656250
7035,99.609375
7036,101.562500
7037,101.562500
7038,101.562500
7039,103.515625
7040,103.515625
7041,105.468750
7042,105.468750
7043,107.421875
7044,107.421875
7045,107.421875
7046,107.421875
7047,109.375000
7048,109.375000
7049,111.328125
7050,109.375000
7051,109.375000
7052,111.328125
7053,111.328125
7054,111.328125
7055,111.328125
7056,111.328125
7057,111.328125
7058,111.328125
7059,111.328125
7060,111.328125
7061,111.328125
7062,111.328125
7063,111.328125
7064,109.375000
7065,109.375000
7066,109.375000
7067,109.375000
7068,107.421875
7069,107.421875
7070,107.421875
7071,105.468750
7072,105.468750
7073,105.468750
7074,103.515625
7075,103.515625
7076,101.562500
7077,101.562500
7078,99.609375
7079,99.609375
7080,97.656250
7081,97.656250
7082,95.703125
7083,93.750000
7084,91.796875
7085,91.796875
7086,89.843750
7087,87.890625
7088,85.937500
7089,83.984375
7090,83.984375
7091,82.031250
7092,80.078125
7093,78.125000
7094,76.171875
7095,74.218750
7096,72.265625
7097,70.312500
7098,68.359375
7099,66.406250
7100,64.453125
7101,62.500000
7102,58.593750
7103,56.640625
7104,54.687500
7105,52.734375
7106,50.781250
7107,48.828125
7108,44.921875
7109,42.968750
7110,41.015625
7111,39.062500
7112,35.156250
7113,33.203125
7114,31.250000
7115,29.296875
7116,25.390625
7117,23.437500
7118,21.484375
7119,17.578125
7120,15.625000
7121,11.718750
7122,9.765625
7123,7.812500
7124,3.906250
7125,1.953125
7126,-1.953125
7127,-3.906250
7128,-7.812500
7129,-9.765625
7130,-13.671875
7131,-15.625000
7132,-17.578125
7133,-21.484375
7134,-23.437500
7135,-27.343750
7136,-29.296875
7137,-33.203125
7138,-35.156250
7139,-39.062500
7140,-41.015625
7141,-44.921875
7142,-46.875000
7143,-50.781250
7144,-52.734375
7145,-56.640625
7146,-58.593750
7147,-60.546875
7148,-62.500000
7149,-66.406250
7150,-68.359375
7151,-72.265625
7152,-74.218750
7153,-76.171875
7154,-80.078125
7155,-82.031250
7156,-83.984375
7157,-85.937500
7158,-89.843750
7159,-91.796875
7160,-93.750000
7161,-95.703125
7162,-97.656250
7163,-99.609375
7164,-103.515625
7165,-105.468750
7166,-107.421875
7167,-109.375000
7168,-109.375000
7169,-113.281250
7170,-115.234375
7171,-117.187500
7172,-117.187500
7173,-119.140625
7174,-121.093750
7175,-123.046875
7176,-125.000000
7177,-125.000000
7178,-126.953125
7179,-128.906250
7180,-128.906250
7181,-130.859375
7182,-132.812500
7183,-132.812500
7184,-132.812500
7185,-134.765625
7186,-134.765625
7187,-136.718750
7188,-136.718750
7189,-138.671875
7190,-138.671875
7191,-138.671875
7192,-138.671875
7193,-138.671875
7194,-138.671875
7195,-138.671875
7196,-140.625000
7197,-140.625000
7198,-138.671875
7199,-140.625000
7200,-138.671875
7201,-138.671875
7202,-138.671875
7203,-138.671875
7204,-138.671875
7205,-138.671875
7206,-136.718750
7207,-136.718750
7208,-136.718750
7209,-134.765625
7210,-134.765625
7211,-132.812500
7212,-132.812500
7213,-132.812500
7214,-130.859375
7215,-128.906250
7216,-128.906250
7217,-126.953125
7218,-125.000000
7219,-123.046875
7220,-123.046875
7221,-121.093750
7222,-119.140625
7223,-117.187500
7224,-115.234375
7225,-115.234375
7226,-113.281250
7227,-111.328125
7228,-109.375000
7229,-107.421875
7230,-103.515625
7231,-103.515625
7232,-101.562500
7233,-99.609375
7234,-95.703125
7235,-93.750000
7236,-91.796875
7237,-89.843750
7238,-85.937500
7239,-83.984375
7240,-82.031250
7241,-80.078125
7242,-78.125000
7243,-74.218750
7244,-72.265625
7245,-68.359375
7246,-66.406250
7247,-62.500000
7248,-60.546875
7249,-58.593750
7250,-56.640625
7251,-52.734375
7252,-50.781250
7253,-46.875000
7254,-44.921875
7255,-41.015625
7256,-39.062500
7257,-35.156250
7258,-33.203125
7259,-29.296875
7260,-27.343750
7261,-25.390625
7262,-21.484375
7263,-19.531250
7264,-15.625000
7265,-13.671875
7266,-9.765625
7267,-7.812500
7268,-3.906250
7269,-1.953125
7270,1.953125
7271,3.906250
7272,7.812500
7273,9.765625
7274,11.718750
7275,13.671875
7276,17.578125
7277,21.484375
7278,23.437500
7279,25.390625
7280,27.343750
7281,31.250000
7282,33.203125
7283,37.109375
7284,39.062500
7285,41.015625
7286,42.968750
7287,44.921875
7288,48.828125
7289,50.781250
7290,52.734375
7291,54.687500
7292,56.640625
7293,58.593750
7294,62.500000
7295,64.453125
7296,66.406250
7297,68.359375
7298,70.312500
7299,72.265625
7300,74.218750
7301,74.218750
7302,76.171875
7303,80.078125
7304,82.031250
7305,82.031250
7306,83.984375
7307,85.937500
7308,87.890625
7309,87.890625
7310,89.843750
7311,91.796875
7312,93.750000
7313,93.750000
7314,95.703125
7315,97.656250
7316,97.656250
7317,99.609375
7318,99.609375
7319,101.562500
7320,103.515625
7321,103.515625
7322,103.515625
7323,105.468750
7324,105.468750
7325,107.421875
7326,107.421875
7327,107.421875
7328,107.421875
7329,109.375000
7330,109.375000
7331,109.375000
7332,109.375000
7333,111.328125
7334,111.328125
7335,111.328125
7336,111.328125
7337,111.328125
7338,111.328125
7339,111.328125
7340,111.328125
7341,111.328125
7342,111.328125
7343,111.328125
7344,111.328125
7345,109.375000
7346,109.375000
7347,109.375000
7348,109.375000
7349,109.375000
7350,107.421875
7351,107.421875
7352,107.421875
7353,105.468750
7354,105.468750
7355,105.468750
7356,103.515625
7357,103.515625
7358,101.562500
7359,101.562500
7360,99.609375
7361,99.609375
7362,97.656250
7363,95.703125
7364,95.703125
7365,93.750000
7366,91.796875
7367,91.796875
7368,89.843750
7369,89.843750
7370,85.937500
7371,85.937500
7372,83.984375
7373,82.031250
7374,80.078125
7375,78.125000
7376,76.171875
7377,76.171875
7378,72.265625
7379,72.265625
7380,68.359375
7381,66.406250
7382,64.453125
7383,62.500000
7384,60.546875
7385,58.593750
7386,56.640625
7387,54.687500
7388,52.734375
7389,48.828125
7390,46.875000
7391,44.921875
7392,42.968750
7393,39.062500
7394,37.109375
7395,35.156250
7396,31.250000
7397,29.296875
7398,27.343750
7399,25.390625
7400,21.484375
7401,19.531250
7402,15.625000
7403,13.671875
7404,11.718750
7405,7.812500
7406,5.859375
7407,1.953125
7408,0.000000
7409,-3.906250
7410,-5.859375
7411,-7.812500
7412,-11.718750
7413,-13.671875
7414,-17.578125
7415,-21.484375
7416,-23.437500
7417,-25.390625
7418,-29.296875
7419,-31.250000
7420,-35.156250
7421,-37.109375
7422,-41.015625
7423,-44.921875
7424,-46.875000
7425,-48.828125
7426,-52.734375
7427,-54.687500
7428,-58.593750
7429,-60.546875
7430,-62.500000
7431,-66.406250
7432,-68.359375
7433,-70.312500
7434,-74.218750
7435,-76.171875
7436,-78.125000
7437,-82.031250
7438,-83.984375
7439,-85.937500
7440,-87.890625
7441,-89.843750
7442,-93.750000
7443,-95.703125
7444,-97.656250
7445,-99.609375
7446,-101.562500
7447,-103.515625
7448,-105.468750
7449,-107.421875
7450,-109.375000
7451,-111.328125
7452,-113.281250
7453,-115.234375
7454,-117.187500
7455,-119.140625
7456,-121.093750
7457,-123.046875
7458,-123.046875
7459,-125.000000
7460,-125.000000
7461,-126.953125
7462,-128.906250
7463,-128.906250
7464,-130.859375
7465,-130.859375
7466,-134.765625
7467,-134.765625
7468,-134.765625
7469,-134.765625
7470,-136.718750
7471,-136.718750
7472,-138.671875
7473,-138.671875
7474,-138.671875
7475,-138.671875
7476,-138.671875
7477,-138.671875
7478,-140.625000
7479,-140.625000
7480,-140.625000
7481,-140.625000
7482,-140.625000
7483,-140.625000
7484,-138.671875
7485,-138.671875
7486,-138.671875
7487,-138.671875
7488,-138.671875
7489,-136.718750
7490,-136.718750
7491,-136.718750
7492,-134.765625
7493,-132.812500
7494,-132.812500
7495,-132.812500
7496,-130.859375
7497,-128.906250
7498,-128.906250
7499,-126.953125
7500,-126.953125
7501,-125.000000
7502,-123.046875
7503,-121.093750
7504,-121.093750
7505,-117.187500
7506,-115.234375
7507,-115.234375
7508,-113.281250
7509,-111.328125
7510,-109.375000
7511,-107.421875
7512,-105.468750
7513,-103.515625
7514,-101.562500
7515,-99.609375
7516,-97.656250
7517,-93.750000
7518,-91.796875
7519,-89.843750
7520,-87.890625
7521,-85.937500
7522,-82.031250
7523,-80.078125
7524,-76.171875
7525,-74.218750
7526,-72.265625
7527,-70.312500
7528,-66.406250
7529,-64.453125
7530,-62.500000
7531,-58.593750
7532,-56.640625
7533,-52.734375
7534,-50.781250
7535,-48.828125
7536,-44.921875
7537,-42.968750
7538,-39.062500
7539,-37.109375
7540,-33.203125
7541,-31.250000
7542,-29.296875
7543,-25.390625
7544,-21.484375
7545,-19.531250
7546,-17.578125
7547,-13.671875
7548,-11.718750
7549,-7.812500
7550,-5.859375
7551,-1.953125
7552,0.000000
7553,1.953125
7554,5.859375
7555,7.812500
7556,11.718750
7557,13.671875
7558,15.625000
7559,19.531250
7560,21.484375
7561,25.390625
7562,27.343750
7563,29.296875
7564,33.203125
7565,35.156250
7566,37.109375
7567,39.062500
7568,42.968750
7569,44.921875
7570,46.875000
7571,48.828125
7572,52.734375
7573,54.687500
7574,56.640625
7575,58.593750
7576,60.546875
7577,64.453125
7578,64.453125
7579,68.359375
7580,70.312500
7581,70.312500
7582,74.218750
7583,76.171875
7584,76.171875
7585,80.078125
7586,80.078125
7587,82.031250
7588,83.984375
7589,85.937500
7590,85.937500
7591,87.890625
7592,89.843750
7593,91.796875
7594,91.796875
7595,93.750000
7596,95.703125
7597,95.703125
7598,97.656250
7599,99.609375
7600,99.609375
7601,101.562500
7602,101.562500
7603,103.515625
7604,105.468750
7605,105.468750
7606,105.468750
7607,105.468750
7608,107.421875
7609,107.421875
7610,107.421875
7611,109.375000
7612,109.375000
7613,109.375000
7614,109.375000
7615,109.375000
7616,109.375000
7617,111.328125
7618,111.328125
7619,111.328125
7620,111.328125
7621,111.328125
7622,111.328125
7623,111.328125
7624,111.328125
7625,111.328125
7626,111.328125
7627,111.328125
7628,109.375000
7629,109.375000
7630,109.375000
7631,109.375000
7632,109.375000
7633,107.421875
7634,107.421875
7635,107.421875
7636,105.468750
7637,105.468750
7638,103.515625
7639,103.515625
7640,103.515625
7641,101.562500
7642,101.562500
7643,99.609375
7644,97.656250
7645,97.656250
7646,95.703125
7647,93.750000
7648,93.750000
7649,91.796875
7650,89.843750
7651,89.843750
7652,87.890625
7653,85.937500
7654,83.984375
7655,82.031250
7656,82.031250
7657,80.078125
7658,78.125000
7659,76.171875
7660,72.265625
7661,72.265625
7662,70.312500
7663,68.359375
7664,66.406250
7665,64.453125
7666,62.500000
7667,58.593750
7668,56.640625
7669,54.687500
7670,52.734375
7671,50.781250
7672,48.828125
7673,44.921875
7674,42.968750
7675,41.015625
7676,37.109375
7677,35.156250
7678,33.203125
7679,31.250000
7680,27.343750
7681,25.390625
7682,21.484375
7683,19.531250
7684,15.625000
7685,13.671875
7686,11.718750
7687,9.765625
7688,5.859375
7689,1.953125
7690,0.000000
7691,-1.953125
7692,-5.859375
7693,-7.812500
7694,-11.718750
7695,-13.671875
7696,-17.578125
7697,-19.531250
7698,-21.484375
7699,-25.390625
7700,-27.343750
7701,-31.250000
7702,-33.203125
7703,-37.109375
7704,-39.062500
7705,-42.968750
7706,-44.921875
7707,-48.828125
7708,-50.781250
7709,-52.734375
7710,-56.640625
7711,-58.593750
7712,-60.546875
7713,-64.453125
7714,-66.406250
7715,-70.312500
7716,-72.265625
7717,-74.218750
7718,-78.125000
7719,-80.078125
7720,-82.031250
7721,-83.984375
7722,-85.937500
7723,-87.890625
7724,-91.796875
7725,-93.750000
7726,-95.703125
7727,-97.656250
7728,-101.562500
7729,-103.515625
7730,-105.468750
7731,-107.421875
7732,-109.375000
7733,-111.328125
7734,-113.281250
7735,-115.234375
7736,-117.187500
7737,-119.140625
7738,-119.140625
7739,-121.093750
7740,-123.046875
7741,-125.000000
7742,-125.000000
7743,-126.953125
7744,-128.906250
7745,-130.859375
7746,-130.859375
7747,-132.812500
7748,-132.812500
7749,-132.812500
7750,-134.765625
7751,-136.718750
7752,-136.718750
7753,-136.718750
7754,-138.671875
7755,-138.671875
7756,-138.671875
7757,-138.671875
7758,-138.671875
7759,-138.671875
7760,-140.625000
7761,-140.625000
7762,-140.625000
7763,-138.671875
7764,-138.671875
7765,-140.625000
7766,-138.671875
7767,-138.671875
7768,-138.671875
7769,-136.718750
7770,-136.718750
7771,-136.718750
7772,-136.718750
7773,-134.765625
7774,-136.718750
7775,-134.765625
7776,-132.812500
7777,-132.812500
7778,-128.906250
7779,-130.859375
7780,-128.906250
7781,-126.953125
7782,-125.000000
7783,-125.000000
7784,-123.046875
7785,-121.093750
7786,-121.093750
7787,-119.140625
7788,-117.187500
7789,-115.234375
7790,-113.281250
7791,-111.328125
7792,-109.375000
7793,-107.421875
7794,-105.468750
7795,-103.515625
7796,-101.562500
7797,-99.609375
7798,-97.656250
7799,-95.703125
7800,-91.796875
7801,-91.796875
7802,-87.890625
7803,-85.937500
7804,-83.984375
7805,-82.031250
7806,-78.125000
7807,-72.265625
7808,-74.218750
7809,-72.265625
7810,-68.359375
7811,-66.406250
7812,-62.500000
7813,-60.546875
7814,-58.593750
7815,-52.734375
7816,-52.734375
7817,-50.781250
7818,-46.875000
7819,-42.968750
7820,-41.015625
7821,-39.062500
7822,-35.156250
7823,-33.203125
7824,-29.296875
7825,-27.343750
7826,-25.390625
7827,-21.484375
7828,-17.578125
7829,-15.625000
7830,-11.718750
7831,-9.765625
7832,-5.859375
7833,-3.906250
7834,0.000000
7835,1.953125
7836,5.859375
7837,7.812500
7838,9.765625
7839,13.671875
7840,17.578125
7841,19.531250
7842,21.484375
7843,23.437500
7844,27.343750
7845,29.296875
7846,33.203125
7847,33.203125
7848,37.109375
7849,39.062500
7850,41.015625
7851,44.921875
7852,46.875000
7853,48.828125
7854,50.781250
7855,52.734375
7856,56.640625
7857,56.640625
7858,60.546875
7859,62.500000
7860,64.453125
7861,66.406250
7862,68.359375
7863,70.312500
7864,72.265625
7865,74.218750
7866,76.171875
7867,78.125000
7868,80.078125
7869,82.031250
7870,82.031250
7871,83.984375
7872,85.937500
7873,87.890625
7874,89.843750
7875,91.796875
7876,91.796875
7877,93.750000
7878,95.703125
7879,95.703125
7880,97.656250
7881,97.656250
7882,99.609375
7883,99.609375
7884,101.562500
7885,101.562500
7886,103.515625
7887,103.515625
7888,105.468750
7889,105.468750
7890,107.421875
7891,107.421875
7892,107.421875
7893,109.375000
7894,109.375000
7895,109.375000
7896,109.375000
7897,109.375000
7898,111.328125
7899,109.375000
7900,111.328125
7901,111.328125
7902,111.328125
7903,111.328125
7904,111.328125
7905,113.281250
7906,111.328125
7907,111.328125
7908,111.328125
7909,111.328125
7910,111.328125
7911,111.328125
7912,109.375000
7913,109.375000
7914,109.375000
7915,107.421875
7916,107.421875
7917,107.421875
7918,105.468750
7919,105.468750
7920,105.468750
7921,103.515625
7922,101.562500
7923,101.562500
7924,101.562500
7925,99.609375
7926,97.656250
7927,97.656250
7928,95.703125
7929,95.703125
7930,91.796875
7931,91.796875
7932,91.796875
7933,89.843750
7934,87.890625
7935,85.937500
7936,83.984375
7937,83.984375
7938,82.031250
7939,80.078125
7940,80.078125
7941,76.171875
7942,74.218750
7943,72.265625
7944,70.312500
7945,68.359375
7946,66.406250
7947,64.453125
7948,62.500000
7949,60.546875
7950,58.593750
7951,54.687500
7952,52.734375
7953,50.781250
7954,48.828125
7955,46.875000
7956,42.968750
7957,41.015625
7958,39.062500
7959,35.156250
7960,33.203125
7961,31.250000
7962,29.296875
7963,27.343750
7964,27.343750
7965,21.484375
7966,17.578125
7967,15.625000
7968,13.671875
7969,9.765625
7970,7.812500
7971,3.906250
7972,1.953125
7973,-1.953125
7974,-3.906250
7975,-5.859375
7976,-9.765625
7977,-13.671875
7978,-15.625000
7979,-17.578125
7980,-21.484375
7981,-23.437500
7982,-27.343750
7983,-29.296875
7984,-33.203125
7985,-35.156250
7986,-39.062500
7987,-41.015625
7988,-44.921875
7989,-46.875000
7990,-48.828125
7991,-52.734375
7992,-54.687500
7993,-58.593750
7994,-60.546875
7995,-64.453125
7996,-66.406250
7997,-70.312500
7998,-72.265625
7999,-74.218750
8000,-78.125000
8001,-80.078125
8002,-82.031250
8003,-83.984375
8004,-85.937500
8005,-89.843750
8006,-91.796875
8007,-93.750000
8008,-97.656250
8009,-99.609375
8010,-101.562500
8011,-103.515625
8012,-105.468750
8013,-107.421875
8014,-109.375000
8015,-111.328125
8016,-113.281250
8017,-115.234375
8018,-115.234375
8019,-117.187500
8020,-119.140625
8021,-121.093750
8022,-123.046875
8023,-123.046875
8024,-125.000000
8025,-126.953125
8026,-126.953125
8027,-128.906250
8028,-130.859375
8029,-130.859375
8030,-132.812500
8031,-134.765625
8032,-134.765625
8033,-134.765625
8034,-134.765625
8035,-136.718750
8036,-136.718750
8037,-136.718750
8038,-138.671875
8039,-138.671875
8040,-138.671875
8041,-140.625000
8042,-140.625000
8043,-140.625000
8044,-140.625000
8045,-138.671875
8046,-138.671875
8047,-138.671875
8048,-138.671875
8049,-140.625000
8050,-138.671875
8051,-138.671875
8052,-138.671875
8053,-136.718750
8054,-136.718750
8055,-134.765625
8056,-134.765625
8057,-134.765625
8058,-134.765625
8059,-132.812500
8060,-130.859375
8061,-130.859375
8062,-130.859375
8063,-128.906250
8064,-126.953125
8065,-125.000000
8066,-125.000000
8067,-123.046875
8068,-121.093750
8069,-119.140625
8070,-117.187500
8071,-115.234375
8072,-115.234375
8073,-113.281250
8074,-111.328125
8075,-109.375000
8076,-107.421875
8077,-105.468750
8078,-103.515625
8079,-99.609375
8080,-97.656250
8081,-95.703125
8082,-93.750000
8083,-93.750000
8084,-89.843750
8085,-87.890625
8086,-83.984375
8087,-82.031250
8088,-80.078125
8089,-76.171875
8090,-74.218750
8091,-72.265625
8092,-70.312500
8093,-66.406250
8094,-64.453125
8095,-60.546875
8096,-58.593750
8097,-56.640625
8098,-52.734375
8099,-50.781250
8100,-46.875000
8101,-44.921875
8102,-41.015625
8103,-37.109375
8104,-35.156250
8105,-33.203125
8106,-29.296875
8107,-27.343750
8108,-25.390625
8109,-21.484375
8110,-19.531250
8111,-15.625000
8112,-11.718750
8113,-11.718750
8114,-5.859375
8115,-3.906250
8116,-1.953125
8117,1.953125
8118,3.906250
8119,5.859375
8120,9.765625
8121,11.718750
8122,15.625000
8123,17.578125
8124,19.531250
8125,23.437500
8126,25.390625
8127,27.343750
8128,31.250000
8129,33.203125
8130,37.109375
8131,39.062500
8132,41.015625
8133,42.968750
8134,44.921875
8135,48.828125
8136,50.781250
8137,52.734375
8138,54.687500
8139,56.640625
8140,60.546875
8141,60.546875
8142,64.453125
8143,66.406250
8144,68.359375
8145,70.312500
8146,72.265625
8147,74.218750
8148,76.171875
8149,78.125000
8150,80.078125
8151,82.031250
8152,82.031250
8153,85.937500
8154,85.937500
8155,87.890625
8156,89.843750
8157,89.843750
8158,91.796875
8159,93.750000
8160,97.656250
8161,95.703125
8162,97.656250
8163,97.656250
8164,99.609375
8165,101.562500
8166,101.562500
8167,103.515625
8168,103.515625
8169,103.515625
8170,105.468750
8171,105.468750
8172,107.421875
8173,107.421875
8174,107.421875
8175,109.375000
8176,109.375000
8177,109.375000
8178,109.375000
8179,109.375000
8180,109.375000
8181,111.328125
8182,111.328125
8183,111.328125
8184,111.328125
8185,111.328125
8186,111.328125
8187,111.328125
8188,111.328125
8189,111.328125
8190,109.375000
8191,109.375000
8192,111.328125
8193,109.375000
8194,109.375000
8195,109.375000
8196,107.421875
8197,109.375000
8198,107.421875
8199,107.421875
8200,105.468750
8201,105.468750
8202,103.515625
8203,103.515625
8204,103.515625
8205,101.562500
8206,101.562500
8207,99.609375
8208,97.656250
8209,97.656250
8210,97.656250
8211,95.703125
8212,93.750000
8213,91.796875
8214,89.843750
8215,89.843750
8216,87.890625
8217,85.937500
8218,85.937500
8219,83.984375
8220,82.031250
8221,80.078125
8222,78.125000
8223,76.171875
8224,74.218750
8225,72.265625
8226,70.312500
8227,70.312500
8228,66.406250
8229,66.406250
8230,62.500000
8231,60.546875
8232,58.593750
8233,56.640625
8234,54.687500
8235,50.781250
8236,48.828125
8237,46.875000
8238,44.921875
8239,42.968750
8240,39.062500
8241,37.109375
8242,35.156250
8243,31.250000
8244,29.296875
8245,27.343750
8246,23.437500
8247,21.484375
8248,19.531250
8249,15.625000
8250,13.671875
8251,9.765625
8252,7.812500
8253,5.859375
8254,1.953125
8255,0.000000
8256,-3.906250
8257,-5.859375
8258,-9.765625
8259,-11.718750
8260,-15.625000
8261,-17.578125
8262,-19.531250
8263,-23.437500
8264,-25.390625
8265,-29.296875
8266,-33.203125
8267,-35.156250
8268,-37.109375
8269,-41.015625
8270,-42.968750
8271,-46.875000
8272,-48.828125
8273,-50.781250
8274,-54.687500
8275,-58.593750
8276,-60.546875
8277,-62.500000
8278,-66.406250
8279,-68.359375
8280,-70.312500
8281,-74.218750
8282,-76.171875
8283,-78.125000
8284,-80.078125
8285,-83.984375
8286,-85.937500
8287,-87.890625
8288,-89.843750
8289,-93.750000
8290,-95.703125
8291,-97.656250
8292,-99.609375
8293,-101.562500
8294,-103.515625
8295,-105.468750
8296,-107.421875
8297,-109.375000
8298,-111.328125
8299,-113.281250
8300,-115.234375
8301,-117.187500
8302,-119.140625
8303,-121.093750
8304,-121.093750
8305,-123.046875
8306,-125.000000
8307,-126.953125
8308,-126.953125
8309,-128.906250
8310,-128.906250
8311,-130.859375
8312,-132.812500
8313,-132.812500
8314,-134.765625
8315,-134.765625
8316,-134.765625
8317,-136.718750
8318,-136.718750
8319,-136.718750
8320,-138.671875
8321,-138.671875
8322,-138.671875
8323,-138.671875
8324,-140.625000
8325,-140.625000
8326,-140.625000
8327,-138.671875
8328,-140.625000
8329,-140.625000
8330,-140.625000
8331,-140.625000
8332,-140.625000
8333,-138.671875
8334,-138.671875
8335,-136.718750
8336,-136.718750
8337,-136.718750
8338,-136.718750
8339,-134.765625
8340,-134.765625
8341,-132.812500
8342,-132.812500
8343,-130.859375
8344,-128.906250
8345,-128.906250
8346,-126.953125
8347,-126.953125
8348,-125.000000
8349,-123.046875
8350,-121.093750
8351,-119.140625
8352,-119.140625
8353,-117.187500
8354,-115.234375
8355,-113.281250
8356,-111.328125
8357,-109.375000
8358,-107.421875
8359,-105.468750
8360,-103.515625
8361,-101.562500
8362,-99.609375
8363,-97.656250
8364,-95.703125
8365,-93.750000
8366,-89.843750
8367,-87.890625
8368,-85.937500
8369,-82.031250
8370,-80.078125
8371,-78.125000
8372,-74.218750
8373,-72.265625
8374,-70.312500
8375,-66.406250
8376,-64.453125
8377,-60.546875
8378,-58.593750
8379,-56.640625
8380,-54.687500
8381,-50.781250
8382,-48.828125
8383,-44.921875
8384,-42.968750
8385,-41.015625
8386,-37.109375
8387,-35.156250
8388,-33.203125
8389,-29.296875
8390,-25.390625
8391,-23.437500
8392,-19.531250
8393,-17.578125
8394,-13.671875
8395,-11.718750
8396,-7.812500
8397,-5.859375
8398,-3.906250
8399,0.000000
8400,1.953125
8401,5.859375
8402,7.812500
8403,9.765625
8404,13.671875
8405,15.625000
8406,19.531250
8407,21.484375
8408,23.437500
8409,27.343750
8410,29.296875
8411,31.250000
8412,35.156250
8413,37.109375
8414,39.062500
8415,42.968750
8416,44.921875
8417,46.875000
8418,48.828125
8419,50.781250
8420,52.734375
8421,56.640625
8422,58.593750
8423,60.546875
8424,62.500000
8425,64.453125
8426,66.406250
8427,70.312500
8428,72.265625
8429,72.265625
8430,74.218750
8431,76.171875
8432,78.125000
8433,80.078125
8434,82.031250
8435,83.984375
8436,85.937500
8437,85.937500
8438,89.843750
8439,89.843750
8440,91.796875
8441,93.750000
8442,93.750000
8443,95.703125
8444,97.656250
8445,97.656250
8446,99.609375
8447,99.609375
8448,101.562500
8449,101.562500
8450,103.515625
8451,103.515625
8452,105.468750
8453,105.468750
8454,105.468750
8455,107.421875
8456,107.421875
8457,107.421875
8458,107.421875
8459,109.375000
8460,109.375000
8461,109.375000
8462,109.375000
8463,109.375000
8464,111.328125
8465,111.328125
8466,111.328125
8467,111.328125
8468,111.328125
8469,111.328125
8470,111.328125
8471,111.328125
8472,111.328125
8473,109.375000
8474,111.328125
8475,109.375000
8476,109.375000
8477,109.375000
8478,109.375000
8479,109.375000
8480,107.421875
8481,105.468750
8482,105.468750
8483,105.468750
8484,105.468750
8485,103.515625
8486,103.515625
8487,101.562500
8488,101.562500
8489,99.609375
8490,99.609375
8491,97.656250
8492,97.656250
8493,95.703125
8494,95.703125
8495,93.750000
8496,91.796875
8497,89.843750
8498,89.843750
8499,87.890625
8500,85.937500
8501,83.984375
8502,83.984375
8503,82.031250
8504,80.078125
8505,78.125000
8506,76.171875
8507,74.218750
8508,72.265625
8509,70.312500
8510,68.359375
8511,64.453125
8512,64.453125
8513,60.546875
8514,58.593750
8515,56.640625
8516,54.687500
8517,52.734375
8518,50.781250
8519,46.875000
8520,44.921875
8521,42.968750
8522,39.062500
8523,39.062500
8524,35.156250
8525,33.203125
8526,29.296875
8527,27.343750
8528,23.437500
8529,21.484375
8530,19.531250
8531,17.578125
8532,13.671875
8533,11.718750
8534,7.812500
8535,5.859375
8536,3.906250
8537,0.000000
8538,-1.953125
8539,-5.859375
8540,-7.812500
8541,-11.718750
8542,-13.671875
8543,-15.625000
8544,-19.531250
8545,-21.484375
8546,-25.390625
8547,-27.343750
8548,-31.250000
8549,-33.203125
8550,-35.156250
8551,-39.062500
8552,-42.968750
8553,-44.921875
8554,-48.828125
8555,-50.781250
8556,-52.734375
8557,-56.640625
8558,-58.593750
8559,-60.546875
8560,-64.453125
8561,-66.406250
8562,-70.312500
8563,-72.265625
8564,-74.218750
8565,-78.125000
8566,-80.078125
8567,-82.031250
8568,-83.984375
8569,-87.890625
8570,-89.843750
8571,-91.796875
8572,-95.703125
8573,-95.703125
8574,-99.609375
8575,-101.562500
8576,-103.515625
8577,-105.468750
8578,-107.421875
8579,-109.375000
8580,-111.328125
8581,-113.281250
8582,-115.234375
8583,-117.187500
8584,-119.140625
8585,-121.093750
8586,-121.093750
8587,-123.046875
8588,-125.000000
8589,-126.953125
8590,-126.953125
8591,-128.906250
8592,-128.906250
8593,-130.859375
8594,-132.812500
8595,-132.812500
8596,-134.765625
8597,-134.765625
8598,-134.765625
8599,-136.718750
8600,-136.718750
8601,-136.718750
8602,-138.671875
8603,-138.671875
8604,-138.671875
8605,-138.671875
8606,-140.625000
8607,-140.625000
8608,-138.671875
8609,-140.625000
8610,-140.625000
8611,-140.625000
8612,-140.625000
8613,-138.671875
8614,-138.671875
8615,-138.671875
8616,-138.671875
8617,-136.718750
8618,-136.718750
8619,-136.718750
8620,-136.718750
8621,-134.765625
8622,-132.812500
8623,-132.812500
8624,-132.812500
8625,-130.859375
8626,-130.859375
8627,-128.906250
8628,-126.953125
8629,-126.953125
8630,-125.000000
8631,-123.046875
8632,-121.093750
8633,-121.093750
8634,-119.140625
8635,-117.187500
8636,-115.234375
8637,-113.281250
8638,-113.281250
8639,-109.375000
8640,-107.421875
8641,-105.468750
8642,-103.515625
8643,-101.562500
8644,-99.609375
8645,-97.656250
8646,-95.703125
8647,-93.750000
8648,-91.796875
8649,-87.890625
8650,-85.937500
8651,-83.984375
8652,-82.031250
8653,-78.125000
8654,-76.171875
8655,-74.218750
8656,-72.265625
8657,-68.359375
8658,-66.406250
8659,-62.500000
8660,-60.546875
8661,-58.593750
8662,-54.687500
8663,-52.734375
8664,-50.781250
8665,-46.875000
8666,-42.968750
8667,-41.015625
8668,-37.109375
8669,-35.156250
8670,-33.203125
8671,-29.296875
8672,-25.390625
8673,-23.437500
8674,-21.484375
8675,-17.578125
8676,-15.625000
8677,-11.718750
8678,-9.765625
8679,-7.812500
8680,-3.906250
8681,-1.953125
8682,1.953125
8683,3.906250
8684,7.812500
8685,9.765625
8686,13.671875
8687,15.625000
8688,17.578125
8689,21.484375
8690,23.437500
8691,27.343750
8692,29.296875
8693,31.250000
8694,33.203125
8695,37.109375
8696,39.062500
8697,41.015625
8698,42.968750
8699,46.875000
8700,48.828125
8701,50.781250
8702,54.687500
8703,54.687500
8704,56.640625
8705,60.546875
8706,62.500000
8707,64.453125
8708,66.406250
8709,68.359375
8710,70.312500
8711,72.265625
8712,74.218750
8713,76.171875
8714,76.171875
8715,80.078125
8716,80.078125
8717,83.984375
8718,85.937500
8719,85.937500
8720,87.890625
8721,89.843750
8722,89.843750
8723,91.796875
8724,93.750000
8725,93.750000
8726,95.703125
8727,97.656250
8728,97.656250
8729,99.609375
8730,101.562500
8731,101.562500
8732,101.562500
8733,103.515625
8734,103.515625
8735,105.468750
8736,105.468750
8737,107.421875
8738,107.421875
8739,107.421875
8740,109.375000
8741,109.375000
8742,109.375000
8743,109.375000
8744,109.375000
8745,111.328125
8746,111.328125
8747,111.328125
8748,111.328125
8749,111.328125
8750,111.328125
8751,111.328125
8752,111.328125
8753,111.328125
8754,111.328125
8755,111.328125
8756,111.328125
8757,111.328125
8758,111.328125
8759,109.375000
8760,109.375000
8761,109.375000
8762,107.421875
8763,107.421875
8764,107.421875
8765,105.468750
8766,105.468750
8767,105.468750
8768,103.515625
8769,103.515625
8770,101.562500
8771,101.562500
8772,99.609375
8773,97.656250
8774,95.703125
8775,95.703125
8776,95.703125
8777,93.750000
8778,91.796875
8779,91.796875
8780,89.843750
8781,87.890625
8782,85.937500
8783,83.984375
8784,83.984375
8785,82.031250
8786,78.125000
8787,78.125000
8788,76.171875
8789,74.218750
8790,72.265625
8791,70.312500
8792,68.359375
8793,66.406250
8794,64.453125
8795,62.500000
8796,60.546875
8797,56.640625
8798,56.640625
8799,52.734375
8800,50.781250
8801,48.828125
8802,46.875000
8803,42.968750
8804,41.015625
8805,39.062500
8806,37.109375
8807,33.203125
8808,31.250000
8809,29.296875
8810,25.390625
8811,23.437500
8812,21.484375
8813,17.578125
8814,15.625000
8815,11.718750
8816,9.765625
8817,7.812500
8818,3.906250
8819,1.953125
8820,-1.953125
8821,-3.906250
8822,-7.812500
8823,-9.765625
8824,-13.671875
8825,-15.625000
8826,-17.578125
8827,-21.484375
8828,-23.437500
8829,-27.343750
8830,-29.296875
8831,-31.250000
8832,-35.156250
8833,-39.062500
8834,-41.015625
8835,-42.968750
8836,-46.875000
8837,-50.781250
8838,-52.734375
8839,-54.687500
8840,-58.593750
8841,-62.500000
8842,-64.453125
8843,-66.406250
8844,-68.359375
8845,-72.265625
8846,-74.218750
8847,-76.171875
8848,-80.078125
8849,-82.031250
8850,-83.984375
8851,-85.937500
8852,-87.890625
8853,-91.796875
8854,-93.750000
8855,-95.703125
8856,-99.609375
8857,-101.562500
8858,-103.515625
8859,-105.468750
8860,-105.468750
8861,-109.375000
8862,-111.328125
8863,-111.328125
8864,-113.281250
8865,-115.234375
8866,-117.187500
8867,-119.140625
8868,-121.093750
8869,-123.046875
8870,-123.046875
8871,-125.000000
8872,-126.953125
8873,-126.953125
8874,-128.906250
8875,-130.859375
8876,-130.859375
8877,-132.812500
8878,-132.812500
8879,-134.765625
8880,-134.765625
8881,-136.718750
8882,-136.718750
8883,-136.718750
8884,-136.718750
8885,-138.671875
8886,-138.671875
8887,-138.671875
8888,-140.625000
8889,-138.671875
8890,-140.625000
8891,-140.625000
8892,-138.671875
8893,-140.625000
8894,-140.625000
8895,-138.671875
8896,-138.671875
8897,-138.671875
8898,-138.671875
8899,-138.671875
8900,-138.671875
8901,-136.718750
8902,-136.718750
8903,-134.765625
8904,-134.765625
8905,-134.765625
8906,-132.812500
8907,-132.812500
8908,-130.859375
8909,-128.906250
8910,-126.953125
8911,-126.953125
8912,-125.000000
8913,-125.000000
8914,-123.046875
8915,-121.093750
8916,-119.140625
8917,-119.140625
8918,-117.187500
8919,-115.234375
8920,-113.281250
8921,-111.328125
8922,-109.375000
8923,-107.421875
8924,-105.468750
8925,-103.515625
8926,-99.609375
8927,-97.656250
8928,-95.703125
8929,-93.750000
8930,-91.796875
8931,-89.843750
8932,-85.937500
8933,-83.984375
8934,-82.031250
8935,-80.078125
8936,-76.171875
8937,-74.218750
8938,-70.312500
8939,-70.312500
8940,-66.406250
8941,-64.453125
8942,-60.546875
8943,-58.593750
8944,-56.640625
8945,-50.781250
8946,-50.781250
8947,-46.875000
8948,-44.921875
8949,-41.015625
8950,-39.062500
8951,-37.109375
8952,-33.203125
8953,-29.296875
8954,-27.343750
8955,-25.390625
8956,-21.484375
8957,-19.531250
8958,-15.625000
8959,-13.671875
8960,-9.765625
8961,-7.812500
8962,-5.859375
8963,-1.953125
8964,0.000000
8965,3.906250
8966,7.812500
8967,7.812500
8968,11.718750
8969,13.671875
8970,17.578125
8971,19.531250
8972,21.484375
8973,25.390625
8974,27.343750
8975,29.296875
8976,33.203125
8977,35.156250
8978,39.062500
8979,41.015625
8980,42.968750
8981,44.921875
8982,46.875000
8983,48.828125
8984,52.734375
8985,54.687500
8986,56.640625
8987,58.593750
8988,62.500000
8989,64.453125
8990,66.406250
8991,68.359375
8992,70.312500
8993,70.312500
8994,74.218750
8995,74.218750
8996,78.125000
8997,80.078125
8998,80.078125
8999,83.984375
9000,83.984375
9001,85.937500
9002,87.890625
9003,87.890625
9004,89.843750
9005,91.796875
9006,93.750000
9007,93.750000
9008,95.703125
9009,97.656250
9010,97.656250
9011,99.609375
9012,99.609375
9013,101.562500
9014,103.515625
9015,103.515625
9016,103.515625
9017,105.468750
9018,105.468750
9019,105.468750
9020,107.421875
9021,107.421875
9022,109.375000
9023,109.375000
9024,109.375000
9025,109.375000
9026,109.375000
9027,111.328125
9028,111.328125
9029,111.328125
9030,111.328125
9031,111.328125
9032,111.328125
9033,111.328125
9034,111.328125
9035,109.375000
9036,111.328125
9037,111.328125
9038,109.375000
9039,111.328125
9040,109.375000
9041,109.375000
9042,109.375000
9043,107.421875
9044,107.421875
9045,107.421875
9046,107.421875
9047,105.468750
9048,105.468750
9049,103.515625
9050,103.515625
9051,103.515625
9052,101.562500
9053,101.562500
9054,99.609375
9055,99.609375
9056,97.656250
9057,95.703125
9058,93.750000
9059,93.750000
9060,91.796875
9061,91.796875
9062,89.843750
9063,87.890625
9064,87.890625
9065,85.937500
9066,83.984375
9067,82.031250
9068,80.078125
9069,78.125000
9070,76.171875
9071,74.218750
9072,72.265625
9073,72.265625
9074,70.312500
9075,66.406250
9076,64.453125
9077,62.500000
9078,60.546875
9079,58.593750
9080,56.640625
9081,54.687500
9082,50.781250
9083,50.781250
9084,46.875000
9085,44.921875
9086,42.968750
9087,39.062500
9088,37.109375
9089,35.156250
9090,31.250000
9091,29.296875
9092,27.343750
9093,25.390625
9094,21.484375
9095,19.531250
9096,17.578125
9097,13.671875
9098,9.765625
9099,7.812500
9100,3.906250
9101,1.953125
9102,0.000000
9103,-3.906250
9104,-5.859375
9105,-9.765625
9106,-11.718750
9107,-15.625000
9108,-17.578125
9109,-21.484375
9110,-23.437500
9111,-25.390625
9112,-29.296875
9113,-33.203125
9114,-35.156250
9115,-37.109375
9116,-41.015625
9117,-42.968750
9118,-46.875000
9119,-48.828125
9120,-50.781250
9121,-54.687500
9122,-58.593750
9123,-60.546875
9124,-62.500000
9125,-66.406250
9126,-68.359375
9127,-70.312500
9128,-72.265625
9129,-76.171875
9130,-78.125000
9131,-80.078125
9132,-83.984375
9133,-85.937500
9134,-87.890625
9135,-89.843750
9136,-93.750000
9137,-95.703125
9138,-97.656250
9139,-99.609375
9140,-101.562500
9141,-103.515625
9142,-105.468750
9143,-107.421875
9144,-109.375000
9145,-111.328125
9146,-113.281250
9147,-115.234375
9148,-117.187500
9149,-117.187500
9150,-121.093750
9151,-121.093750
9152,-123.046875
9153,-125.000000
9154,-126.953125
9155,-126.953125
9156,-128.906250
9157,-130.859375
9158,-130.859375
9159,-132.812500
9160,-134.765625
9161,-134.765625
9162,-134.765625
9163,-136.718750
9164,-136.718750
9165,-136.718750
9166,-136.718750
9167,-138.671875
9168,-138.671875
9169,-138.671875
9170,-140.625000
9171,-138.671875
9172,-140.625000
9173,-140.625000
9174,-140.625000
9175,-140.625000
9176,-138.671875
9177,-140.625000
9178,-138.671875
9179,-138.671875
9180,-138.671875
9181,-138.671875
9182,-138.671875
9183,-136.718750
9184,-136.718750
9185,-136.718750
9186,-134.765625
9187,-134.765625
9188,-132.812500
9189,-132.812500
9190,-130.859375
9191,-130.859375
9192,-128.906250
9193,-126.953125
9194,-125.000000
9195,-125.000000
9196,-123.046875
9197,-121.093750
9198,-119.140625
9199,-119.140625
9200,-117.187500
9201,-115.234375
9202,-113.281250
9203,-111.328125
9204,-109.375000
9205,-107.421875
9206,-105.468750
9207,-103.515625
9208,-101.562500
9209,-99.609375
9210,-97.656250
9211,-95.703125
9212,-91.796875
9213,-89.843750
9214,-87.890625
9215,-85.937500
9216,-82.031250
9217,-80.078125
9218,-78.125000
9219,-74.218750
9220,-72.265625
9221,-70.312500
9222,-68.359375
9223,-64.453125
9224,-62.500000
9225,-60.546875
9226,-56.640625
9227,-54.687500
9228,-50.781250
9229,-48.828125
9230,-46.875000
9231,-42.968750
9232,-39.062500
9233,-37.109375
9234,-35.156250
9235,-33.203125
9236,-29.296875
9237,-25.390625
9238,-23.437500
9239,-21.484375
9240,-17.578125
9241,-13.671875
9242,-11.718750
9243,-9.765625
9244,-5.859375
9245,-3.906250
9246,0.000000
9247,1.953125
9248,5.859375
9249,7.812500
9250,9.765625
9251,13.671875
9252,15.625000
9253,19.531250
9254,21.484375
9255,25.390625
9256,27.343750
9257,29.296875
9258,33.203125
9259,35.156250
9260,37.109375
9261,39.062500
9262,42.968750
9263,44.921875
9264,46.875000
9265,48.828125
9266,52.734375
9267,54.687500
9268,56.640625
9269,58.593750
9270,60.546875
9271,62.500000
9272,64.453125
9273,66.406250
9274,68.359375
9275,70.312500
9276,72.265625
9277,74.218750
9278,78.125000
9279,78.125000
9280,82.031250
9281,82.031250
9282,83.984375
9283,85.937500
9284,85.937500
9285,87.890625
9286,89.843750
9287,91.796875
9288,91.796875
9289,93.750000
9290,95.703125
9291,95.703125
9292,97.656250
9293,97.656250
9294,99.609375
9295,101.562500
9296,101.562500
9297,103.515625
9298,103.515625
9299,105.468750
9300,105.468750
9301,105.468750
9302,107.421875
9303,107.421875
9304,107.421875
9305,109.375000
9306,109.375000
9307,109.375000
9308,109.375000
9309,111.328125
9310,111.328125
9311,109.375000
9312,109.375000
9313,111.328125
9314,111.328125
9315,111.328125
9316,111.328125
9317,111.328125
9318,111.328125
9319,111.328125
9320,111.328125
9321,111.328125
9322,111.328125
9323,109.375000
9324,109.375000
9325,109.375000
9326,107.421875
9327,109.375000
9328,107.421875
9329,107.421875
9330,105.468750
9331,105.468750
9332,105.468750
9333,103.515625
9334,103.515625
9335,101.562500
9336,101.562500
9337,99.609375
9338,97.656250
9339,97.656250
9340,95.703125
9341,93.750000
9342,93.750000
9343,91.796875
9344,89.843750
9345,89.843750
9346,87.890625
9347,85.937500
9348,83.984375
9349,83.984375
9350,82.031250
9351,80.078125
9352,78.125000
9353,76.171875
9354,74.218750
9355,72.265625
9356,70.312500
9357,68.359375
9358,66.406250
9359,64.453125
9360,60.546875
9361,58.593750
9362,56.640625
9363,54.687500
9364,52.734375
9365,50.781250
9366,46.875000
9367,44.921875
9368,42.968750
9369,41.015625
9370,37.109375
9371,35.156250
9372,33.203125
9373,29.296875
9374,27.343750
9375,25.390625
9376,23.437500
9377,19.531250
9378,17.578125
9379,13.671875
9380,11.718750
9381,7.812500
9382,5.859375
9383,1.953125
9384,1.953125
9385,-1.953125
9386,-5.859375
9387,-7.812500
9388,-9.765625
9389,-13.671875
9390,-17.578125
9391,-19.531250
9392,-23.437500
9393,-25.390625
9394,-29.296875
9395,-31.250000
9396,-33.203125
9397,-37.109375
9398,-39.062500
9399,-42.968750
9400,-44.921875
9401,-46.875000
9402,-50.781250
9403,-54.687500
9404,-56.640625
9405,-58.593750
9406,-62.500000
9407,-64.453125
9408,-66.406250
9409,-70.312500
9410,-72.265625
9411,-74.218750
9412,-78.125000
9413,-80.078125
9414,-82.031250
9415,-83.984375
9416,-87.890625
9417,-89.843750
9418,-91.796875
9419,-93.750000
9420,-97.656250
9421,-99.609375
9422,-101.562500
9423,-103.515625
9424,-105.468750
9425,-107.421875
9426,-109.375000
9427,-111.328125
9428,-113.281250
9429,-115.234375
9430,-117.187500
9431,-119.140625
9432,-119.140625
9433,-123.046875
9434,-123.046875
9435,-125.000000
9436,-125.000000
9437,-126.953125
9438,-128.906250
9439,-128.906250
9440,-130.859375
9441,-132.812500
9442,-132.812500
9443,-132.812500
9444,-134.765625
9445,-134.765625
9446,-136.718750
9447,-136.718750
9448,-136.718750
9449,-138.671875
9450,-138.671875
9451,-138.671875
9452,-138.671875
9453,-138.671875
9454,-138.671875
9455,-140.625000
9456,-138.671875
9457,-140.625000
9458,-140.625000
9459,-138.671875
9460,-138.671875
9461,-138.671875
9462,-138.671875
9463,-138.671875
9464,-136.718750
9465,-136.718750
9466,-136.718750
9467,-134.765625
9468,-134.765625
9469,-134.765625
9470,-132.812500
9471,-130.859375
9472,-130.859375
9473,-130.859375
9474,-128.906250
9475,-126.953125
9476,-126.953125
9477,-125.000000
9478,-123.046875
9479,-121.093750
9480,-121.093750
9481,-119.140625
9482,-117.187500
9483,-115.234375
9484,-115.234375
9485,-113.281250
9486,-109.375000
9487,-109.375000
9488,-105.468750
9489,-103.515625
9490,-101.562500
9491,-99.609375
9492,-99.609375
9493,-95.703125
9494,-91.796875
9495,-91.796875
9496,-89.843750
9497,-85.937500
9498,-83.984375
9499,-82.031250
9500,-80.078125
9501,-76.171875
9502,-74.218750
9503,-72.265625
9504,-68.359375
9505,-66.406250
9506,-62.500000
9507,-60.546875
9508,-58.593750
9509,-54.687500
9510,-52.734375
9511,-48.828125
9512,-46.875000
9513,-42.968750
9514,-41.015625
9515,-39.062500
9516,-35.156250
9517,-31.250000
9518,-29.296875
9519,-27.343750
9520,-23.437500
9521,-21.484375
9522,-17.578125
9523,-15.625000
9524,-11.718750
9525,-9.765625
9526,-5.859375
9527,-3.906250
9528,0.000000
9529,1.953125
9530,3.906250
9531,5.859375
9532,9.765625
9533,13.671875
9534,15.625000
9535,17.578125
9536,21.484375
9537,23.437500
9538,25.390625
9539,29.296875
9540,31.250000
9541,35.156250
9542,35.156250
9543,39.062500
9544,42.968750
9545,44.921875
9546,44.921875
9547,48.828125
9548,50.781250
9549,52.734375
9550,54.687500
9551,56.640625
9552,60.546875
9553,64.453125
9554,64.453125
9555,66.406250
9556,68.359375
9557,70.312500
9558,72.265625
9559,74.218750
9560,76.171875
9561,78.125000
9562,80.078125
9563,82.031250
9564,82.031250
9565,83.984375
9566,85.937500
9567,87.890625
9568,89.843750
9569,89.843750
9570,91.796875
9571,93.750000
9572,93.750000
9573,95.703125
9574,97.656250
9575,97.656250
9576,99.609375
9577,99.609375
9578,101.562500
9579,103.515625
9580,103.515625
9581,103.515625
9582,105.468750
9583,107.421875
9584,107.421875
9585,107.421875
9586,107.421875
9587,107.421875
9588,109.375000
9589,109.375000
9590,109.375000
9591,111.328125
9592,111.328125
9593,111.328125
9594,111.328125
9595,111.328125
9596,111.328125
9597,111.328125
9598,111.328125
9599,111.328125
9600,111.328125
9601,111.328125
9602,111.328125
9603,109.375000
9604,109.375000
9605,109.375000
9606,109.375000
9607,109.375000
9608,109.375000
9609,107.421875
9610,109.375000
9611,107.421875
9612,105.468750
9613,105.468750
9614,105.468750
9615,103.515625
9616,101.562500
9617,101.562500
9618,101.562500
9619,99.609375
9620,97.656250
9621,97.656250
9622,97.656250
9623,95.703125
9624,93.750000
9625,91.796875
9626,91.796875
9627,89.843750
9628,87.890625
9629,85.937500
9630,83.984375
9631,83.984375
9632,82.031250
9633,80.078125
9634,78.125000
9635,76.171875
9636,74.218750
9637,70.312500
9638,70.312500
9639,68.359375
9640,66.406250
9641,62.500000
9642,62.500000
9643,60.546875
9644,56.640625
9645,56.640625
9646,54.687500
9647,50.781250
9648,48.828125
9649,46.875000
9650,44.921875
9651,41.015625
9652,39.062500
9653,37.109375
9654,33.203125
9655,31.250000
9656,29.296875
9657,25.390625
9658,23.437500
9659,21.484375
9660,17.578125
9661,15.625000
9662,11.718750
9663,9.765625
9664,5.859375
9665,3.906250
9666,1.953125
9667,0.000000
9668,-3.906250
9669,-5.859375
9670,-9.765625
9671,-11.718750
9672,-15.625000
9673,-19.531250
9674,-21.484375
9675,-25.390625
9676,-27.343750
9677,-31.250000
9678,-33.203125
9679,-35.156250
9680,-39.062500
9681,-42.968750
9682,-42.968750
9683,-46.875000
9684,-48.828125
9685,-52.734375
9686,-54.687500
9687,-58.593750
9688,-60.546875
9689,-62.500000
9690,-66.406250
9691,-68.359375
9692,-72.265625
9693,-74.218750
9694,-76.171875
9695,-78.125000
9696,-82.031250
9697,-83.984375
9698,-89.843750
9699,-89.843750
9700,-91.796875
9701,-93.750000
9702,-95.703125
9703,-95.703125
9704,-99.609375
9705,-101.562500
9706,-107.421875
9707,-107.421875
9708,-109.375000
9709,-111.328125
9710,-111.328125
9711,-113.281250
9712,-115.234375
9713,-117.187500
9714,-119.140625
9715,-121.093750
9716,-123.046875
9717,-123.046875
9718,-125.000000
9719,-126.953125
9720,-128.906250
9721,-128.906250
9722,-130.859375
9723,-130.859375
9724,-132.812500
9725,-132.812500
9726,-134.765625
9727,-134.765625
9728,-136.718750
9729,-136.718750
9730,-136.718750
9731,-138.671875
9732,-138.671875
9733,-138.671875
9734,-138.671875
9735,-140.625000
9736,-140.625000
9737,-140.625000
9738,-140.625000
9739,-140.625000
9740,-140.625000
9741,-140.625000
9742,-140.625000
9743,-138.671875
9744,-140.625000
9745,-138.671875
9746,-138.671875
9747,-136.718750
9748,-134.765625
9749,-136.718750
9750,-134.765625
9751,-134.765625
9752,-132.812500
9753,-132.812500
9754,-130.859375
9755,-130.859375
9756,-130.859375
9757,-128.906250
9758,-126.953125
9759,-125.000000
9760,-126.953125
9761,-123.046875
9762,-121.093750
9763,-119.140625
9764,-119.140625
9765,-117.187500
9766,-115.234375
9767,-113.281250
9768,-111.328125
9769,-109.375000
9770,-107.421875
9771,-103.515625
9772,-103.515625
9773,-101.562500
9774,-97.656250
9775,-97.656250
9776,-93.750000
9777,-91.796875
9778,-89.843750
9779,-87.890625
9780,-85.937500
9781,-82.031250
9782,-80.078125
9783,-78.125000
9784,-74.218750
9785,-70.312500
9786,-68.359375
9787,-66.406250
9788,-64.453125
9789,-60.546875
9790,-58.593750
9791,-54.687500
9792,-52.734375
9793,-50.781250
9794,-48.828125
9795,-44.921875
9796,-41.015625
9797,-39.062500
9798,-37.109375
9799,-33.203125
9800,-29.296875
9801,-29.296875
9802,-25.390625
9803,-21.484375
9804,-19.531250
9805,-15.625000
9806,-13.671875
9807,-9.765625
9808,-7.812500
9809,-5.859375
9810,-1.953125
9811,0.000000
9812,3.906250
9813,5.859375
9814,7.812500
9815,11.718750
9816,13.671875
9817,17.578125
9818,19.531250
9819,23.437500
9820,25.390625
9821,27.343750
9822,29.296875
9823,33.203125
9824,35.156250
9825,37.109375
9826,41.015625
9827,42.968750
9828,46.875000
9829,48.828125
9830,48.828125
9831,52.734375
9832,54.687500
9833,56.640625
9834,58.593750
9835,60.546875
9836,64.453125
9837,66.406250
9838,68.359375
9839,70.312500
9840,72.265625
9841,74.218750
9842,76.171875
9843,76.171875
9844,80.078125
9845,82.031250
9846,82.031250
9847,83.984375
9848,85.937500
9849,87.890625
9850,87.890625
9851,89.843750
9852,91.796875
9853,93.750000
9854,93.750000
9855,95.703125
9856,97.656250
9857,99.609375
9858,99.609375
9859,99.609375
9860,101.562500
9861,103.515625
9862,103.515625
9863,103.515625
9864,105.468750
9865,105.468750
9866,107.421875
9867,107.421875
9868,107.421875
9869,109.375000
9870,109.375000
9871,109.375000
9872,109.375000
9873,109.375000
9874,109.375000
9875,111.328125
9876,109.375000
9877,111.328125
9878,111.328125
9879,111.328125
9880,111.328125
9881,111.328125
9882,111.328125
9883,111.328125
9884,111.328125
9885,111.328125
9886,109.375000
9887,109.375000
9888,109.375000
9889,109.375000
9890,109.375000
9891,107.421875
9892,107.421875
9893,107.421875
9894,105.468750
9895,105.468750
9896,103.515625
9897,103.515625
9898,103.515625
9899,101.562500
9900,101.562500
9901,99.609375
9902,99.609375
9903,97.656250
9904,97.656250
9905,95.703125
9906,97.656250
9907,93.750000
9908,91.796875
9909,93.750000
9910,85.937500
9911,87.890625
9912,85.937500
9913,80.078125
9914,82.031250
9915,80.078125
9916,80.078125
9917,76.171875
9918,74.218750
9919,74.218750
9920,72.265625
9921,70.312500
9922,66.406250
9923,64.453125
9924,62.500000
9925,60.546875
9926,58.593750
9927,56.640625
9928,54.687500
9929,50.781250
9930,48.828125
9931,46.875000
9932,42.968750
9933,42.968750
9934,39.062500
9935,37.109375
9936,35.156250
9937,33.203125
9938,29.296875
9939,27.343750
9940,23.437500
9941,21.484375
9942,21.484375
9943,15.625000
9944,11.718750
9945,9.765625
9946,7.812500
9947,3.906250
9948,1.953125
9949,0.000000
9950,-3.906250
9951,-5.859375
9952,-7.812500
9953,-11.718750
9954,-15.625000
9955,-17.578125
9956,-21.484375
9957,-23.437500
9958,-25.390625
9959,-29.296875
9960,-33.203125
9961,-35.156250
9962,-37.109375
9963,-41.015625
9964,-42.968750
9965,-46.875000
9966,-48.828125
9967,-50.781250
9968,-54.687500
9969,-56.640625
9970,-58.593750
9971,-62.500000
9972,-64.453125
9973,-68.359375
9974,-70.312500
9975,-72.265625
9976,-76.171875
9977,-78.125000
9978,-80.078125
9979,-83.984375
9980,-85.937500
9981,-87.890625
9982,-91.796875
9983,-91.796875
9984,-95.703125
9985,-97.656250
9986,-99.609375
9987,-101.562500
9988,-103.515625
9989,-105.468750
9990,-107.421875
9991,-109.375000
9992,-111.328125
9993,-113.281250
9994,-115.234375
9995,-117.187500
9996,-119.140625
9997,-121.093750
9998,-121.093750
9999,-123.046875
10000,-125.000000
