Channel              :,CH1
Frequency            :,858.4Hz
Period               :,1.165ms
PK-PK                :,207.0mV
Probe attenuation    :,1X
Voltage per ADC value:,0.122070mV
Time interval        :,2.00000us

index,CH1_Voltage(mV)
1,48.828125
2,48.828125
3,46.875000
4,46.875000
5,44.921875
6,42.968750
7,42.968750
8,42.968750
9,41.015625
10,41.015625
11,39.062500
12,39.062500
13,37.109375
14,37.109375
15,35.156250
16,35.156250
17,33.203125
18,33.203125
19,31.250000
20,29.296875
21,29.296875
22,29.296875
23,27.343750
24,27.343750
25,25.390625
26,25.390625
27,23.437500
28,21.484375
29,21.484375
30,19.531250
31,19.531250
32,17.578125
33,17.578125
34,15.625000
35,15.625000
36,13.671875
37,13.671875
38,11.718750
39,9.765625
40,9.765625
41,7.812500
42,7.812500
43,5.859375
44,5.859375
45,3.906250
46,3.906250
47,1.953125
48,1.953125
49,0.000000
50,0.000000
51,-1.953125
52,-1.953125
53,-3.906250
54,-3.906250
55,-5.859375
56,-5.859375
57,-7.812500
58,-9.765625
59,-9.765625
60,-11.718750
61,-11.718750
62,-11.718750
63,-13.671875
64,-15.625000
65,-15.625000
66,-17.578125
67,-19.531250
68,-19.531250
69,-19.531250
70,-21.484375
71,-21.484375
72,-23.437500
73,-25.390625
74,-25.390625
75,-27.343750
76,-27.343750
77,-29.296875
78,-29.296875
79,-31.250000
80,-31.250000
81,-33.203125
82,-33.203125
83,-35.156250
84,-35.156250
85,-37.109375
86,-37.109375
87,-39.062500
88,-39.062500
89,-41.015625
90,-42.968750
91,-42.968750
92,-44.921875
93,-44.921875
94,-46.875000
95,-46.875000
96,-48.828125
97,-48.828125
98,-50.781250
99,-50.781250
100,-52.734375
101,-52.734375
102,-54.687500
103,-54.687500
104,-56.640625
105,-56.640625
106,-58.593750
107,-58.593750
108,-60.546875
109,-60.546875
110,-62.500000
111,-62.500000
112,-64.453125
113,-64.453125
114,-64.453125
115,-66.406250
116,-66.406250
117,-68.359375
118,-68.359375
119,-70.312500
120,-70.312500
121,-72.265625
122,-72.265625
123,-72.265625
124,-74.218750
125,-74.218750
126,-76.171875
127,-76.171875
128,-76.171875
129,-78.125000
130,-78.125000
131,-78.125000
132,-80.078125
133,-80.078125
134,-82.031250
135,-82.031250
136,-83.984375
137,-83.984375
138,-83.984375
139,-83.984375
140,-85.937500
141,-85.937500
142,-87.890625
143,-87.890625
144,-89.843750
145,-87.890625
146,-89.843750
147,-89.843750
148,-91.796875
149,-91.796875
150,-91.796875
151,-93.750000
152,-93.750000
153,-93.750000
154,-95.703125
155,-95.703125
156,-95.703125
157,-95.703125
158,-97.656250
159,-97.656250
160,-97.656250
161,-97.656250
162,-99.609375
163,-99.609375
164,-99.609375
165,-99.609375
166,-99.609375
167,-101.562500
168,-101.562500
169,-101.562500
170,-101.562500
171,-101.562500
172,-101.562500
173,-103.515625
174,-103.515625
175,-103.515625
176,-103.515625
177,-103.515625
178,-103.515625
179,-103.515625
180,-105.468750
181,-105.468750
182,-105.468750
183,-105.468750
184,-105.468750
185,-105.468750
186,-105.468750
187,-105.468750
188,-105.468750
189,-105.468750
190,-105.468750
191,-105.468750
192,-107.421875
193,-107.421875
194,-107.421875
195,-107.421875
196,-107.421875
197,-107.421875
198,-105.468750
199,-107.421875
200,-107.421875
201,-107.421875
202,-107.421875
203,-105.468750
204,-105.468750
205,-105.468750
206,-105.468750
207,-107.421875
208,-107.421875
209,-107.421875
210,-105.468750
211,-105.468750
212,-105.468750
213,-105.468750
214,-105.468750
215,-105.468750
216,-105.468750
217,-105.468750
218,-105.468750
219,-105.468750
220,-103.515625
221,-103.515625
222,-103.515625
223,-103.515625
224,-103.515625
225,-103.515625
226,-103.515625
227,-103.515625
228,-101.562500
229,-101.562500
230,-101.562500
231,-103.515625
232,-101.562500
233,-101.562500
234,-99.609375
235,-99.609375
236,-99.609375
237,-99.609375
238,-99.609375
239,-99.609375
240,-99.609375
241,-97.656250
242,-97.656250
243,-97.656250
244,-95.703125
245,-95.703125
246,-95.703125
247,-95.703125
248,-95.703125
249,-93.750000
250,-93.750000
251,-93.750000
252,-91.796875
253,-93.750000
254,-91.796875
255,-91.796875
256,-91.796875
257,-89.843750
258,-89.843750
259,-89.843750
260,-89.843750
261,-87.890625
262,-87.890625
263,-87.890625
264,-85.937500
265,-85.937500
266,-83.984375
267,-83.984375
268,-83.984375
269,-83.984375
270,-83.984375
271,-82.031250
272,-82.031250
273,-80.078125
274,-80.078125
275,-80.078125
276,-78.125000
277,-78.125000
278,-78.125000
279,-76.171875
280,-76.171875
281,-76.171875
282,-74.218750
283,-74.218750
284,-72.265625
285,-72.265625
286,-72.265625
287,-70.312500
288,-70.312500
289,-70.312500
290,-68.359375
291,-68.359375
292,-66.406250
293,-66.406250
294,-64.453125
295,-64.453125
296,-62.500000
297,-62.500000
298,-62.500000
299,-60.546875
300,-58.593750
301,-58.593750
302,-58.593750
303,-56.640625
304,-56.640625
305,-54.687500
306,-54.687500
307,-52.734375
308,-52.734375
309,-50.781250
310,-50.781250
311,-48.828125
312,-48.828125
313,-46.875000
314,-46.875000
315,-44.921875
316,-44.921875
317,-42.968750
318,-41.015625
319,-41.015625
320,-41.015625
321,-39.062500
322,-39.062500
323,-37.109375
324,-35.156250
325,-35.156250
326,-35.156250
327,-33.203125
328,-31.250000
329,-31.250000
330,-29.296875
331,-29.296875
332,-27.343750
333,-27.343750
334,-25.390625
335,-23.437500
336,-23.437500
337,-23.437500
338,-21.484375
339,-19.531250
340,-19.531250
341,-17.578125
342,-17.578125
343,-15.625000
344,-13.671875
345,-13.671875
346,-11.718750
347,-11.718750
348,-9.765625
349,-9.765625
350,-7.812500
351,-5.859375
352,-5.859375
353,-5.859375
354,-3.906250
355,-1.953125
356,-1.953125
357,0.000000
358,0.000000
359,1.953125
360,1.953125
361,3.906250
362,5.859375
363,5.859375
364,7.812500
365,7.812500
366,9.765625
367,9.765625
368,11.718750
369,11.718750
370,13.671875
371,15.625000
372,15.625000
373,17.578125
374,17.578125
375,17.578125
376,19.531250
377,21.484375
378,21.484375
379,23.437500
380,23.437500
381,25.390625
382,27.343750
383,27.343750
384,29.296875
385,29.296875
386,31.250000
387,31.250000
388,33.203125
389,33.203125
390,35.156250
391,35.156250
392,37.109375
393,37.109375
394,39.062500
395,41.015625
396,41.015625
397,41.015625
398,42.968750
399,42.968750
400,44.921875
401,44.921875
402,46.875000
403,46.875000
404,48.828125
405,48.828125
406,50.781250
407,50.781250
408,50.781250
409,52.734375
410,54.687500
411,54.687500
412,54.687500
413,56.640625
414,56.640625
415,58.593750
416,58.593750
417,58.593750
418,60.546875
419,60.546875
420,62.500000
421,62.500000
422,64.453125
423,64.453125
424,64.453125
425,66.406250
426,66.406250
427,68.359375
428,68.359375
429,70.312500
430,70.312500
431,70.312500
432,72.265625
433,72.265625
434,72.265625
435,74.218750
436,74.218750
437,74.218750
438,76.171875
439,76.171875
440,76.171875
441,78.125000
442,78.125000
443,78.125000
444,80.078125
445,80.078125
446,80.078125
447,82.031250
448,82.031250
449,82.031250
450,83.984375
451,83.984375
452,83.984375
453,83.984375
454,85.937500
455,85.937500
456,85.937500
457,87.890625
458,85.937500
459,87.890625
460,87.890625
461,87.890625
462,89.843750
463,89.843750
464,89.843750
465,89.843750
466,89.843750
467,89.843750
468,89.843750
469,91.796875
470,91.796875
471,91.796875
472,91.796875
473,91.796875
474,91.796875
475,93.750000
476,91.796875
477,91.796875
478,93.750000
479,93.750000
480,93.750000
481,93.750000
482,93.750000
483,93.750000
484,93.750000
485,93.750000
486,95.703125
487,93.750000
488,93.750000
489,93.750000
490,93.750000
491,95.703125
492,93.750000
493,93.750000
494,93.750000
495,95.703125
496,95.703125
497,95.703125
498,93.750000
499,93.750000
500,93.750000
501,93.750000
502,93.750000
503,93.750000
504,93.750000
505,93.750000
506,93.750000
507,93.750000
508,93.750000
509,93.750000
510,93.750000
511,93.750000
512,91.796875
513,93.750000
514,91.796875
515,91.796875
516,91.796875
517,91.796875
518,91.796875
519,89.843750
520,91.796875
521,89.843750
522,89.843750
523,89.843750
524,89.843750
525,87.890625
526,89.843750
527,87.890625
528,87.890625
529,87.890625
530,85.937500
531,85.937500
532,85.937500
533,85.937500
534,85.937500
535,83.984375
536,83.984375
537,83.984375
538,83.984375
539,82.031250
540,82.031250
541,80.078125
542,80.078125
543,80.078125
544,80.078125
545,78.125000
546,78.125000
547,76.171875
548,76.171875
549,76.171875
550,76.171875
551,74.218750
552,74.218750
553,74.218750
554,72.265625
555,72.265625
556,70.312500
557,70.312500
558,70.312500
559,68.359375
560,68.359375
561,68.359375
562,66.406250
563,66.406250
564,66.406250
565,64.453125
566,62.500000
567,62.500000
568,64.453125
569,60.546875
570,60.546875
571,60.546875
572,58.593750
573,58.593750
574,56.640625
575,56.640625
576,54.687500
577,56.640625
578,54.687500
579,54.687500
580,52.734375
581,50.781250
582,50.781250
583,48.828125
584,48.828125
585,48.828125
586,46.875000
587,44.921875
588,44.921875
589,44.921875
590,42.968750
591,42.968750
592,41.015625
593,41.015625
594,39.062500
595,39.062500
596,37.109375
597,37.109375
598,35.156250
599,35.156250
600,33.203125
601,33.203125
602,31.250000
603,31.250000
604,29.296875
605,27.343750
606,27.343750
607,27.343750
608,25.390625
609,23.437500
610,23.437500
611,21.484375
612,21.484375
613,19.531250
614,19.531250
615,17.578125
616,17.578125
617,15.625000
618,13.671875
619,13.671875
620,11.718750
621,13.671875
622,11.718750
623,9.765625
624,7.812500
625,7.812500
626,5.859375
627,3.906250
628,3.906250
629,1.953125
630,1.953125
631,1.953125
632,0.000000
633,0.000000
634,-1.953125
635,-3.906250
636,-3.906250
637,-5.859375
638,-5.859375
639,-7.812500
640,-7.812500
641,-9.765625
642,-9.765625
643,-11.718750
644,-13.671875
645,-13.671875
646,-13.671875
647,-15.625000
648,-17.578125
649,-17.578125
650,-17.578125
651,-19.531250
652,-21.484375
653,-21.484375
654,-23.437500
655,-23.437500
656,-25.390625
657,-25.390625
658,-27.343750
659,-29.296875
660,-29.296875
661,-29.296875
662,-31.250000
663,-33.203125
664,-33.203125
665,-33.203125
666,-35.156250
667,-37.109375
668,-37.109375
669,-39.062500
670,-41.015625
671,-41.015625
672,-41.015625
673,-42.968750
674,-44.921875
675,-44.921875
676,-44.921875
677,-46.875000
678,-46.875000
679,-48.828125
680,-50.781250
681,-50.781250
682,-50.781250
683,-52.734375
684,-54.687500
685,-54.687500
686,-56.640625
687,-56.640625
688,-58.593750
689,-58.593750
690,-60.546875
691,-60.546875
692,-62.500000
693,-62.500000
694,-62.500000
695,-62.500000
696,-64.453125
697,-66.406250
698,-66.406250
699,-68.359375
700,-68.359375
701,-70.312500
702,-70.312500
703,-70.312500
704,-72.265625
705,-74.218750
706,-74.218750
707,-74.218750
708,-74.218750
709,-76.171875
710,-76.171875
711,-78.125000
712,-78.125000
713,-78.125000
714,-80.078125
715,-82.031250
716,-82.031250
717,-82.031250
718,-82.031250
719,-83.984375
720,-85.937500
721,-85.937500
722,-85.937500
723,-85.937500
724,-87.890625
725,-87.890625
726,-87.890625
727,-89.843750
728,-89.843750
729,-89.843750
730,-91.796875
731,-91.796875
732,-91.796875
733,-93.750000
734,-93.750000
735,-93.750000
736,-95.703125
737,-95.703125
738,-95.703125
739,-95.703125
740,-97.656250
741,-97.656250
742,-97.656250
743,-97.656250
744,-99.609375
745,-99.609375
746,-99.609375
747,-99.609375
748,-101.562500
749,-101.562500
750,-101.562500
751,-101.562500
752,-101.562500
753,-103.515625
754,-103.515625
755,-103.515625
756,-103.515625
757,-103.515625
758,-103.515625
759,-103.515625
760,-103.515625
761,-105.468750
762,-105.468750
763,-105.468750
764,-105.468750
765,-105.468750
766,-105.468750
767,-105.468750
768,-105.468750
769,-107.421875
770,-107.421875
771,-107.421875
772,-105.468750
773,-107.421875
774,-107.421875
775,-107.421875
776,-107.421875
777,-107.421875
778,-107.421875
779,-107.421875
780,-107.421875
781,-107.421875
782,-107.421875
783,-107.421875
784,-107.421875
785,-107.421875
786,-107.421875
787,-107.421875
788,-107.421875
789,-107.421875
790,-107.421875
791,-107.421875
792,-105.468750
793,-105.468750
794,-107.421875
795,-105.468750
796,-105.468750
797,-105.468750
798,-105.468750
799,-105.468750
800,-105.468750
801,-105.468750
802,-105.468750
803,-103.515625
804,-105.468750
805,-105.468750
806,-107.421875
807,-103.515625
808,-103.515625
809,-103.515625
810,-103.515625
811,-103.515625
812,-101.562500
813,-103.515625
814,-101.562500
815,-101.562500
816,-101.562500
817,-101.562500
818,-99.609375
819,-99.609375
820,-101.562500
821,-101.562500
822,-99.609375
823,-99.609375
824,-97.656250
825,-97.656250
826,-97.656250
827,-97.656250
828,-95.703125
829,-95.703125
830,-95.703125
831,-95.703125
832,-93.750000
833,-93.750000
834,-93.750000
835,-93.750000
836,-93.750000
837,-91.796875
838,-91.796875
839,-91.796875
840,-89.843750
841,-89.843750
842,-89.843750
843,-89.843750
844,-87.890625
845,-87.890625
846,-87.890625
847,-87.890625
848,-85.937500
849,-85.937500
850,-83.984375
851,-83.984375
852,-83.984375
853,-83.984375
854,-82.031250
855,-82.031250
856,-80.078125
857,-80.078125
858,-80.078125
859,-78.125000
860,-78.125000
861,-78.125000
862,-76.171875
863,-76.171875
864,-76.171875
865,-74.218750
866,-74.218750
867,-72.265625
868,-72.265625
869,-72.265625
870,-70.312500
871,-70.312500
872,-68.359375
873,-68.359375
874,-66.406250
875,-66.406250
876,-66.406250
877,-66.406250
878,-64.453125
879,-62.500000
880,-62.500000
881,-62.500000
882,-60.546875
883,-60.546875
884,-58.593750
885,-56.640625
886,-56.640625
887,-56.640625
888,-54.687500
889,-52.734375
890,-52.734375
891,-52.734375
892,-50.781250
893,-50.781250
894,-48.828125
895,-48.828125
896,-46.875000
897,-46.875000
898,-44.921875
899,-44.921875
900,-42.968750
901,-41.015625
902,-41.015625
903,-41.015625
904,-39.062500
905,-39.062500
906,-37.109375
907,-35.156250
908,-35.156250
909,-33.203125
910,-33.203125
911,-31.250000
912,-29.296875
913,-29.296875
914,-27.343750
915,-27.343750
916,-25.390625
917,-25.390625
918,-23.437500
919,-23.437500
920,-21.484375
921,-21.484375
922,-19.531250
923,-19.531250
924,-17.578125
925,-15.625000
926,-15.625000
927,-13.671875
928,-13.671875
929,-11.718750
930,-11.718750
931,-9.765625
932,-7.812500
933,-7.812500
934,-5.859375
935,-5.859375
936,-3.906250
937,-3.906250
938,-1.953125
939,-1.953125
940,0.000000
941,1.953125
942,1.953125
943,3.906250
944,3.906250
945,5.859375
946,5.859375
947,7.812500
948,9.765625
949,9.765625
950,11.718750
951,11.718750
952,13.671875
953,13.671875
954,15.625000
955,15.625000
956,17.578125
957,19.531250
958,19.531250
959,21.484375
960,21.484375
961,23.437500
962,23.437500
963,27.343750
964,25.390625
965,27.343750
966,27.343750
967,29.296875
968,31.250000
969,31.250000
970,31.250000
971,33.203125
972,35.156250
973,35.156250
974,37.109375
975,37.109375
976,39.062500
977,39.062500
978,41.015625
979,41.015625
980,42.968750
981,42.968750
982,44.921875
983,44.921875
984,44.921875
985,46.875000
986,48.828125
987,48.828125
988,48.828125
989,50.781250
990,50.781250
991,52.734375
992,52.734375
993,52.734375
994,54.687500
995,56.640625
996,54.687500
997,56.640625
998,58.593750
999,60.546875
1000,60.546875
1001,60.546875
1002,62.500000
1003,62.500000
1004,62.500000
1005,64.453125
1006,64.453125
1007,66.406250
1008,66.406250
1009,66.406250
1010,68.359375
1011,68.359375
1012,70.312500
1013,70.312500
1014,72.265625
1015,72.265625
1016,72.265625
1017,74.218750
1018,74.218750
1019,74.218750
1020,76.171875
1021,76.171875
1022,76.171875
1023,78.125000
1024,78.125000
1025,78.125000
1026,80.078125
1027,80.078125
1028,80.078125
1029,82.031250
1030,82.031250
1031,82.031250
1032,82.031250
1033,83.984375
1034,83.984375
1035,83.984375
1036,85.937500
1037,85.937500
1038,85.937500
1039,85.937500
1040,87.890625
1041,87.890625
1042,87.890625
1043,87.890625
1044,87.890625
1045,89.843750
1046,89.843750
1047,89.843750
1048,89.843750
1049,89.843750
1050,91.796875
1051,91.796875
1052,91.796875
1053,91.796875
1054,91.796875
1055,91.796875
1056,91.796875
1057,91.796875
1058,93.750000
1059,93.750000
1060,93.750000
1061,93.750000
1062,93.750000
1063,93.750000
1064,93.750000
1065,93.750000
1066,93.750000
1067,93.750000
1068,93.750000
1069,93.750000
1070,95.703125
1071,93.750000
1072,95.703125
1073,93.750000
1074,95.703125
1075,95.703125
1076,95.703125
1077,95.703125
1078,95.703125
1079,95.703125
1080,93.750000
1081,95.703125
1082,95.703125
1083,93.750000
1084,93.750000
1085,95.703125
1086,95.703125
1087,95.703125
1088,93.750000
1089,93.750000
1090,93.750000
1091,93.750000
1092,93.750000
1093,93.750000
1094,93.750000
1095,93.750000
1096,93.750000
1097,91.796875
1098,91.796875
1099,91.796875
1100,91.796875
1101,91.796875
1102,91.796875
1103,91.796875
1104,89.843750
1105,89.843750
1106,89.843750
1107,89.843750
1108,87.890625
1109,89.843750
1110,87.890625
1111,87.890625
1112,87.890625
1113,87.890625
1114,85.937500
1115,85.937500
1116,85.937500
1117,85.937500
1118,83.984375
1119,83.984375
1120,83.984375
1121,82.031250
1122,82.031250
1123,82.031250
1124,80.078125
1125,80.078125
1126,80.078125
1127,80.078125
1128,78.125000
1129,78.125000
1130,76.171875
1131,76.171875
1132,76.171875
1133,76.171875
1134,74.218750
1135,74.218750
1136,74.218750
1137,72.265625
1138,72.265625
1139,70.312500
1140,70.312500
1141,70.312500
1142,68.359375
1143,68.359375
1144,68.359375
1145,66.406250
1146,66.406250
1147,66.406250
1148,64.453125
1149,64.453125
1150,64.453125
1151,62.500000
1152,62.500000
1153,60.546875
1154,58.593750
1155,58.593750
1156,58.593750
1157,58.593750
1158,56.640625
1159,54.687500
1160,54.687500
1161,54.687500
1162,52.734375
1163,52.734375
1164,50.781250
1165,50.781250
1166,48.828125
1167,48.828125
1168,48.828125
1169,46.875000
1170,46.875000
1171,44.921875
1172,42.968750
1173,42.968750
1174,42.968750
1175,39.062500
1176,39.062500
1177,39.062500
1178,37.109375
1179,37.109375
1180,35.156250
1181,35.156250
1182,33.203125
1183,33.203125
1184,33.203125
1185,31.250000
1186,29.296875
1187,29.296875
1188,27.343750
1189,25.390625
1190,25.390625
1191,25.390625
1192,23.437500
1193,23.437500
1194,21.484375
1195,19.531250
1196,19.531250
1197,19.531250
1198,17.578125
1199,17.578125
1200,15.625000
1201,13.671875
1202,13.671875
1203,11.718750
1204,11.718750
1205,9.765625
1206,7.812500
1207,7.812500
1208,7.812500
1209,5.859375
1210,3.906250
1211,3.906250
1212,1.953125
1213,1.953125
1214,0.000000
1215,0.000000
1216,-1.953125
1217,-1.953125
1218,-3.906250
1219,-5.859375
1220,-5.859375
1221,-5.859375
1222,-7.812500
1223,-9.765625
1224,-9.765625
1225,-11.718750
1226,-13.671875
1227,-13.671875
1228,-13.671875
1229,-15.625000
1230,-15.625000
1231,-17.578125
1232,-19.531250
1233,-19.531250
1234,-19.531250
1235,-21.484375
1236,-23.437500
1237,-23.437500
1238,-25.390625
1239,-25.390625
1240,-27.343750
1241,-27.343750
1242,-29.296875
1243,-29.296875
1244,-31.250000
1245,-33.203125
1246,-33.203125
1247,-35.156250
1248,-35.156250
1249,-37.109375
1250,-37.109375
1251,-39.062500
1252,-39.062500
1253,-41.015625
1254,-41.015625
1255,-42.968750
1256,-44.921875
1257,-44.921875
1258,-44.921875
1259,-46.875000
1260,-46.875000
1261,-50.781250
1262,-48.828125
1263,-50.781250
1264,-50.781250
1265,-52.734375
1266,-54.687500
1267,-54.687500
1268,-56.640625
1269,-56.640625
1270,-56.640625
1271,-58.593750
1272,-60.546875
1273,-60.546875
1274,-62.500000
1275,-62.500000
1276,-64.453125
1277,-64.453125
1278,-66.406250
1279,-66.406250
1280,-66.406250
1281,-68.359375
1282,-68.359375
1283,-70.312500
1284,-70.312500
1285,-70.312500
1286,-72.265625
1287,-74.218750
1288,-74.218750
1289,-74.218750
1290,-76.171875
1291,-76.171875
1292,-78.125000
1293,-78.125000
1294,-78.125000
1295,-80.078125
1296,-80.078125
1297,-82.031250
1298,-82.031250
1299,-82.031250
1300,-82.031250
1301,-83.984375
1302,-85.937500
1303,-85.937500
1304,-85.937500
1305,-85.937500
1306,-87.890625
1307,-87.890625
1308,-87.890625
1309,-89.843750
1310,-89.843750
1311,-91.796875
1312,-91.796875
1313,-91.796875
1314,-91.796875
1315,-93.750000
1316,-93.750000
1317,-95.703125
1318,-93.750000
1319,-95.703125
1320,-95.703125
1321,-95.703125
1322,-97.656250
1323,-97.656250
1324,-97.656250
1325,-97.656250
1326,-97.656250
1327,-99.609375
1328,-99.609375
1329,-99.609375
1330,-101.562500
1331,-101.562500
1332,-101.562500
1333,-101.562500
1334,-101.562500
1335,-103.515625
1336,-103.515625
1337,-103.515625
1338,-103.515625
1339,-103.515625
1340,-103.515625
1341,-103.515625
1342,-103.515625
1343,-105.468750
1344,-105.468750
1345,-105.468750
1346,-105.468750
1347,-105.468750
1348,-105.468750
1349,-107.421875
1350,-107.421875
1351,-105.468750
1352,-111.328125
1353,-107.421875
1354,-107.421875
1355,-107.421875
1356,-107.421875
1357,-107.421875
1358,-107.421875
1359,-107.421875
1360,-107.421875
1361,-107.421875
1362,-107.421875
1363,-107.421875
1364,-107.421875
1365,-107.421875
1366,-107.421875
1367,-105.468750
1368,-107.421875
1369,-107.421875
1370,-107.421875
1371,-107.421875
1372,-105.468750
1373,-107.421875
1374,-107.421875
1375,-107.421875
1376,-105.468750
1377,-105.468750
1378,-105.468750
1379,-105.468750
1380,-105.468750
1381,-105.468750
1382,-105.468750
1383,-105.468750
1384,-105.468750
1385,-105.468750
1386,-103.515625
1387,-103.515625
1388,-105.468750
1389,-103.515625
1390,-103.515625
1391,-103.515625
1392,-103.515625
1393,-103.515625
1394,-101.562500
1395,-101.562500
1396,-101.562500
1397,-101.562500
1398,-101.562500
1399,-101.562500
1400,-101.562500
1401,-99.609375
1402,-99.609375
1403,-99.609375
1404,-99.609375
1405,-97.656250
1406,-97.656250
1407,-97.656250
1408,-97.656250
1409,-97.656250
1410,-97.656250
1411,-95.703125
1412,-95.703125
1413,-95.703125
1414,-95.703125
1415,-93.750000
1416,-93.750000
1417,-93.750000
1418,-93.750000
1419,-91.796875
1420,-91.796875
1421,-91.796875
1422,-89.843750
1423,-89.843750
1424,-89.843750
1425,-89.843750
1426,-89.843750
1427,-87.890625
1428,-87.890625
1429,-85.937500
1430,-85.937500
1431,-85.937500
1432,-85.937500
1433,-83.984375
1434,-83.984375
1435,-82.031250
1436,-82.031250
1437,-82.031250
1438,-80.078125
1439,-80.078125
1440,-80.078125
1441,-78.125000
1442,-78.125000
1443,-78.125000
1444,-76.171875
1445,-76.171875
1446,-76.171875
1447,-74.218750
1448,-74.218750
1449,-74.218750
1450,-72.265625
1451,-72.265625
1452,-70.312500
1453,-70.312500
1454,-68.359375
1455,-68.359375
1456,-68.359375
1457,-66.406250
1458,-64.453125
1459,-64.453125
1460,-64.453125
1461,-62.500000
1462,-62.500000
1463,-60.546875
1464,-60.546875
1465,-58.593750
1466,-58.593750
1467,-58.593750
1468,-56.640625
1469,-56.640625
1470,-54.687500
1471,-54.687500
1472,-52.734375
1473,-52.734375
1474,-50.781250
1475,-50.781250
1476,-48.828125
1477,-48.828125
1478,-46.875000
1479,-46.875000
1480,-44.921875
1481,-44.921875
1482,-42.968750
1483,-42.968750
1484,-41.015625
1485,-41.015625
1486,-39.062500
1487,-37.109375
1488,-37.109375
1489,-35.156250
1490,-35.156250
1491,-33.203125
1492,-33.203125
1493,-31.250000
1494,-31.250000
1495,-29.296875
1496,-29.296875
1497,-27.343750
1498,-27.343750
1499,-25.390625
1500,-25.390625
1501,-23.437500
1502,-21.484375
1503,-21.484375
1504,-19.531250
1505,-19.531250
1506,-17.578125
1507,-17.578125
1508,-15.625000
1509,-13.671875
1510,-13.671875
1511,-11.718750
1512,-11.718750
1513,-9.765625
1514,-9.765625
1515,-7.812500
1516,-5.859375
1517,-5.859375
1518,-3.906250
1519,-1.953125
1520,-1.953125
1521,-1.953125
1522,0.000000
1523,0.000000
1524,1.953125
1525,3.906250
1526,3.906250
1527,5.859375
1528,5.859375
1529,5.859375
1530,7.812500
1531,9.765625
1532,9.765625
1533,11.718750
1534,13.671875
1535,15.625000
1536,15.625000
1537,15.625000
1538,17.578125
1539,17.578125
1540,19.531250
1541,21.484375
1542,21.484375
1543,21.484375
1544,23.437500
1545,25.390625
1546,25.390625
1547,27.343750
1548,27.343750
1549,29.296875
1550,29.296875
1551,31.250000
1552,31.250000
1553,33.203125
1554,33.203125
1555,35.156250
1556,37.109375
1557,37.109375
1558,39.062500
1559,39.062500
1560,39.062500
1561,41.015625
1562,41.015625
1563,42.968750
1564,44.921875
1565,44.921875
1566,44.921875
1567,46.875000
1568,46.875000
1569,48.828125
1570,48.828125
1571,50.781250
1572,50.781250
1573,52.734375
1574,52.734375
1575,52.734375
1576,54.687500
1577,54.687500
1578,56.640625
1579,56.640625
1580,58.593750
1581,58.593750
1582,60.546875
1583,60.546875
1584,60.546875
1585,62.500000
1586,62.500000
1587,64.453125
1588,64.453125
1589,64.453125
1590,66.406250
1591,68.359375
1592,68.359375
1593,68.359375
1594,70.312500
1595,72.265625
1596,72.265625
1597,72.265625
1598,72.265625
1599,72.265625
1600,74.218750
1601,74.218750
1602,74.218750
1603,76.171875
1604,76.171875
1605,76.171875
1606,78.125000
1607,78.125000
1608,80.078125
1609,80.078125
1610,80.078125
1611,82.031250
1612,82.031250
1613,82.031250
1614,82.031250
1615,83.984375
1616,83.984375
1617,83.984375
1618,83.984375
1619,85.937500
1620,85.937500
1621,85.937500
1622,87.890625
1623,87.890625
1624,87.890625
1625,87.890625
1626,87.890625
1627,89.843750
1628,89.843750
1629,89.843750
1630,89.843750
1631,89.843750
1632,91.796875
1633,91.796875
1634,91.796875
1635,91.796875
1636,91.796875
1637,91.796875
1638,91.796875
1639,93.750000
1640,93.750000
1641,93.750000
1642,93.750000
1643,93.750000
1644,93.750000
1645,93.750000
1646,93.750000
1647,93.750000
1648,93.750000
1649,93.750000
1650,93.750000
1651,93.750000
1652,93.750000
1653,95.703125
1654,93.750000
1655,93.750000
1656,95.703125
1657,93.750000
1658,95.703125
1659,93.750000
1660,95.703125
1661,93.750000
1662,93.750000
1663,93.750000
1664,93.750000
1665,95.703125
1666,93.750000
1667,93.750000
1668,93.750000
1669,93.750000
1670,93.750000
1671,93.750000
1672,93.750000
1673,93.750000
1674,93.750000
1675,93.750000
1676,93.750000
1677,93.750000
1678,93.750000
1679,91.796875
1680,91.796875
1681,91.796875
1682,91.796875
1683,91.796875
1684,91.796875
1685,91.796875
1686,91.796875
1687,89.843750
1688,89.843750
1689,89.843750
1690,89.843750
1691,89.843750
1692,87.890625
1693,87.890625
1694,87.890625
1695,87.890625
1696,87.890625
1697,85.937500
1698,83.984375
1699,85.937500
1700,83.984375
1701,83.984375
1702,83.984375
1703,82.031250
1704,82.031250
1705,82.031250
1706,82.031250
1707,80.078125
1708,80.078125
1709,80.078125
1710,78.125000
1711,78.125000
1712,78.125000
1713,78.125000
1714,78.125000
1715,74.218750
1716,76.171875
1717,74.218750
1718,74.218750
1719,72.265625
1720,72.265625
1721,70.312500
1722,70.312500
1723,70.312500
1724,68.359375
1725,68.359375
1726,68.359375
1727,64.453125
1728,66.406250
1729,66.406250
1730,64.453125
1731,64.453125
1732,64.453125
1733,62.500000
1734,62.500000
1735,60.546875
1736,60.546875
1737,58.593750
1738,58.593750
1739,58.593750
1740,56.640625
1741,54.687500
1742,54.687500
1743,54.687500
1744,52.734375
1745,52.734375
1746,50.781250
1747,50.781250
1748,50.781250
1749,48.828125
1750,48.828125
1751,46.875000
1752,44.921875
1753,46.875000
1754,44.921875
1755,42.968750
1756,42.968750
1757,42.968750
1758,39.062500
1759,39.062500
1760,39.062500
1761,37.109375
1762,37.109375
1763,35.156250
1764,33.203125
1765,33.203125
1766,31.250000
1767,31.250000
1768,31.250000
1769,29.296875
1770,27.343750
1771,27.343750
1772,25.390625
1773,23.437500
1774,23.437500
1775,23.437500
1776,21.484375
1777,21.484375
1778,19.531250
1779,21.484375
1780,17.578125
1781,15.625000
1782,15.625000
1783,13.671875
1784,13.671875
1785,11.718750
1786,11.718750
1787,9.765625
1788,9.765625
1789,7.812500
1790,5.859375
1791,5.859375
1792,5.859375
1793,3.906250
1794,1.953125
1795,1.953125
1796,0.000000
1797,0.000000
1798,-1.953125
1799,-1.953125
1800,-3.906250
1801,-5.859375
1802,-5.859375
1803,-5.859375
1804,-7.812500
1805,-9.765625
1806,-9.765625
1807,-9.765625
1808,-11.718750
1809,-13.671875
1810,-13.671875
1811,-15.625000
1812,-15.625000
1813,-15.625000
1814,-17.578125
1815,-19.531250
1816,-19.531250
1817,-21.484375
1818,-21.484375
1819,-23.437500
1820,-23.437500
1821,-25.390625
1822,-25.390625
1823,-27.343750
1824,-29.296875
1825,-29.296875
1826,-31.250000
1827,-31.250000
1828,-33.203125
1829,-33.203125
1830,-35.156250
1831,-35.156250
1832,-37.109375
1833,-37.109375
1834,-39.062500
1835,-39.062500
1836,-41.015625
1837,-42.968750
1838,-42.968750
1839,-44.921875
1840,-44.921875
1841,-46.875000
1842,-46.875000
1843,-48.828125
1844,-48.828125
1845,-50.781250
1846,-50.781250
1847,-52.734375
1848,-54.687500
1849,-54.687500
1850,-54.687500
1851,-56.640625
1852,-56.640625
1853,-58.593750
1854,-58.593750
1855,-60.546875
1856,-60.546875
1857,-62.500000
1858,-62.500000
1859,-64.453125
1860,-64.453125
1861,-66.406250
1862,-68.359375
1863,-68.359375
1864,-68.359375
1865,-70.312500
1866,-70.312500
1867,-70.312500
1868,-72.265625
1869,-72.265625
1870,-72.265625
1871,-74.218750
1872,-74.218750
1873,-76.171875
1874,-76.171875
1875,-78.125000
1876,-78.125000
1877,-78.125000
1878,-80.078125
1879,-80.078125
1880,-82.031250
1881,-82.031250
1882,-82.031250
1883,-83.984375
1884,-83.984375
1885,-85.937500
1886,-83.984375
1887,-85.937500
1888,-87.890625
1889,-87.890625
1890,-87.890625
1891,-89.843750
1892,-89.843750
1893,-89.843750
1894,-91.796875
1895,-91.796875
1896,-91.796875
1897,-91.796875
1898,-93.750000
1899,-93.750000
1900,-93.750000
1901,-95.703125
1902,-95.703125
1903,-95.703125
1904,-97.656250
1905,-97.656250
1906,-97.656250
1907,-97.656250
1908,-97.656250
1909,-99.609375
1910,-99.609375
1911,-99.609375
1912,-99.609375
1913,-101.562500
1914,-101.562500
1915,-101.562500
1916,-101.562500
1917,-103.515625
1918,-103.515625
1919,-103.515625
1920,-103.515625
1921,-103.515625
1922,-105.468750
1923,-103.515625
1924,-105.468750
1925,-107.421875
1926,-105.468750
1927,-105.468750
1928,-107.421875
1929,-105.468750
1930,-105.468750
1931,-105.468750
1932,-105.468750
1933,-105.468750
1934,-105.468750
1935,-105.468750
1936,-107.421875
1937,-105.468750
1938,-107.421875
1939,-107.421875
1940,-107.421875
1941,-107.421875
1942,-105.468750
1943,-107.421875
1944,-107.421875
1945,-107.421875
1946,-107.421875
1947,-105.468750
1948,-109.375000
1949,-107.421875
1950,-107.421875
1951,-105.468750
1952,-107.421875
1953,-107.421875
1954,-105.468750
1955,-105.468750
1956,-105.468750
1957,-105.468750
1958,-105.468750
1959,-103.515625
1960,-105.468750
1961,-105.468750
1962,-103.515625
1963,-105.468750
1964,-105.468750
1965,-105.468750
1966,-105.468750
1967,-105.468750
1968,-103.515625
1969,-105.468750
1970,-103.515625
1971,-103.515625
1972,-103.515625
1973,-103.515625
1974,-103.515625
1975,-103.515625
1976,-103.515625
1977,-101.562500
1978,-101.562500
1979,-101.562500
1980,-101.562500
1981,-99.609375
1982,-103.515625
1983,-99.609375
1984,-99.609375
1985,-99.609375
1986,-99.609375
1987,-97.656250
1988,-97.656250
1989,-97.656250
1990,-95.703125
1991,-97.656250
1992,-97.656250
1993,-95.703125
1994,-95.703125
1995,-95.703125
1996,-93.750000
1997,-95.703125
1998,-93.750000
1999,-93.750000
2000,-93.750000
2001,-91.796875
2002,-91.796875
2003,-91.796875
2004,-91.796875
2005,-89.843750
2006,-89.843750
2007,-89.843750
2008,-89.843750
2009,-87.890625
2010,-87.890625
2011,-85.937500
2012,-85.937500
2013,-85.937500
2014,-83.984375
2015,-83.984375
2016,-83.984375
2017,-82.031250
2018,-82.031250
2019,-82.031250
2020,-80.078125
2021,-82.031250
2022,-80.078125
2023,-80.078125
2024,-78.125000
2025,-78.125000
2026,-78.125000
2027,-76.171875
2028,-76.171875
2029,-76.171875
2030,-74.218750
2031,-74.218750
2032,-72.265625
2033,-72.265625
2034,-70.312500
2035,-70.312500
2036,-68.359375
2037,-68.359375
2038,-68.359375
2039,-66.406250
2040,-66.406250
2041,-64.453125
2042,-64.453125
2043,-64.453125
2044,-62.500000
2045,-60.546875
2046,-60.546875
2047,-60.546875
2048,-58.593750
2049,-58.593750
2050,-56.640625
2051,-56.640625
2052,-54.687500
2053,-54.687500
2054,-52.734375
2055,-52.734375
2056,-52.734375
2057,-50.781250
2058,-50.781250
2059,-48.828125
2060,-46.875000
2061,-46.875000
2062,-46.875000
2063,-42.968750
2064,-42.968750
2065,-42.968750
2066,-41.015625
2067,-41.015625
2068,-39.062500
2069,-39.062500
2070,-37.109375
2071,-37.109375
2072,-35.156250
2073,-33.203125
2074,-33.203125
2075,-33.203125
2076,-31.250000
2077,-29.296875
2078,-29.296875
2079,-27.343750
2080,-27.343750
2081,-25.390625
2082,-25.390625
2083,-23.437500
2084,-21.484375
2085,-21.484375
2086,-21.484375
2087,-19.531250
2088,-17.578125
2089,-17.578125
2090,-15.625000
2091,-15.625000
2092,-13.671875
2093,-13.671875
2094,-11.718750
2095,-11.718750
2096,-9.765625
2097,-7.812500
2098,-7.812500
2099,-5.859375
2100,-5.859375
2101,-3.906250
2102,-3.906250
2103,-1.953125
2104,0.000000
2105,0.000000
2106,1.953125
2107,1.953125
2108,3.906250
2109,3.906250
2110,5.859375
2111,7.812500
2112,7.812500
2113,7.812500
2114,9.765625
2115,11.718750
2116,11.718750
2117,13.671875
2118,13.671875
2119,15.625000
2120,15.625000
2121,17.578125
2122,19.531250
2123,19.531250
2124,21.484375
2125,21.484375
2126,23.437500
2127,23.437500
2128,25.390625
2129,25.390625
2130,27.343750
2131,27.343750
2132,25.390625
2133,31.250000
2134,31.250000
2135,31.250000
2136,33.203125
2137,35.156250
2138,35.156250
2139,35.156250
2140,37.109375
2141,37.109375
2142,39.062500
2143,41.015625
2144,41.015625
2145,41.015625
2146,42.968750
2147,42.968750
2148,44.921875
2149,44.921875
2150,46.875000
2151,48.828125
2152,48.828125
2153,48.828125
2154,50.781250
2155,50.781250
2156,52.734375
2157,52.734375
2158,54.687500
2159,54.687500
2160,56.640625
2161,56.640625
2162,56.640625
2163,56.640625
2164,58.593750
2165,58.593750
2166,58.593750
2167,62.500000
2168,62.500000
2169,62.500000
2170,64.453125
2171,64.453125
2172,66.406250
2173,66.406250
2174,68.359375
2175,68.359375
2176,68.359375
2177,70.312500
2178,70.312500
2179,70.312500
2180,72.265625
2181,72.265625
2182,74.218750
2183,74.218750
2184,74.218750
2185,76.171875
2186,76.171875
2187,78.125000
2188,78.125000
2189,78.125000
2190,80.078125
2191,80.078125
2192,80.078125
2193,80.078125
2194,82.031250
2195,82.031250
2196,82.031250
2197,83.984375
2198,82.031250
2199,83.984375
2200,83.984375
2201,83.984375
2202,85.937500
2203,87.890625
2204,85.937500
2205,85.937500
2206,85.937500
2207,87.890625
2208,87.890625
2209,87.890625
2210,87.890625
2211,89.843750
2212,89.843750
2213,89.843750
2214,89.843750
2215,91.796875
2216,91.796875
2217,91.796875
2218,91.796875
2219,91.796875
2220,91.796875
2221,91.796875
2222,91.796875
2223,93.750000
2224,93.750000
2225,93.750000
2226,93.750000
2227,93.750000
2228,93.750000
2229,93.750000
2230,93.750000
2231,93.750000
2232,93.750000
2233,93.750000
2234,93.750000
2235,93.750000
2236,93.750000
2237,93.750000
2238,93.750000
2239,93.750000
2240,95.703125
2241,93.750000
2242,93.750000
2243,93.750000
2244,95.703125
2245,93.750000
2246,93.750000
2247,93.750000
2248,93.750000
2249,93.750000
2250,93.750000
2251,93.750000
2252,93.750000
2253,93.750000
2254,93.750000
2255,93.750000
2256,93.750000
2257,93.750000
2258,93.750000
2259,91.796875
2260,93.750000
2261,91.796875
2262,91.796875
2263,91.796875
2264,91.796875
2265,91.796875
2266,93.750000
2267,89.843750
2268,89.843750
2269,89.843750
2270,89.843750
2271,89.843750
2272,89.843750
2273,87.890625
2274,87.890625
2275,87.890625
2276,87.890625
2277,85.937500
2278,85.937500
2279,85.937500
2280,85.937500
2281,85.937500
2282,83.984375
2283,83.984375
2284,83.984375
2285,83.984375
2286,82.031250
2287,82.031250
2288,82.031250
2289,80.078125
2290,80.078125
2291,80.078125
2292,78.125000
2293,78.125000
2294,78.125000
2295,76.171875
2296,76.171875
2297,76.171875
2298,74.218750
2299,74.218750
2300,74.218750
2301,72.265625
2302,72.265625
2303,72.265625
2304,72.265625
2305,70.312500
2306,70.312500
2307,68.359375
2308,68.359375
2309,68.359375
2310,66.406250
2311,66.406250
2312,64.453125
2313,64.453125
2314,64.453125
2315,62.500000
2316,62.500000
2317,60.546875
2318,60.546875
2319,58.593750
2320,58.593750
2321,58.593750
2322,56.640625
2323,56.640625
2324,54.687500
2325,54.687500
2326,54.687500
2327,52.734375
2328,52.734375
2329,50.781250
2330,50.781250
2331,48.828125
2332,48.828125
2333,48.828125
2334,46.875000
2335,44.921875
2336,44.921875
2337,42.968750
2338,42.968750
2339,42.968750
2340,41.015625
2341,41.015625
2342,39.062500
2343,37.109375
2344,37.109375
2345,37.109375
2346,35.156250
2347,35.156250
2348,33.203125
2349,31.250000
2350,31.250000
2351,29.296875
2352,29.296875
2353,27.343750
2354,27.343750
2355,25.390625
2356,25.390625
2357,23.437500
2358,21.484375
2359,21.484375
2360,21.484375
2361,19.531250
2362,17.578125
2363,17.578125
2364,15.625000
2365,15.625000
2366,13.671875
2367,13.671875
2368,11.718750
2369,9.765625
2370,9.765625
2371,9.765625
2372,7.812500
2373,5.859375
2374,5.859375
2375,3.906250
2376,3.906250
2377,1.953125
2378,1.953125
2379,0.000000
2380,-1.953125
2381,-1.953125
2382,-1.953125
2383,-3.906250
2384,-3.906250
2385,-5.859375
2386,-7.812500
2387,-7.812500
2388,-9.765625
2389,-9.765625
2390,-11.718750
2391,-11.718750
2392,-13.671875
2393,-13.671875
2394,-15.625000
2395,-15.625000
2396,-17.578125
2397,-19.531250
2398,-19.531250
2399,-21.484375
2400,-21.484375
2401,-21.484375
2402,-23.437500
2403,-23.437500
2404,-25.390625
2405,-27.343750
2406,-27.343750
2407,-29.296875
2408,-29.296875
2409,-31.250000
2410,-31.250000
2411,-33.203125
2412,-33.203125
2413,-35.156250
2414,-35.156250
2415,-37.109375
2416,-37.109375
2417,-39.062500
2418,-41.015625
2419,-41.015625
2420,-42.968750
2421,-42.968750
2422,-44.921875
2423,-44.921875
2424,-46.875000
2425,-46.875000
2426,-48.828125
2427,-50.781250
2428,-50.781250
2429,-50.781250
2430,-52.734375
2431,-52.734375
2432,-54.687500
2433,-54.687500
2434,-56.640625
2435,-56.640625
2436,-58.593750
2437,-58.593750
2438,-60.546875
2439,-60.546875
2440,-62.500000
2441,-62.500000
2442,-64.453125
2443,-64.453125
2444,-66.406250
2445,-66.406250
2446,-68.359375
2447,-68.359375
2448,-70.312500
2449,-70.312500
2450,-70.312500
2451,-72.265625
2452,-72.265625
2453,-72.265625
2454,-74.218750
2455,-76.171875
2456,-76.171875
2457,-76.171875
2458,-78.125000
2459,-78.125000
2460,-78.125000
2461,-78.125000
2462,-80.078125
2463,-82.031250
2464,-82.031250
2465,-82.031250
2466,-82.031250
2467,-83.984375
2468,-83.984375
2469,-83.984375
2470,-85.937500
2471,-87.890625
2472,-87.890625
2473,-87.890625
2474,-89.843750
2475,-89.843750
2476,-89.843750
2477,-89.843750
2478,-91.796875
2479,-91.796875
2480,-91.796875
2481,-93.750000
2482,-93.750000
2483,-93.750000
2484,-93.750000
2485,-93.750000
2486,-95.703125
2487,-95.703125
2488,-95.703125
2489,-95.703125
2490,-97.656250
2491,-97.656250
2492,-99.609375
2493,-99.609375
2494,-99.609375
2495,-99.609375
2496,-99.609375
2497,-101.562500
2498,-101.562500
2499,-101.562500
2500,-101.562500
2501,-103.515625
2502,-101.562500
2503,-103.515625
2504,-103.515625
2505,-103.515625
2506,-103.515625
2507,-103.515625
2508,-103.515625
2509,-101.562500
2510,-105.468750
2511,-105.468750
2512,-105.468750
2513,-105.468750
2514,-105.468750
2515,-105.468750
2516,-105.468750
2517,-105.468750
2518,-105.468750
2519,-105.468750
2520,-103.515625
2521,-105.468750
2522,-105.468750
2523,-105.468750
2524,-105.468750
2525,-107.421875
2526,-107.421875
2527,-105.468750
2528,-105.468750
2529,-107.421875
2530,-107.421875
2531,-105.468750
2532,-105.468750
2533,-105.468750
2534,-105.468750
2535,-105.468750
2536,-105.468750
2537,-105.468750
2538,-105.468750
2539,-105.468750
2540,-105.468750
2541,-105.468750
2542,-105.468750
2543,-105.468750
2544,-103.515625
2545,-105.468750
2546,-105.468750
2547,-103.515625
2548,-105.468750
2549,-103.515625
2550,-103.515625
2551,-103.515625
2552,-101.562500
2553,-103.515625
2554,-103.515625
2555,-103.515625
2556,-103.515625
2557,-103.515625
2558,-101.562500
2559,-101.562500
2560,-101.562500
2561,-101.562500
2562,-101.562500
2563,-101.562500
2564,-101.562500
2565,-99.609375
2566,-99.609375
2567,-99.609375
2568,-99.609375
2569,-97.656250
2570,-97.656250
2571,-97.656250
2572,-97.656250
2573,-97.656250
2574,-97.656250
2575,-95.703125
2576,-95.703125
2577,-95.703125
2578,-95.703125
2579,-95.703125
2580,-95.703125
2581,-93.750000
2582,-93.750000
2583,-93.750000
2584,-91.796875
2585,-91.796875
2586,-91.796875
2587,-89.843750
2588,-89.843750
2589,-89.843750
2590,-89.843750
2591,-87.890625
2592,-87.890625
2593,-87.890625
2594,-85.937500
2595,-85.937500
2596,-85.937500
2597,-83.984375
2598,-83.984375
2599,-83.984375
2600,-83.984375
2601,-82.031250
2602,-82.031250
2603,-80.078125
2604,-80.078125
2605,-78.125000
2606,-80.078125
2607,-78.125000
2608,-78.125000
2609,-76.171875
2610,-76.171875
2611,-76.171875
2612,-74.218750
2613,-74.218750
2614,-74.218750
2615,-72.265625
2616,-70.312500
2617,-70.312500
2618,-70.312500
2619,-70.312500
2620,-68.359375
2621,-66.406250
2622,-66.406250
2623,-66.406250
2624,-66.406250
2625,-64.453125
2626,-62.500000
2627,-62.500000
2628,-62.500000
2629,-60.546875
2630,-60.546875
2631,-58.593750
2632,-58.593750
2633,-58.593750
2634,-56.640625
2635,-54.687500
2636,-54.687500
2637,-54.687500
2638,-52.734375
2639,-52.734375
2640,-50.781250
2641,-48.828125
2642,-48.828125
2643,-46.875000
2644,-46.875000
2645,-46.875000
2646,-44.921875
2647,-42.968750
2648,-42.968750
2649,-41.015625
2650,-41.015625
2651,-39.062500
2652,-39.062500
2653,-37.109375
2654,-35.156250
2655,-35.156250
2656,-35.156250
2657,-33.203125
2658,-33.203125
2659,-31.250000
2660,-29.296875
2661,-29.296875
2662,-27.343750
2663,-27.343750
2664,-25.390625
2665,-25.390625
2666,-23.437500
2667,-21.484375
2668,-21.484375
2669,-19.531250
2670,-19.531250
2671,-19.531250
2672,-17.578125
2673,-15.625000
2674,-15.625000
2675,-13.671875
2676,-13.671875
2677,-11.718750
2678,-9.765625
2679,-9.765625
2680,-7.812500
2681,-7.812500
2682,-5.859375
2683,-3.906250
2684,-3.906250
2685,-1.953125
2686,-1.953125
2687,-1.953125
2688,0.000000
2689,0.000000
2690,1.953125
2691,3.906250
2692,3.906250
2693,5.859375
2694,5.859375
2695,7.812500
2696,7.812500
2697,9.765625
2698,9.765625
2699,11.718750
2700,13.671875
2701,13.671875
2702,15.625000
2703,15.625000
2704,17.578125
2705,19.531250
2706,19.531250
2707,21.484375
2708,21.484375
2709,23.437500
2710,23.437500
2711,25.390625
2712,25.390625
2713,27.343750
2714,27.343750
2715,29.296875
2716,31.250000
2717,31.250000
2718,33.203125
2719,33.203125
2720,35.156250
2721,35.156250
2722,37.109375
2723,37.109375
2724,37.109375
2725,39.062500
2726,41.015625
2727,41.015625
2728,42.968750
2729,42.968750
2730,44.921875
2731,44.921875
2732,44.921875
2733,46.875000
2734,48.828125
2735,48.828125
2736,48.828125
2737,50.781250
2738,50.781250
2739,54.687500
2740,52.734375
2741,54.687500
2742,54.687500
2743,56.640625
2744,56.640625
2745,58.593750
2746,58.593750
2747,58.593750
2748,62.500000
2749,60.546875
2750,62.500000
2751,64.453125
2752,62.500000
2753,64.453125
2754,64.453125
2755,66.406250
2756,66.406250
2757,66.406250
2758,68.359375
2759,68.359375
2760,70.312500
2761,70.312500
2762,70.312500
2763,72.265625
2764,72.265625
2765,72.265625
2766,74.218750
2767,74.218750
2768,76.171875
2769,76.171875
2770,78.125000
2771,76.171875
2772,78.125000
2773,78.125000
2774,78.125000
2775,80.078125
2776,80.078125
2777,82.031250
2778,82.031250
2779,82.031250
2780,83.984375
2781,83.984375
2782,83.984375
2783,83.984375
2784,85.937500
2785,85.937500
2786,85.937500
2787,85.937500
2788,87.890625
2789,87.890625
2790,87.890625
2791,87.890625
2792,89.843750
2793,89.843750
2794,89.843750
2795,89.843750
2796,91.796875
2797,89.843750
2798,89.843750
2799,91.796875
2800,91.796875
2801,91.796875
2802,91.796875
2803,91.796875
2804,91.796875
2805,91.796875
2806,91.796875
2807,93.750000
2808,93.750000
2809,93.750000
2810,93.750000
2811,93.750000
2812,93.750000
2813,93.750000
2814,93.750000
2815,93.750000
2816,93.750000
2817,95.703125
2818,95.703125
2819,93.750000
2820,95.703125
2821,93.750000
2822,95.703125
2823,93.750000
2824,93.750000
2825,95.703125
2826,93.750000
2827,95.703125
2828,93.750000
2829,93.750000
2830,93.750000
2831,93.750000
2832,93.750000
2833,93.750000
2834,93.750000
2835,93.750000
2836,93.750000
2837,93.750000
2838,93.750000
2839,93.750000
2840,93.750000
2841,93.750000
2842,93.750000
2843,91.796875
2844,91.796875
2845,91.796875
2846,91.796875
2847,91.796875
2848,91.796875
2849,91.796875
2850,89.843750
2851,89.843750
2852,89.843750
2853,89.843750
2854,89.843750
2855,89.843750
2856,87.890625
2857,87.890625
2858,87.890625
2859,87.890625
2860,87.890625
2861,85.937500
2862,85.937500
2863,85.937500
2864,83.984375
2865,83.984375
2866,83.984375
2867,83.984375
2868,83.984375
2869,82.031250
2870,82.031250
2871,82.031250
2872,80.078125
2873,80.078125
2874,80.078125
2875,78.125000
2876,78.125000
2877,78.125000
2878,78.125000
2879,76.171875
2880,74.218750
2881,76.171875
2882,74.218750
2883,74.218750
2884,74.218750
2885,72.265625
2886,70.312500
2887,72.265625
2888,70.312500
2889,70.312500
2890,68.359375
2891,68.359375
2892,68.359375
2893,66.406250
2894,66.406250
2895,64.453125
2896,64.453125
2897,64.453125
2898,62.500000
2899,62.500000
2900,60.546875
2901,60.546875
2902,60.546875
2903,58.593750
2904,56.640625
2905,56.640625
2906,56.640625
2907,56.640625
2908,54.687500
2909,52.734375
2910,52.734375
2911,52.734375
2912,50.781250
2913,50.781250
2914,48.828125
2915,48.828125
2916,46.875000
2917,46.875000
2918,48.828125
2919,44.921875
2920,42.968750
2921,42.968750
2922,41.015625
2923,42.968750
2924,41.015625
2925,39.062500
2926,37.109375
2927,37.109375
2928,37.109375
2929,35.156250
2930,33.203125
2931,33.203125
2932,33.203125
2933,31.250000
2934,31.250000
2935,29.296875
2936,29.296875
2937,27.343750
2938,27.343750
2939,25.390625
2940,23.437500
2941,23.437500
2942,21.484375
2943,19.531250
2944,19.531250
2945,19.531250
2946,17.578125
2947,15.625000
2948,15.625000
2949,13.671875
2950,13.671875
2951,11.718750
2952,9.765625
2953,9.765625
2954,9.765625
2955,7.812500
2956,5.859375
2957,5.859375
2958,3.906250
2959,3.906250
2960,1.953125
2961,1.953125
2962,0.000000
2963,0.000000
2964,0.000000
2965,-1.953125
2966,-3.906250
2967,-3.906250
2968,-5.859375
2969,-7.812500
2970,-7.812500
2971,-7.812500
2972,-9.765625
2973,-11.718750
2974,-11.718750
2975,-13.671875
2976,-13.671875
2977,-15.625000
2978,-15.625000
2979,-17.578125
2980,-17.578125
2981,-19.531250
2982,-19.531250
2983,-21.484375
2984,-23.437500
2985,-23.437500
2986,-25.390625
2987,-25.390625
2988,-25.390625
2989,-29.296875
2990,-29.296875
2991,-29.296875
2992,-31.250000
2993,-31.250000
2994,-33.203125
2995,-33.203125
2996,-35.156250
2997,-35.156250
2998,-37.109375
2999,-37.109375
3000,-39.062500
3001,-41.015625
3002,-41.015625
3003,-42.968750
3004,-42.968750
3005,-44.921875
3006,-44.921875
3007,-46.875000
3008,-46.875000
3009,-48.828125
3010,-48.828125
3011,-50.781250
3012,-50.781250
3013,-52.734375
3014,-52.734375
3015,-54.687500
3016,-54.687500
3017,-56.640625
3018,-56.640625
3019,-58.593750
3020,-58.593750
3021,-58.593750
3022,-60.546875
3023,-62.500000
3024,-62.500000
3025,-64.453125
3026,-64.453125
3027,-64.453125
3028,-66.406250
3029,-66.406250
3030,-68.359375
3031,-68.359375
3032,-70.312500
3033,-70.312500
3034,-70.312500
3035,-72.265625
3036,-74.218750
3037,-74.218750
3038,-74.218750
3039,-76.171875
3040,-76.171875
3041,-78.125000
3042,-78.125000
3043,-78.125000
3044,-80.078125
3045,-80.078125
3046,-80.078125
3047,-82.031250
3048,-82.031250
3049,-82.031250
3050,-83.984375
3051,-83.984375
3052,-85.937500
3053,-85.937500
3054,-85.937500
3055,-87.890625
3056,-87.890625
3057,-87.890625
3058,-89.843750
3059,-89.843750
3060,-89.843750
3061,-91.796875
3062,-91.796875
3063,-91.796875
3064,-93.750000
3065,-93.750000
3066,-93.750000
3067,-93.750000
3068,-95.703125
3069,-95.703125
3070,-95.703125
3071,-95.703125
3072,-97.656250
3073,-97.656250
3074,-97.656250
3075,-97.656250
3076,-97.656250
3077,-99.609375
3078,-99.609375
3079,-99.609375
3080,-101.562500
3081,-101.562500
3082,-101.562500
3083,-101.562500
3084,-101.562500
3085,-101.562500
3086,-103.515625
3087,-103.515625
3088,-103.515625
3089,-103.515625
3090,-103.515625
3091,-103.515625
3092,-105.468750
3093,-105.468750
3094,-103.515625
3095,-105.468750
3096,-105.468750
3097,-105.468750
3098,-105.468750
3099,-105.468750
3100,-105.468750
3101,-105.468750
3102,-107.421875
3103,-105.468750
3104,-105.468750
3105,-107.421875
3106,-105.468750
3107,-105.468750
3108,-105.468750
3109,-107.421875
3110,-107.421875
3111,-105.468750
3112,-105.468750
3113,-105.468750
3114,-107.421875
3115,-107.421875
3116,-105.468750
3117,-105.468750
3118,-107.421875
3119,-105.468750
3120,-105.468750
3121,-105.468750
3122,-107.421875
3123,-105.468750
3124,-105.468750
3125,-105.468750
3126,-105.468750
3127,-105.468750
3128,-105.468750
3129,-105.468750
3130,-105.468750
3131,-105.468750
3132,-103.515625
3133,-103.515625
3134,-103.515625
3135,-103.515625
3136,-103.515625
3137,-103.515625
3138,-103.515625
3139,-103.515625
3140,-101.562500
3141,-103.515625
3142,-103.515625
3143,-101.562500
3144,-101.562500
3145,-101.562500
3146,-101.562500
3147,-101.562500
3148,-99.609375
3149,-99.609375
3150,-99.609375
3151,-99.609375
3152,-97.656250
3153,-99.609375
3154,-99.609375
3155,-97.656250
3156,-97.656250
3157,-97.656250
3158,-97.656250
3159,-95.703125
3160,-95.703125
3161,-95.703125
3162,-93.750000
3163,-93.750000
3164,-93.750000
3165,-93.750000
3166,-91.796875
3167,-93.750000
3168,-91.796875
3169,-91.796875
3170,-91.796875
3171,-89.843750
3172,-89.843750
3173,-89.843750
3174,-87.890625
3175,-87.890625
3176,-87.890625
3177,-85.937500
3178,-85.937500
3179,-85.937500
3180,-85.937500
3181,-83.984375
3182,-83.984375
3183,-82.031250
3184,-82.031250
3185,-82.031250
3186,-82.031250
3187,-80.078125
3188,-80.078125
3189,-80.078125
3190,-78.125000
3191,-78.125000
3192,-76.171875
3193,-76.171875
3194,-76.171875
3195,-74.218750
3196,-74.218750
3197,-72.265625
3198,-72.265625
3199,-72.265625
3200,-70.312500
3201,-70.312500
3202,-70.312500
3203,-68.359375
3204,-68.359375
3205,-66.406250
3206,-66.406250
3207,-64.453125
3208,-64.453125
3209,-64.453125
3210,-62.500000
3211,-62.500000
3212,-60.546875
3213,-60.546875
3214,-58.593750
3215,-58.593750
3216,-56.640625
3217,-56.640625
3218,-54.687500
3219,-54.687500
3220,-54.687500
3221,-52.734375
3222,-52.734375
3223,-50.781250
3224,-50.781250
3225,-50.781250
3226,-46.875000
3227,-46.875000
3228,-46.875000
3229,-44.921875
3230,-42.968750
3231,-42.968750
3232,-42.968750
3233,-41.015625
3234,-39.062500
3235,-39.062500
3236,-37.109375
3237,-37.109375
3238,-35.156250
3239,-33.203125
3240,-33.203125
3241,-33.203125
3242,-31.250000
3243,-31.250000
3244,-29.296875
3245,-27.343750
3246,-27.343750
3247,-25.390625
3248,-25.390625
3249,-23.437500
3250,-21.484375
3251,-21.484375
3252,-19.531250
3253,-19.531250
3254,-17.578125
3255,-17.578125
3256,-15.625000
3257,-15.625000
3258,-13.671875
3259,-13.671875
3260,-11.718750
3261,-11.718750
3262,-9.765625
3263,-7.812500
3264,-7.812500
3265,-5.859375
3266,-5.859375
3267,-3.906250
3268,-1.953125
3269,-1.953125
3270,0.000000
3271,0.000000
3272,1.953125
3273,3.906250
3274,3.906250
3275,3.906250
3276,5.859375
3277,7.812500
3278,7.812500
3279,9.765625
3280,9.765625
3281,9.765625
3282,11.718750
3283,13.671875
3284,15.625000
3285,15.625000
3286,17.578125
3287,17.578125
3288,19.531250
3289,19.531250
3290,21.484375
3291,21.484375
3292,23.437500
3293,23.437500
3294,25.390625
3295,27.343750
3296,27.343750
3297,27.343750
3298,29.296875
3299,31.250000
3300,31.250000
3301,33.203125
3302,33.203125
3303,35.156250
3304,35.156250
3305,37.109375
3306,37.109375
3307,39.062500
3308,39.062500
3309,41.015625
3310,41.015625
3311,42.968750
3312,42.968750
3313,44.921875
3314,46.875000
3315,46.875000
3316,46.875000
3317,48.828125
3318,48.828125
3319,50.781250
3320,50.781250
3321,52.734375
3322,52.734375
3323,54.687500
3324,54.687500
3325,56.640625
3326,56.640625
3327,56.640625
3328,58.593750
3329,58.593750
3330,60.546875
3331,60.546875
3332,60.546875
3333,62.500000
3334,62.500000
3335,64.453125
3336,66.406250
3337,64.453125
3338,66.406250
3339,68.359375
3340,68.359375
3341,68.359375
3342,70.312500
3343,70.312500
3344,70.312500
3345,72.265625
3346,72.265625
3347,72.265625
3348,74.218750
3349,74.218750
3350,76.171875
3351,76.171875
3352,76.171875
3353,76.171875
3354,78.125000
3355,78.125000
3356,80.078125
3357,80.078125
3358,82.031250
3359,80.078125
3360,82.031250
3361,83.984375
3362,82.031250
3363,83.984375
3364,83.984375
3365,83.984375
3366,85.937500
3367,85.937500
3368,85.937500
3369,85.937500
3370,87.890625
3371,87.890625
3372,87.890625
3373,89.843750
3374,87.890625
3375,89.843750
3376,89.843750
3377,89.843750
3378,89.843750
3379,89.843750
3380,89.843750
3381,91.796875
3382,91.796875
3383,91.796875
3384,91.796875
3385,91.796875
3386,93.750000
3387,93.750000
3388,93.750000
3389,93.750000
3390,93.750000
3391,93.750000
3392,93.750000
3393,93.750000
3394,93.750000
3395,93.750000
3396,95.703125
3397,93.750000
3398,95.703125
3399,93.750000
3400,95.703125
3401,93.750000
3402,95.703125
3403,95.703125
3404,95.703125
3405,95.703125
3406,95.703125
3407,95.703125
3408,95.703125
3409,95.703125
3410,95.703125
3411,93.750000
3412,95.703125
3413,95.703125
3414,93.750000
3415,93.750000
3416,93.750000
3417,93.750000
3418,93.750000
3419,93.750000
3420,93.750000
3421,93.750000
3422,93.750000
3423,93.750000
3424,93.750000
3425,93.750000
3426,93.750000
3427,91.796875
3428,91.796875
3429,91.796875
3430,91.796875
3431,91.796875
3432,91.796875
3433,91.796875
3434,89.843750
3435,91.796875
3436,89.843750
3437,89.843750
3438,89.843750
3439,87.890625
3440,87.890625
3441,87.890625
3442,87.890625
3443,87.890625
3444,87.890625
3445,85.937500
3446,85.937500
3447,85.937500
3448,85.937500
3449,83.984375
3450,83.984375
3451,83.984375
3452,83.984375
3453,82.031250
3454,82.031250
3455,80.078125
3456,80.078125
3457,80.078125
3458,80.078125
3459,78.125000
3460,78.125000
3461,78.125000
3462,76.171875
3463,76.171875
3464,76.171875
3465,74.218750
3466,74.218750
3467,72.265625
3468,74.218750
3469,72.265625
3470,70.312500
3471,70.312500
3472,70.312500
3473,68.359375
3474,68.359375
3475,66.406250
3476,66.406250
3477,66.406250
3478,64.453125
3479,64.453125
3480,62.500000
3481,62.500000
3482,62.500000
3483,62.500000
3484,60.546875
3485,60.546875
3486,58.593750
3487,58.593750
3488,56.640625
3489,56.640625
3490,54.687500
3491,54.687500
3492,52.734375
3493,52.734375
3494,50.781250
3495,50.781250
3496,50.781250
3497,50.781250
3498,48.828125
3499,46.875000
3500,46.875000
3501,44.921875
3502,44.921875
3503,44.921875
3504,42.968750
3505,41.015625
3506,41.015625
3507,41.015625
3508,39.062500
3509,37.109375
3510,37.109375
3511,35.156250
3512,35.156250
3513,33.203125
3514,33.203125
3515,31.250000
3516,31.250000
3517,29.296875
3518,29.296875
3519,27.343750
3520,25.390625
3521,25.390625
3522,25.390625
3523,23.437500
3524,23.437500
3525,21.484375
3526,19.531250
3527,19.531250
3528,17.578125
3529,17.578125
3530,15.625000
3531,15.625000
3532,13.671875
3533,13.671875
3534,11.718750
3535,11.718750
3536,9.765625
3537,9.765625
3538,5.859375
3539,5.859375
3540,7.812500
3541,3.906250
3542,3.906250
3543,1.953125
3544,3.906250
3545,0.000000
3546,-1.953125
3547,-1.953125
3548,-3.906250
3549,-3.906250
3550,-5.859375
3551,-5.859375
3552,-7.812500
3553,-9.765625
3554,-9.765625
3555,-9.765625
3556,-11.718750
3557,-13.671875
3558,-13.671875
3559,-15.625000
3560,-15.625000
3561,-17.578125
3562,-17.578125
3563,-19.531250
3564,-19.531250
3565,-21.484375
3566,-21.484375
3567,-23.437500
3568,-23.437500
3569,-25.390625
3570,-25.390625
3571,-27.343750
3572,-29.296875
3573,-29.296875
3574,-29.296875
3575,-31.250000
3576,-33.203125
3577,-33.203125
3578,-35.156250
3579,-35.156250
3580,-37.109375
3581,-37.109375
3582,-39.062500
3583,-39.062500
3584,-41.015625
3585,-41.015625
3586,-42.968750
3587,-42.968750
3588,-44.921875
3589,-44.921875
3590,-46.875000
3591,-48.828125
3592,-48.828125
3593,-50.781250
3594,-50.781250
3595,-52.734375
3596,-52.734375
3597,-52.734375
3598,-54.687500
3599,-56.640625
3600,-56.640625
3601,-58.593750
3602,-58.593750
3603,-58.593750
3604,-60.546875
3605,-62.500000
3606,-62.500000
3607,-64.453125
3608,-64.453125
3609,-64.453125
3610,-66.406250
3611,-66.406250
3612,-66.406250
3613,-68.359375
3614,-70.312500
3615,-70.312500
3616,-72.265625
3617,-72.265625
3618,-72.265625
3619,-72.265625
3620,-74.218750
3621,-74.218750
3622,-76.171875
3623,-78.125000
3624,-78.125000
3625,-78.125000
3626,-78.125000
3627,-80.078125
3628,-80.078125
3629,-82.031250
3630,-82.031250
3631,-83.984375
3632,-83.984375
3633,-83.984375
3634,-83.984375
3635,-85.937500
3636,-85.937500
3637,-87.890625
3638,-87.890625
3639,-85.937500
3640,-89.843750
3641,-89.843750
3642,-89.843750
3643,-89.843750
3644,-91.796875
3645,-91.796875
3646,-93.750000
3647,-93.750000
3648,-93.750000
3649,-93.750000
3650,-93.750000
3651,-95.703125
3652,-95.703125
3653,-97.656250
3654,-97.656250
3655,-97.656250
3656,-97.656250
3657,-97.656250
3658,-99.609375
3659,-99.609375
3660,-99.609375
3661,-99.609375
3662,-99.609375
3663,-101.562500
3664,-101.562500
3665,-101.562500
3666,-101.562500
3667,-101.562500
3668,-103.515625
3669,-103.515625
3670,-103.515625
3671,-103.515625
3672,-105.468750
3673,-103.515625
3674,-103.515625
3675,-103.515625
3676,-105.468750
3677,-105.468750
3678,-105.468750
3679,-105.468750
3680,-105.468750
3681,-105.468750
3682,-105.468750
3683,-105.468750
3684,-107.421875
3685,-105.468750
3686,-107.421875
3687,-101.562500
3688,-107.421875
3689,-107.421875
3690,-107.421875
3691,-109.375000
3692,-107.421875
3693,-107.421875
3694,-105.468750
3695,-107.421875
3696,-109.375000
3697,-107.421875
3698,-107.421875
3699,-107.421875
3700,-107.421875
3701,-107.421875
3702,-105.468750
3703,-105.468750
3704,-107.421875
3705,-107.421875
3706,-107.421875
3707,-107.421875
3708,-105.468750
3709,-105.468750
3710,-105.468750
3711,-105.468750
3712,-105.468750
3713,-105.468750
3714,-105.468750
3715,-105.468750
3716,-105.468750
3717,-103.515625
3718,-103.515625
3719,-103.515625
3720,-103.515625
3721,-103.515625
3722,-103.515625
3723,-103.515625
3724,-103.515625
3725,-103.515625
3726,-103.515625
3727,-101.562500
3728,-101.562500
3729,-101.562500
3730,-99.609375
3731,-101.562500
3732,-99.609375
3733,-99.609375
3734,-99.609375
3735,-99.609375
3736,-97.656250
3737,-97.656250
3738,-97.656250
3739,-97.656250
3740,-95.703125
3741,-97.656250
3742,-95.703125
3743,-95.703125
3744,-95.703125
3745,-95.703125
3746,-93.750000
3747,-93.750000
3748,-93.750000
3749,-91.796875
3750,-91.796875
3751,-91.796875
3752,-91.796875
3753,-89.843750
3754,-89.843750
3755,-89.843750
3756,-89.843750
3757,-87.890625
3758,-87.890625
3759,-87.890625
3760,-87.890625
3761,-85.937500
3762,-85.937500
3763,-83.984375
3764,-83.984375
3765,-83.984375
3766,-82.031250
3767,-82.031250
3768,-82.031250
3769,-82.031250
3770,-80.078125
3771,-80.078125
3772,-80.078125
3773,-78.125000
3774,-78.125000
3775,-78.125000
3776,-76.171875
3777,-76.171875
3778,-74.218750
3779,-74.218750
3780,-74.218750
3781,-72.265625
3782,-72.265625
3783,-70.312500
3784,-70.312500
3785,-68.359375
3786,-68.359375
3787,-68.359375
3788,-66.406250
3789,-66.406250
3790,-64.453125
3791,-64.453125
3792,-62.500000
3793,-62.500000
3794,-60.546875
3795,-60.546875
3796,-60.546875
3797,-58.593750
3798,-58.593750
3799,-56.640625
3800,-56.640625
3801,-54.687500
3802,-54.687500
3803,-52.734375
3804,-52.734375
3805,-50.781250
3806,-50.781250
3807,-50.781250
3808,-48.828125
3809,-48.828125
3810,-46.875000
3811,-44.921875
3812,-44.921875
3813,-42.968750
3814,-42.968750
3815,-41.015625
3816,-41.015625
3817,-39.062500
3818,-39.062500
3819,-37.109375
3820,-35.156250
3821,-35.156250
3822,-33.203125
3823,-33.203125
3824,-31.250000
3825,-31.250000
3826,-29.296875
3827,-29.296875
3828,-27.343750
3829,-27.343750
3830,-25.390625
3831,-23.437500
3832,-23.437500
3833,-21.484375
3834,-21.484375
3835,-19.531250
3836,-19.531250
3837,-17.578125
3838,-15.625000
3839,-15.625000
3840,-15.625000
3841,-13.671875
3842,-11.718750
3843,-11.718750
3844,-9.765625
3845,-9.765625
3846,-7.812500
3847,-5.859375
3848,-5.859375
3849,-3.906250
3850,-1.953125
3851,-1.953125
3852,-1.953125
3853,0.000000
3854,0.000000
3855,1.953125
3856,3.906250
3857,3.906250
3858,5.859375
3859,5.859375
3860,7.812500
3861,7.812500
3862,9.765625
3863,11.718750
3864,11.718750
3865,11.718750
3866,13.671875
3867,15.625000
3868,17.578125
3869,17.578125
3870,17.578125
3871,19.531250
3872,19.531250
3873,21.484375
3874,23.437500
3875,23.437500
3876,25.390625
3877,25.390625
3878,25.390625
3879,27.343750
3880,29.296875
3881,31.250000
3882,29.296875
3883,31.250000
3884,33.203125
3885,33.203125
3886,35.156250
3887,37.109375
3888,37.109375
3889,37.109375
3890,39.062500
3891,41.015625
3892,41.015625
3893,42.968750
3894,42.968750
3895,44.921875
3896,44.921875
3897,46.875000
3898,46.875000
3899,48.828125
3900,48.828125
3901,48.828125
3902,50.781250
3903,52.734375
3904,52.734375
3905,54.687500
3906,54.687500
3907,54.687500
3908,56.640625
3909,56.640625
3910,58.593750
3911,58.593750
3912,58.593750
3913,60.546875
3914,62.500000
3915,64.453125
3916,62.500000
3917,64.453125
3918,64.453125
3919,66.406250
3920,66.406250
3921,66.406250
3922,68.359375
3923,68.359375
3924,68.359375
3925,70.312500
3926,70.312500
3927,72.265625
3928,72.265625
3929,72.265625
3930,74.218750
3931,74.218750
3932,74.218750
3933,76.171875
3934,76.171875
3935,78.125000
3936,78.125000
3937,78.125000
3938,78.125000
3939,80.078125
3940,80.078125
3941,80.078125
3942,82.031250
3943,82.031250
3944,82.031250
3945,83.984375
3946,83.984375
3947,83.984375
3948,85.937500
3949,85.937500
3950,85.937500
3951,85.937500
3952,85.937500
3953,87.890625
3954,87.890625
3955,87.890625
3956,87.890625
3957,89.843750
3958,89.843750
3959,89.843750
3960,89.843750
3961,89.843750
3962,89.843750
3963,91.796875
3964,91.796875
3965,91.796875
3966,91.796875
3967,91.796875
3968,93.750000
3969,93.750000
3970,93.750000
3971,93.750000
3972,93.750000
3973,93.750000
3974,93.750000
3975,93.750000
3976,95.703125
3977,93.750000
3978,95.703125
3979,93.750000
3980,93.750000
3981,95.703125
3982,95.703125
3983,95.703125
3984,95.703125
3985,93.750000
3986,95.703125
3987,95.703125
3988,95.703125
3989,95.703125
3990,95.703125
3991,95.703125
3992,95.703125
3993,95.703125
3994,95.703125
3995,95.703125
3996,95.703125
3997,93.750000
3998,93.750000
3999,93.750000
4000,93.750000
4001,93.750000
4002,93.750000
4003,93.750000
4004,93.750000
4005,93.750000
4006,93.750000
4007,93.750000
4008,93.750000
4009,91.796875
4010,91.796875
4011,91.796875
4012,91.796875
4013,91.796875
4014,91.796875
4015,91.796875
4016,91.796875
4017,91.796875
4018,89.843750
4019,89.843750
4020,89.843750
4021,89.843750
4022,87.890625
4023,89.843750
4024,87.890625
4025,87.890625
4026,87.890625
4027,85.937500
4028,85.937500
4029,85.937500
4030,85.937500
4031,83.984375
4032,83.984375
4033,83.984375
4034,83.984375
4035,82.031250
4036,82.031250
4037,82.031250
4038,80.078125
4039,80.078125
4040,80.078125
4041,78.125000
4042,78.125000
4043,78.125000
4044,78.125000
4045,76.171875
4046,76.171875
4047,76.171875
4048,74.218750
4049,74.218750
4050,72.265625
4051,72.265625
4052,72.265625
4053,72.265625
4054,70.312500
4055,68.359375
4056,70.312500
4057,68.359375
4058,66.406250
4059,66.406250
4060,66.406250
4061,66.406250
4062,64.453125
4063,62.500000
4064,62.500000
4065,60.546875
4066,60.546875
4067,58.593750
4068,58.593750
4069,58.593750
4070,56.640625
4071,56.640625
4072,54.687500
4073,54.687500
4074,54.687500
4075,52.734375
4076,52.734375
4077,50.781250
4078,50.781250
4079,48.828125
4080,48.828125
4081,48.828125
4082,46.875000
4083,44.921875
4084,44.921875
4085,44.921875
4086,42.968750
4087,41.015625
4088,41.015625
4089,41.015625
4090,39.062500
4091,37.109375
4092,37.109375
4093,37.109375
4094,35.156250
4095,35.156250
4096,33.203125
4097,31.250000
4098,31.250000
4099,31.250000
4100,29.296875
4101,27.343750
4102,27.343750
4103,25.390625
4104,25.390625
4105,23.437500
4106,23.437500
4107,21.484375
4108,21.484375
4109,19.531250
4110,17.578125
4111,17.578125
4112,15.625000
4113,15.625000
4114,15.625000
4115,11.718750
4116,11.718750
4117,11.718750
4118,11.718750
4119,9.765625
4120,7.812500
4121,7.812500
4122,5.859375
4123,5.859375
4124,3.906250
4125,3.906250
4126,1.953125
4127,0.000000
4128,0.000000
4129,-1.953125
4130,-3.906250
4131,-3.906250
4132,-3.906250
4133,-5.859375
4134,-5.859375
4135,-7.812500
4136,-9.765625
4137,-9.765625
4138,-9.765625
4139,-11.718750
4140,-13.671875
4141,-13.671875
4142,-15.625000
4143,-15.625000
4144,-17.578125
4145,-19.531250
4146,-19.531250
4147,-21.484375
4148,-21.484375
4149,-21.484375
4150,-23.437500
4151,-25.390625
4152,-25.390625
4153,-27.343750
4154,-27.343750
4155,-29.296875
4156,-31.250000
4157,-31.250000
4158,-31.250000
4159,-33.203125
4160,-33.203125
4161,-35.156250
4162,-37.109375
4163,-37.109375
4164,-39.062500
4165,-39.062500
4166,-41.015625
4167,-41.015625
4168,-42.968750
4169,-42.968750
4170,-44.921875
4171,-44.921875
4172,-46.875000
4173,-46.875000
4174,-48.828125
4175,-48.828125
4176,-50.781250
4177,-50.781250
4178,-52.734375
4179,-52.734375
4180,-54.687500
4181,-54.687500
4182,-56.640625
4183,-56.640625
4184,-58.593750
4185,-58.593750
4186,-60.546875
4187,-60.546875
4188,-62.500000
4189,-62.500000
4190,-64.453125
4191,-64.453125
4192,-66.406250
4193,-66.406250
4194,-68.359375
4195,-68.359375
4196,-68.359375
4197,-70.312500
4198,-70.312500
4199,-72.265625
4200,-72.265625
4201,-74.218750
4202,-74.218750
4203,-76.171875
4204,-76.171875
4205,-78.125000
4206,-76.171875
4207,-78.125000
4208,-78.125000
4209,-80.078125
4210,-80.078125
4211,-82.031250
4212,-82.031250
4213,-82.031250
4214,-83.984375
4215,-83.984375
4216,-85.937500
4217,-85.937500
4218,-85.937500
4219,-87.890625
4220,-87.890625
4221,-87.890625
4222,-87.890625
4223,-89.843750
4224,-89.843750
4225,-91.796875
4226,-91.796875
4227,-91.796875
4228,-93.750000
4229,-93.750000
4230,-93.750000
4231,-93.750000
4232,-95.703125
4233,-95.703125
4234,-95.703125
4235,-95.703125
4236,-97.656250
4237,-97.656250
4238,-97.656250
4239,-97.656250
4240,-99.609375
4241,-99.609375
4242,-99.609375
4243,-99.609375
4244,-101.562500
4245,-101.562500
4246,-101.562500
4247,-101.562500
4248,-101.562500
4249,-103.515625
4250,-103.515625
4251,-103.515625
4252,-105.468750
4253,-103.515625
4254,-103.515625
4255,-103.515625
4256,-103.515625
4257,-105.468750
4258,-105.468750
4259,-105.468750
4260,-105.468750
4261,-107.421875
4262,-105.468750
4263,-105.468750
4264,-107.421875
4265,-107.421875
4266,-107.421875
4267,-107.421875
4268,-105.468750
4269,-105.468750
4270,-107.421875
4271,-107.421875
4272,-107.421875
4273,-107.421875
4274,-107.421875
4275,-107.421875
4276,-107.421875
4277,-107.421875
4278,-107.421875
4279,-107.421875
4280,-105.468750
4281,-105.468750
4282,-105.468750
4283,-107.421875
4284,-107.421875
4285,-105.468750
4286,-105.468750
4287,-105.468750
4288,-105.468750
4289,-105.468750
4290,-105.468750
4291,-105.468750
4292,-105.468750
4293,-105.468750
4294,-105.468750
4295,-105.468750
4296,-105.468750
4297,-103.515625
4298,-105.468750
4299,-105.468750
4300,-103.515625
4301,-105.468750
4302,-103.515625
4303,-103.515625
4304,-103.515625
4305,-103.515625
4306,-103.515625
4307,-103.515625
4308,-103.515625
4309,-101.562500
4310,-101.562500
4311,-101.562500
4312,-101.562500
4313,-101.562500
4314,-99.609375
4315,-99.609375
4316,-99.609375
4317,-99.609375
4318,-99.609375
4319,-99.609375
4320,-97.656250
4321,-97.656250
4322,-97.656250
4323,-97.656250
4324,-95.703125
4325,-95.703125
4326,-95.703125
4327,-95.703125
4328,-95.703125
4329,-93.750000
4330,-93.750000
4331,-93.750000
4332,-91.796875
4333,-91.796875
4334,-91.796875
4335,-91.796875
4336,-89.843750
4337,-89.843750
4338,-89.843750
4339,-87.890625
4340,-87.890625
4341,-87.890625
4342,-85.937500
4343,-85.937500
4344,-85.937500
4345,-83.984375
4346,-83.984375
4347,-83.984375
4348,-83.984375
4349,-82.031250
4350,-82.031250
4351,-80.078125
4352,-80.078125
4353,-80.078125
4354,-78.125000
4355,-78.125000
4356,-78.125000
4357,-76.171875
4358,-76.171875
4359,-74.218750
4360,-76.171875
4361,-74.218750
4362,-74.218750
4363,-72.265625
4364,-72.265625
4365,-70.312500
4366,-70.312500
4367,-70.312500
4368,-68.359375
4369,-66.406250
4370,-66.406250
4371,-66.406250
4372,-66.406250
4373,-64.453125
4374,-62.500000
4375,-62.500000
4376,-62.500000
4377,-60.546875
4378,-60.546875
4379,-58.593750
4380,-58.593750
4381,-56.640625
4382,-56.640625
4383,-56.640625
4384,-54.687500
4385,-52.734375
4386,-52.734375
4387,-52.734375
4388,-50.781250
4389,-50.781250
4390,-48.828125
4391,-46.875000
4392,-46.875000
4393,-46.875000
4394,-44.921875
4395,-42.968750
4396,-42.968750
4397,-42.968750
4398,-41.015625
4399,-39.062500
4400,-39.062500
4401,-37.109375
4402,-37.109375
4403,-35.156250
4404,-33.203125
4405,-33.203125
4406,-33.203125
4407,-31.250000
4408,-29.296875
4409,-29.296875
4410,-27.343750
4411,-25.390625
4412,-25.390625
4413,-23.437500
4414,-23.437500
4415,-21.484375
4416,-19.531250
4417,-19.531250
4418,-19.531250
4419,-17.578125
4420,-17.578125
4421,-15.625000
4422,-15.625000
4423,-13.671875
4424,-11.718750
4425,-11.718750
4426,-9.765625
4427,-9.765625
4428,-7.812500
4429,-5.859375
4430,-5.859375
4431,-5.859375
4432,-3.906250
4433,-1.953125
4434,-1.953125
4435,0.000000
4436,0.000000
4437,1.953125
4438,1.953125
4439,3.906250
4440,5.859375
4441,5.859375
4442,7.812500
4443,7.812500
4444,9.765625
4445,9.765625
4446,11.718750
4447,11.718750
4448,13.671875
4449,13.671875
4450,15.625000
4451,17.578125
4452,19.531250
4453,19.531250
4454,19.531250
4455,21.484375
4456,21.484375
4457,23.437500
4458,25.390625
4459,25.390625
4460,27.343750
4461,27.343750
4462,29.296875
4463,29.296875
4464,31.250000
4465,31.250000
4466,33.203125
4467,33.203125
4468,35.156250
4469,35.156250
4470,37.109375
4471,41.015625
4472,39.062500
4473,41.015625
4474,41.015625
4475,42.968750
4476,42.968750
4477,44.921875
4478,44.921875
4479,46.875000
4480,46.875000
4481,46.875000
4482,48.828125
4483,50.781250
4484,50.781250
4485,50.781250
4486,52.734375
4487,52.734375
4488,54.687500
4489,54.687500
4490,56.640625
4491,56.640625
4492,56.640625
4493,58.593750
4494,58.593750
4495,60.546875
4496,64.453125
4497,62.500000
4498,62.500000
4499,60.546875
4500,64.453125
4501,64.453125
4502,66.406250
4503,66.406250
4504,68.359375
4505,68.359375
4506,68.359375
4507,68.359375
4508,70.312500
4509,70.312500
4510,72.265625
4511,74.218750
4512,74.218750
4513,74.218750
4514,74.218750
4515,76.171875
4516,76.171875
4517,78.125000
4518,78.125000
4519,78.125000
4520,78.125000
4521,80.078125
4522,80.078125
4523,80.078125
4524,82.031250
4525,82.031250
4526,82.031250
4527,83.984375
4528,83.984375
4529,83.984375
4530,83.984375
4531,83.984375
4532,85.937500
4533,85.937500
4534,87.890625
4535,87.890625
4536,87.890625
4537,87.890625
4538,87.890625
4539,87.890625
4540,89.843750
4541,89.843750
4542,89.843750
4543,89.843750
4544,89.843750
4545,89.843750
4546,91.796875
4547,91.796875
4548,91.796875
4549,91.796875
4550,91.796875
4551,93.750000
4552,93.750000
4553,93.750000
4554,93.750000
4555,93.750000
4556,93.750000
4557,93.750000
4558,93.750000
4559,95.703125
4560,95.703125
4561,95.703125
4562,93.750000
4563,95.703125
4564,95.703125
4565,95.703125
4566,95.703125
4567,95.703125
4568,95.703125
4569,95.703125
4570,95.703125
4571,95.703125
4572,95.703125
4573,95.703125
4574,95.703125
4575,95.703125
4576,95.703125
4577,95.703125
4578,95.703125
4579,93.750000
4580,93.750000
4581,93.750000
4582,93.750000
4583,93.750000
4584,93.750000
4585,93.750000
4586,93.750000
4587,93.750000
4588,93.750000
4589,93.750000
4590,93.750000
4591,91.796875
4592,91.796875
4593,91.796875
4594,91.796875
4595,91.796875
4596,91.796875
4597,91.796875
4598,91.796875
4599,89.843750
4600,89.843750
4601,89.843750
4602,89.843750
4603,89.843750
4604,87.890625
4605,87.890625
4606,87.890625
4607,87.890625
4608,87.890625
4609,85.937500
4610,85.937500
4611,85.937500
4612,85.937500
4613,83.984375
4614,83.984375
4615,83.984375
4616,83.984375
4617,83.984375
4618,82.031250
4619,82.031250
4620,82.031250
4621,80.078125
4622,80.078125
4623,80.078125
4624,78.125000
4625,78.125000
4626,78.125000
4627,76.171875
4628,76.171875
4629,74.218750
4630,74.218750
4631,74.218750
4632,72.265625
4633,72.265625
4634,72.265625
4635,72.265625
4636,70.312500
4637,70.312500
4638,68.359375
4639,68.359375
4640,68.359375
4641,66.406250
4642,66.406250
4643,64.453125
4644,64.453125
4645,62.500000
4646,62.500000
4647,60.546875
4648,62.500000
4649,60.546875
4650,58.593750
4651,58.593750
4652,56.640625
4653,56.640625
4654,56.640625
4655,54.687500
4656,54.687500
4657,52.734375
4658,52.734375
4659,50.781250
4660,50.781250
4661,48.828125
4662,48.828125
4663,46.875000
4664,46.875000
4665,46.875000
4666,44.921875
4667,42.968750
4668,42.968750
4669,42.968750
4670,41.015625
4671,41.015625
4672,39.062500
4673,37.109375
4674,37.109375
4675,37.109375
4676,35.156250
4677,35.156250
4678,33.203125
4679,33.203125
4680,31.250000
4681,29.296875
4682,29.296875
4683,27.343750
4684,27.343750
4685,25.390625
4686,25.390625
4687,23.437500
4688,23.437500
4689,23.437500
4690,21.484375
4691,19.531250
4692,17.578125
4693,17.578125
4694,15.625000
4695,15.625000
4696,13.671875
4697,13.671875
4698,11.718750
4699,11.718750
4700,9.765625
4701,9.765625
4702,7.812500
4703,7.812500
4704,5.859375
4705,3.906250
4706,3.906250
4707,3.906250
4708,1.953125
4709,0.000000
4710,0.000000
4711,-1.953125
4712,-1.953125
4713,-3.906250
4714,-3.906250
4715,-5.859375
4716,-5.859375
4717,-7.812500
4718,-9.765625
4719,-9.765625
4720,-9.765625
4721,-11.718750
4722,-13.671875
4723,-13.671875
4724,-15.625000
4725,-15.625000
4726,-17.578125
4727,-17.578125
4728,-19.531250
4729,-19.531250
4730,-21.484375
4731,-21.484375
4732,-23.437500
4733,-23.437500
4734,-25.390625
4735,-27.343750
4736,-27.343750
4737,-29.296875
4738,-29.296875
4739,-31.250000
4740,-33.203125
4741,-33.203125
4742,-33.203125
4743,-35.156250
4744,-35.156250
4745,-37.109375
4746,-37.109375
4747,-39.062500
4748,-39.062500
4749,-41.015625
4750,-42.968750
4751,-42.968750
4752,-44.921875
4753,-44.921875
4754,-44.921875
4755,-46.875000
4756,-48.828125
4757,-48.828125
4758,-48.828125
4759,-50.781250
4760,-52.734375
4761,-52.734375
4762,-52.734375
4763,-54.687500
4764,-56.640625
4765,-56.640625
4766,-58.593750
4767,-58.593750
4768,-58.593750
4769,-60.546875
4770,-60.546875
4771,-62.500000
4772,-64.453125
4773,-64.453125
4774,-64.453125
4775,-66.406250
4776,-66.406250
4777,-68.359375
4778,-68.359375
4779,-68.359375
4780,-70.312500
4781,-70.312500
4782,-72.265625
4783,-72.265625
4784,-72.265625
4785,-74.218750
4786,-74.218750
4787,-76.171875
4788,-78.125000
4789,-78.125000
4790,-78.125000
4791,-78.125000
4792,-80.078125
4793,-80.078125
4794,-80.078125
4795,-82.031250
4796,-82.031250
4797,-82.031250
4798,-83.984375
4799,-85.937500
4800,-85.937500
4801,-85.937500
4802,-85.937500
4803,-87.890625
4804,-87.890625
4805,-89.843750
4806,-89.843750
4807,-89.843750
4808,-89.843750
4809,-91.796875
4810,-91.796875
4811,-93.750000
4812,-93.750000
4813,-93.750000
4814,-93.750000
4815,-93.750000
4816,-95.703125
4817,-95.703125
4818,-95.703125
4819,-97.656250
4820,-97.656250
4821,-97.656250
4822,-99.609375
4823,-97.656250
4824,-99.609375
4825,-99.609375
4826,-99.609375
4827,-99.609375
4828,-101.562500
4829,-101.562500
4830,-101.562500
4831,-101.562500
4832,-101.562500
4833,-101.562500
4834,-103.515625
4835,-103.515625
4836,-103.515625
4837,-103.515625
4838,-103.515625
4839,-103.515625
4840,-103.515625
4841,-105.468750
4842,-105.468750
4843,-105.468750
4844,-105.468750
4845,-105.468750
4846,-105.468750
4847,-105.468750
4848,-105.468750
4849,-105.468750
4850,-105.468750
4851,-105.468750
4852,-105.468750
4853,-105.468750
4854,-105.468750
4855,-107.421875
4856,-107.421875
4857,-105.468750
4858,-105.468750
4859,-105.468750
4860,-107.421875
4861,-107.421875
4862,-105.468750
4863,-105.468750
4864,-105.468750
4865,-105.468750
4866,-105.468750
4867,-105.468750
4868,-105.468750
4869,-105.468750
4870,-105.468750
4871,-105.468750
4872,-105.468750
4873,-105.468750
4874,-105.468750
4875,-105.468750
4876,-103.515625
4877,-105.468750
4878,-103.515625
4879,-103.515625
4880,-105.468750
4881,-103.515625
4882,-103.515625
4883,-103.515625
4884,-103.515625
4885,-103.515625
4886,-103.515625
4887,-103.515625
4888,-101.562500
4889,-101.562500
4890,-101.562500
4891,-101.562500
4892,-101.562500
4893,-99.609375
4894,-99.609375
4895,-99.609375
4896,-99.609375
4897,-99.609375
4898,-99.609375
4899,-97.656250
4900,-97.656250
4901,-97.656250
4902,-97.656250
4903,-97.656250
4904,-97.656250
4905,-95.703125
4906,-95.703125
4907,-95.703125
4908,-95.703125
4909,-95.703125
4910,-93.750000
4911,-93.750000
4912,-93.750000
4913,-93.750000
4914,-91.796875
4915,-91.796875
4916,-89.843750
4917,-91.796875
4918,-89.843750
4919,-89.843750
4920,-89.843750
4921,-87.890625
4922,-87.890625
4923,-85.937500
4924,-85.937500
4925,-85.937500
4926,-85.937500
4927,-83.984375
4928,-83.984375
4929,-83.984375
4930,-82.031250
4931,-82.031250
4932,-82.031250
4933,-82.031250
4934,-80.078125
4935,-80.078125
4936,-78.125000
4937,-78.125000
4938,-76.171875
4939,-76.171875
4940,-76.171875
4941,-74.218750
4942,-74.218750
4943,-74.218750
4944,-74.218750
4945,-72.265625
4946,-72.265625
4947,-70.312500
4948,-70.312500
4949,-68.359375
4950,-68.359375
4951,-66.406250
4952,-66.406250
4953,-66.406250
4954,-66.406250
4955,-64.453125
4956,-64.453125
4957,-62.500000
4958,-62.500000
4959,-60.546875
4960,-60.546875
4961,-58.593750
4962,-58.593750
4963,-56.640625
4964,-56.640625
4965,-56.640625
4966,-54.687500
4967,-54.687500
4968,-52.734375
4969,-50.781250
4970,-50.781250
4971,-50.781250
4972,-48.828125
4973,-48.828125
4974,-46.875000
4975,-46.875000
4976,-44.921875
4977,-44.921875
4978,-42.968750
4979,-42.968750
4980,-41.015625
4981,-39.062500
4982,-39.062500
4983,-39.062500
4984,-37.109375
4985,-35.156250
4986,-35.156250
4987,-33.203125
4988,-33.203125
4989,-31.250000
4990,-31.250000
4991,-29.296875
4992,-27.343750
4993,-27.343750
4994,-25.390625
4995,-25.390625
4996,-23.437500
4997,-21.484375
4998,-21.484375
4999,-19.531250
5000,-19.531250
5001,-17.578125
5002,-17.578125
5003,-15.625000
5004,-13.671875
5005,-13.671875
5006,-13.671875
5007,-11.718750
5008,-9.765625
5009,-7.812500
5010,-7.812500
5011,-7.812500
5012,-5.859375
5013,-3.906250
5014,-3.906250
5015,-3.906250
5016,-1.953125
5017,0.000000
5018,1.953125
5019,1.953125
5020,1.953125
5021,3.906250
5022,5.859375
5023,5.859375
5024,5.859375
5025,7.812500
5026,9.765625
5027,9.765625
5028,11.718750
5029,11.718750
5030,13.671875
5031,15.625000
5032,15.625000
5033,17.578125
5034,17.578125
5035,17.578125
5036,19.531250
5037,21.484375
5038,21.484375
5039,21.484375
5040,23.437500
5041,25.390625
5042,27.343750
5043,27.343750
5044,27.343750
5045,29.296875
5046,31.250000
5047,31.250000
5048,31.250000
5049,33.203125
5050,35.156250
5051,35.156250
5052,37.109375
5053,37.109375
5054,39.062500
5055,39.062500
5056,41.015625
5057,41.015625
5058,41.015625
5059,42.968750
5060,44.921875
5061,44.921875
5062,46.875000
5063,46.875000
5064,48.828125
5065,48.828125
5066,50.781250
5067,50.781250
5068,52.734375
5069,52.734375
5070,52.734375
5071,54.687500
5072,54.687500
5073,54.687500
5074,56.640625
5075,58.593750
5076,58.593750
5077,60.546875
5078,60.546875
5079,60.546875
5080,62.500000
5081,62.500000
5082,64.453125
5083,64.453125
5084,64.453125
5085,66.406250
5086,66.406250
5087,66.406250
5088,68.359375
5089,68.359375
5090,70.312500
5091,72.265625
5092,72.265625
5093,72.265625
5094,72.265625
5095,72.265625
5096,74.218750
5097,76.171875
5098,74.218750
5099,76.171875
5100,78.125000
5101,76.171875
5102,78.125000
5103,78.125000
5104,78.125000
5105,80.078125
5106,80.078125
5107,82.031250
5108,82.031250
5109,82.031250
5110,83.984375
5111,83.984375
5112,83.984375
5113,83.984375
5114,85.937500
5115,85.937500
5116,85.937500
5117,85.937500
5118,85.937500
5119,87.890625
5120,87.890625
5121,87.890625
5122,87.890625
5123,89.843750
5124,89.843750
5125,89.843750
5126,89.843750
5127,91.796875
5128,91.796875
5129,91.796875
5130,91.796875
5131,91.796875
5132,91.796875
5133,91.796875
5134,91.796875
5135,93.750000
5136,93.750000
5137,93.750000
5138,93.750000
5139,93.750000
5140,93.750000
5141,93.750000
5142,93.750000
5143,93.750000
5144,93.750000
5145,93.750000
5146,95.703125
5147,93.750000
5148,93.750000
5149,93.750000
5150,93.750000
5151,93.750000
5152,93.750000
5153,93.750000
5154,93.750000
5155,95.703125
5156,93.750000
5157,93.750000
5158,95.703125
5159,93.750000
5160,93.750000
5161,93.750000
5162,93.750000
5163,93.750000
5164,93.750000
5165,93.750000
5166,93.750000
5167,93.750000
5168,93.750000
5169,93.750000
5170,93.750000
5171,91.796875
5172,91.796875
5173,91.796875
5174,91.796875
5175,91.796875
5176,91.796875
5177,91.796875
5178,91.796875
5179,91.796875
5180,89.843750
5181,89.843750
5182,89.843750
5183,89.843750
5184,89.843750
5185,89.843750
5186,89.843750
5187,87.890625
5188,87.890625
5189,87.890625
5190,87.890625
5191,85.937500
5192,85.937500
5193,85.937500
5194,85.937500
5195,85.937500
5196,83.984375
5197,83.984375
5198,83.984375
5199,82.031250
5200,82.031250
5201,82.031250
5202,82.031250
5203,80.078125
5204,80.078125
5205,80.078125
5206,78.125000
5207,78.125000
5208,78.125000
5209,78.125000
5210,76.171875
5211,74.218750
5212,74.218750
5213,74.218750
5214,72.265625
5215,72.265625
5216,72.265625
5217,70.312500
5218,70.312500
5219,68.359375
5220,70.312500
5221,68.359375
5222,68.359375
5223,66.406250
5224,66.406250
5225,64.453125
5226,64.453125
5227,64.453125
5228,62.500000
5229,62.500000
5230,60.546875
5231,60.546875
5232,60.546875
5233,58.593750
5234,58.593750
5235,56.640625
5236,56.640625
5237,54.687500
5238,54.687500
5239,52.734375
5240,52.734375
5241,52.734375
5242,50.781250
5243,50.781250
5244,48.828125
5245,48.828125
5246,46.875000
5247,46.875000
5248,44.921875
5249,44.921875
5250,42.968750
5251,41.015625
5252,42.968750
5253,41.015625
5254,41.015625
5255,39.062500
5256,39.062500
5257,37.109375
5258,35.156250
5259,35.156250
5260,33.203125
5261,33.203125
5262,31.250000
5263,31.250000
5264,29.296875
5265,29.296875
5266,27.343750
5267,27.343750
5268,25.390625
5269,25.390625
5270,23.437500
5271,23.437500
5272,21.484375
5273,21.484375
5274,19.531250
5275,19.531250
5276,17.578125
5277,15.625000
5278,15.625000
5279,13.671875
5280,13.671875
5281,11.718750
5282,11.718750
5283,9.765625
5284,7.812500
5285,7.812500
5286,5.859375
5287,5.859375
5288,5.859375
5289,3.906250
5290,1.953125
5291,1.953125
5292,0.000000
5293,0.000000
5294,-1.953125
5295,-1.953125
5296,-3.906250
5297,-3.906250
5298,-5.859375
5299,-5.859375
5300,-7.812500
5301,-7.812500
5302,-9.765625
5303,-11.718750
5304,-11.718750
5305,-13.671875
5306,-13.671875
5307,-15.625000
5308,-15.625000
5309,-17.578125
5310,-19.531250
5311,-19.531250
5312,-19.531250
5313,-21.484375
5314,-21.484375
5315,-23.437500
5316,-23.437500
5317,-25.390625
5318,-25.390625
5319,-27.343750
5320,-29.296875
5321,-29.296875
5322,-31.250000
5323,-31.250000
5324,-33.203125
5325,-33.203125
5326,-35.156250
5327,-35.156250
5328,-37.109375
5329,-37.109375
5330,-39.062500
5331,-39.062500
5332,-41.015625
5333,-41.015625
5334,-42.968750
5335,-42.968750
5336,-44.921875
5337,-46.875000
5338,-46.875000
5339,-46.875000
5340,-48.828125
5341,-50.781250
5342,-50.781250
5343,-50.781250
5344,-52.734375
5345,-54.687500
5346,-54.687500
5347,-54.687500
5348,-56.640625
5349,-58.593750
5350,-58.593750
5351,-60.546875
5352,-60.546875
5353,-60.546875
5354,-62.500000
5355,-62.500000
5356,-64.453125
5357,-64.453125
5358,-66.406250
5359,-66.406250
5360,-68.359375
5361,-68.359375
5362,-70.312500
5363,-70.312500
5364,-70.312500
5365,-72.265625
5366,-72.265625
5367,-74.218750
5368,-74.218750
5369,-74.218750
5370,-76.171875
5371,-76.171875
5372,-78.125000
5373,-78.125000
5374,-80.078125
5375,-80.078125
5376,-80.078125
5377,-80.078125
5378,-82.031250
5379,-82.031250
5380,-83.984375
5381,-83.984375
5382,-83.984375
5383,-83.984375
5384,-85.937500
5385,-85.937500
5386,-85.937500
5387,-87.890625
5388,-87.890625
5389,-87.890625
5390,-89.843750
5391,-89.843750
5392,-91.796875
5393,-91.796875
5394,-91.796875
5395,-91.796875
5396,-93.750000
5397,-93.750000
5398,-93.750000
5399,-93.750000
5400,-95.703125
5401,-95.703125
5402,-97.656250
5403,-95.703125
5404,-97.656250
5405,-97.656250
5406,-97.656250
5407,-99.609375
5408,-99.609375
5409,-99.609375
5410,-99.609375
5411,-99.609375
5412,-101.562500
5413,-101.562500
5414,-101.562500
5415,-101.562500
5416,-101.562500
5417,-103.515625
5418,-103.515625
5419,-101.562500
5420,-103.515625
5421,-103.515625
5422,-103.515625
5423,-103.515625
5424,-105.468750
5425,-103.515625
5426,-105.468750
5427,-103.515625
5428,-107.421875
5429,-103.515625
5430,-105.468750
5431,-105.468750
5432,-105.468750
5433,-105.468750
5434,-105.468750
5435,-105.468750
5436,-105.468750
5437,-107.421875
5438,-105.468750
5439,-105.468750
5440,-105.468750
5441,-105.468750
5442,-105.468750
5443,-105.468750
5444,-105.468750
5445,-105.468750
5446,-105.468750
5447,-105.468750
5448,-105.468750
5449,-105.468750
5450,-105.468750
5451,-105.468750
5452,-105.468750
5453,-105.468750
5454,-105.468750
5455,-105.468750
5456,-103.515625
5457,-105.468750
5458,-105.468750
5459,-103.515625
5460,-103.515625
5461,-103.515625
5462,-103.515625
5463,-103.515625
5464,-103.515625
5465,-103.515625
5466,-103.515625
5467,-103.515625
5468,-101.562500
5469,-101.562500
5470,-99.609375
5471,-101.562500
5472,-101.562500
5473,-101.562500
5474,-101.562500
5475,-97.656250
5476,-99.609375
5477,-99.609375
5478,-99.609375
5479,-99.609375
5480,-99.609375
5481,-99.609375
5482,-97.656250
5483,-97.656250
5484,-97.656250
5485,-97.656250
5486,-97.656250
5487,-95.703125
5488,-95.703125
5489,-93.750000
5490,-95.703125
5491,-95.703125
5492,-93.750000
5493,-93.750000
5494,-91.796875
5495,-93.750000
5496,-91.796875
5497,-91.796875
5498,-91.796875
5499,-91.796875
5500,-89.843750
5501,-89.843750
5502,-89.843750
5503,-87.890625
5504,-87.890625
5505,-87.890625
5506,-85.937500
5507,-85.937500
5508,-85.937500
5509,-85.937500
5510,-83.984375
5511,-83.984375
5512,-83.984375
5513,-82.031250
5514,-82.031250
5515,-82.031250
5516,-80.078125
5517,-80.078125
5518,-78.125000
5519,-78.125000
5520,-78.125000
5521,-78.125000
5522,-76.171875
5523,-76.171875
5524,-74.218750
5525,-74.218750
5526,-74.218750
5527,-72.265625
5528,-72.265625
5529,-72.265625
5530,-70.312500
5531,-70.312500
5532,-68.359375
5533,-68.359375
5534,-66.406250
5535,-66.406250
5536,-66.406250
5537,-64.453125
5538,-64.453125
5539,-62.500000
5540,-62.500000
5541,-62.500000
5542,-60.546875
5543,-60.546875
5544,-58.593750
5545,-58.593750
5546,-56.640625
5547,-56.640625
5548,-54.687500
5549,-54.687500
5550,-52.734375
5551,-52.734375
5552,-52.734375
5553,-50.781250
5554,-50.781250
5555,-48.828125
5556,-48.828125
5557,-46.875000
5558,-46.875000
5559,-44.921875
5560,-44.921875
5561,-42.968750
5562,-41.015625
5563,-41.015625
5564,-39.062500
5565,-39.062500
5566,-37.109375
5567,-37.109375
5568,-35.156250
5569,-33.203125
5570,-33.203125
5571,-33.203125
5572,-31.250000
5573,-29.296875
5574,-29.296875
5575,-27.343750
5576,-27.343750
5577,-25.390625
5578,-25.390625
5579,-23.437500
5580,-23.437500
5581,-21.484375
5582,-21.484375
5583,-19.531250
5584,-17.578125
5585,-17.578125
5586,-15.625000
5587,-15.625000
5588,-13.671875
5589,-13.671875
5590,-11.718750
5591,-9.765625
5592,-9.765625
5593,-7.812500
5594,-7.812500
5595,-5.859375
5596,-5.859375
5597,-3.906250
5598,-1.953125
5599,-1.953125
5600,0.000000
5601,0.000000
5602,1.953125
5603,1.953125
5604,3.906250
5605,3.906250
5606,5.859375
5607,5.859375
5608,7.812500
5609,9.765625
5610,9.765625
5611,11.718750
5612,11.718750
5613,13.671875
5614,13.671875
5615,15.625000
5616,15.625000
5617,17.578125
5618,19.531250
5619,19.531250
5620,21.484375
5621,23.437500
5622,23.437500
5623,23.437500
5624,25.390625
5625,25.390625
5626,27.343750
5627,29.296875
5628,29.296875
5629,29.296875
5630,31.250000
5631,31.250000
5632,33.203125
5633,33.203125
5634,35.156250
5635,35.156250
5636,37.109375
5637,39.062500
5638,39.062500
5639,39.062500
5640,41.015625
5641,41.015625
5642,42.968750
5643,42.968750
5644,44.921875
5645,44.921875
5646,46.875000
5647,48.828125
5648,48.828125
5649,48.828125
5650,50.781250
5651,50.781250
5652,52.734375
5653,54.687500
5654,54.687500
5655,56.640625
5656,56.640625
5657,58.593750
5658,58.593750
5659,58.593750
5660,58.593750
5661,60.546875
5662,60.546875
5663,62.500000
5664,62.500000
5665,64.453125
5666,64.453125
5667,64.453125
5668,66.406250
5669,66.406250
5670,72.265625
5671,68.359375
5672,74.218750
5673,70.312500
5674,70.312500
5675,72.265625
5676,72.265625
5677,72.265625
5678,74.218750
5679,74.218750
5680,74.218750
5681,74.218750
5682,76.171875
5683,76.171875
5684,78.125000
5685,78.125000
5686,78.125000
5687,80.078125
5688,80.078125
5689,80.078125
5690,80.078125
5691,80.078125
5692,82.031250
5693,83.984375
5694,83.984375
5695,83.984375
5696,83.984375
5697,85.937500
5698,85.937500
5699,85.937500
5700,85.937500
5701,85.937500
5702,87.890625
5703,87.890625
5704,87.890625
5705,87.890625
5706,89.843750
5707,89.843750
5708,89.843750
5709,89.843750
5710,89.843750
5711,89.843750
5712,91.796875
5713,91.796875
5714,91.796875
5715,91.796875
5716,91.796875
5717,91.796875
5718,91.796875
5719,91.796875
5720,93.750000
5721,93.750000
5722,93.750000
5723,93.750000
5724,93.750000
5725,93.750000
5726,93.750000
5727,93.750000
5728,93.750000
5729,93.750000
5730,93.750000
5731,93.750000
5732,93.750000
5733,93.750000
5734,93.750000
5735,93.750000
5736,95.703125
5737,93.750000
5738,95.703125
5739,95.703125
5740,93.750000
5741,93.750000
5742,93.750000
5743,93.750000
5744,93.750000
5745,93.750000
5746,93.750000
5747,93.750000
5748,93.750000
5749,93.750000
5750,93.750000
5751,93.750000
5752,93.750000
5753,93.750000
5754,91.796875
5755,91.796875
5756,89.843750
5757,91.796875
5758,91.796875
5759,91.796875
5760,91.796875
5761,91.796875
5762,91.796875
5763,89.843750
5764,89.843750
5765,89.843750
5766,89.843750
5767,89.843750
5768,87.890625
5769,87.890625
5770,87.890625
5771,89.843750
5772,87.890625
5773,87.890625
5774,85.937500
5775,87.890625
5776,85.937500
5777,83.984375
5778,83.984375
5779,83.984375
5780,83.984375
5781,83.984375
5782,82.031250
5783,82.031250
5784,82.031250
5785,80.078125
5786,80.078125
5787,80.078125
5788,78.125000
5789,78.125000
5790,76.171875
5791,76.171875
5792,74.218750
5793,76.171875
5794,74.218750
5795,74.218750
5796,74.218750
5797,72.265625
5798,72.265625
5799,72.265625
5800,72.265625
5801,70.312500
5802,70.312500
5803,68.359375
5804,68.359375
5805,68.359375
5806,66.406250
5807,66.406250
5808,64.453125
5809,64.453125
5810,64.453125
5811,62.500000
5812,62.500000
5813,60.546875
5814,60.546875
5815,58.593750
5816,58.593750
5817,58.593750
5818,56.640625
5819,56.640625
5820,54.687500
5821,54.687500
5822,52.734375
5823,52.734375
5824,52.734375
5825,50.781250
5826,50.781250
5827,48.828125
5828,48.828125
5829,46.875000
5830,46.875000
5831,46.875000
5832,44.921875
5833,42.968750
5834,42.968750
5835,41.015625
5836,41.015625
5837,41.015625
5838,39.062500
5839,37.109375
5840,37.109375
5841,37.109375
5842,35.156250
5843,33.203125
5844,33.203125
5845,33.203125
5846,31.250000
5847,31.250000
5848,29.296875
5849,27.343750
5850,25.390625
5851,25.390625
5852,25.390625
5853,23.437500
5854,23.437500
5855,21.484375
5856,21.484375
5857,19.531250
5858,17.578125
5859,17.578125
5860,15.625000
5861,15.625000
5862,15.625000
5863,13.671875
5864,11.718750
5865,11.718750
5866,9.765625
5867,9.765625
5868,7.812500
5869,5.859375
5870,5.859375
5871,5.859375
5872,3.906250
5873,1.953125
5874,1.953125
5875,1.953125
5876,0.000000
5877,-1.953125
5878,-1.953125
5879,-3.906250
5880,-3.906250
5881,-5.859375
5882,-5.859375
5883,-7.812500
5884,-7.812500
5885,-9.765625
5886,-11.718750
5887,-11.718750
5888,-11.718750
5889,-13.671875
5890,-15.625000
5891,-15.625000
5892,-17.578125
5893,-17.578125
5894,-19.531250
5895,-19.531250
5896,-19.531250
5897,-21.484375
5898,-23.437500
5899,-25.390625
5900,-25.390625
5901,-25.390625
5902,-27.343750
5903,-29.296875
5904,-29.296875
5905,-31.250000
5906,-31.250000
5907,-33.203125
5908,-33.203125
5909,-35.156250
5910,-35.156250
5911,-37.109375
5912,-37.109375
5913,-39.062500
5914,-39.062500
5915,-41.015625
5916,-41.015625
5917,-42.968750
5918,-44.921875
5919,-44.921875
5920,-46.875000
5921,-46.875000
5922,-46.875000
5923,-48.828125
5924,-50.781250
5925,-50.781250
5926,-52.734375
5927,-52.734375
5928,-52.734375
5929,-54.687500
5930,-54.687500
5931,-56.640625
5932,-56.640625
5933,-58.593750
5934,-58.593750
5935,-60.546875
5936,-60.546875
5937,-62.500000
5938,-62.500000
5939,-64.453125
5940,-64.453125
5941,-66.406250
5942,-66.406250
5943,-68.359375
5944,-68.359375
5945,-70.312500
5946,-70.312500
5947,-72.265625
5948,-72.265625
5949,-72.265625
5950,-72.265625
5951,-74.218750
5952,-74.218750
5953,-76.171875
5954,-76.171875
5955,-78.125000
5956,-78.125000
5957,-78.125000
5958,-80.078125
5959,-80.078125
5960,-80.078125
5961,-82.031250
5962,-83.984375
5963,-83.984375
5964,-83.984375
5965,-83.984375
5966,-83.984375
5967,-85.937500
5968,-85.937500
5969,-87.890625
5970,-87.890625
5971,-89.843750
5972,-89.843750
5973,-89.843750
5974,-89.843750
5975,-91.796875
5976,-91.796875
5977,-91.796875
5978,-93.750000
5979,-93.750000
5980,-93.750000
5981,-95.703125
5982,-95.703125
5983,-95.703125
5984,-95.703125
5985,-95.703125
5986,-97.656250
5987,-97.656250
5988,-97.656250
5989,-99.609375
5990,-99.609375
5991,-99.609375
5992,-99.609375
5993,-99.609375
5994,-101.562500
5995,-101.562500
5996,-101.562500
5997,-101.562500
5998,-103.515625
5999,-103.515625
6000,-103.515625
6001,-103.515625
6002,-103.515625
6003,-103.515625
6004,-103.515625
6005,-103.515625
6006,-103.515625
6007,-105.468750
6008,-105.468750
6009,-105.468750
6010,-105.468750
6011,-105.468750
6012,-107.421875
6013,-105.468750
6014,-107.421875
6015,-105.468750
6016,-105.468750
6017,-105.468750
6018,-105.468750
6019,-105.468750
6020,-107.421875
6021,-105.468750
6022,-105.468750
6023,-105.468750
6024,-105.468750
6025,-105.468750
6026,-105.468750
6027,-107.421875
6028,-105.468750
6029,-105.468750
6030,-105.468750
6031,-105.468750
6032,-105.468750
6033,-105.468750
6034,-105.468750
6035,-105.468750
6036,-105.468750
6037,-105.468750
6038,-105.468750
6039,-105.468750
6040,-105.468750
6041,-105.468750
6042,-105.468750
6043,-103.515625
6044,-103.515625
6045,-103.515625
6046,-103.515625
6047,-103.515625
6048,-103.515625
6049,-103.515625
6050,-103.515625
6051,-103.515625
6052,-103.515625
6053,-101.562500
6054,-101.562500
6055,-101.562500
6056,-103.515625
6057,-101.562500
6058,-101.562500
6059,-101.562500
6060,-101.562500
6061,-99.609375
6062,-101.562500
6063,-99.609375
6064,-101.562500
6065,-99.609375
6066,-99.609375
6067,-97.656250
6068,-97.656250
6069,-97.656250
6070,-97.656250
6071,-97.656250
6072,-95.703125
6073,-95.703125
6074,-95.703125
6075,-93.750000
6076,-93.750000
6077,-93.750000
6078,-93.750000
6079,-91.796875
6080,-91.796875
6081,-91.796875
6082,-89.843750
6083,-89.843750
6084,-89.843750
6085,-89.843750
6086,-89.843750
6087,-87.890625
6088,-87.890625
6089,-87.890625
6090,-87.890625
6091,-85.937500
6092,-85.937500
6093,-83.984375
6094,-83.984375
6095,-83.984375
6096,-83.984375
6097,-82.031250
6098,-82.031250
6099,-80.078125
6100,-80.078125
6101,-80.078125
6102,-78.125000
6103,-78.125000
6104,-78.125000
6105,-76.171875
6106,-76.171875
6107,-76.171875
6108,-74.218750
6109,-74.218750
6110,-72.265625
6111,-72.265625
6112,-72.265625
6113,-70.312500
6114,-70.312500
6115,-68.359375
6116,-68.359375
6117,-68.359375
6118,-66.406250
6119,-66.406250
6120,-64.453125
6121,-64.453125
6122,-64.453125
6123,-62.500000
6124,-62.500000
6125,-60.546875
6126,-60.546875
6127,-58.593750
6128,-58.593750
6129,-56.640625
6130,-56.640625
6131,-54.687500
6132,-54.687500
6133,-54.687500
6134,-52.734375
6135,-50.781250
6136,-50.781250
6137,-50.781250
6138,-48.828125
6139,-48.828125
6140,-46.875000
6141,-46.875000
6142,-44.921875
6143,-44.921875
6144,-42.968750
6145,-41.015625
6146,-41.015625
6147,-41.015625
6148,-39.062500
6149,-39.062500
6150,-37.109375
6151,-37.109375
6152,-35.156250
6153,-33.203125
6154,-33.203125
6155,-31.250000
6156,-31.250000
6157,-29.296875
6158,-27.343750
6159,-27.343750
6160,-27.343750
6161,-25.390625
6162,-23.437500
6163,-23.437500
6164,-21.484375
6165,-19.531250
6166,-19.531250
6167,-17.578125
6168,-17.578125
6169,-15.625000
6170,-15.625000
6171,-13.671875
6172,-13.671875
6173,-11.718750
6174,-9.765625
6175,-9.765625
6176,-7.812500
6177,-7.812500
6178,-5.859375
6179,-3.906250
6180,-3.906250
6181,-3.906250
6182,-1.953125
6183,0.000000
6184,0.000000
6185,1.953125
6186,1.953125
6187,3.906250
6188,3.906250
6189,5.859375
6190,5.859375
6191,7.812500
6192,9.765625
6193,9.765625
6194,11.718750
6195,13.671875
6196,13.671875
6197,13.671875
6198,15.625000
6199,17.578125
6200,17.578125
6201,19.531250
6202,19.531250
6203,21.484375
6204,21.484375
6205,23.437500
6206,23.437500
6207,25.390625
6208,25.390625
6209,27.343750
6210,27.343750
6211,29.296875
6212,29.296875
6213,31.250000
6214,33.203125
6215,33.203125
6216,35.156250
6217,35.156250
6218,37.109375
6219,37.109375
6220,39.062500
6221,39.062500
6222,41.015625
6223,41.015625
6224,42.968750
6225,42.968750
6226,44.921875
6227,44.921875
6228,44.921875
6229,46.875000
6230,48.828125
6231,48.828125
6232,50.781250
6233,50.781250
6234,52.734375
6235,52.734375
6236,54.687500
6237,54.687500
6238,54.687500
6239,56.640625
6240,58.593750
6241,58.593750
6242,58.593750
6243,60.546875
6244,60.546875
6245,62.500000
6246,62.500000
6247,62.500000
6248,64.453125
6249,64.453125
6250,64.453125
6251,66.406250
6252,68.359375
6253,68.359375
6254,68.359375
6255,70.312500
6256,70.312500
6257,70.312500
6258,72.265625
6259,72.265625
6260,72.265625
6261,74.218750
6262,74.218750
6263,74.218750
6264,76.171875
6265,76.171875
6266,78.125000
6267,78.125000
6268,78.125000
6269,80.078125
6270,80.078125
6271,80.078125
6272,80.078125
6273,82.031250
6274,82.031250
6275,82.031250
6276,83.984375
6277,83.984375
6278,83.984375
6279,83.984375
6280,85.937500
6281,85.937500
6282,83.984375
6283,87.890625
6284,87.890625
6285,87.890625
6286,87.890625
6287,87.890625
6288,87.890625
6289,89.843750
6290,89.843750
6291,89.843750
6292,89.843750
6293,89.843750
6294,91.796875
6295,91.796875
6296,91.796875
6297,91.796875
6298,91.796875
6299,91.796875
6300,91.796875
6301,93.750000
6302,93.750000
6303,93.750000
6304,93.750000
6305,93.750000
6306,93.750000
6307,93.750000
6308,93.750000
6309,93.750000
6310,93.750000
6311,93.750000
6312,93.750000
6313,95.703125
6314,95.703125
6315,95.703125
6316,93.750000
6317,95.703125
6318,95.703125
6319,95.703125
6320,95.703125
6321,95.703125
6322,95.703125
6323,95.703125
6324,95.703125
6325,93.750000
6326,93.750000
6327,95.703125
6328,95.703125
6329,93.750000
6330,93.750000
6331,93.750000
6332,93.750000
6333,93.750000
6334,93.750000
6335,93.750000
6336,93.750000
6337,93.750000
6338,93.750000
6339,93.750000
6340,91.796875
6341,93.750000
6342,91.796875
6343,91.796875
6344,91.796875
6345,91.796875
6346,89.843750
6347,89.843750
6348,89.843750
6349,89.843750
6350,89.843750
6351,89.843750
6352,87.890625
6353,87.890625
6354,87.890625
6355,87.890625
6356,85.937500
6357,85.937500
6358,85.937500
6359,85.937500
6360,85.937500
6361,83.984375
6362,83.984375
6363,83.984375
6364,83.984375
6365,82.031250
6366,82.031250
6367,82.031250
6368,80.078125
6369,80.078125
6370,80.078125
6371,80.078125
6372,78.125000
6373,78.125000
6374,76.171875
6375,78.125000
6376,76.171875
6377,76.171875
6378,74.218750
6379,74.218750
6380,74.218750
6381,72.265625
6382,72.265625
6383,72.265625
6384,70.312500
6385,70.312500
6386,70.312500
6387,68.359375
6388,68.359375
6389,66.406250
6390,66.406250
6391,66.406250
6392,64.453125
6393,64.453125
6394,62.500000
6395,62.500000
6396,60.546875
6397,60.546875
6398,60.546875
6399,58.593750
6400,58.593750
6401,56.640625
6402,56.640625
6403,56.640625
6404,54.687500
6405,52.734375
6406,54.687500
6407,52.734375
6408,50.781250
6409,50.781250
6410,50.781250
6411,50.781250
6412,46.875000
6413,46.875000
6414,46.875000
6415,44.921875
6416,44.921875
6417,42.968750
6418,41.015625
6419,39.062500
6420,41.015625
6421,39.062500
6422,39.062500
6423,37.109375
6424,37.109375
6425,35.156250
6426,35.156250
6427,33.203125
6428,31.250000
6429,31.250000
6430,31.250000
6431,29.296875
6432,27.343750
6433,27.343750
6434,25.390625
6435,25.390625
6436,23.437500
6437,23.437500
6438,21.484375
6439,21.484375
6440,19.531250
6441,19.531250
6442,17.578125
6443,15.625000
6444,15.625000
6445,13.671875
6446,13.671875
6447,13.671875
6448,11.718750
6449,9.765625
6450,9.765625
6451,7.812500
6452,7.812500
6453,5.859375
6454,5.859375
6455,3.906250
6456,1.953125
6457,1.953125
6458,0.000000
6459,0.000000
6460,-1.953125
6461,-1.953125
6462,-3.906250
6463,-3.906250
6464,-5.859375
6465,-5.859375
6466,-7.812500
6467,-7.812500
6468,-9.765625
6469,-9.765625
6470,-11.718750
6471,-13.671875
6472,-13.671875
6473,-15.625000
6474,-15.625000
6475,-17.578125
6476,-17.578125
6477,-19.531250
6478,-19.531250
6479,-21.484375
6480,-21.484375
6481,-23.437500
6482,-25.390625
6483,-25.390625
6484,-25.390625
6485,-27.343750
6486,-29.296875
6487,-29.296875
6488,-31.250000
6489,-31.250000
6490,-33.203125
6491,-33.203125
6492,-35.156250
6493,-35.156250
6494,-37.109375
6495,-39.062500
6496,-39.062500
6497,-39.062500
6498,-41.015625
6499,-42.968750
6500,-42.968750
6501,-44.921875
6502,-44.921875
6503,-44.921875
6504,-46.875000
6505,-48.828125
6506,-48.828125
6507,-50.781250
6508,-50.781250
6509,-52.734375
6510,-52.734375
6511,-54.687500
6512,-54.687500
6513,-56.640625
6514,-56.640625
6515,-58.593750
6516,-58.593750
6517,-60.546875
6518,-60.546875
6519,-62.500000
6520,-62.500000
6521,-64.453125
6522,-64.453125
6523,-64.453125
6524,-66.406250
6525,-66.406250
6526,-68.359375
6527,-68.359375
6528,-70.312500
6529,-70.312500
6530,-72.265625
6531,-72.265625
6532,-74.218750
6533,-74.218750
6534,-76.171875
6535,-76.171875
6536,-76.171875
6537,-76.171875
6538,-78.125000
6539,-78.125000
6540,-80.078125
6541,-80.078125
6542,-82.031250
6543,-82.031250
6544,-82.031250
6545,-83.984375
6546,-83.984375
6547,-85.937500
6548,-85.937500
6549,-85.937500
6550,-85.937500
6551,-87.890625
6552,-87.890625
6553,-87.890625
6554,-89.843750
6555,-89.843750
6556,-89.843750
6557,-91.796875
6558,-91.796875
6559,-91.796875
6560,-91.796875
6561,-93.750000
6562,-93.750000
6563,-95.703125
6564,-95.703125
6565,-95.703125
6566,-97.656250
6567,-95.703125
6568,-97.656250
6569,-97.656250
6570,-97.656250
6571,-99.609375
6572,-99.609375
6573,-99.609375
6574,-99.609375
6575,-101.562500
6576,-101.562500
6577,-101.562500
6578,-101.562500
6579,-101.562500
6580,-103.515625
6581,-103.515625
6582,-103.515625
6583,-103.515625
6584,-103.515625
6585,-103.515625
6586,-105.468750
6587,-105.468750
6588,-105.468750
6589,-105.468750
6590,-105.468750
6591,-105.468750
6592,-105.468750
6593,-105.468750
6594,-105.468750
6595,-107.421875
6596,-105.468750
6597,-105.468750
6598,-107.421875
6599,-107.421875
6600,-105.468750
6601,-107.421875
6602,-107.421875
6603,-107.421875
6604,-107.421875
6605,-107.421875
6606,-107.421875
6607,-107.421875
6608,-107.421875
6609,-107.421875
6610,-107.421875
6611,-107.421875
6612,-107.421875
6613,-107.421875
6614,-107.421875
6615,-107.421875
6616,-105.468750
6617,-105.468750
6618,-105.468750
6619,-105.468750
6620,-105.468750
6621,-105.468750
6622,-105.468750
6623,-105.468750
6624,-105.468750
6625,-103.515625
6626,-105.468750
6627,-105.468750
6628,-105.468750
6629,-105.468750
6630,-103.515625
6631,-103.515625
6632,-103.515625
6633,-103.515625
6634,-103.515625
6635,-103.515625
6636,-101.562500
6637,-103.515625
6638,-101.562500
6639,-101.562500
6640,-101.562500
6641,-101.562500
6642,-101.562500
6643,-101.562500
6644,-101.562500
6645,-101.562500
6646,-99.609375
6647,-99.609375
6648,-99.609375
6649,-99.609375
6650,-97.656250
6651,-97.656250
6652,-97.656250
6653,-97.656250
6654,-95.703125
6655,-95.703125
6656,-95.703125
6657,-95.703125
6658,-95.703125
6659,-95.703125
6660,-93.750000
6661,-93.750000
6662,-93.750000
6663,-91.796875
6664,-91.796875
6665,-91.796875
6666,-91.796875
6667,-89.843750
6668,-89.843750
6669,-87.890625
6670,-87.890625
6671,-87.890625
6672,-87.890625
6673,-85.937500
6674,-85.937500
6675,-85.937500
6676,-85.937500
6677,-83.984375
6678,-83.984375
6679,-83.984375
6680,-82.031250
6681,-82.031250
6682,-82.031250
6683,-80.078125
6684,-80.078125
6685,-80.078125
6686,-78.125000
6687,-76.171875
6688,-78.125000
6689,-76.171875
6690,-76.171875
6691,-74.218750
6692,-74.218750
6693,-74.218750
6694,-72.265625
6695,-72.265625
6696,-70.312500
6697,-70.312500
6698,-68.359375
6699,-68.359375
6700,-68.359375
6701,-66.406250
6702,-66.406250
6703,-64.453125
6704,-64.453125
6705,-64.453125
6706,-62.500000
6707,-62.500000
6708,-60.546875
6709,-60.546875
6710,-58.593750
6711,-58.593750
6712,-56.640625
6713,-56.640625
6714,-54.687500
6715,-54.687500
6716,-52.734375
6717,-52.734375
6718,-50.781250
6719,-50.781250
6720,-48.828125
6721,-48.828125
6722,-46.875000
6723,-46.875000
6724,-44.921875
6725,-44.921875
6726,-42.968750
6727,-42.968750
6728,-41.015625
6729,-41.015625
6730,-39.062500
6731,-37.109375
6732,-37.109375
6733,-37.109375
6734,-35.156250
6735,-35.156250
6736,-33.203125
6737,-31.250000
6738,-31.250000
6739,-29.296875
6740,-29.296875
6741,-27.343750
6742,-27.343750
6743,-25.390625
6744,-23.437500
6745,-23.437500
6746,-21.484375
6747,-21.484375
6748,-19.531250
6749,-19.531250
6750,-17.578125
6751,-17.578125
6752,-15.625000
6753,-13.671875
6754,-13.671875
6755,-11.718750
6756,-9.765625
6757,-9.765625
6758,-7.812500
6759,-7.812500
6760,-5.859375
6761,-5.859375
6762,-3.906250
6763,-3.906250
6764,-1.953125
6765,-1.953125
6766,0.000000
6767,1.953125
6768,1.953125
6769,3.906250
6770,3.906250
6771,5.859375
6772,7.812500
6773,7.812500
6774,9.765625
6775,9.765625
6776,9.765625
6777,11.718750
6778,13.671875
6779,13.671875
6780,15.625000
6781,15.625000
6782,17.578125
6783,17.578125
6784,19.531250
6785,19.531250
6786,23.437500
6787,23.437500
6788,23.437500
6789,25.390625
6790,27.343750
6791,27.343750
6792,29.296875
6793,29.296875
6794,31.250000
6795,31.250000
6796,33.203125
6797,33.203125
6798,35.156250
6799,35.156250
6800,37.109375
6801,37.109375
6802,39.062500
6803,39.062500
6804,41.015625
6805,41.015625
6806,42.968750
6807,42.968750
6808,44.921875
6809,46.875000
6810,46.875000
6811,46.875000
6812,48.828125
6813,48.828125
6814,50.781250
6815,52.734375
6816,52.734375
6817,52.734375
6818,54.687500
6819,54.687500
6820,54.687500
6821,56.640625
6822,56.640625
6823,58.593750
6824,58.593750
6825,60.546875
6826,60.546875
6827,62.500000
6828,62.500000
6829,62.500000
6830,64.453125
6831,66.406250
6832,66.406250
6833,66.406250
6834,68.359375
6835,68.359375
6836,68.359375
6837,68.359375
6838,70.312500
6839,70.312500
6840,72.265625
6841,72.265625
6842,74.218750
6843,74.218750
6844,74.218750
6845,74.218750
6846,76.171875
6847,76.171875
6848,78.125000
6849,78.125000
6850,78.125000
6851,80.078125
6852,80.078125
6853,80.078125
6854,80.078125
6855,82.031250
6856,82.031250
6857,83.984375
6858,83.984375
6859,83.984375
6860,83.984375
6861,85.937500
6862,85.937500
6863,85.937500
6864,85.937500
6865,87.890625
6866,87.890625
6867,87.890625
6868,87.890625
6869,89.843750
6870,89.843750
6871,89.843750
6872,89.843750
6873,89.843750
6874,91.796875
6875,91.796875
6876,91.796875
6877,91.796875
6878,91.796875
6879,91.796875
6880,91.796875
6881,93.750000
6882,93.750000
6883,93.750000
6884,93.750000
6885,93.750000
6886,93.750000
6887,93.750000
6888,93.750000
6889,93.750000
6890,93.750000
6891,95.703125
6892,95.703125
6893,95.703125
6894,95.703125
6895,95.703125
6896,95.703125
6897,95.703125
6898,95.703125
6899,95.703125
6900,95.703125
6901,95.703125
6902,95.703125
6903,95.703125
6904,95.703125
6905,95.703125
6906,95.703125
6907,95.703125
6908,93.750000
6909,95.703125
6910,93.750000
6911,95.703125
6912,95.703125
6913,93.750000
6914,93.750000
6915,93.750000
6916,93.750000
6917,93.750000
6918,93.750000
6919,93.750000
6920,93.750000
6921,93.750000
6922,93.750000
6923,91.796875
6924,91.796875
6925,91.796875
6926,91.796875
6927,91.796875
6928,91.796875
6929,89.843750
6930,89.843750
6931,89.843750
6932,89.843750
6933,89.843750
6934,89.843750
6935,87.890625
6936,87.890625
6937,87.890625
6938,87.890625
6939,87.890625
6940,87.890625
6941,85.937500
6942,85.937500
6943,85.937500
6944,85.937500
6945,83.984375
6946,83.984375
6947,83.984375
6948,82.031250
6949,82.031250
6950,82.031250
6951,82.031250
6952,80.078125
6953,80.078125
6954,78.125000
6955,78.125000
6956,78.125000
6957,78.125000
6958,76.171875
6959,76.171875
6960,76.171875
6961,74.218750
6962,74.218750
6963,74.218750
6964,72.265625
6965,72.265625
6966,70.312500
6967,70.312500
6968,70.312500
6969,68.359375
6970,68.359375
6971,68.359375
6972,66.406250
6973,66.406250
6974,64.453125
6975,64.453125
6976,64.453125
6977,62.500000
6978,62.500000
6979,60.546875
6980,60.546875
6981,60.546875
6982,58.593750
6983,58.593750
6984,56.640625
6985,56.640625
6986,56.640625
6987,54.687500
6988,52.734375
6989,52.734375
6990,50.781250
6991,50.781250
6992,50.781250
6993,48.828125
6994,46.875000
6995,46.875000
6996,46.875000
6997,44.921875
6998,44.921875
6999,42.968750
7000,42.968750
7001,41.015625
7002,41.015625
7003,41.015625
7004,39.062500
7005,37.109375
7006,37.109375
7007,35.156250
7008,35.156250
7009,33.203125
7010,33.203125
7011,31.250000
7012,31.250000
7013,29.296875
7014,29.296875
7015,27.343750
7016,27.343750
7017,25.390625
7018,25.390625
7019,23.437500
7020,21.484375
7021,21.484375
7022,21.484375
7023,19.531250
7024,17.578125
7025,17.578125
7026,15.625000
7027,15.625000
7028,13.671875
7029,11.718750
7030,11.718750
7031,9.765625
7032,9.765625
7033,7.812500
7034,7.812500
7035,5.859375
7036,5.859375
7037,3.906250
7038,3.906250
7039,1.953125
7040,1.953125
7041,0.000000
7042,-1.953125
7043,-1.953125
7044,-1.953125
7045,-3.906250
7046,-5.859375
7047,-5.859375
7048,-7.812500
7049,-7.812500
7050,-9.765625
7051,-9.765625
7052,-11.718750
7053,-11.718750
7054,-13.671875
7055,-13.671875
7056,-15.625000
7057,-17.578125
7058,-17.578125
7059,-19.531250
7060,-19.531250
7061,-21.484375
7062,-21.484375
7063,-23.437500
7064,-23.437500
7065,-25.390625
7066,-25.390625
7067,-27.343750
7068,-29.296875
7069,-29.296875
7070,-31.250000
7071,-31.250000
7072,-31.250000
7073,-33.203125
7074,-35.156250
7075,-35.156250
7076,-37.109375
7077,-37.109375
7078,-39.062500
7079,-39.062500
7080,-41.015625
7081,-41.015625
7082,-42.968750
7083,-42.968750
7084,-44.921875
7085,-46.875000
7086,-46.875000
7087,-48.828125
7088,-48.828125
7089,-50.781250
7090,-50.781250
7091,-52.734375
7092,-52.734375
7093,-54.687500
7094,-54.687500
7095,-56.640625
7096,-56.640625
7097,-56.640625
7098,-58.593750
7099,-60.546875
7100,-60.546875
7101,-62.500000
7102,-62.500000
7103,-64.453125
7104,-64.453125
7105,-66.406250
7106,-66.406250
7107,-66.406250
7108,-68.359375
7109,-68.359375
7110,-70.312500
7111,-70.312500
7112,-72.265625
7113,-72.265625
7114,-74.218750
7115,-74.218750
7116,-74.218750
7117,-76.171875
7118,-76.171875
7119,-76.171875
7120,-78.125000
7121,-78.125000
7122,-80.078125
7123,-80.078125
7124,-82.031250
7125,-82.031250
7126,-82.031250
7127,-83.984375
7128,-83.984375
7129,-83.984375
7130,-85.937500
7131,-85.937500
7132,-85.937500
7133,-87.890625
7134,-87.890625
7135,-89.843750
7136,-89.843750
7137,-89.843750
7138,-91.796875
7139,-89.843750
7140,-91.796875
7141,-91.796875
7142,-93.750000
7143,-93.750000
7144,-93.750000
7145,-95.703125
7146,-95.703125
7147,-95.703125
7148,-97.656250
7149,-97.656250
7150,-97.656250
7151,-97.656250
7152,-97.656250
7153,-99.609375
7154,-99.609375
7155,-99.609375
7156,-101.562500
7157,-99.609375
7158,-101.562500
7159,-101.562500
7160,-101.562500
7161,-101.562500
7162,-103.515625
7163,-103.515625
7164,-103.515625
7165,-103.515625
7166,-103.515625
7167,-103.515625
7168,-105.468750
7169,-105.468750
7170,-105.468750
7171,-105.468750
7172,-105.468750
7173,-105.468750
7174,-105.468750
7175,-105.468750
7176,-105.468750
7177,-107.421875
7178,-107.421875
7179,-107.421875
7180,-107.421875
7181,-107.421875
7182,-107.421875
7183,-107.421875
7184,-107.421875
7185,-107.421875
7186,-107.421875
7187,-107.421875
7188,-107.421875
7189,-107.421875
7190,-107.421875
7191,-107.421875
7192,-107.421875
7193,-107.421875
7194,-107.421875
7195,-107.421875
7196,-107.421875
7197,-107.421875
7198,-105.468750
7199,-107.421875
7200,-105.468750
7201,-105.468750
7202,-107.421875
7203,-107.421875
7204,-105.468750
7205,-105.468750
7206,-105.468750
7207,-105.468750
7208,-105.468750
7209,-105.468750
7210,-105.468750
7211,-105.468750
7212,-105.468750
7213,-105.468750
7214,-103.515625
7215,-103.515625
7216,-103.515625
7217,-103.515625
7218,-103.515625
7219,-103.515625
7220,-103.515625
7221,-101.562500
7222,-101.562500
7223,-101.562500
7224,-101.562500
7225,-101.562500
7226,-101.562500
7227,-99.609375
7228,-99.609375
7229,-99.609375
7230,-99.609375
7231,-99.609375
7232,-97.656250
7233,-97.656250
7234,-97.656250
7235,-97.656250
7236,-97.656250
7237,-95.703125
7238,-95.703125
7239,-95.703125
7240,-95.703125
7241,-93.750000
7242,-93.750000
7243,-93.750000
7244,-93.750000
7245,-93.750000
7246,-91.796875
7247,-91.796875
7248,-91.796875
7249,-89.843750
7250,-89.843750
7251,-89.843750
7252,-87.890625
7253,-87.890625
7254,-87.890625
7255,-87.890625
7256,-85.937500
7257,-85.937500
7258,-85.937500
7259,-83.984375
7260,-83.984375
7261,-83.984375
7262,-82.031250
7263,-82.031250
7264,-82.031250
7265,-80.078125
7266,-80.078125
7267,-80.078125
7268,-80.078125
7269,-78.125000
7270,-78.125000
7271,-76.171875
7272,-76.171875
7273,-76.171875
7274,-74.218750
7275,-74.218750
7276,-72.265625
7277,-74.218750
7278,-70.312500
7279,-70.312500
7280,-70.312500
7281,-68.359375
7282,-68.359375
7283,-66.406250
7284,-66.406250
7285,-64.453125
7286,-64.453125
7287,-64.453125
7288,-62.500000
7289,-62.500000
7290,-60.546875
7291,-60.546875
7292,-58.593750
7293,-58.593750
7294,-56.640625
7295,-56.640625
7296,-56.640625
7297,-54.687500
7298,-52.734375
7299,-52.734375
7300,-52.734375
7301,-50.781250
7302,-50.781250
7303,-48.828125
7304,-48.828125
7305,-46.875000
7306,-44.921875
7307,-44.921875
7308,-44.921875
7309,-42.968750
7310,-41.015625
7311,-41.015625
7312,-39.062500
7313,-39.062500
7314,-37.109375
7315,-37.109375
7316,-35.156250
7317,-33.203125
7318,-35.156250
7319,-33.203125
7320,-31.250000
7321,-29.296875
7322,-29.296875
7323,-27.343750
7324,-27.343750
7325,-25.390625
7326,-25.390625
7327,-23.437500
7328,-21.484375
7329,-21.484375
7330,-19.531250
7331,-19.531250
7332,-17.578125
7333,-17.578125
7334,-15.625000
7335,-13.671875
7336,-13.671875
7337,-11.718750
7338,-11.718750
7339,-9.765625
7340,-9.765625
7341,-7.812500
7342,-5.859375
7343,-5.859375
7344,-3.906250
7345,-3.906250
7346,-1.953125
7347,0.000000
7348,0.000000
7349,0.000000
7350,1.953125
7351,3.906250
7352,3.906250
7353,5.859375
7354,5.859375
7355,7.812500
7356,7.812500
7357,9.765625
7358,9.765625
7359,11.718750
7360,13.671875
7361,13.671875
7362,15.625000
7363,15.625000
7364,17.578125
7365,19.531250
7366,19.531250
7367,19.531250
7368,21.484375
7369,23.437500
7370,23.437500
7371,25.390625
7372,25.390625
7373,27.343750
7374,27.343750
7375,29.296875
7376,29.296875
7377,31.250000
7378,33.203125
7379,33.203125
7380,33.203125
7381,35.156250
7382,37.109375
7383,37.109375
7384,39.062500
7385,41.015625
7386,41.015625
7387,41.015625
7388,42.968750
7389,42.968750
7390,44.921875
7391,44.921875
7392,46.875000
7393,44.921875
7394,48.828125
7395,48.828125
7396,50.781250
7397,50.781250
7398,50.781250
7399,52.734375
7400,54.687500
7401,54.687500
7402,54.687500
7403,56.640625
7404,56.640625
7405,58.593750
7406,58.593750
7407,60.546875
7408,60.546875
7409,60.546875
7410,66.406250
7411,62.500000
7412,62.500000
7413,64.453125
7414,64.453125
7415,66.406250
7416,66.406250
7417,68.359375
7418,68.359375
7419,70.312500
7420,66.406250
7421,70.312500
7422,72.265625
7423,72.265625
7424,72.265625
7425,74.218750
7426,74.218750
7427,80.078125
7428,76.171875
7429,76.171875
7430,76.171875
7431,78.125000
7432,78.125000
7433,80.078125
7434,80.078125
7435,82.031250
7436,80.078125
7437,82.031250
7438,82.031250
7439,83.984375
7440,83.984375
7441,83.984375
7442,83.984375
7443,83.984375
7444,85.937500
7445,85.937500
7446,85.937500
7447,87.890625
7448,87.890625
7449,87.890625
7450,87.890625
7451,87.890625
7452,89.843750
7453,89.843750
7454,89.843750
7455,89.843750
7456,89.843750
7457,89.843750
7458,91.796875
7459,91.796875
7460,91.796875
7461,91.796875
7462,91.796875
7463,93.750000
7464,91.796875
7465,93.750000
7466,93.750000
7467,93.750000
7468,93.750000
7469,93.750000
7470,93.750000
7471,93.750000
7472,93.750000
7473,93.750000
7474,93.750000
7475,95.703125
7476,95.703125
7477,95.703125
7478,95.703125
7479,95.703125
7480,95.703125
7481,95.703125
7482,95.703125
7483,95.703125
7484,95.703125
7485,95.703125
7486,95.703125
7487,95.703125
7488,95.703125
7489,95.703125
7490,95.703125
7491,93.750000
7492,95.703125
7493,95.703125
7494,95.703125
7495,93.750000
7496,93.750000
7497,93.750000
7498,93.750000
7499,93.750000
7500,93.750000
7501,93.750000
7502,93.750000
7503,93.750000
7504,93.750000
7505,93.750000
7506,91.796875
7507,91.796875
7508,91.796875
7509,91.796875
7510,91.796875
7511,89.843750
7512,89.843750
7513,89.843750
7514,89.843750
7515,89.843750
7516,89.843750
7517,89.843750
7518,87.890625
7519,87.890625
7520,87.890625
7521,87.890625
7522,85.937500
7523,87.890625
7524,85.937500
7525,85.937500
7526,83.984375
7527,83.984375
7528,85.937500
7529,83.984375
7530,82.031250
7531,82.031250
7532,82.031250
7533,82.031250
7534,80.078125
7535,80.078125
7536,78.125000
7537,78.125000
7538,78.125000
7539,78.125000
7540,76.171875
7541,76.171875
7542,76.171875
7543,74.218750
7544,74.218750
7545,74.218750
7546,72.265625
7547,72.265625
7548,70.312500
7549,70.312500
7550,70.312500
7551,68.359375
7552,68.359375
7553,68.359375
7554,66.406250
7555,66.406250
7556,64.453125
7557,64.453125
7558,64.453125
7559,62.500000
7560,60.546875
7561,60.546875
7562,60.546875
7563,60.546875
7564,58.593750
7565,58.593750
7566,56.640625
7567,56.640625
7568,54.687500
7569,54.687500
7570,54.687500
7571,52.734375
7572,52.734375
7573,50.781250
7574,50.781250
7575,48.828125
7576,48.828125
7577,46.875000
7578,46.875000
7579,46.875000
7580,44.921875
7581,42.968750
7582,42.968750
7583,42.968750
7584,41.015625
7585,41.015625
7586,39.062500
7587,39.062500
7588,37.109375
7589,37.109375
7590,35.156250
7591,33.203125
7592,33.203125
7593,33.203125
7594,31.250000
7595,29.296875
7596,29.296875
7597,27.343750
7598,27.343750
7599,27.343750
7600,25.390625
7601,23.437500
7602,23.437500
7603,21.484375
7604,21.484375
7605,19.531250
7606,17.578125
7607,17.578125
7608,17.578125
7609,15.625000
7610,13.671875
7611,13.671875
7612,11.718750
7613,11.718750
7614,9.765625
7615,9.765625
7616,7.812500
7617,5.859375
7618,5.859375
7619,3.906250
7620,3.906250
7621,1.953125
7622,0.000000
7623,0.000000
7624,-1.953125
7625,-1.953125
7626,-1.953125
7627,-3.906250
7628,-5.859375
7629,-5.859375
7630,-7.812500
7631,-7.812500
7632,-9.765625
7633,-9.765625
7634,-11.718750
7635,-11.718750
7636,-13.671875
7637,-13.671875
7638,-15.625000
7639,-15.625000
7640,-17.578125
7641,-17.578125
7642,-19.531250
7643,-19.531250
7644,-21.484375
7645,-21.484375
7646,-23.437500
7647,-25.390625
7648,-25.390625
7649,-27.343750
7650,-27.343750
7651,-29.296875
7652,-31.250000
7653,-31.250000
7654,-33.203125
7655,-33.203125
7656,-35.156250
7657,-35.156250
7658,-37.109375
7659,-37.109375
7660,-37.109375
7661,-39.062500
7662,-41.015625
7663,-42.968750
7664,-42.968750
7665,-42.968750
7666,-44.921875
7667,-46.875000
7668,-46.875000
7669,-46.875000
7670,-48.828125
7671,-50.781250
7672,-50.781250
7673,-50.781250
7674,-52.734375
7675,-54.687500
7676,-54.687500
7677,-56.640625
7678,-56.640625
7679,-56.640625
7680,-58.593750
7681,-60.546875
7682,-60.546875
7683,-60.546875
7684,-62.500000
7685,-62.500000
7686,-64.453125
7687,-64.453125
7688,-66.406250
7689,-66.406250
7690,-68.359375
7691,-68.359375
7692,-70.312500
7693,-70.312500
7694,-70.312500
7695,-72.265625
7696,-72.265625
7697,-74.218750
7698,-74.218750
7699,-74.218750
7700,-76.171875
7701,-76.171875
7702,-78.125000
7703,-78.125000
7704,-80.078125
7705,-80.078125
7706,-80.078125
7707,-82.031250
7708,-82.031250
7709,-82.031250
7710,-82.031250
7711,-83.984375
7712,-85.937500
7713,-85.937500
7714,-85.937500
7715,-85.937500
7716,-87.890625
7717,-89.843750
7718,-87.890625
7719,-89.843750
7720,-89.843750
7721,-91.796875
7722,-91.796875
7723,-91.796875
7724,-91.796875
7725,-93.750000
7726,-93.750000
7727,-93.750000
7728,-93.750000
7729,-95.703125
7730,-95.703125
7731,-97.656250
7732,-97.656250
7733,-97.656250
7734,-97.656250
7735,-99.609375
7736,-97.656250
7737,-99.609375
7738,-99.609375
7739,-99.609375
7740,-99.609375
7741,-101.562500
7742,-101.562500
7743,-101.562500
7744,-101.562500
7745,-101.562500
7746,-103.515625
7747,-103.515625
7748,-103.515625
7749,-103.515625
7750,-105.468750
7751,-105.468750
7752,-105.468750
7753,-105.468750
7754,-105.468750
7755,-105.468750
7756,-105.468750
7757,-105.468750
7758,-105.468750
7759,-105.468750
7760,-105.468750
7761,-107.421875
7762,-105.468750
7763,-105.468750
7764,-105.468750
7765,-107.421875
7766,-107.421875
7767,-107.421875
7768,-107.421875
7769,-107.421875
7770,-107.421875
7771,-107.421875
7772,-107.421875
7773,-107.421875
7774,-107.421875
7775,-107.421875
7776,-107.421875
7777,-105.468750
7778,-105.468750
7779,-107.421875
7780,-107.421875
7781,-105.468750
7782,-105.468750
7783,-105.468750
7784,-105.468750
7785,-105.468750
7786,-105.468750
7787,-105.468750
7788,-105.468750
7789,-103.515625
7790,-105.468750
7791,-105.468750
7792,-105.468750
7793,-103.515625
7794,-103.515625
7795,-103.515625
7796,-103.515625
7797,-103.515625
7798,-103.515625
7799,-103.515625
7800,-103.515625
7801,-101.562500
7802,-103.515625
7803,-101.562500
7804,-101.562500
7805,-101.562500
7806,-101.562500
7807,-101.562500
7808,-99.609375
7809,-99.609375
7810,-99.609375
7811,-99.609375
7812,-99.609375
7813,-99.609375
7814,-99.609375
7815,-97.656250
7816,-97.656250
7817,-97.656250
7818,-97.656250
7819,-97.656250
7820,-95.703125
7821,-95.703125
7822,-95.703125
7823,-93.750000
7824,-93.750000
7825,-93.750000
7826,-91.796875
7827,-91.796875
7828,-91.796875
7829,-91.796875
7830,-91.796875
7831,-89.843750
7832,-89.843750
7833,-89.843750
7834,-87.890625
7835,-87.890625
7836,-87.890625
7837,-85.937500
7838,-85.937500
7839,-85.937500
7840,-85.937500
7841,-85.937500
7842,-83.984375
7843,-82.031250
7844,-82.031250
7845,-82.031250
7846,-82.031250
7847,-80.078125
7848,-80.078125
7849,-78.125000
7850,-78.125000
7851,-78.125000
7852,-76.171875
7853,-76.171875
7854,-76.171875
7855,-74.218750
7856,-74.218750
7857,-72.265625
7858,-72.265625
7859,-72.265625
7860,-70.312500
7861,-70.312500
7862,-68.359375
7863,-68.359375
7864,-68.359375
7865,-68.359375
7866,-66.406250
7867,-64.453125
7868,-64.453125
7869,-64.453125
7870,-62.500000
7871,-62.500000
7872,-60.546875
7873,-60.546875
7874,-58.593750
7875,-58.593750
7876,-56.640625
7877,-56.640625
7878,-56.640625
7879,-54.687500
7880,-52.734375
7881,-52.734375
7882,-50.781250
7883,-50.781250
7884,-48.828125
7885,-48.828125
7886,-48.828125
7887,-46.875000
7888,-44.921875
7889,-44.921875
7890,-42.968750
7891,-42.968750
7892,-41.015625
7893,-41.015625
7894,-39.062500
7895,-39.062500
7896,-37.109375
7897,-37.109375
7898,-35.156250
7899,-33.203125
7900,-33.203125
7901,-31.250000
7902,-31.250000
7903,-29.296875
7904,-29.296875
7905,-27.343750
7906,-27.343750
7907,-25.390625
7908,-25.390625
7909,-23.437500
7910,-21.484375
7911,-21.484375
7912,-19.531250
7913,-19.531250
7914,-17.578125
7915,-15.625000
7916,-15.625000
7917,-15.625000
7918,-13.671875
7919,-11.718750
7920,-11.718750
7921,-9.765625
7922,-9.765625
7923,-7.812500
7924,-7.812500
7925,-5.859375
7926,-3.906250
7927,-3.906250
7928,-1.953125
7929,-1.953125
7930,0.000000
7931,0.000000
7932,1.953125
7933,3.906250
7934,3.906250
7935,5.859375
7936,5.859375
7937,7.812500
7938,7.812500
7939,9.765625
7940,11.718750
7941,11.718750
7942,11.718750
7943,13.671875
7944,13.671875
7945,15.625000
7946,17.578125
7947,17.578125
7948,19.531250
7949,19.531250
7950,21.484375
7951,21.484375
7952,23.437500
7953,23.437500
7954,25.390625
7955,25.390625
7956,27.343750
7957,29.296875
7958,29.296875
7959,29.296875
7960,31.250000
7961,35.156250
7962,33.203125
7963,35.156250
7964,37.109375
7965,37.109375
7966,37.109375
7967,39.062500
7968,41.015625
7969,41.015625
7970,41.015625
7971,42.968750
7972,42.968750
7973,44.921875
7974,46.875000
7975,46.875000
7976,46.875000
7977,48.828125
7978,48.828125
7979,50.781250
7980,50.781250
7981,52.734375
7982,52.734375
7983,52.734375
7984,54.687500
7985,56.640625
7986,56.640625
7987,56.640625
7988,58.593750
7989,58.593750
7990,58.593750
7991,60.546875
7992,60.546875
7993,62.500000
7994,62.500000
7995,64.453125
7996,64.453125
7997,64.453125
7998,66.406250
7999,66.406250
8000,68.359375
8001,68.359375
8002,70.312500
8003,70.312500
8004,70.312500
8005,70.312500
8006,72.265625
8007,72.265625
8008,74.218750
8009,74.218750
8010,76.171875
8011,76.171875
8012,76.171875
8013,76.171875
8014,78.125000
8015,78.125000
8016,78.125000
8017,80.078125
8018,80.078125
8019,80.078125
8020,82.031250
8021,82.031250
8022,82.031250
8023,83.984375
8024,83.984375
8025,83.984375
8026,85.937500
8027,85.937500
8028,85.937500
8029,85.937500
8030,87.890625
8031,87.890625
8032,87.890625
8033,87.890625
8034,87.890625
8035,89.843750
8036,89.843750
8037,89.843750
8038,89.843750
8039,89.843750
8040,91.796875
8041,91.796875
8042,91.796875
8043,91.796875
8044,91.796875
8045,91.796875
8046,91.796875
8047,91.796875
8048,93.750000
8049,93.750000
8050,93.750000
8051,93.750000
8052,93.750000
8053,93.750000
8054,93.750000
8055,93.750000
8056,95.703125
8057,93.750000
8058,95.703125
8059,95.703125
8060,93.750000
8061,95.703125
8062,93.750000
8063,93.750000
8064,93.750000
8065,95.703125
8066,95.703125
8067,95.703125
8068,95.703125
8069,95.703125
8070,95.703125
8071,95.703125
8072,93.750000
8073,93.750000
8074,95.703125
8075,95.703125
8076,93.750000
8077,93.750000
8078,93.750000
8079,93.750000
8080,93.750000
8081,93.750000
8082,93.750000
8083,93.750000
8084,93.750000
8085,93.750000
8086,91.796875
8087,91.796875
8088,91.796875
8089,91.796875
8090,91.796875
8091,91.796875
8092,89.843750
8093,89.843750
8094,89.843750
8095,89.843750
8096,89.843750
8097,89.843750
8098,89.843750
8099,87.890625
8100,87.890625
8101,87.890625
8102,87.890625
8103,87.890625
8104,85.937500
8105,85.937500
8106,85.937500
8107,85.937500
8108,85.937500
8109,83.984375
8110,83.984375
8111,82.031250
8112,82.031250
8113,82.031250
8114,82.031250
8115,82.031250
8116,80.078125
8117,80.078125
8118,78.125000
8119,78.125000
8120,78.125000
8121,78.125000
8122,76.171875
8123,76.171875
8124,76.171875
8125,74.218750
8126,74.218750
8127,74.218750
8128,72.265625
8129,72.265625
8130,70.312500
8131,70.312500
8132,70.312500
8133,70.312500
8134,68.359375
8135,68.359375
8136,66.406250
8137,66.406250
8138,64.453125
8139,64.453125
8140,64.453125
8141,64.453125
8142,62.500000
8143,62.500000
8144,60.546875
8145,60.546875
8146,60.546875
8147,58.593750
8148,58.593750
8149,56.640625
8150,54.687500
8151,54.687500
8152,54.687500
8153,52.734375
8154,52.734375
8155,50.781250
8156,50.781250
8157,48.828125
8158,48.828125
8159,48.828125
8160,46.875000
8161,46.875000
8162,44.921875
8163,44.921875
8164,42.968750
8165,42.968750
8166,42.968750
8167,41.015625
8168,39.062500
8169,37.109375
8170,37.109375
8171,37.109375
8172,35.156250
8173,35.156250
8174,33.203125
8175,33.203125
8176,31.250000
8177,29.296875
8178,31.250000
8179,29.296875
8180,27.343750
8181,25.390625
8182,25.390625
8183,25.390625
8184,23.437500
8185,23.437500
8186,21.484375
8187,19.531250
8188,19.531250
8189,19.531250
8190,17.578125
8191,15.625000
8192,15.625000
8193,13.671875
8194,11.718750
8195,11.718750
8196,9.765625
8197,9.765625
8198,7.812500
8199,7.812500
8200,5.859375
8201,5.859375
8202,3.906250
8203,1.953125
8204,1.953125
8205,1.953125
8206,0.000000
8207,-1.953125
8208,-1.953125
8209,-1.953125
8210,-3.906250
8211,-3.906250
8212,-5.859375
8213,-7.812500
8214,-7.812500
8215,-9.765625
8216,-9.765625
8217,-11.718750
8218,-13.671875
8219,-13.671875
8220,-13.671875
8221,-15.625000
8222,-15.625000
8223,-17.578125
8224,-19.531250
8225,-19.531250
8226,-21.484375
8227,-21.484375
8228,-23.437500
8229,-25.390625
8230,-25.390625
8231,-25.390625
8232,-27.343750
8233,-29.296875
8234,-29.296875
8235,-29.296875
8236,-31.250000
8237,-33.203125
8238,-33.203125
8239,-35.156250
8240,-35.156250
8241,-35.156250
8242,-37.109375
8243,-39.062500
8244,-39.062500
8245,-41.015625
8246,-41.015625
8247,-41.015625
8248,-42.968750
8249,-44.921875
8250,-44.921875
8251,-46.875000
8252,-46.875000
8253,-48.828125
8254,-48.828125
8255,-50.781250
8256,-50.781250
8257,-52.734375
8258,-54.687500
8259,-54.687500
8260,-56.640625
8261,-56.640625
8262,-56.640625
8263,-58.593750
8264,-58.593750
8265,-60.546875
8266,-60.546875
8267,-62.500000
8268,-62.500000
8269,-62.500000
8270,-64.453125
8271,-66.406250
8272,-66.406250
8273,-66.406250
8274,-68.359375
8275,-68.359375
8276,-70.312500
8277,-70.312500
8278,-72.265625
8279,-72.265625
8280,-74.218750
8281,-74.218750
8282,-76.171875
8283,-76.171875
8284,-76.171875
8285,-76.171875
8286,-78.125000
8287,-78.125000
8288,-80.078125
8289,-80.078125
8290,-80.078125
8291,-80.078125
8292,-82.031250
8293,-82.031250
8294,-83.984375
8295,-83.984375
8296,-83.984375
8297,-85.937500
8298,-85.937500
8299,-87.890625
8300,-87.890625
8301,-87.890625
8302,-89.843750
8303,-89.843750
8304,-89.843750
8305,-91.796875
8306,-91.796875
8307,-91.796875
8308,-93.750000
8309,-93.750000
8310,-93.750000
8311,-93.750000
8312,-93.750000
8313,-95.703125
8314,-95.703125
8315,-95.703125
8316,-95.703125
8317,-97.656250
8318,-97.656250
8319,-97.656250
8320,-99.609375
8321,-97.656250
8322,-99.609375
8323,-99.609375
8324,-101.562500
8325,-101.562500
8326,-101.562500
8327,-101.562500
8328,-101.562500
8329,-101.562500
8330,-101.562500
8331,-101.562500
8332,-103.515625
8333,-103.515625
8334,-103.515625
8335,-103.515625
8336,-103.515625
8337,-105.468750
8338,-105.468750
8339,-105.468750
8340,-103.515625
8341,-105.468750
8342,-105.468750
8343,-105.468750
8344,-107.421875
8345,-105.468750
8346,-105.468750
8347,-105.468750
8348,-105.468750
8349,-105.468750
8350,-105.468750
8351,-107.421875
8352,-105.468750
8353,-105.468750
8354,-105.468750
8355,-107.421875
8356,-105.468750
8357,-105.468750
8358,-105.468750
8359,-105.468750
8360,-105.468750
8361,-105.468750
8362,-105.468750
8363,-105.468750
8364,-105.468750
8365,-105.468750
8366,-105.468750
8367,-105.468750
8368,-105.468750
8369,-105.468750
8370,-105.468750
8371,-105.468750
8372,-103.515625
8373,-103.515625
8374,-103.515625
8375,-103.515625
8376,-103.515625
8377,-103.515625
8378,-103.515625
8379,-103.515625
8380,-103.515625
8381,-101.562500
8382,-103.515625
8383,-101.562500
8384,-101.562500
8385,-101.562500
8386,-101.562500
8387,-101.562500
8388,-101.562500
8389,-99.609375
8390,-99.609375
8391,-99.609375
8392,-99.609375
8393,-99.609375
8394,-99.609375
8395,-97.656250
8396,-97.656250
8397,-97.656250
8398,-97.656250
8399,-97.656250
8400,-95.703125
8401,-95.703125
8402,-95.703125
8403,-93.750000
8404,-95.703125
8405,-93.750000
8406,-93.750000
8407,-93.750000
8408,-93.750000
8409,-91.796875
8410,-91.796875
8411,-91.796875
8412,-89.843750
8413,-89.843750
8414,-89.843750
8415,-89.843750
8416,-89.843750
8417,-87.890625
8418,-87.890625
8419,-85.937500
8420,-85.937500
8421,-85.937500
8422,-83.984375
8423,-83.984375
8424,-83.984375
8425,-82.031250
8426,-82.031250
8427,-82.031250
8428,-82.031250
8429,-80.078125
8430,-80.078125
8431,-78.125000
8432,-78.125000
8433,-78.125000
8434,-78.125000
8435,-76.171875
8436,-76.171875
8437,-74.218750
8438,-74.218750
8439,-74.218750
8440,-72.265625
8441,-72.265625
8442,-70.312500
8443,-70.312500
8444,-70.312500
8445,-68.359375
8446,-68.359375
8447,-66.406250
8448,-66.406250
8449,-64.453125
8450,-64.453125
8451,-62.500000
8452,-62.500000
8453,-62.500000
8454,-62.500000
8455,-60.546875
8456,-60.546875
8457,-58.593750
8458,-58.593750
8459,-56.640625
8460,-54.687500
8461,-54.687500
8462,-54.687500
8463,-52.734375
8464,-52.734375
8465,-50.781250
8466,-50.781250
8467,-48.828125
8468,-48.828125
8469,-46.875000
8470,-46.875000
8471,-44.921875
8472,-44.921875
8473,-42.968750
8474,-42.968750
8475,-41.015625
8476,-41.015625
8477,-41.015625
8478,-39.062500
8479,-37.109375
8480,-37.109375
8481,-35.156250
8482,-33.203125
8483,-33.203125
8484,-31.250000
8485,-31.250000
8486,-29.296875
8487,-29.296875
8488,-27.343750
8489,-25.390625
8490,-25.390625
8491,-23.437500
8492,-23.437500
8493,-21.484375
8494,-21.484375
8495,-19.531250
8496,-19.531250
8497,-17.578125
8498,-15.625000
8499,-15.625000
8500,-15.625000
8501,-13.671875
8502,-11.718750
8503,-11.718750
8504,-9.765625
8505,-9.765625
8506,-7.812500
8507,-5.859375
8508,-5.859375
8509,-3.906250
8510,-3.906250
8511,-3.906250
8512,-1.953125
8513,0.000000
8514,0.000000
8515,1.953125
8516,1.953125
8517,3.906250
8518,5.859375
8519,5.859375
8520,5.859375
8521,7.812500
8522,9.765625
8523,11.718750
8524,9.765625
8525,11.718750
8526,13.671875
8527,15.625000
8528,15.625000
8529,15.625000
8530,17.578125
8531,19.531250
8532,19.531250
8533,21.484375
8534,21.484375
8535,23.437500
8536,23.437500
8537,25.390625
8538,25.390625
8539,27.343750
8540,27.343750
8541,29.296875
8542,29.296875
8543,31.250000
8544,31.250000
8545,33.203125
8546,35.156250
8547,35.156250
8548,37.109375
8549,37.109375
8550,39.062500
8551,39.062500
8552,41.015625
8553,41.015625
8554,42.968750
8555,44.921875
8556,44.921875
8557,44.921875
8558,46.875000
8559,48.828125
8560,48.828125
8561,48.828125
8562,50.781250
8563,50.781250
8564,50.781250
8565,52.734375
8566,54.687500
8567,54.687500
8568,56.640625
8569,56.640625
8570,56.640625
8571,58.593750
8572,58.593750
8573,58.593750
8574,60.546875
8575,60.546875
8576,62.500000
8577,62.500000
8578,64.453125
8579,64.453125
8580,64.453125
8581,66.406250
8582,66.406250
8583,66.406250
8584,68.359375
8585,68.359375
8586,68.359375
8587,70.312500
8588,72.265625
8589,72.265625
8590,72.265625
8591,72.265625
8592,74.218750
8593,74.218750
8594,74.218750
8595,76.171875
8596,76.171875
8597,78.125000
8598,78.125000
8599,78.125000
8600,78.125000
8601,80.078125
8602,80.078125
8603,82.031250
8604,82.031250
8605,82.031250
8606,82.031250
8607,83.984375
8608,83.984375
8609,83.984375
8610,83.984375
8611,83.984375
8612,85.937500
8613,85.937500
8614,87.890625
8615,87.890625
8616,87.890625
8617,87.890625
8618,87.890625
8619,87.890625
8620,89.843750
8621,89.843750
8622,89.843750
8623,91.796875
8624,89.843750
8625,91.796875
8626,91.796875
8627,91.796875
8628,91.796875
8629,91.796875
8630,91.796875
8631,91.796875
8632,93.750000
8633,93.750000
8634,93.750000
8635,93.750000
8636,93.750000
8637,93.750000
8638,93.750000
8639,93.750000
8640,93.750000
8641,93.750000
8642,93.750000
8643,93.750000
8644,93.750000
8645,93.750000
8646,93.750000
8647,93.750000
8648,95.703125
8649,93.750000
8650,93.750000
8651,93.750000
8652,95.703125
8653,93.750000
8654,93.750000
8655,93.750000
8656,93.750000
8657,93.750000
8658,93.750000
8659,93.750000
8660,93.750000
8661,93.750000
8662,93.750000
8663,93.750000
8664,93.750000
8665,93.750000
8666,91.796875
8667,91.796875
8668,91.796875
8669,91.796875
8670,91.796875
8671,91.796875
8672,91.796875
8673,91.796875
8674,91.796875
8675,89.843750
8676,89.843750
8677,89.843750
8678,89.843750
8679,89.843750
8680,89.843750
8681,87.890625
8682,87.890625
8683,87.890625
8684,87.890625
8685,87.890625
8686,85.937500
8687,85.937500
8688,85.937500
8689,85.937500
8690,83.984375
8691,83.984375
8692,83.984375
8693,83.984375
8694,82.031250
8695,82.031250
8696,82.031250
8697,82.031250
8698,80.078125
8699,80.078125
8700,80.078125
8701,78.125000
8702,78.125000
8703,78.125000
8704,78.125000
8705,76.171875
8706,76.171875
8707,74.218750
8708,74.218750
8709,74.218750
8710,74.218750
8711,72.265625
8712,72.265625
8713,70.312500
8714,70.312500
8715,70.312500
8716,68.359375
8717,68.359375
8718,68.359375
8719,66.406250
8720,66.406250
8721,64.453125
8722,64.453125
8723,62.500000
8724,62.500000
8725,62.500000
8726,60.546875
8727,60.546875
8728,60.546875
8729,58.593750
8730,58.593750
8731,56.640625
8732,56.640625
8733,54.687500
8734,54.687500
8735,54.687500
8736,52.734375
8737,52.734375
8738,50.781250
8739,52.734375
8740,48.828125
8741,48.828125
8742,46.875000
8743,46.875000
8744,46.875000
8745,44.921875
8746,42.968750
8747,42.968750
8748,42.968750
8749,41.015625
8750,41.015625
8751,39.062500
8752,37.109375
8753,37.109375
8754,37.109375
8755,35.156250
8756,35.156250
8757,35.156250
8758,33.203125
8759,31.250000
8760,31.250000
8761,29.296875
8762,29.296875
8763,27.343750
8764,27.343750
8765,25.390625
8766,23.437500
8767,23.437500
8768,23.437500
8769,21.484375
8770,19.531250
8771,19.531250
8772,17.578125
8773,17.578125
8774,15.625000
8775,13.671875
8776,13.671875
8777,11.718750
8778,11.718750
8779,9.765625
8780,9.765625
8781,9.765625
8782,7.812500
8783,5.859375
8784,3.906250
8785,3.906250
8786,3.906250
8787,1.953125
8788,1.953125
8789,0.000000
8790,0.000000
8791,-1.953125
8792,-3.906250
8793,-3.906250
8794,-3.906250
8795,-5.859375
8796,-7.812500
8797,-7.812500
8798,-9.765625
8799,-9.765625
8800,-11.718750
8801,-11.718750
8802,-13.671875
8803,-15.625000
8804,-15.625000
8805,-15.625000
8806,-17.578125
8807,-19.531250
8808,-19.531250
8809,-21.484375
8810,-21.484375
8811,-23.437500
8812,-23.437500
8813,-23.437500
8814,-25.390625
8815,-27.343750
8816,-27.343750
8817,-29.296875
8818,-29.296875
8819,-31.250000
8820,-31.250000
8821,-33.203125
8822,-35.156250
8823,-35.156250
8824,-37.109375
8825,-37.109375
8826,-39.062500
8827,-39.062500
8828,-39.062500
8829,-41.015625
8830,-42.968750
8831,-42.968750
8832,-44.921875
8833,-44.921875
8834,-46.875000
8835,-46.875000
8836,-48.828125
8837,-50.781250
8838,-50.781250
8839,-50.781250
8840,-52.734375
8841,-52.734375
8842,-54.687500
8843,-54.687500
8844,-56.640625
8845,-56.640625
8846,-58.593750
8847,-58.593750
8848,-60.546875
8849,-60.546875
8850,-62.500000
8851,-62.500000
8852,-62.500000
8853,-64.453125
8854,-66.406250
8855,-66.406250
8856,-66.406250
8857,-68.359375
8858,-68.359375
8859,-70.312500
8860,-70.312500
8861,-72.265625
8862,-72.265625
8863,-72.265625
8864,-74.218750
8865,-74.218750
8866,-76.171875
8867,-76.171875
8868,-76.171875
8869,-78.125000
8870,-78.125000
8871,-80.078125
8872,-80.078125
8873,-80.078125
8874,-82.031250
8875,-82.031250
8876,-82.031250
8877,-83.984375
8878,-83.984375
8879,-83.984375
8880,-85.937500
8881,-85.937500
8882,-87.890625
8883,-87.890625
8884,-87.890625
8885,-87.890625
8886,-89.843750
8887,-89.843750
8888,-91.796875
8889,-91.796875
8890,-91.796875
8891,-91.796875
8892,-93.750000
8893,-93.750000
8894,-93.750000
8895,-95.703125
8896,-95.703125
8897,-95.703125
8898,-95.703125
8899,-97.656250
8900,-97.656250
8901,-97.656250
8902,-97.656250
8903,-97.656250
8904,-99.609375
8905,-99.609375
8906,-99.609375
8907,-99.609375
8908,-101.562500
8909,-101.562500
8910,-101.562500
8911,-101.562500
8912,-101.562500
8913,-101.562500
8914,-103.515625
8915,-103.515625
8916,-103.515625
8917,-103.515625
8918,-103.515625
8919,-103.515625
8920,-103.515625
8921,-103.515625
8922,-103.515625
8923,-105.468750
8924,-105.468750
8925,-105.468750
8926,-105.468750
8927,-105.468750
8928,-105.468750
8929,-105.468750
8930,-105.468750
8931,-105.468750
8932,-105.468750
8933,-105.468750
8934,-105.468750
8935,-105.468750
8936,-105.468750
8937,-105.468750
8938,-105.468750
8939,-107.421875
8940,-107.421875
8941,-105.468750
8942,-105.468750
8943,-105.468750
8944,-105.468750
8945,-105.468750
8946,-105.468750
8947,-105.468750
8948,-105.468750
8949,-105.468750
8950,-105.468750
8951,-105.468750
8952,-105.468750
8953,-105.468750
8954,-105.468750
8955,-103.515625
8956,-103.515625
8957,-103.515625
8958,-105.468750
8959,-105.468750
8960,-103.515625
8961,-103.515625
8962,-103.515625
8963,-103.515625
8964,-103.515625
8965,-101.562500
8966,-101.562500
8967,-101.562500
8968,-101.562500
8969,-101.562500
8970,-101.562500
8971,-101.562500
8972,-101.562500
8973,-101.562500
8974,-99.609375
8975,-99.609375
8976,-99.609375
8977,-99.609375
8978,-97.656250
8979,-97.656250
8980,-97.656250
8981,-97.656250
8982,-97.656250
8983,-95.703125
8984,-95.703125
8985,-95.703125
8986,-95.703125
8987,-95.703125
8988,-93.750000
8989,-93.750000
8990,-93.750000
8991,-93.750000
8992,-91.796875
8993,-91.796875
8994,-91.796875
8995,-91.796875
8996,-91.796875
8997,-89.843750
8998,-89.843750
8999,-87.890625
9000,-87.890625
9001,-87.890625
9002,-87.890625
9003,-85.937500
9004,-85.937500
9005,-85.937500
9006,-85.937500
9007,-83.984375
9008,-83.984375
9009,-82.031250
9010,-82.031250
9011,-82.031250
9012,-82.031250
9013,-80.078125
9014,-80.078125
9015,-78.125000
9016,-78.125000
9017,-78.125000
9018,-78.125000
9019,-76.171875
9020,-74.218750
9021,-74.218750
9022,-74.218750
9023,-72.265625
9024,-72.265625
9025,-72.265625
9026,-70.312500
9027,-70.312500
9028,-68.359375
9029,-68.359375
9030,-68.359375
9031,-66.406250
9032,-66.406250
9033,-64.453125
9034,-64.453125
9035,-64.453125
9036,-62.500000
9037,-62.500000
9038,-60.546875
9039,-60.546875
9040,-58.593750
9041,-58.593750
9042,-58.593750
9043,-56.640625
9044,-54.687500
9045,-54.687500
9046,-54.687500
9047,-52.734375
9048,-50.781250
9049,-50.781250
9050,-50.781250
9051,-48.828125
9052,-48.828125
9053,-46.875000
9054,-44.921875
9055,-44.921875
9056,-42.968750
9057,-42.968750
9058,-41.015625
9059,-41.015625
9060,-41.015625
9061,-39.062500
9062,-37.109375
9063,-37.109375
9064,-35.156250
9065,-35.156250
9066,-33.203125
9067,-33.203125
9068,-31.250000
9069,-31.250000
9070,-29.296875
9071,-27.343750
9072,-27.343750
9073,-27.343750
9074,-25.390625
9075,-23.437500
9076,-23.437500
9077,-21.484375
9078,-21.484375
9079,-19.531250
9080,-17.578125
9081,-17.578125
9082,-15.625000
9083,-15.625000
9084,-13.671875
9085,-13.671875
9086,-11.718750
9087,-11.718750
9088,-9.765625
9089,-9.765625
9090,-7.812500
9091,-5.859375
9092,-5.859375
9093,-3.906250
9094,-1.953125
9095,-1.953125
9096,0.000000
9097,0.000000
9098,1.953125
9099,3.906250
9100,3.906250
9101,3.906250
9102,5.859375
9103,5.859375
9104,7.812500
9105,7.812500
9106,9.765625
9107,11.718750
9108,11.718750
9109,13.671875
9110,13.671875
9111,15.625000
9112,15.625000
9113,17.578125
9114,17.578125
9115,19.531250
9116,21.484375
9117,21.484375
9118,23.437500
9119,23.437500
9120,25.390625
9121,25.390625
9122,27.343750
9123,27.343750
9124,29.296875
9125,31.250000
9126,31.250000
9127,31.250000
9128,33.203125
9129,35.156250
9130,35.156250
9131,35.156250
9132,39.062500
9133,37.109375
9134,39.062500
9135,41.015625
9136,41.015625
9137,42.968750
9138,42.968750
9139,44.921875
9140,44.921875
9141,46.875000
9142,46.875000
9143,48.828125
9144,48.828125
9145,50.781250
9146,50.781250
9147,50.781250
9148,52.734375
9149,54.687500
9150,54.687500
9151,54.687500
9152,56.640625
9153,56.640625
9154,58.593750
9155,58.593750
9156,60.546875
9157,60.546875
9158,60.546875
9159,62.500000
9160,62.500000
9161,64.453125
9162,64.453125
9163,66.406250
9164,66.406250
9165,66.406250
9166,68.359375
9167,68.359375
9168,70.312500
9169,70.312500
9170,70.312500
9171,72.265625
9172,72.265625
9173,72.265625
9174,74.218750
9175,74.218750
9176,74.218750
9177,76.171875
9178,76.171875
9179,76.171875
9180,78.125000
9181,78.125000
9182,78.125000
9183,80.078125
9184,80.078125
9185,80.078125
9186,82.031250
9187,82.031250
9188,82.031250
9189,83.984375
9190,83.984375
9191,83.984375
9192,83.984375
9193,85.937500
9194,85.937500
9195,85.937500
9196,85.937500
9197,87.890625
9198,87.890625
9199,87.890625
9200,87.890625
9201,87.890625
9202,89.843750
9203,89.843750
9204,89.843750
9205,89.843750
9206,89.843750
9207,89.843750
9208,91.796875
9209,91.796875
9210,91.796875
9211,91.796875
9212,93.750000
9213,91.796875
9214,93.750000
9215,93.750000
9216,93.750000
9217,93.750000
9218,93.750000
9219,93.750000
9220,93.750000
9221,93.750000
9222,93.750000
9223,95.703125
9224,93.750000
9225,93.750000
9226,93.750000
9227,95.703125
9228,93.750000
9229,95.703125
9230,95.703125
9231,95.703125
9232,95.703125
9233,95.703125
9234,95.703125
9235,95.703125
9236,93.750000
9237,93.750000
9238,95.703125
9239,95.703125
9240,95.703125
9241,93.750000
9242,93.750000
9243,95.703125
9244,93.750000
9245,93.750000
9246,93.750000
9247,93.750000
9248,93.750000
9249,93.750000
9250,93.750000
9251,93.750000
9252,91.796875
9253,91.796875
9254,91.796875
9255,91.796875
9256,91.796875
9257,91.796875
9258,91.796875
9259,89.843750
9260,89.843750
9261,89.843750
9262,89.843750
9263,89.843750
9264,89.843750
9265,89.843750
9266,87.890625
9267,87.890625
9268,87.890625
9269,85.937500
9270,85.937500
9271,85.937500
9272,85.937500
9273,85.937500
9274,83.984375
9275,83.984375
9276,83.984375
9277,83.984375
9278,83.984375
9279,82.031250
9280,82.031250
9281,80.078125
9282,80.078125
9283,80.078125
9284,80.078125
9285,78.125000
9286,78.125000
9287,78.125000
9288,78.125000
9289,76.171875
9290,76.171875
9291,76.171875
9292,74.218750
9293,74.218750
9294,72.265625
9295,72.265625
9296,72.265625
9297,70.312500
9298,70.312500
9299,68.359375
9300,68.359375
9301,68.359375
9302,66.406250
9303,66.406250
9304,66.406250
9305,64.453125
9306,64.453125
9307,62.500000
9308,62.500000
9309,60.546875
9310,60.546875
9311,60.546875
9312,58.593750
9313,58.593750
9314,58.593750
9315,56.640625
9316,56.640625
9317,54.687500
9318,54.687500
9319,54.687500
9320,52.734375
9321,50.781250
9322,50.781250
9323,50.781250
9324,48.828125
9325,48.828125
9326,46.875000
9327,46.875000
9328,44.921875
9329,44.921875
9330,42.968750
9331,42.968750
9332,42.968750
9333,41.015625
9334,39.062500
9335,39.062500
9336,37.109375
9337,37.109375
9338,37.109375
9339,35.156250
9340,35.156250
9341,33.203125
9342,31.250000
9343,31.250000
9344,29.296875
9345,29.296875
9346,27.343750
9347,25.390625
9348,25.390625
9349,25.390625
9350,23.437500
9351,23.437500
9352,21.484375
9353,19.531250
9354,21.484375
9355,17.578125
9356,17.578125
9357,15.625000
9358,15.625000
9359,13.671875
9360,13.671875
9361,11.718750
9362,9.765625
9363,9.765625
9364,9.765625
9365,7.812500
9366,5.859375
9367,5.859375
9368,3.906250
9369,3.906250
9370,1.953125
9371,1.953125
9372,0.000000
9373,0.000000
9374,-1.953125
9375,-1.953125
9376,-1.953125
9377,-3.906250
9378,-5.859375
9379,-7.812500
9380,-7.812500
9381,-9.765625
9382,-9.765625
9383,-9.765625
9384,-11.718750
9385,-13.671875
9386,-13.671875
9387,-15.625000
9388,-15.625000
9389,-17.578125
9390,-17.578125
9391,-19.531250
9392,-21.484375
9393,-21.484375
9394,-21.484375
9395,-23.437500
9396,-25.390625
9397,-25.390625
9398,-27.343750
9399,-27.343750
9400,-29.296875
9401,-29.296875
9402,-31.250000
9403,-31.250000
9404,-33.203125
9405,-33.203125
9406,-35.156250
9407,-37.109375
9408,-37.109375
9409,-39.062500
9410,-39.062500
9411,-41.015625
9412,-41.015625
9413,-42.968750
9414,-44.921875
9415,-44.921875
9416,-44.921875
9417,-46.875000
9418,-48.828125
9419,-48.828125
9420,-50.781250
9421,-50.781250
9422,-50.781250
9423,-52.734375
9424,-54.687500
9425,-54.687500
9426,-54.687500
9427,-56.640625
9428,-58.593750
9429,-58.593750
9430,-60.546875
9431,-60.546875
9432,-60.546875
9433,-62.500000
9434,-62.500000
9435,-64.453125
9436,-64.453125
9437,-66.406250
9438,-66.406250
9439,-68.359375
9440,-68.359375
9441,-70.312500
9442,-70.312500
9443,-70.312500
9444,-72.265625
9445,-72.265625
9446,-74.218750
9447,-74.218750
9448,-76.171875
9449,-76.171875
9450,-76.171875
9451,-78.125000
9452,-78.125000
9453,-78.125000
9454,-80.078125
9455,-80.078125
9456,-82.031250
9457,-82.031250
9458,-82.031250
9459,-83.984375
9460,-83.984375
9461,-83.984375
9462,-85.937500
9463,-85.937500
9464,-87.890625
9465,-87.890625
9466,-87.890625
9467,-87.890625
9468,-89.843750
9469,-89.843750
9470,-89.843750
9471,-91.796875
9472,-91.796875
9473,-93.750000
9474,-93.750000
9475,-91.796875
9476,-93.750000
9477,-93.750000
9478,-95.703125
9479,-95.703125
9480,-95.703125
9481,-95.703125
9482,-97.656250
9483,-97.656250
9484,-99.609375
9485,-99.609375
9486,-99.609375
9487,-99.609375
9488,-101.562500
9489,-101.562500
9490,-99.609375
9491,-101.562500
9492,-101.562500
9493,-101.562500
9494,-103.515625
9495,-103.515625
9496,-103.515625
9497,-103.515625
9498,-103.515625
9499,-103.515625
9500,-103.515625
9501,-105.468750
9502,-105.468750
9503,-105.468750
9504,-105.468750
9505,-105.468750
9506,-105.468750
9507,-105.468750
9508,-105.468750
9509,-105.468750
9510,-107.421875
9511,-107.421875
9512,-105.468750
9513,-107.421875
9514,-107.421875
9515,-107.421875
9516,-107.421875
9517,-107.421875
9518,-105.468750
9519,-105.468750
9520,-105.468750
9521,-107.421875
9522,-107.421875
9523,-107.421875
9524,-107.421875
9525,-105.468750
9526,-105.468750
9527,-107.421875
9528,-105.468750
9529,-105.468750
9530,-105.468750
9531,-107.421875
9532,-105.468750
9533,-107.421875
9534,-105.468750
9535,-105.468750
9536,-105.468750
9537,-105.468750
9538,-105.468750
9539,-105.468750
9540,-105.468750
9541,-105.468750
9542,-103.515625
9543,-103.515625
9544,-103.515625
9545,-103.515625
9546,-103.515625
9547,-103.515625
9548,-101.562500
9549,-103.515625
9550,-103.515625
9551,-103.515625
9552,-101.562500
9553,-101.562500
9554,-101.562500
9555,-101.562500
9556,-101.562500
9557,-101.562500
9558,-99.609375
9559,-99.609375
9560,-99.609375
9561,-99.609375
9562,-97.656250
9563,-97.656250
9564,-99.609375
9565,-97.656250
9566,-97.656250
9567,-97.656250
9568,-95.703125
9569,-95.703125
9570,-95.703125
9571,-95.703125
9572,-93.750000
9573,-93.750000
9574,-93.750000
9575,-93.750000
9576,-91.796875
9577,-91.796875
9578,-91.796875
9579,-91.796875
9580,-91.796875
9581,-89.843750
9582,-89.843750
9583,-89.843750
9584,-87.890625
9585,-87.890625
9586,-87.890625
9587,-85.937500
9588,-85.937500
9589,-83.984375
9590,-83.984375
9591,-83.984375
9592,-83.984375
9593,-82.031250
9594,-82.031250
9595,-82.031250
9596,-82.031250
9597,-80.078125
9598,-80.078125
9599,-78.125000
9600,-78.125000
9601,-78.125000
9602,-76.171875
9603,-76.171875
9604,-76.171875
9605,-74.218750
9606,-74.218750
9607,-72.265625
9608,-72.265625
9609,-70.312500
9610,-70.312500
9611,-68.359375
9612,-68.359375
9613,-68.359375
9614,-68.359375
9615,-66.406250
9616,-66.406250
9617,-66.406250
9618,-62.500000
9619,-62.500000
9620,-62.500000
9621,-60.546875
9622,-60.546875
9623,-58.593750
9624,-58.593750
9625,-58.593750
9626,-56.640625
9627,-56.640625
9628,-54.687500
9629,-54.687500
9630,-52.734375
9631,-52.734375
9632,-50.781250
9633,-50.781250
9634,-48.828125
9635,-46.875000
9636,-46.875000
9637,-46.875000
9638,-44.921875
9639,-44.921875
9640,-42.968750
9641,-41.015625
9642,-41.015625
9643,-39.062500
9644,-39.062500
9645,-37.109375
9646,-35.156250
9647,-35.156250
9648,-35.156250
9649,-33.203125
9650,-33.203125
9651,-31.250000
9652,-29.296875
9653,-29.296875
9654,-27.343750
9655,-27.343750
9656,-25.390625
9657,-25.390625
9658,-23.437500
9659,-21.484375
9660,-21.484375
9661,-21.484375
9662,-19.531250
9663,-17.578125
9664,-17.578125
9665,-15.625000
9666,-13.671875
9667,-13.671875
9668,-11.718750
9669,-11.718750
9670,-9.765625
9671,-9.765625
9672,-7.812500
9673,-7.812500
9674,-5.859375
9675,-3.906250
9676,-3.906250
9677,-1.953125
9678,-1.953125
9679,0.000000
9680,0.000000
9681,1.953125
9682,3.906250
9683,3.906250
9684,5.859375
9685,5.859375
9686,7.812500
9687,7.812500
9688,9.765625
9689,9.765625
9690,11.718750
9691,11.718750
9692,13.671875
9693,15.625000
9694,15.625000
9695,17.578125
9696,17.578125
9697,19.531250
9698,21.484375
9699,21.484375
9700,21.484375
9701,23.437500
9702,23.437500
9703,25.390625
9704,27.343750
9705,27.343750
9706,29.296875
9707,29.296875
9708,31.250000
9709,33.203125
9710,33.203125
9711,35.156250
9712,35.156250
9713,35.156250
9714,37.109375
9715,39.062500
9716,39.062500
9717,41.015625
9718,41.015625
9719,42.968750
9720,42.968750
9721,44.921875
9722,44.921875
9723,46.875000
9724,46.875000
9725,48.828125
9726,48.828125
9727,48.828125
9728,50.781250
9729,52.734375
9730,52.734375
9731,54.687500
9732,54.687500
9733,54.687500
9734,56.640625
9735,56.640625
9736,58.593750
9737,58.593750
9738,60.546875
9739,60.546875
9740,62.500000
9741,62.500000
9742,62.500000
9743,64.453125
9744,64.453125
9745,66.406250
9746,66.406250
9747,66.406250
9748,66.406250
9749,68.359375
9750,70.312500
9751,70.312500
9752,70.312500
9753,72.265625
9754,72.265625
9755,72.265625
9756,74.218750
9757,74.218750
9758,74.218750
9759,76.171875
9760,76.171875
9761,78.125000
9762,78.125000
9763,78.125000
9764,78.125000
9765,80.078125
9766,80.078125
9767,80.078125
9768,82.031250
9769,82.031250
9770,82.031250
9771,83.984375
9772,83.984375
9773,83.984375
9774,83.984375
9775,85.937500
9776,85.937500
9777,85.937500
9778,85.937500
9779,87.890625
9780,87.890625
9781,87.890625
9782,87.890625
9783,87.890625
9784,89.843750
9785,89.843750
9786,89.843750
9787,89.843750
9788,89.843750
9789,91.796875
9790,91.796875
9791,91.796875
9792,91.796875
9793,91.796875
9794,91.796875
9795,93.750000
9796,93.750000
9797,93.750000
9798,93.750000
9799,93.750000
9800,93.750000
9801,93.750000
9802,93.750000
9803,93.750000
9804,93.750000
9805,93.750000
9806,95.703125
9807,95.703125
9808,95.703125
9809,95.703125
9810,95.703125
9811,95.703125
9812,95.703125
9813,95.703125
9814,95.703125
9815,95.703125
9816,95.703125
9817,95.703125
9818,95.703125
9819,95.703125
9820,95.703125
9821,95.703125
9822,93.750000
9823,95.703125
9824,93.750000
9825,93.750000
9826,93.750000
9827,93.750000
9828,93.750000
9829,93.750000
9830,93.750000
9831,93.750000
9832,93.750000
9833,93.750000
9834,93.750000
9835,93.750000
9836,91.796875
9837,91.796875
9838,91.796875
9839,91.796875
9840,91.796875
9841,91.796875
9842,91.796875
9843,89.843750
9844,89.843750
9845,89.843750
9846,89.843750
9847,89.843750
9848,87.890625
9849,87.890625
9850,87.890625
9851,87.890625
9852,87.890625
9853,85.937500
9854,85.937500
9855,85.937500
9856,85.937500
9857,85.937500
9858,83.984375
9859,83.984375
9860,83.984375
9861,82.031250
9862,82.031250
9863,82.031250
9864,80.078125
9865,80.078125
9866,80.078125
9867,80.078125
9868,80.078125
9869,78.125000
9870,78.125000
9871,76.171875
9872,76.171875
9873,76.171875
9874,74.218750
9875,74.218750
9876,74.218750
9877,72.265625
9878,72.265625
9879,72.265625
9880,70.312500
9881,70.312500
9882,68.359375
9883,68.359375
9884,68.359375
9885,66.406250
9886,66.406250
9887,64.453125
9888,64.453125
9889,64.453125
9890,62.500000
9891,62.500000
9892,62.500000
9893,60.546875
9894,60.546875
9895,58.593750
9896,58.593750
9897,56.640625
9898,56.640625
9899,54.687500
9900,54.687500
9901,56.640625
9902,52.734375
9903,52.734375
9904,50.781250
9905,50.781250
9906,48.828125
9907,48.828125
9908,48.828125
9909,46.875000
9910,44.921875
9911,44.921875
9912,44.921875
9913,42.968750
9914,42.968750
9915,41.015625
9916,41.015625
9917,39.062500
9918,37.109375
9919,37.109375
9920,37.109375
9921,35.156250
9922,33.203125
9923,33.203125
9924,31.250000
9925,31.250000
9926,31.250000
9927,29.296875
9928,27.343750
9929,27.343750
9930,25.390625
9931,25.390625
9932,23.437500
9933,23.437500
9934,21.484375
9935,21.484375
9936,19.531250
9937,17.578125
9938,17.578125
9939,15.625000
9940,15.625000
9941,13.671875
9942,13.671875
9943,11.718750
9944,11.718750
9945,9.765625
9946,9.765625
9947,7.812500
9948,5.859375
9949,5.859375
9950,3.906250
9951,3.906250
9952,1.953125
9953,0.000000
9954,0.000000
9955,0.000000
9956,-1.953125
9957,-1.953125
9958,-3.906250
9959,-5.859375
9960,-5.859375
9961,-7.812500
9962,-7.812500
9963,-9.765625
9964,-9.765625
9965,-11.718750
9966,-11.718750
9967,-13.671875
9968,-13.671875
9969,-15.625000
9970,-15.625000
9971,-17.578125
9972,-17.578125
9973,-19.531250
9974,-21.484375
9975,-21.484375
9976,-23.437500
9977,-23.437500
9978,-25.390625
9979,-25.390625
9980,-27.343750
9981,-27.343750
9982,-29.296875
9983,-29.296875
9984,-31.250000
9985,-33.203125
9986,-33.203125
9987,-33.203125
9988,-35.156250
9989,-37.109375
9990,-37.109375
9991,-39.062500
9992,-39.062500
9993,-41.015625
9994,-41.015625
9995,-42.968750
9996,-44.921875
9997,-44.921875
9998,-44.921875
9999,-46.875000
10000,-48.828125
