Channel              :,CH1
Frequency            :,957.9Hz
Period               :,1.044ms
PK-PK                :,238.3mV
Probe attenuation    :,1X
Voltage per ADC value:,0.122070mV
Time interval        :,0.40000us

index,CH1_Voltage(mV)
1,52.734375
2,52.734375
3,52.734375
4,52.734375
5,52.734375
6,52.734375
7,52.734375
8,54.687500
9,54.687500
10,54.687500
11,54.687500
12,54.687500
13,54.687500
14,54.687500
15,54.687500
16,56.640625
17,56.640625
18,56.640625
19,56.640625
20,56.640625
21,56.640625
22,56.640625
23,56.640625
24,56.640625
25,56.640625
26,58.593750
27,58.593750
28,58.593750
29,58.593750
30,58.593750
31,58.593750
32,58.593750
33,58.593750
34,58.593750
35,60.546875
36,60.546875
37,60.546875
38,60.546875
39,60.546875
40,60.546875
41,60.546875
42,62.500000
43,60.546875
44,62.500000
45,62.500000
46,62.500000
47,62.500000
48,62.500000
49,62.500000
50,62.500000
51,64.453125
52,64.453125
53,64.453125
54,62.500000
55,64.453125
56,64.453125
57,64.453125
58,64.453125
59,64.453125
60,64.453125
61,64.453125
62,66.406250
63,66.406250
64,66.406250
65,66.406250
66,66.406250
67,66.406250
68,66.406250
69,66.406250
70,66.406250
71,66.406250
72,68.359375
73,68.359375
74,68.359375
75,68.359375
76,68.359375
77,68.359375
78,68.359375
79,70.312500
80,68.359375
81,68.359375
82,70.312500
83,70.312500
84,70.312500
85,70.312500
86,70.312500
87,70.312500
88,70.312500
89,72.265625
90,72.265625
91,70.312500
92,72.265625
93,74.218750
94,72.265625
95,72.265625
96,72.265625
97,74.218750
98,72.265625
99,74.218750
100,72.265625
101,74.218750
102,74.218750
103,74.218750
104,74.218750
105,74.218750
106,74.218750
107,74.218750
108,74.218750
109,74.218750
110,74.218750
111,74.218750
112,76.171875
113,74.218750
114,76.171875
115,76.171875
116,76.171875
117,76.171875
118,76.171875
119,76.171875
120,76.171875
121,78.125000
122,76.171875
123,78.125000
124,78.125000
125,78.125000
126,78.125000
127,78.125000
128,78.125000
129,78.125000
130,78.125000
131,78.125000
132,78.125000
133,78.125000
134,80.078125
135,80.078125
136,80.078125
137,80.078125
138,80.078125
139,80.078125
140,80.078125
141,80.078125
142,82.031250
143,80.078125
144,82.031250
145,80.078125
146,82.031250
147,82.031250
148,82.031250
149,82.031250
150,82.031250
151,82.031250
152,82.031250
153,82.031250
154,82.031250
155,82.031250
156,83.984375
157,83.984375
158,83.984375
159,83.984375
160,83.984375
161,83.984375
162,83.984375
163,83.984375
164,83.984375
165,83.984375
166,83.984375
167,83.984375
168,83.984375
169,85.937500
170,85.937500
171,85.937500
172,85.937500
173,85.937500
174,85.937500
175,85.937500
176,85.937500
177,85.937500
178,85.937500
179,85.937500
180,87.890625
181,85.937500
182,87.890625
183,87.890625
184,87.890625
185,87.890625
186,87.890625
187,87.890625
188,87.890625
189,87.890625
190,87.890625
191,87.890625
192,87.890625
193,87.890625
194,89.843750
195,87.890625
196,89.843750
197,89.843750
198,89.843750
199,89.843750
200,89.843750
201,89.843750
202,89.843750
203,89.843750
204,91.796875
205,89.843750
206,91.796875
207,89.843750
208,89.843750
209,91.796875
210,91.796875
211,91.796875
212,91.796875
213,91.796875
214,91.796875
215,91.796875
216,91.796875
217,91.796875
218,91.796875
219,91.796875
220,91.796875
221,91.796875
222,93.750000
223,91.796875
224,93.750000
225,93.750000
226,93.750000
227,93.750000
228,93.750000
229,93.750000
230,93.750000
231,93.750000
232,93.750000
233,93.750000
234,93.750000
235,93.750000
236,95.703125
237,95.703125
238,95.703125
239,95.703125
240,95.703125
241,95.703125
242,95.703125
243,95.703125
244,95.703125
245,95.703125
246,95.703125
247,95.703125
248,95.703125
249,97.656250
250,95.703125
251,97.656250
252,95.703125
253,95.703125
254,97.656250
255,95.703125
256,97.656250
257,97.656250
258,97.656250
259,97.656250
260,97.656250
261,97.656250
262,97.656250
263,97.656250
264,97.656250
265,95.703125
266,97.656250
267,97.656250
268,97.656250
269,97.656250
270,99.609375
271,99.609375
272,99.609375
273,99.609375
274,99.609375
275,99.609375
276,99.609375
277,99.609375
278,99.609375
279,97.656250
280,99.609375
281,99.609375
282,99.609375
283,99.609375
284,99.609375
285,99.609375
286,99.609375
287,99.609375
288,99.609375
289,99.609375
290,101.562500
291,99.609375
292,99.609375
293,101.562500
294,99.609375
295,101.562500
296,101.562500
297,101.562500
298,101.562500
299,101.562500
300,101.562500
301,101.562500
302,101.562500
303,101.562500
304,101.562500
305,101.562500
306,101.562500
307,101.562500
308,103.515625
309,101.562500
310,101.562500
311,103.515625
312,101.562500
313,103.515625
314,101.562500
315,103.515625
316,103.515625
317,103.515625
318,103.515625
319,103.515625
320,103.515625
321,103.515625
322,103.515625
323,103.515625
324,103.515625
325,103.515625
326,103.515625
327,103.515625
328,103.515625
329,103.515625
330,103.515625
331,103.515625
332,103.515625
333,103.515625
334,103.515625
335,103.515625
336,103.515625
337,103.515625
338,103.515625
339,105.468750
340,105.468750
341,105.468750
342,105.468750
343,105.468750
344,105.468750
345,105.468750
346,105.468750
347,105.468750
348,105.468750
349,105.468750
350,105.468750
351,105.468750
352,105.468750
353,105.468750
354,105.468750
355,105.468750
356,105.468750
357,105.468750
358,105.468750
359,105.468750
360,105.468750
361,105.468750
362,105.468750
363,105.468750
364,105.468750
365,105.468750
366,105.468750
367,105.468750
368,105.468750
369,105.468750
370,105.468750
371,105.468750
372,105.468750
373,107.421875
374,105.468750
375,107.421875
376,107.421875
377,105.468750
378,107.421875
379,105.468750
380,107.421875
381,107.421875
382,105.468750
383,107.421875
384,107.421875
385,107.421875
386,107.421875
387,107.421875
388,107.421875
389,107.421875
390,107.421875
391,107.421875
392,107.421875
393,107.421875
394,105.468750
395,107.421875
396,107.421875
397,107.421875
398,107.421875
399,107.421875
400,107.421875
401,107.421875
402,107.421875
403,107.421875
404,107.421875
405,107.421875
406,107.421875
407,107.421875
408,107.421875
409,107.421875
410,107.421875
411,107.421875
412,107.421875
413,107.421875
414,107.421875
415,107.421875
416,107.421875
417,107.421875
418,107.421875
419,107.421875
420,107.421875
421,107.421875
422,107.421875
423,107.421875
424,107.421875
425,107.421875
426,107.421875
427,107.421875
428,109.375000
429,107.421875
430,109.375000
431,109.375000
432,109.375000
433,107.421875
434,107.421875
435,109.375000
436,107.421875
437,109.375000
438,107.421875
439,109.375000
440,107.421875
441,107.421875
442,109.375000
443,109.375000
444,109.375000
445,109.375000
446,109.375000
447,109.375000
448,107.421875
449,109.375000
450,107.421875
451,109.375000
452,107.421875
453,109.375000
454,109.375000
455,109.375000
456,109.375000
457,109.375000
458,107.421875
459,109.375000
460,109.375000
461,109.375000
462,109.375000
463,107.421875
464,109.375000
465,109.375000
466,109.375000
467,109.375000
468,107.421875
469,109.375000
470,109.375000
471,109.375000
472,109.375000
473,107.421875
474,107.421875
475,107.421875
476,107.421875
477,109.375000
478,107.421875
479,109.375000
480,109.375000
481,109.375000
482,109.375000
483,107.421875
484,109.375000
485,107.421875
486,107.421875
487,109.375000
488,107.421875
489,109.375000
490,107.421875
491,107.421875
492,109.375000
493,107.421875
494,109.375000
495,107.421875
496,109.375000
497,109.375000
498,107.421875
499,109.375000
500,107.421875
501,107.421875
502,107.421875
503,109.375000
504,107.421875
505,107.421875
506,107.421875
507,107.421875
508,107.421875
509,107.421875
510,107.421875
511,107.421875
512,107.421875
513,107.421875
514,107.421875
515,107.421875
516,107.421875
517,107.421875
518,107.421875
519,107.421875
520,107.421875
521,109.375000
522,107.421875
523,107.421875
524,107.421875
525,107.421875
526,107.421875
527,107.421875
528,107.421875
529,107.421875
530,107.421875
531,107.421875
532,107.421875
533,107.421875
534,107.421875
535,107.421875
536,107.421875
537,107.421875
538,107.421875
539,107.421875
540,107.421875
541,107.421875
542,107.421875
543,107.421875
544,107.421875
545,105.468750
546,107.421875
547,107.421875
548,105.468750
549,107.421875
550,105.468750
551,105.468750
552,105.468750
553,105.468750
554,105.468750
555,105.468750
556,107.421875
557,105.468750
558,105.468750
559,105.468750
560,105.468750
561,105.468750
562,105.468750
563,105.468750
564,105.468750
565,105.468750
566,107.421875
567,105.468750
568,105.468750
569,105.468750
570,105.468750
571,105.468750
572,105.468750
573,105.468750
574,105.468750
575,105.468750
576,105.468750
577,103.515625
578,105.468750
579,103.515625
580,105.468750
581,105.468750
582,105.468750
583,103.515625
584,103.515625
585,105.468750
586,103.515625
587,105.468750
588,103.515625
589,103.515625
590,103.515625
591,103.515625
592,103.515625
593,103.515625
594,103.515625
595,103.515625
596,103.515625
597,103.515625
598,103.515625
599,103.515625
600,103.515625
601,103.515625
602,101.562500
603,103.515625
604,103.515625
605,103.515625
606,103.515625
607,101.562500
608,103.515625
609,101.562500
610,103.515625
611,101.562500
612,101.562500
613,103.515625
614,101.562500
615,101.562500
616,101.562500
617,101.562500
618,101.562500
619,101.562500
620,101.562500
621,101.562500
622,101.562500
623,101.562500
624,101.562500
625,101.562500
626,101.562500
627,101.562500
628,101.562500
629,99.609375
630,101.562500
631,101.562500
632,101.562500
633,99.609375
634,99.609375
635,99.609375
636,99.609375
637,99.609375
638,99.609375
639,99.609375
640,99.609375
641,99.609375
642,99.609375
643,99.609375
644,99.609375
645,99.609375
646,99.609375
647,99.609375
648,99.609375
649,97.656250
650,99.609375
651,97.656250
652,97.656250
653,99.609375
654,97.656250
655,99.609375
656,97.656250
657,97.656250
658,99.609375
659,97.656250
660,97.656250
661,97.656250
662,97.656250
663,97.656250
664,97.656250
665,97.656250
666,97.656250
667,97.656250
668,97.656250
669,97.656250
670,95.703125
671,95.703125
672,95.703125
673,95.703125
674,95.703125
675,95.703125
676,95.703125
677,95.703125
678,95.703125
679,95.703125
680,95.703125
681,95.703125
682,95.703125
683,95.703125
684,93.750000
685,95.703125
686,93.750000
687,93.750000
688,95.703125
689,93.750000
690,93.750000
691,93.750000
692,93.750000
693,93.750000
694,93.750000
695,93.750000
696,93.750000
697,91.796875
698,93.750000
699,93.750000
700,93.750000
701,91.796875
702,91.796875
703,91.796875
704,91.796875
705,91.796875
706,91.796875
707,91.796875
708,91.796875
709,91.796875
710,91.796875
711,91.796875
712,91.796875
713,91.796875
714,91.796875
715,91.796875
716,89.843750
717,89.843750
718,89.843750
719,89.843750
720,89.843750
721,89.843750
722,89.843750
723,89.843750
724,89.843750
725,89.843750
726,89.843750
727,89.843750
728,89.843750
729,87.890625
730,87.890625
731,87.890625
732,87.890625
733,87.890625
734,87.890625
735,87.890625
736,87.890625
737,87.890625
738,85.937500
739,87.890625
740,87.890625
741,87.890625
742,85.937500
743,87.890625
744,85.937500
745,85.937500
746,85.937500
747,85.937500
748,85.937500
749,85.937500
750,85.937500
751,85.937500
752,85.937500
753,85.937500
754,83.984375
755,85.937500
756,83.984375
757,83.984375
758,83.984375
759,83.984375
760,83.984375
761,83.984375
762,83.984375
763,83.984375
764,83.984375
765,82.031250
766,83.984375
767,82.031250
768,82.031250
769,82.031250
770,82.031250
771,82.031250
772,82.031250
773,82.031250
774,82.031250
775,82.031250
776,80.078125
777,82.031250
778,80.078125
779,82.031250
780,80.078125
781,80.078125
782,80.078125
783,80.078125
784,80.078125
785,80.078125
786,80.078125
787,80.078125
788,80.078125
789,80.078125
790,78.125000
791,78.125000
792,78.125000
793,78.125000
794,78.125000
795,78.125000
796,78.125000
797,78.125000
798,78.125000
799,78.125000
800,76.171875
801,78.125000
802,76.171875
803,76.171875
804,76.171875
805,76.171875
806,76.171875
807,76.171875
808,74.218750
809,76.171875
810,74.218750
811,74.218750
812,74.218750
813,74.218750
814,74.218750
815,74.218750
816,74.218750
817,74.218750
818,74.218750
819,74.218750
820,72.265625
821,74.218750
822,72.265625
823,72.265625
824,72.265625
825,72.265625
826,72.265625
827,72.265625
828,72.265625
829,72.265625
830,72.265625
831,72.265625
832,70.312500
833,70.312500
834,70.312500
835,70.312500
836,70.312500
837,70.312500
838,70.312500
839,70.312500
840,70.312500
841,68.359375
842,70.312500
843,68.359375
844,68.359375
845,68.359375
846,68.359375
847,68.359375
848,68.359375
849,68.359375
850,66.406250
851,68.359375
852,66.406250
853,66.406250
854,66.406250
855,66.406250
856,66.406250
857,64.453125
858,66.406250
859,66.406250
860,64.453125
861,64.453125
862,64.453125
863,64.453125
864,64.453125
865,64.453125
866,64.453125
867,64.453125
868,62.500000
869,64.453125
870,62.500000
871,62.500000
872,60.546875
873,62.500000
874,62.500000
875,62.500000
876,62.500000
877,60.546875
878,62.500000
879,60.546875
880,60.546875
881,60.546875
882,60.546875
883,60.546875
884,60.546875
885,60.546875
886,58.593750
887,58.593750
888,58.593750
889,58.593750
890,58.593750
891,58.593750
892,58.593750
893,58.593750
894,58.593750
895,58.593750
896,56.640625
897,56.640625
898,56.640625
899,56.640625
900,56.640625
901,56.640625
902,56.640625
903,56.640625
904,54.687500
905,54.687500
906,54.687500
907,54.687500
908,54.687500
909,54.687500
910,54.687500
911,54.687500
912,52.734375
913,52.734375
914,54.687500
915,52.734375
916,52.734375
917,52.734375
918,52.734375
919,52.734375
920,50.781250
921,52.734375
922,50.781250
923,50.781250
924,50.781250
925,50.781250
926,50.781250
927,48.828125
928,50.781250
929,50.781250
930,50.781250
931,48.828125
932,48.828125
933,48.828125
934,48.828125
935,48.828125
936,48.828125
937,46.875000
938,46.875000
939,46.875000
940,46.875000
941,46.875000
942,46.875000
943,46.875000
944,46.875000
945,46.875000
946,44.921875
947,44.921875
948,44.921875
949,44.921875
950,44.921875
951,44.921875
952,44.921875
953,44.921875
954,42.968750
955,44.921875
956,42.968750
957,42.968750
958,42.968750
959,41.015625
960,42.968750
961,41.015625
962,42.968750
963,41.015625
964,41.015625
965,41.015625
966,41.015625
967,41.015625
968,41.015625
969,39.062500
970,39.062500
971,39.062500
972,39.062500
973,39.062500
974,39.062500
975,39.062500
976,39.062500
977,37.109375
978,37.109375
979,37.109375
980,37.109375
981,37.109375
982,37.109375
983,37.109375
984,35.156250
985,35.156250
986,35.156250
987,35.156250
988,35.156250
989,35.156250
990,35.156250
991,33.203125
992,33.203125
993,35.156250
994,33.203125
995,33.203125
996,33.203125
997,33.203125
998,31.250000
999,31.250000
1000,31.250000
1001,31.250000
1002,31.250000
1003,31.250000
1004,29.296875
1005,31.250000
1006,29.296875
1007,29.296875
1008,29.296875
1009,29.296875
1010,29.296875
1011,29.296875
1012,29.296875
1013,29.296875
1014,27.343750
1015,29.296875
1016,27.343750
1017,27.343750
1018,27.343750
1019,27.343750
1020,27.343750
1021,25.390625
1022,27.343750
1023,25.390625
1024,25.390625
1025,25.390625
1026,25.390625
1027,25.390625
1028,25.390625
1029,25.390625
1030,23.437500
1031,23.437500
1032,23.437500
1033,23.437500
1034,23.437500
1035,23.437500
1036,21.484375
1037,23.437500
1038,21.484375
1039,21.484375
1040,21.484375
1041,21.484375
1042,21.484375
1043,19.531250
1044,19.531250
1045,19.531250
1046,19.531250
1047,19.531250
1048,19.531250
1049,19.531250
1050,19.531250
1051,17.578125
1052,17.578125
1053,17.578125
1054,17.578125
1055,17.578125
1056,17.578125
1057,17.578125
1058,15.625000
1059,15.625000
1060,15.625000
1061,15.625000
1062,15.625000
1063,15.625000
1064,13.671875
1065,13.671875
1066,13.671875
1067,13.671875
1068,13.671875
1069,13.671875
1070,13.671875
1071,13.671875
1072,11.718750
1073,11.718750
1074,11.718750
1075,11.718750
1076,11.718750
1077,11.718750
1078,11.718750
1079,9.765625
1080,9.765625
1081,9.765625
1082,9.765625
1083,9.765625
1084,9.765625
1085,9.765625
1086,7.812500
1087,7.812500
1088,7.812500
1089,7.812500
1090,7.812500
1091,5.859375
1092,7.812500
1093,5.859375
1094,5.859375
1095,5.859375
1096,5.859375
1097,5.859375
1098,3.906250
1099,5.859375
1100,3.906250
1101,3.906250
1102,3.906250
1103,3.906250
1104,3.906250
1105,3.906250
1106,3.906250
1107,1.953125
1108,1.953125
1109,1.953125
1110,1.953125
1111,1.953125
1112,1.953125
1113,0.000000
1114,0.000000
1115,0.000000
1116,0.000000
1117,0.000000
1118,0.000000
1119,0.000000
1120,-1.953125
1121,-1.953125
1122,-1.953125
1123,-1.953125
1124,-1.953125
1125,-1.953125
1126,-1.953125
1127,-3.906250
1128,-3.906250
1129,-3.906250
1130,-3.906250
1131,-3.906250
1132,-3.906250
1133,-3.906250
1134,-5.859375
1135,-5.859375
1136,-5.859375
1137,-5.859375
1138,-5.859375
1139,-5.859375
1140,-5.859375
1141,-7.812500
1142,-7.812500
1143,-7.812500
1144,-7.812500
1145,-7.812500
1146,-7.812500
1147,-9.765625
1148,-9.765625
1149,-9.765625
1150,-9.765625
1151,-9.765625
1152,-9.765625
1153,-11.718750
1154,-9.765625
1155,-11.718750
1156,-11.718750
1157,-11.718750
1158,-11.718750
1159,-11.718750
1160,-11.718750
1161,-11.718750
1162,-13.671875
1163,-13.671875
1164,-13.671875
1165,-13.671875
1166,-13.671875
1167,-13.671875
1168,-15.625000
1169,-13.671875
1170,-15.625000
1171,-15.625000
1172,-15.625000
1173,-15.625000
1174,-15.625000
1175,-17.578125
1176,-17.578125
1177,-17.578125
1178,-17.578125
1179,-17.578125
1180,-17.578125
1181,-17.578125
1182,-17.578125
1183,-19.531250
1184,-19.531250
1185,-19.531250
1186,-19.531250
1187,-21.484375
1188,-19.531250
1189,-21.484375
1190,-21.484375
1191,-21.484375
1192,-21.484375
1193,-21.484375
1194,-21.484375
1195,-21.484375
1196,-23.437500
1197,-23.437500
1198,-23.437500
1199,-23.437500
1200,-23.437500
1201,-23.437500
1202,-23.437500
1203,-25.390625
1204,-25.390625
1205,-25.390625
1206,-25.390625
1207,-25.390625
1208,-27.343750
1209,-25.390625
1210,-27.343750
1211,-27.343750
1212,-27.343750
1213,-29.296875
1214,-27.343750
1215,-29.296875
1216,-27.343750
1217,-29.296875
1218,-29.296875
1219,-29.296875
1220,-29.296875
1221,-29.296875
1222,-29.296875
1223,-31.250000
1224,-29.296875
1225,-31.250000
1226,-31.250000
1227,-31.250000
1228,-31.250000
1229,-31.250000
1230,-33.203125
1231,-31.250000
1232,-33.203125
1233,-33.203125
1234,-33.203125
1235,-33.203125
1236,-33.203125
1237,-35.156250
1238,-35.156250
1239,-35.156250
1240,-35.156250
1241,-35.156250
1242,-35.156250
1243,-35.156250
1244,-35.156250
1245,-37.109375
1246,-37.109375
1247,-37.109375
1248,-37.109375
1249,-37.109375
1250,-37.109375
1251,-39.062500
1252,-39.062500
1253,-39.062500
1254,-39.062500
1255,-39.062500
1256,-39.062500
1257,-41.015625
1258,-39.062500
1259,-41.015625
1260,-41.015625
1261,-41.015625
1262,-41.015625
1263,-41.015625
1264,-42.968750
1265,-41.015625
1266,-42.968750
1267,-42.968750
1268,-42.968750
1269,-42.968750
1270,-42.968750
1271,-42.968750
1272,-44.921875
1273,-44.921875
1274,-44.921875
1275,-44.921875
1276,-44.921875
1277,-44.921875
1278,-44.921875
1279,-44.921875
1280,-46.875000
1281,-44.921875
1282,-46.875000
1283,-46.875000
1284,-48.828125
1285,-48.828125
1286,-46.875000
1287,-46.875000
1288,-48.828125
1289,-48.828125
1290,-48.828125
1291,-48.828125
1292,-48.828125
1293,-50.781250
1294,-50.781250
1295,-50.781250
1296,-50.781250
1297,-50.781250
1298,-50.781250
1299,-52.734375
1300,-50.781250
1301,-50.781250
1302,-52.734375
1303,-52.734375
1304,-52.734375
1305,-52.734375
1306,-52.734375
1307,-54.687500
1308,-52.734375
1309,-54.687500
1310,-52.734375
1311,-54.687500
1312,-54.687500
1313,-54.687500
1314,-54.687500
1315,-54.687500
1316,-56.640625
1317,-56.640625
1318,-56.640625
1319,-56.640625
1320,-56.640625
1321,-56.640625
1322,-56.640625
1323,-58.593750
1324,-58.593750
1325,-58.593750
1326,-58.593750
1327,-58.593750
1328,-58.593750
1329,-60.546875
1330,-58.593750
1331,-60.546875
1332,-58.593750
1333,-60.546875
1334,-60.546875
1335,-60.546875
1336,-62.500000
1337,-60.546875
1338,-62.500000
1339,-62.500000
1340,-62.500000
1341,-62.500000
1342,-62.500000
1343,-62.500000
1344,-62.500000
1345,-62.500000
1346,-64.453125
1347,-64.453125
1348,-64.453125
1349,-64.453125
1350,-64.453125
1351,-64.453125
1352,-64.453125
1353,-66.406250
1354,-66.406250
1355,-64.453125
1356,-66.406250
1357,-66.406250
1358,-66.406250
1359,-68.359375
1360,-66.406250
1361,-68.359375
1362,-66.406250
1363,-68.359375
1364,-68.359375
1365,-68.359375
1366,-68.359375
1367,-68.359375
1368,-70.312500
1369,-68.359375
1370,-70.312500
1371,-70.312500
1372,-70.312500
1373,-70.312500
1374,-70.312500
1375,-70.312500
1376,-70.312500
1377,-70.312500
1378,-72.265625
1379,-72.265625
1380,-72.265625
1381,-72.265625
1382,-72.265625
1383,-72.265625
1384,-72.265625
1385,-74.218750
1386,-74.218750
1387,-74.218750
1388,-74.218750
1389,-74.218750
1390,-74.218750
1391,-74.218750
1392,-74.218750
1393,-76.171875
1394,-76.171875
1395,-76.171875
1396,-76.171875
1397,-76.171875
1398,-76.171875
1399,-76.171875
1400,-76.171875
1401,-78.125000
1402,-78.125000
1403,-78.125000
1404,-78.125000
1405,-78.125000
1406,-78.125000
1407,-78.125000
1408,-78.125000
1409,-80.078125
1410,-80.078125
1411,-80.078125
1412,-80.078125
1413,-80.078125
1414,-80.078125
1415,-80.078125
1416,-82.031250
1417,-80.078125
1418,-82.031250
1419,-82.031250
1420,-82.031250
1421,-82.031250
1422,-82.031250
1423,-82.031250
1424,-82.031250
1425,-82.031250
1426,-83.984375
1427,-82.031250
1428,-83.984375
1429,-83.984375
1430,-85.937500
1431,-83.984375
1432,-83.984375
1433,-85.937500
1434,-85.937500
1435,-85.937500
1436,-85.937500
1437,-85.937500
1438,-85.937500
1439,-85.937500
1440,-85.937500
1441,-85.937500
1442,-85.937500
1443,-85.937500
1444,-85.937500
1445,-87.890625
1446,-87.890625
1447,-87.890625
1448,-87.890625
1449,-87.890625
1450,-87.890625
1451,-87.890625
1452,-87.890625
1453,-87.890625
1454,-87.890625
1455,-89.843750
1456,-89.843750
1457,-89.843750
1458,-89.843750
1459,-89.843750
1460,-89.843750
1461,-89.843750
1462,-89.843750
1463,-89.843750
1464,-91.796875
1465,-91.796875
1466,-91.796875
1467,-91.796875
1468,-91.796875
1469,-91.796875
1470,-93.750000
1471,-91.796875
1472,-93.750000
1473,-93.750000
1474,-93.750000
1475,-93.750000
1476,-93.750000
1477,-93.750000
1478,-93.750000
1479,-93.750000
1480,-93.750000
1481,-93.750000
1482,-95.703125
1483,-95.703125
1484,-95.703125
1485,-95.703125
1486,-95.703125
1487,-95.703125
1488,-95.703125
1489,-95.703125
1490,-95.703125
1491,-95.703125
1492,-95.703125
1493,-97.656250
1494,-97.656250
1495,-97.656250
1496,-97.656250
1497,-97.656250
1498,-97.656250
1499,-97.656250
1500,-97.656250
1501,-97.656250
1502,-97.656250
1503,-97.656250
1504,-97.656250
1505,-99.609375
1506,-99.609375
1507,-99.609375
1508,-99.609375
1509,-99.609375
1510,-101.562500
1511,-99.609375
1512,-99.609375
1513,-99.609375
1514,-101.562500
1515,-101.562500
1516,-101.562500
1517,-101.562500
1518,-101.562500
1519,-101.562500
1520,-101.562500
1521,-101.562500
1522,-101.562500
1523,-101.562500
1524,-101.562500
1525,-103.515625
1526,-101.562500
1527,-103.515625
1528,-101.562500
1529,-103.515625
1530,-103.515625
1531,-103.515625
1532,-103.515625
1533,-103.515625
1534,-103.515625
1535,-105.468750
1536,-103.515625
1537,-105.468750
1538,-103.515625
1539,-105.468750
1540,-103.515625
1541,-105.468750
1542,-105.468750
1543,-105.468750
1544,-105.468750
1545,-105.468750
1546,-105.468750
1547,-105.468750
1548,-105.468750
1549,-107.421875
1550,-107.421875
1551,-107.421875
1552,-107.421875
1553,-107.421875
1554,-107.421875
1555,-107.421875
1556,-107.421875
1557,-107.421875
1558,-107.421875
1559,-107.421875
1560,-107.421875
1561,-107.421875
1562,-109.375000
1563,-107.421875
1564,-109.375000
1565,-107.421875
1566,-109.375000
1567,-107.421875
1568,-109.375000
1569,-109.375000
1570,-109.375000
1571,-109.375000
1572,-109.375000
1573,-109.375000
1574,-109.375000
1575,-111.328125
1576,-111.328125
1577,-109.375000
1578,-111.328125
1579,-111.328125
1580,-111.328125
1581,-111.328125
1582,-111.328125
1583,-111.328125
1584,-111.328125
1585,-111.328125
1586,-111.328125
1587,-111.328125
1588,-111.328125
1589,-111.328125
1590,-111.328125
1591,-111.328125
1592,-111.328125
1593,-113.281250
1594,-113.281250
1595,-113.281250
1596,-113.281250
1597,-113.281250
1598,-113.281250
1599,-113.281250
1600,-113.281250
1601,-113.281250
1602,-113.281250
1603,-113.281250
1604,-113.281250
1605,-113.281250
1606,-113.281250
1607,-113.281250
1608,-113.281250
1609,-115.234375
1610,-115.234375
1611,-115.234375
1612,-115.234375
1613,-115.234375
1614,-115.234375
1615,-115.234375
1616,-115.234375
1617,-115.234375
1618,-115.234375
1619,-115.234375
1620,-115.234375
1621,-115.234375
1622,-115.234375
1623,-115.234375
1624,-117.187500
1625,-115.234375
1626,-117.187500
1627,-115.234375
1628,-117.187500
1629,-117.187500
1630,-117.187500
1631,-117.187500
1632,-117.187500
1633,-117.187500
1634,-117.187500
1635,-117.187500
1636,-117.187500
1637,-117.187500
1638,-117.187500
1639,-117.187500
1640,-117.187500
1641,-119.140625
1642,-117.187500
1643,-117.187500
1644,-119.140625
1645,-117.187500
1646,-119.140625
1647,-117.187500
1648,-119.140625
1649,-119.140625
1650,-119.140625
1651,-117.187500
1652,-119.140625
1653,-119.140625
1654,-119.140625
1655,-119.140625
1656,-119.140625
1657,-119.140625
1658,-119.140625
1659,-121.093750
1660,-119.140625
1661,-119.140625
1662,-119.140625
1663,-119.140625
1664,-121.093750
1665,-119.140625
1666,-119.140625
1667,-121.093750
1668,-119.140625
1669,-121.093750
1670,-119.140625
1671,-121.093750
1672,-121.093750
1673,-121.093750
1674,-121.093750
1675,-121.093750
1676,-121.093750
1677,-121.093750
1678,-121.093750
1679,-121.093750
1680,-121.093750
1681,-121.093750
1682,-121.093750
1683,-121.093750
1684,-121.093750
1685,-121.093750
1686,-121.093750
1687,-121.093750
1688,-121.093750
1689,-123.046875
1690,-121.093750
1691,-123.046875
1692,-121.093750
1693,-123.046875
1694,-121.093750
1695,-121.093750
1696,-121.093750
1697,-121.093750
1698,-123.046875
1699,-121.093750
1700,-123.046875
1701,-123.046875
1702,-121.093750
1703,-123.046875
1704,-123.046875
1705,-123.046875
1706,-123.046875
1707,-121.093750
1708,-123.046875
1709,-123.046875
1710,-123.046875
1711,-123.046875
1712,-123.046875
1713,-123.046875
1714,-123.046875
1715,-123.046875
1716,-123.046875
1717,-123.046875
1718,-123.046875
1719,-123.046875
1720,-123.046875
1721,-123.046875
1722,-123.046875
1723,-123.046875
1724,-123.046875
1725,-123.046875
1726,-123.046875
1727,-123.046875
1728,-123.046875
1729,-123.046875
1730,-123.046875
1731,-123.046875
1732,-123.046875
1733,-123.046875
1734,-123.046875
1735,-123.046875
1736,-123.046875
1737,-123.046875
1738,-123.046875
1739,-123.046875
1740,-123.046875
1741,-125.000000
1742,-123.046875
1743,-123.046875
1744,-123.046875
1745,-123.046875
1746,-125.000000
1747,-123.046875
1748,-123.046875
1749,-123.046875
1750,-123.046875
1751,-125.000000
1752,-123.046875
1753,-125.000000
1754,-123.046875
1755,-125.000000
1756,-123.046875
1757,-123.046875
1758,-123.046875
1759,-123.046875
1760,-123.046875
1761,-123.046875
1762,-125.000000
1763,-125.000000
1764,-123.046875
1765,-125.000000
1766,-123.046875
1767,-123.046875
1768,-125.000000
1769,-123.046875
1770,-125.000000
1771,-123.046875
1772,-125.000000
1773,-123.046875
1774,-125.000000
1775,-125.000000
1776,-125.000000
1777,-125.000000
1778,-125.000000
1779,-123.046875
1780,-123.046875
1781,-123.046875
1782,-125.000000
1783,-123.046875
1784,-123.046875
1785,-123.046875
1786,-123.046875
1787,-123.046875
1788,-123.046875
1789,-123.046875
1790,-123.046875
1791,-123.046875
1792,-125.000000
1793,-123.046875
1794,-123.046875
1795,-123.046875
1796,-123.046875
1797,-123.046875
1798,-123.046875
1799,-123.046875
1800,-123.046875
1801,-123.046875
1802,-123.046875
1803,-123.046875
1804,-123.046875
1805,-123.046875
1806,-123.046875
1807,-123.046875
1808,-123.046875
1809,-123.046875
1810,-123.046875
1811,-123.046875
1812,-123.046875
1813,-123.046875
1814,-123.046875
1815,-123.046875
1816,-123.046875
1817,-123.046875
1818,-123.046875
1819,-125.000000
1820,-123.046875
1821,-123.046875
1822,-123.046875
1823,-125.000000
1824,-123.046875
1825,-123.046875
1826,-123.046875
1827,-123.046875
1828,-123.046875
1829,-123.046875
1830,-123.046875
1831,-123.046875
1832,-123.046875
1833,-123.046875
1834,-121.093750
1835,-123.046875
1836,-123.046875
1837,-123.046875
1838,-123.046875
1839,-121.093750
1840,-121.093750
1841,-121.093750
1842,-123.046875
1843,-121.093750
1844,-121.093750
1845,-121.093750
1846,-121.093750
1847,-121.093750
1848,-121.093750
1849,-121.093750
1850,-121.093750
1851,-121.093750
1852,-121.093750
1853,-121.093750
1854,-121.093750
1855,-121.093750
1856,-121.093750
1857,-121.093750
1858,-121.093750
1859,-121.093750
1860,-121.093750
1861,-121.093750
1862,-121.093750
1863,-121.093750
1864,-119.140625
1865,-121.093750
1866,-121.093750
1867,-121.093750
1868,-119.140625
1869,-119.140625
1870,-121.093750
1871,-119.140625
1872,-121.093750
1873,-119.140625
1874,-119.140625
1875,-119.140625
1876,-119.140625
1877,-119.140625
1878,-119.140625
1879,-119.140625
1880,-119.140625
1881,-119.140625
1882,-119.140625
1883,-119.140625
1884,-119.140625
1885,-119.140625
1886,-119.140625
1887,-117.187500
1888,-119.140625
1889,-119.140625
1890,-117.187500
1891,-119.140625
1892,-117.187500
1893,-117.187500
1894,-117.187500
1895,-117.187500
1896,-117.187500
1897,-117.187500
1898,-117.187500
1899,-117.187500
1900,-117.187500
1901,-117.187500
1902,-117.187500
1903,-117.187500
1904,-117.187500
1905,-117.187500
1906,-115.234375
1907,-117.187500
1908,-115.234375
1909,-115.234375
1910,-115.234375
1911,-115.234375
1912,-115.234375
1913,-115.234375
1914,-115.234375
1915,-115.234375
1916,-115.234375
1917,-115.234375
1918,-115.234375
1919,-115.234375
1920,-115.234375
1921,-115.234375
1922,-115.234375
1923,-115.234375
1924,-115.234375
1925,-113.281250
1926,-115.234375
1927,-115.234375
1928,-113.281250
1929,-115.234375
1930,-113.281250
1931,-115.234375
1932,-113.281250
1933,-113.281250
1934,-113.281250
1935,-113.281250
1936,-113.281250
1937,-113.281250
1938,-111.328125
1939,-113.281250
1940,-111.328125
1941,-113.281250
1942,-111.328125
1943,-113.281250
1944,-113.281250
1945,-111.328125
1946,-113.281250
1947,-111.328125
1948,-111.328125
1949,-111.328125
1950,-111.328125
1951,-111.328125
1952,-111.328125
1953,-111.328125
1954,-111.328125
1955,-109.375000
1956,-111.328125
1957,-109.375000
1958,-109.375000
1959,-109.375000
1960,-109.375000
1961,-109.375000
1962,-109.375000
1963,-109.375000
1964,-109.375000
1965,-109.375000
1966,-109.375000
1967,-109.375000
1968,-109.375000
1969,-109.375000
1970,-107.421875
1971,-109.375000
1972,-107.421875
1973,-107.421875
1974,-107.421875
1975,-107.421875
1976,-107.421875
1977,-107.421875
1978,-107.421875
1979,-105.468750
1980,-107.421875
1981,-107.421875
1982,-107.421875
1983,-105.468750
1984,-105.468750
1985,-105.468750
1986,-105.468750
1987,-105.468750
1988,-105.468750
1989,-105.468750
1990,-105.468750
1991,-105.468750
1992,-105.468750
1993,-105.468750
1994,-105.468750
1995,-103.515625
1996,-105.468750
1997,-103.515625
1998,-103.515625
1999,-105.468750
2000,-103.515625
2001,-103.515625
2002,-103.515625
2003,-103.515625
2004,-103.515625
2005,-101.562500
2006,-103.515625
2007,-101.562500
2008,-103.515625
2009,-101.562500
2010,-101.562500
2011,-101.562500
2012,-101.562500
2013,-101.562500
2014,-101.562500
2015,-101.562500
2016,-101.562500
2017,-101.562500
2018,-101.562500
2019,-99.609375
2020,-99.609375
2021,-99.609375
2022,-99.609375
2023,-99.609375
2024,-99.609375
2025,-99.609375
2026,-99.609375
2027,-99.609375
2028,-99.609375
2029,-99.609375
2030,-97.656250
2031,-99.609375
2032,-97.656250
2033,-97.656250
2034,-95.703125
2035,-97.656250
2036,-97.656250
2037,-97.656250
2038,-95.703125
2039,-95.703125
2040,-95.703125
2041,-95.703125
2042,-95.703125
2043,-95.703125
2044,-95.703125
2045,-95.703125
2046,-95.703125
2047,-93.750000
2048,-95.703125
2049,-93.750000
2050,-93.750000
2051,-93.750000
2052,-93.750000
2053,-93.750000
2054,-93.750000
2055,-93.750000
2056,-93.750000
2057,-93.750000
2058,-93.750000
2059,-91.796875
2060,-93.750000
2061,-91.796875
2062,-91.796875
2063,-91.796875
2064,-91.796875
2065,-91.796875
2066,-91.796875
2067,-91.796875
2068,-91.796875
2069,-89.843750
2070,-89.843750
2071,-89.843750
2072,-89.843750
2073,-89.843750
2074,-89.843750
2075,-89.843750
2076,-89.843750
2077,-89.843750
2078,-89.843750
2079,-87.890625
2080,-87.890625
2081,-89.843750
2082,-87.890625
2083,-85.937500
2084,-87.890625
2085,-87.890625
2086,-87.890625
2087,-85.937500
2088,-87.890625
2089,-85.937500
2090,-85.937500
2091,-85.937500
2092,-85.937500
2093,-85.937500
2094,-85.937500
2095,-85.937500
2096,-85.937500
2097,-83.984375
2098,-85.937500
2099,-83.984375
2100,-83.984375
2101,-83.984375
2102,-83.984375
2103,-83.984375
2104,-83.984375
2105,-83.984375
2106,-82.031250
2107,-82.031250
2108,-82.031250
2109,-82.031250
2110,-82.031250
2111,-82.031250
2112,-82.031250
2113,-82.031250
2114,-80.078125
2115,-82.031250
2116,-80.078125
2117,-80.078125
2118,-80.078125
2119,-80.078125
2120,-80.078125
2121,-80.078125
2122,-80.078125
2123,-78.125000
2124,-78.125000
2125,-78.125000
2126,-78.125000
2127,-78.125000
2128,-78.125000
2129,-78.125000
2130,-78.125000
2131,-78.125000
2132,-78.125000
2133,-76.171875
2134,-76.171875
2135,-76.171875
2136,-76.171875
2137,-76.171875
2138,-76.171875
2139,-76.171875
2140,-74.218750
2141,-74.218750
2142,-74.218750
2143,-74.218750
2144,-74.218750
2145,-74.218750
2146,-74.218750
2147,-74.218750
2148,-74.218750
2149,-72.265625
2150,-72.265625
2151,-72.265625
2152,-72.265625
2153,-72.265625
2154,-72.265625
2155,-72.265625
2156,-72.265625
2157,-70.312500
2158,-72.265625
2159,-70.312500
2160,-70.312500
2161,-70.312500
2162,-70.312500
2163,-70.312500
2164,-68.359375
2165,-70.312500
2166,-68.359375
2167,-68.359375
2168,-68.359375
2169,-68.359375
2170,-68.359375
2171,-66.406250
2172,-68.359375
2173,-66.406250
2174,-66.406250
2175,-66.406250
2176,-66.406250
2177,-66.406250
2178,-66.406250
2179,-66.406250
2180,-64.453125
2181,-64.453125
2182,-64.453125
2183,-64.453125
2184,-64.453125
2185,-64.453125
2186,-64.453125
2187,-64.453125
2188,-62.500000
2189,-62.500000
2190,-62.500000
2191,-62.500000
2192,-62.500000
2193,-60.546875
2194,-62.500000
2195,-60.546875
2196,-60.546875
2197,-60.546875
2198,-60.546875
2199,-60.546875
2200,-60.546875
2201,-60.546875
2202,-58.593750
2203,-60.546875
2204,-58.593750
2205,-58.593750
2206,-58.593750
2207,-58.593750
2208,-58.593750
2209,-56.640625
2210,-58.593750
2211,-56.640625
2212,-56.640625
2213,-56.640625
2214,-56.640625
2215,-54.687500
2216,-54.687500
2217,-56.640625
2218,-54.687500
2219,-54.687500
2220,-54.687500
2221,-54.687500
2222,-54.687500
2223,-52.734375
2224,-52.734375
2225,-52.734375
2226,-52.734375
2227,-52.734375
2228,-52.734375
2229,-52.734375
2230,-50.781250
2231,-50.781250
2232,-50.781250
2233,-50.781250
2234,-50.781250
2235,-50.781250
2236,-50.781250
2237,-50.781250
2238,-50.781250
2239,-48.828125
2240,-48.828125
2241,-48.828125
2242,-48.828125
2243,-48.828125
2244,-48.828125
2245,-48.828125
2246,-46.875000
2247,-46.875000
2248,-46.875000
2249,-46.875000
2250,-46.875000
2251,-46.875000
2252,-44.921875
2253,-44.921875
2254,-44.921875
2255,-46.875000
2256,-44.921875
2257,-44.921875
2258,-44.921875
2259,-44.921875
2260,-44.921875
2261,-42.968750
2262,-42.968750
2263,-42.968750
2264,-42.968750
2265,-42.968750
2266,-41.015625
2267,-42.968750
2268,-41.015625
2269,-41.015625
2270,-41.015625
2271,-41.015625
2272,-41.015625
2273,-41.015625
2274,-41.015625
2275,-39.062500
2276,-39.062500
2277,-39.062500
2278,-39.062500
2279,-39.062500
2280,-39.062500
2281,-37.109375
2282,-37.109375
2283,-37.109375
2284,-37.109375
2285,-37.109375
2286,-37.109375
2287,-37.109375
2288,-35.156250
2289,-35.156250
2290,-35.156250
2291,-35.156250
2292,-35.156250
2293,-35.156250
2294,-35.156250
2295,-33.203125
2296,-33.203125
2297,-33.203125
2298,-33.203125
2299,-33.203125
2300,-31.250000
2301,-33.203125
2302,-31.250000
2303,-33.203125
2304,-31.250000
2305,-31.250000
2306,-31.250000
2307,-31.250000
2308,-31.250000
2309,-31.250000
2310,-29.296875
2311,-29.296875
2312,-29.296875
2313,-29.296875
2314,-29.296875
2315,-27.343750
2316,-27.343750
2317,-27.343750
2318,-27.343750
2319,-27.343750
2320,-27.343750
2321,-27.343750
2322,-25.390625
2323,-25.390625
2324,-25.390625
2325,-25.390625
2326,-25.390625
2327,-23.437500
2328,-25.390625
2329,-23.437500
2330,-23.437500
2331,-23.437500
2332,-23.437500
2333,-23.437500
2334,-23.437500
2335,-23.437500
2336,-21.484375
2337,-21.484375
2338,-21.484375
2339,-21.484375
2340,-21.484375
2341,-21.484375
2342,-21.484375
2343,-19.531250
2344,-21.484375
2345,-19.531250
2346,-19.531250
2347,-19.531250
2348,-19.531250
2349,-19.531250
2350,-17.578125
2351,-17.578125
2352,-17.578125
2353,-17.578125
2354,-17.578125
2355,-17.578125
2356,-17.578125
2357,-15.625000
2358,-15.625000
2359,-15.625000
2360,-15.625000
2361,-15.625000
2362,-15.625000
2363,-15.625000
2364,-13.671875
2365,-13.671875
2366,-13.671875
2367,-13.671875
2368,-13.671875
2369,-13.671875
2370,-11.718750
2371,-13.671875
2372,-11.718750
2373,-11.718750
2374,-11.718750
2375,-11.718750
2376,-11.718750
2377,-9.765625
2378,-11.718750
2379,-9.765625
2380,-9.765625
2381,-9.765625
2382,-9.765625
2383,-9.765625
2384,-7.812500
2385,-9.765625
2386,-7.812500
2387,-7.812500
2388,-7.812500
2389,-7.812500
2390,-7.812500
2391,-5.859375
2392,-5.859375
2393,-5.859375
2394,-5.859375
2395,-5.859375
2396,-5.859375
2397,-3.906250
2398,-3.906250
2399,-3.906250
2400,-3.906250
2401,-3.906250
2402,-1.953125
2403,-3.906250
2404,-1.953125
2405,-1.953125
2406,-1.953125
2407,-1.953125
2408,-1.953125
2409,-1.953125
2410,-1.953125
2411,0.000000
2412,0.000000
2413,0.000000
2414,0.000000
2415,0.000000
2416,0.000000
2417,0.000000
2418,0.000000
2419,1.953125
2420,1.953125
2421,1.953125
2422,1.953125
2423,1.953125
2424,3.906250
2425,1.953125
2426,3.906250
2427,3.906250
2428,3.906250
2429,3.906250
2430,3.906250
2431,3.906250
2432,5.859375
2433,5.859375
2434,5.859375
2435,5.859375
2436,5.859375
2437,5.859375
2438,7.812500
2439,5.859375
2440,7.812500
2441,7.812500
2442,7.812500
2443,7.812500
2444,7.812500
2445,7.812500
2446,7.812500
2447,9.765625
2448,9.765625
2449,9.765625
2450,9.765625
2451,9.765625
2452,9.765625
2453,9.765625
2454,11.718750
2455,11.718750
2456,11.718750
2457,11.718750
2458,11.718750
2459,11.718750
2460,13.671875
2461,13.671875
2462,13.671875
2463,13.671875
2464,13.671875
2465,13.671875
2466,13.671875
2467,15.625000
2468,15.625000
2469,15.625000
2470,15.625000
2471,15.625000
2472,15.625000
2473,15.625000
2474,17.578125
2475,17.578125
2476,17.578125
2477,17.578125
2478,17.578125
2479,17.578125
2480,17.578125
2481,19.531250
2482,19.531250
2483,19.531250
2484,19.531250
2485,19.531250
2486,19.531250
2487,19.531250
2488,21.484375
2489,19.531250
2490,21.484375
2491,21.484375
2492,21.484375
2493,21.484375
2494,21.484375
2495,21.484375
2496,21.484375
2497,23.437500
2498,23.437500
2499,23.437500
2500,23.437500
2501,23.437500
2502,25.390625
2503,25.390625
2504,25.390625
2505,25.390625
2506,25.390625
2507,25.390625
2508,25.390625
2509,25.390625
2510,25.390625
2511,27.343750
2512,25.390625
2513,27.343750
2514,27.343750
2515,27.343750
2516,27.343750
2517,27.343750
2518,29.296875
2519,27.343750
2520,29.296875
2521,29.296875
2522,29.296875
2523,29.296875
2524,31.250000
2525,31.250000
2526,31.250000
2527,31.250000
2528,31.250000
2529,31.250000
2530,31.250000
2531,31.250000
2532,33.203125
2533,33.203125
2534,33.203125
2535,33.203125
2536,33.203125
2537,33.203125
2538,35.156250
2539,33.203125
2540,35.156250
2541,35.156250
2542,35.156250
2543,35.156250
2544,35.156250
2545,35.156250
2546,35.156250
2547,35.156250
2548,35.156250
2549,37.109375
2550,37.109375
2551,37.109375
2552,37.109375
2553,37.109375
2554,37.109375
2555,37.109375
2556,39.062500
2557,39.062500
2558,39.062500
2559,39.062500
2560,39.062500
2561,39.062500
2562,39.062500
2563,41.015625
2564,41.015625
2565,41.015625
2566,41.015625
2567,41.015625
2568,41.015625
2569,41.015625
2570,42.968750
2571,41.015625
2572,41.015625
2573,41.015625
2574,42.968750
2575,42.968750
2576,42.968750
2577,44.921875
2578,44.921875
2579,44.921875
2580,44.921875
2581,44.921875
2582,44.921875
2583,44.921875
2584,44.921875
2585,46.875000
2586,44.921875
2587,46.875000
2588,46.875000
2589,46.875000
2590,46.875000
2591,46.875000
2592,46.875000
2593,46.875000
2594,48.828125
2595,46.875000
2596,48.828125
2597,48.828125
2598,48.828125
2599,48.828125
2600,48.828125
2601,48.828125
2602,48.828125
2603,50.781250
2604,50.781250
2605,50.781250
2606,50.781250
2607,50.781250
2608,50.781250
2609,50.781250
2610,52.734375
2611,50.781250
2612,52.734375
2613,52.734375
2614,50.781250
2615,52.734375
2616,52.734375
2617,52.734375
2618,54.687500
2619,52.734375
2620,54.687500
2621,52.734375
2622,54.687500
2623,54.687500
2624,54.687500
2625,54.687500
2626,54.687500
2627,56.640625
2628,54.687500
2629,54.687500
2630,56.640625
2631,56.640625
2632,56.640625
2633,56.640625
2634,56.640625
2635,56.640625
2636,58.593750
2637,56.640625
2638,58.593750
2639,58.593750
2640,58.593750
2641,58.593750
2642,58.593750
2643,58.593750
2644,58.593750
2645,60.546875
2646,58.593750
2647,60.546875
2648,60.546875
2649,60.546875
2650,60.546875
2651,60.546875
2652,60.546875
2653,60.546875
2654,60.546875
2655,60.546875
2656,62.500000
2657,62.500000
2658,62.500000
2659,62.500000
2660,62.500000
2661,62.500000
2662,62.500000
2663,64.453125
2664,64.453125
2665,64.453125
2666,64.453125
2667,64.453125
2668,64.453125
2669,64.453125
2670,64.453125
2671,64.453125
2672,66.406250
2673,66.406250
2674,66.406250
2675,66.406250
2676,66.406250
2677,66.406250
2678,66.406250
2679,66.406250
2680,66.406250
2681,66.406250
2682,68.359375
2683,66.406250
2684,68.359375
2685,68.359375
2686,68.359375
2687,68.359375
2688,68.359375
2689,68.359375
2690,68.359375
2691,68.359375
2692,70.312500
2693,70.312500
2694,70.312500
2695,70.312500
2696,70.312500
2697,70.312500
2698,70.312500
2699,70.312500
2700,70.312500
2701,70.312500
2702,72.265625
2703,70.312500
2704,72.265625
2705,72.265625
2706,72.265625
2707,72.265625
2708,72.265625
2709,72.265625
2710,72.265625
2711,72.265625
2712,74.218750
2713,74.218750
2714,74.218750
2715,74.218750
2716,74.218750
2717,74.218750
2718,74.218750
2719,74.218750
2720,74.218750
2721,74.218750
2722,74.218750
2723,76.171875
2724,76.171875
2725,76.171875
2726,76.171875
2727,76.171875
2728,76.171875
2729,76.171875
2730,76.171875
2731,76.171875
2732,78.125000
2733,76.171875
2734,78.125000
2735,78.125000
2736,78.125000
2737,78.125000
2738,78.125000
2739,78.125000
2740,78.125000
2741,78.125000
2742,78.125000
2743,78.125000
2744,80.078125
2745,78.125000
2746,80.078125
2747,80.078125
2748,80.078125
2749,80.078125
2750,80.078125
2751,80.078125
2752,80.078125
2753,80.078125
2754,82.031250
2755,80.078125
2756,82.031250
2757,82.031250
2758,82.031250
2759,82.031250
2760,82.031250
2761,82.031250
2762,82.031250
2763,82.031250
2764,82.031250
2765,82.031250
2766,82.031250
2767,83.984375
2768,83.984375
2769,83.984375
2770,83.984375
2771,83.984375
2772,83.984375
2773,83.984375
2774,83.984375
2775,83.984375
2776,83.984375
2777,83.984375
2778,83.984375
2779,83.984375
2780,85.937500
2781,85.937500
2782,85.937500
2783,85.937500
2784,85.937500
2785,85.937500
2786,85.937500
2787,85.937500
2788,85.937500
2789,85.937500
2790,85.937500
2791,87.890625
2792,87.890625
2793,87.890625
2794,87.890625
2795,87.890625
2796,87.890625
2797,87.890625
2798,87.890625
2799,87.890625
2800,87.890625
2801,87.890625
2802,87.890625
2803,87.890625
2804,87.890625
2805,89.843750
2806,89.843750
2807,89.843750
2808,89.843750
2809,89.843750
2810,89.843750
2811,89.843750
2812,89.843750
2813,89.843750
2814,89.843750
2815,89.843750
2816,91.796875
2817,89.843750
2818,91.796875
2819,91.796875
2820,91.796875
2821,91.796875
2822,91.796875
2823,91.796875
2824,91.796875
2825,91.796875
2826,91.796875
2827,91.796875
2828,91.796875
2829,91.796875
2830,91.796875
2831,91.796875
2832,91.796875
2833,93.750000
2834,93.750000
2835,93.750000
2836,93.750000
2837,93.750000
2838,93.750000
2839,93.750000
2840,93.750000
2841,93.750000
2842,93.750000
2843,93.750000
2844,93.750000
2845,93.750000
2846,93.750000
2847,93.750000
2848,95.703125
2849,95.703125
2850,95.703125
2851,95.703125
2852,95.703125
2853,95.703125
2854,95.703125
2855,95.703125
2856,95.703125
2857,95.703125
2858,95.703125
2859,95.703125
2860,95.703125
2861,95.703125
2862,95.703125
2863,95.703125
2864,95.703125
2865,97.656250
2866,97.656250
2867,95.703125
2868,97.656250
2869,97.656250
2870,97.656250
2871,97.656250
2872,97.656250
2873,97.656250
2874,97.656250
2875,97.656250
2876,97.656250
2877,97.656250
2878,97.656250
2879,99.609375
2880,99.609375
2881,97.656250
2882,97.656250
2883,99.609375
2884,99.609375
2885,99.609375
2886,99.609375
2887,99.609375
2888,99.609375
2889,99.609375
2890,99.609375
2891,99.609375
2892,99.609375
2893,99.609375
2894,99.609375
2895,99.609375
2896,99.609375
2897,99.609375
2898,101.562500
2899,99.609375
2900,99.609375
2901,99.609375
2902,99.609375
2903,101.562500
2904,101.562500
2905,101.562500
2906,101.562500
2907,101.562500
2908,101.562500
2909,101.562500
2910,101.562500
2911,101.562500
2912,101.562500
2913,101.562500
2914,101.562500
2915,101.562500
2916,103.515625
2917,101.562500
2918,101.562500
2919,101.562500
2920,103.515625
2921,101.562500
2922,103.515625
2923,103.515625
2924,101.562500
2925,103.515625
2926,103.515625
2927,103.515625
2928,103.515625
2929,103.515625
2930,103.515625
2931,103.515625
2932,103.515625
2933,103.515625
2934,103.515625
2935,103.515625
2936,103.515625
2937,103.515625
2938,103.515625
2939,103.515625
2940,103.515625
2941,103.515625
2942,103.515625
2943,103.515625
2944,103.515625
2945,103.515625
2946,103.515625
2947,103.515625
2948,103.515625
2949,103.515625
2950,103.515625
2951,103.515625
2952,103.515625
2953,105.468750
2954,105.468750
2955,105.468750
2956,105.468750
2957,105.468750
2958,105.468750
2959,105.468750
2960,105.468750
2961,105.468750
2962,105.468750
2963,105.468750
2964,105.468750
2965,105.468750
2966,105.468750
2967,105.468750
2968,105.468750
2969,105.468750
2970,105.468750
2971,105.468750
2972,105.468750
2973,105.468750
2974,105.468750
2975,107.421875
2976,105.468750
2977,107.421875
2978,105.468750
2979,105.468750
2980,107.421875
2981,105.468750
2982,107.421875
2983,105.468750
2984,107.421875
2985,105.468750
2986,105.468750
2987,107.421875
2988,107.421875
2989,107.421875
2990,107.421875
2991,105.468750
2992,107.421875
2993,107.421875
2994,107.421875
2995,107.421875
2996,107.421875
2997,107.421875
2998,107.421875
2999,107.421875
3000,107.421875
3001,107.421875
3002,107.421875
3003,107.421875
3004,107.421875
3005,107.421875
3006,107.421875
3007,107.421875
3008,107.421875
3009,111.328125
3010,107.421875
3011,107.421875
3012,107.421875
3013,107.421875
3014,107.421875
3015,107.421875
3016,107.421875
3017,107.421875
3018,107.421875
3019,107.421875
3020,107.421875
3021,107.421875
3022,107.421875
3023,107.421875
3024,107.421875
3025,107.421875
3026,107.421875
3027,107.421875
3028,109.375000
3029,107.421875
3030,109.375000
3031,107.421875
3032,107.421875
3033,107.421875
3034,107.421875
3035,109.375000
3036,107.421875
3037,109.375000
3038,107.421875
3039,109.375000
3040,107.421875
3041,109.375000
3042,107.421875
3043,109.375000
3044,109.375000
3045,109.375000
3046,109.375000
3047,107.421875
3048,107.421875
3049,107.421875
3050,109.375000
3051,109.375000
3052,107.421875
3053,109.375000
3054,107.421875
3055,109.375000
3056,109.375000
3057,107.421875
3058,107.421875
3059,109.375000
3060,107.421875
3061,109.375000
3062,109.375000
3063,107.421875
3064,109.375000
3065,107.421875
3066,109.375000
3067,109.375000
3068,109.375000
3069,107.421875
3070,109.375000
3071,107.421875
3072,109.375000
3073,107.421875
3074,109.375000
3075,107.421875
3076,107.421875
3077,109.375000
3078,107.421875
3079,109.375000
3080,107.421875
3081,109.375000
3082,107.421875
3083,109.375000
3084,109.375000
3085,107.421875
3086,109.375000
3087,107.421875
3088,109.375000
3089,107.421875
3090,109.375000
3091,107.421875
3092,109.375000
3093,107.421875
3094,109.375000
3095,109.375000
3096,109.375000
3097,107.421875
3098,107.421875
3099,109.375000
3100,107.421875
3101,109.375000
3102,107.421875
3103,109.375000
3104,109.375000
3105,109.375000
3106,107.421875
3107,107.421875
3108,107.421875
3109,107.421875
3110,107.421875
3111,107.421875
3112,107.421875
3113,107.421875
3114,109.375000
3115,109.375000
3116,109.375000
3117,107.421875
3118,107.421875
3119,109.375000
3120,107.421875
3121,107.421875
3122,107.421875
3123,107.421875
3124,107.421875
3125,107.421875
3126,109.375000
3127,107.421875
3128,107.421875
3129,107.421875
3130,107.421875
3131,107.421875
3132,107.421875
3133,107.421875
3134,107.421875
3135,107.421875
3136,107.421875
3137,107.421875
3138,107.421875
3139,107.421875
3140,107.421875
3141,107.421875
3142,107.421875
3143,107.421875
3144,107.421875
3145,107.421875
3146,107.421875
3147,107.421875
3148,107.421875
3149,107.421875
3150,107.421875
3151,107.421875
3152,107.421875
3153,107.421875
3154,107.421875
3155,107.421875
3156,107.421875
3157,105.468750
3158,107.421875
3159,105.468750
3160,105.468750
3161,105.468750
3162,105.468750
3163,105.468750
3164,107.421875
3165,107.421875
3166,105.468750
3167,105.468750
3168,105.468750
3169,105.468750
3170,105.468750
3171,105.468750
3172,105.468750
3173,105.468750
3174,105.468750
3175,105.468750
3176,105.468750
3177,105.468750
3178,105.468750
3179,105.468750
3180,105.468750
3181,105.468750
3182,105.468750
3183,105.468750
3184,105.468750
3185,105.468750
3186,105.468750
3187,105.468750
3188,105.468750
3189,103.515625
3190,105.468750
3191,105.468750
3192,103.515625
3193,105.468750
3194,103.515625
3195,105.468750
3196,105.468750
3197,103.515625
3198,103.515625
3199,103.515625
3200,103.515625
3201,103.515625
3202,103.515625
3203,105.468750
3204,103.515625
3205,103.515625
3206,103.515625
3207,103.515625
3208,103.515625
3209,103.515625
3210,103.515625
3211,103.515625
3212,103.515625
3213,103.515625
3214,103.515625
3215,103.515625
3216,103.515625
3217,103.515625
3218,103.515625
3219,103.515625
3220,101.562500
3221,101.562500
3222,103.515625
3223,101.562500
3224,101.562500
3225,101.562500
3226,101.562500
3227,101.562500
3228,101.562500
3229,103.515625
3230,101.562500
3231,101.562500
3232,101.562500
3233,101.562500
3234,101.562500
3235,101.562500
3236,101.562500
3237,101.562500
3238,101.562500
3239,99.609375
3240,101.562500
3241,99.609375
3242,99.609375
3243,101.562500
3244,99.609375
3245,101.562500
3246,99.609375
3247,99.609375
3248,99.609375
3249,99.609375
3250,99.609375
3251,99.609375
3252,99.609375
3253,99.609375
3254,99.609375
3255,99.609375
3256,99.609375
3257,99.609375
3258,99.609375
3259,99.609375
3260,99.609375
3261,99.609375
3262,97.656250
3263,99.609375
3264,97.656250
3265,99.609375
3266,97.656250
3267,97.656250
3268,97.656250
3269,97.656250
3270,97.656250
3271,97.656250
3272,97.656250
3273,97.656250
3274,97.656250
3275,97.656250
3276,97.656250
3277,97.656250
3278,95.703125
3279,95.703125
3280,97.656250
3281,97.656250
3282,95.703125
3283,97.656250
3284,95.703125
3285,95.703125
3286,95.703125
3287,95.703125
3288,95.703125
3289,95.703125
3290,95.703125
3291,93.750000
3292,95.703125
3293,95.703125
3294,95.703125
3295,95.703125
3296,95.703125
3297,95.703125
3298,93.750000
3299,93.750000
3300,95.703125
3301,93.750000
3302,93.750000
3303,93.750000
3304,93.750000
3305,93.750000
3306,93.750000
3307,93.750000
3308,93.750000
3309,91.796875
3310,93.750000
3311,91.796875
3312,93.750000
3313,91.796875
3314,91.796875
3315,91.796875
3316,91.796875
3317,91.796875
3318,91.796875
3319,91.796875
3320,91.796875
3321,91.796875
3322,91.796875
3323,91.796875
3324,89.843750
3325,91.796875
3326,89.843750
3327,89.843750
3328,89.843750
3329,89.843750
3330,89.843750
3331,89.843750
3332,89.843750
3333,89.843750
3334,89.843750
3335,89.843750
3336,89.843750
3337,89.843750
3338,87.890625
3339,89.843750
3340,89.843750
3341,89.843750
3342,87.890625
3343,87.890625
3344,87.890625
3345,87.890625
3346,87.890625
3347,87.890625
3348,87.890625
3349,85.937500
3350,87.890625
3351,87.890625
3352,87.890625
3353,85.937500
3354,85.937500
3355,85.937500
3356,85.937500
3357,85.937500
3358,85.937500
3359,85.937500
3360,85.937500
3361,85.937500
3362,85.937500
3363,85.937500
3364,85.937500
3365,85.937500
3366,87.890625
3367,83.984375
3368,83.984375
3369,83.984375
3370,83.984375
3371,83.984375
3372,83.984375
3373,83.984375
3374,82.031250
3375,82.031250
3376,82.031250
3377,82.031250
3378,83.984375
3379,82.031250
3380,82.031250
3381,82.031250
3382,82.031250
3383,82.031250
3384,82.031250
3385,82.031250
3386,82.031250
3387,82.031250
3388,80.078125
3389,80.078125
3390,80.078125
3391,80.078125
3392,80.078125
3393,80.078125
3394,80.078125
3395,80.078125
3396,80.078125
3397,80.078125
3398,80.078125
3399,80.078125
3400,78.125000
3401,78.125000
3402,78.125000
3403,78.125000
3404,78.125000
3405,78.125000
3406,78.125000
3407,78.125000
3408,78.125000
3409,78.125000
3410,78.125000
3411,76.171875
3412,78.125000
3413,76.171875
3414,76.171875
3415,76.171875
3416,76.171875
3417,76.171875
3418,76.171875
3419,76.171875
3420,76.171875
3421,74.218750
3422,74.218750
3423,74.218750
3424,76.171875
3425,74.218750
3426,74.218750
3427,74.218750
3428,74.218750
3429,74.218750
3430,72.265625
3431,74.218750
3432,72.265625
3433,72.265625
3434,72.265625
3435,72.265625
3436,72.265625
3437,72.265625
3438,72.265625
3439,72.265625
3440,72.265625
3441,72.265625
3442,72.265625
3443,70.312500
3444,72.265625
3445,70.312500
3446,70.312500
3447,70.312500
3448,70.312500
3449,70.312500
3450,68.359375
3451,70.312500
3452,68.359375
3453,70.312500
3454,68.359375
3455,68.359375
3456,68.359375
3457,68.359375
3458,68.359375
3459,68.359375
3460,66.406250
3461,66.406250
3462,66.406250
3463,66.406250
3464,66.406250
3465,66.406250
3466,66.406250
3467,66.406250
3468,64.453125
3469,64.453125
3470,64.453125
3471,64.453125
3472,64.453125
3473,64.453125
3474,64.453125
3475,64.453125
3476,64.453125
3477,64.453125
3478,64.453125
3479,64.453125
3480,62.500000
3481,62.500000
3482,62.500000
3483,62.500000
3484,62.500000
3485,62.500000
3486,62.500000
3487,62.500000
3488,60.546875
3489,60.546875
3490,62.500000
3491,60.546875
3492,60.546875
3493,60.546875
3494,60.546875
3495,60.546875
3496,60.546875
3497,58.593750
3498,58.593750
3499,60.546875
3500,58.593750
3501,58.593750
3502,58.593750
3503,58.593750
3504,56.640625
3505,58.593750
3506,58.593750
3507,56.640625
3508,56.640625
3509,56.640625
3510,56.640625
3511,54.687500
3512,56.640625
3513,56.640625
3514,56.640625
3515,54.687500
3516,56.640625
3517,54.687500
3518,56.640625
3519,54.687500
3520,54.687500
3521,54.687500
3522,54.687500
3523,54.687500
3524,52.734375
3525,52.734375
3526,52.734375
3527,52.734375
3528,52.734375
3529,52.734375
3530,50.781250
3531,52.734375
3532,50.781250
3533,52.734375
3534,50.781250
3535,50.781250
3536,50.781250
3537,50.781250
3538,50.781250
3539,50.781250
3540,50.781250
3541,48.828125
3542,48.828125
3543,48.828125
3544,48.828125
3545,48.828125
3546,48.828125
3547,48.828125
3548,48.828125
3549,46.875000
3550,46.875000
3551,48.828125
3552,46.875000
3553,46.875000
3554,46.875000
3555,46.875000
3556,44.921875
3557,46.875000
3558,44.921875
3559,44.921875
3560,44.921875
3561,44.921875
3562,44.921875
3563,44.921875
3564,44.921875
3565,42.968750
3566,44.921875
3567,42.968750
3568,42.968750
3569,42.968750
3570,42.968750
3571,42.968750
3572,41.015625
3573,41.015625
3574,41.015625
3575,41.015625
3576,41.015625
3577,41.015625
3578,41.015625
3579,39.062500
3580,39.062500
3581,39.062500
3582,39.062500
3583,39.062500
3584,39.062500
3585,39.062500
3586,39.062500
3587,39.062500
3588,39.062500
3589,37.109375
3590,37.109375
3591,37.109375
3592,39.062500
3593,37.109375
3594,37.109375
3595,35.156250
3596,37.109375
3597,35.156250
3598,35.156250
3599,35.156250
3600,35.156250
3601,35.156250
3602,35.156250
3603,33.203125
3604,33.203125
3605,33.203125
3606,33.203125
3607,33.203125
3608,33.203125
3609,33.203125
3610,31.250000
3611,31.250000
3612,31.250000
3613,31.250000
3614,31.250000
3615,31.250000
3616,31.250000
3617,31.250000
3618,31.250000
3619,29.296875
3620,29.296875
3621,29.296875
3622,29.296875
3623,29.296875
3624,29.296875
3625,29.296875
3626,27.343750
3627,27.343750
3628,27.343750
3629,27.343750
3630,27.343750
3631,27.343750
3632,27.343750
3633,25.390625
3634,27.343750
3635,25.390625
3636,25.390625
3637,25.390625
3638,25.390625
3639,23.437500
3640,25.390625
3641,23.437500
3642,23.437500
3643,23.437500
3644,23.437500
3645,23.437500
3646,23.437500
3647,21.484375
3648,21.484375
3649,21.484375
3650,21.484375
3651,21.484375
3652,21.484375
3653,21.484375
3654,21.484375
3655,19.531250
3656,19.531250
3657,19.531250
3658,19.531250
3659,19.531250
3660,19.531250
3661,19.531250
3662,17.578125
3663,19.531250
3664,17.578125
3665,17.578125
3666,17.578125
3667,17.578125
3668,15.625000
3669,15.625000
3670,15.625000
3671,15.625000
3672,15.625000
3673,15.625000
3674,15.625000
3675,15.625000
3676,13.671875
3677,13.671875
3678,13.671875
3679,13.671875
3680,13.671875
3681,13.671875
3682,11.718750
3683,11.718750
3684,11.718750
3685,11.718750
3686,11.718750
3687,11.718750
3688,11.718750
3689,11.718750
3690,9.765625
3691,9.765625
3692,9.765625
3693,9.765625
3694,9.765625
3695,9.765625
3696,7.812500
3697,7.812500
3698,7.812500
3699,7.812500
3700,7.812500
3701,7.812500
3702,7.812500
3703,5.859375
3704,5.859375
3705,5.859375
3706,5.859375
3707,5.859375
3708,5.859375
3709,5.859375
3710,5.859375
3711,3.906250
3712,3.906250
3713,3.906250
3714,3.906250
3715,3.906250
3716,3.906250
3717,3.906250
3718,1.953125
3719,1.953125
3720,1.953125
3721,1.953125
3722,1.953125
3723,0.000000
3724,1.953125
3725,0.000000
3726,0.000000
3727,0.000000
3728,0.000000
3729,0.000000
3730,0.000000
3731,-1.953125
3732,0.000000
3733,-1.953125
3734,-1.953125
3735,-1.953125
3736,-1.953125
3737,-1.953125
3738,-3.906250
3739,-1.953125
3740,-3.906250
3741,-3.906250
3742,-3.906250
3743,-3.906250
3744,-3.906250
3745,-5.859375
3746,-5.859375
3747,-5.859375
3748,-5.859375
3749,-5.859375
3750,-5.859375
3751,-5.859375
3752,-7.812500
3753,-7.812500
3754,-7.812500
3755,-7.812500
3756,-7.812500
3757,-7.812500
3758,-7.812500
3759,-7.812500
3760,-9.765625
3761,-9.765625
3762,-9.765625
3763,-9.765625
3764,-9.765625
3765,-11.718750
3766,-9.765625
3767,-11.718750
3768,-13.671875
3769,-11.718750
3770,-13.671875
3771,-11.718750
3772,-13.671875
3773,-13.671875
3774,-11.718750
3775,-13.671875
3776,-13.671875
3777,-13.671875
3778,-13.671875
3779,-13.671875
3780,-15.625000
3781,-15.625000
3782,-15.625000
3783,-15.625000
3784,-15.625000
3785,-15.625000
3786,-15.625000
3787,-15.625000
3788,-17.578125
3789,-17.578125
3790,-17.578125
3791,-17.578125
3792,-17.578125
3793,-19.531250
3794,-19.531250
3795,-19.531250
3796,-19.531250
3797,-19.531250
3798,-19.531250
3799,-19.531250
3800,-21.484375
3801,-21.484375
3802,-21.484375
3803,-21.484375
3804,-21.484375
3805,-21.484375
3806,-21.484375
3807,-21.484375
3808,-23.437500
3809,-23.437500
3810,-23.437500
3811,-23.437500
3812,-23.437500
3813,-23.437500
3814,-23.437500
3815,-25.390625
3816,-25.390625
3817,-25.390625
3818,-25.390625
3819,-25.390625
3820,-25.390625
3821,-25.390625
3822,-27.343750
3823,-27.343750
3824,-27.343750
3825,-27.343750
3826,-27.343750
3827,-29.296875
3828,-29.296875
3829,-29.296875
3830,-29.296875
3831,-29.296875
3832,-29.296875
3833,-29.296875
3834,-29.296875
3835,-31.250000
3836,-31.250000
3837,-31.250000
3838,-31.250000
3839,-31.250000
3840,-31.250000
3841,-31.250000
3842,-33.203125
3843,-33.203125
3844,-33.203125
3845,-33.203125
3846,-33.203125
3847,-33.203125
3848,-33.203125
3849,-35.156250
3850,-35.156250
3851,-35.156250
3852,-35.156250
3853,-35.156250
3854,-35.156250
3855,-35.156250
3856,-35.156250
3857,-37.109375
3858,-37.109375
3859,-37.109375
3860,-37.109375
3861,-37.109375
3862,-39.062500
3863,-37.109375
3864,-39.062500
3865,-39.062500
3866,-39.062500
3867,-39.062500
3868,-39.062500
3869,-41.015625
3870,-41.015625
3871,-41.015625
3872,-41.015625
3873,-41.015625
3874,-41.015625
3875,-41.015625
3876,-41.015625
3877,-42.968750
3878,-42.968750
3879,-42.968750
3880,-42.968750
3881,-42.968750
3882,-42.968750
3883,-42.968750
3884,-44.921875
3885,-44.921875
3886,-44.921875
3887,-44.921875
3888,-44.921875
3889,-44.921875
3890,-44.921875
3891,-46.875000
3892,-46.875000
3893,-46.875000
3894,-46.875000
3895,-46.875000
3896,-46.875000
3897,-46.875000
3898,-48.828125
3899,-48.828125
3900,-48.828125
3901,-48.828125
3902,-48.828125
3903,-48.828125
3904,-48.828125
3905,-48.828125
3906,-50.781250
3907,-50.781250
3908,-50.781250
3909,-50.781250
3910,-50.781250
3911,-50.781250
3912,-50.781250
3913,-52.734375
3914,-52.734375
3915,-52.734375
3916,-52.734375
3917,-52.734375
3918,-52.734375
3919,-54.687500
3920,-54.687500
3921,-54.687500
3922,-54.687500
3923,-54.687500
3924,-54.687500
3925,-54.687500
3926,-56.640625
3927,-54.687500
3928,-56.640625
3929,-56.640625
3930,-56.640625
3931,-58.593750
3932,-56.640625
3933,-56.640625
3934,-56.640625
3935,-56.640625
3936,-58.593750
3937,-58.593750
3938,-58.593750
3939,-58.593750
3940,-58.593750
3941,-60.546875
3942,-58.593750
3943,-60.546875
3944,-60.546875
3945,-60.546875
3946,-60.546875
3947,-60.546875
3948,-60.546875
3949,-62.500000
3950,-60.546875
3951,-62.500000
3952,-62.500000
3953,-62.500000
3954,-62.500000
3955,-62.500000
3956,-64.453125
3957,-62.500000
3958,-64.453125
3959,-64.453125
3960,-64.453125
3961,-64.453125
3962,-64.453125
3963,-66.406250
3964,-64.453125
3965,-66.406250
3966,-66.406250
3967,-66.406250
3968,-66.406250
3969,-66.406250
3970,-66.406250
3971,-68.359375
3972,-68.359375
3973,-68.359375
3974,-68.359375
3975,-68.359375
3976,-68.359375
3977,-68.359375
3978,-68.359375
3979,-68.359375
3980,-68.359375
3981,-70.312500
3982,-70.312500
3983,-70.312500
3984,-70.312500
3985,-70.312500
3986,-70.312500
3987,-70.312500
3988,-72.265625
3989,-72.265625
3990,-72.265625
3991,-72.265625
3992,-72.265625
3993,-74.218750
3994,-72.265625
3995,-72.265625
3996,-74.218750
3997,-74.218750
3998,-74.218750
3999,-74.218750
4000,-74.218750
4001,-74.218750
4002,-74.218750
4003,-76.171875
4004,-74.218750
4005,-74.218750
4006,-76.171875
4007,-76.171875
4008,-76.171875
4009,-76.171875
4010,-76.171875
4011,-76.171875
4012,-78.125000
4013,-78.125000
4014,-78.125000
4015,-76.171875
4016,-78.125000
4017,-78.125000
4018,-78.125000
4019,-78.125000
4020,-78.125000
4021,-78.125000
4022,-80.078125
4023,-80.078125
4024,-80.078125
4025,-80.078125
4026,-80.078125
4027,-80.078125
4028,-80.078125
4029,-82.031250
4030,-82.031250
4031,-82.031250
4032,-82.031250
4033,-82.031250
4034,-82.031250
4035,-82.031250
4036,-82.031250
4037,-82.031250
4038,-83.984375
4039,-82.031250
4040,-83.984375
4041,-83.984375
4042,-83.984375
4043,-83.984375
4044,-83.984375
4045,-83.984375
4046,-83.984375
4047,-85.937500
4048,-85.937500
4049,-85.937500
4050,-85.937500
4051,-85.937500
4052,-85.937500
4053,-85.937500
4054,-85.937500
4055,-87.890625
4056,-85.937500
4057,-87.890625
4058,-87.890625
4059,-87.890625
4060,-87.890625
4061,-87.890625
4062,-87.890625
4063,-87.890625
4064,-87.890625
4065,-89.843750
4066,-87.890625
4067,-89.843750
4068,-89.843750
4069,-89.843750
4070,-89.843750
4071,-89.843750
4072,-89.843750
4073,-89.843750
4074,-89.843750
4075,-91.796875
4076,-91.796875
4077,-91.796875
4078,-91.796875
4079,-91.796875
4080,-91.796875
4081,-91.796875
4082,-91.796875
4083,-91.796875
4084,-93.750000
4085,-93.750000
4086,-93.750000
4087,-93.750000
4088,-93.750000
4089,-93.750000
4090,-93.750000
4091,-93.750000
4092,-93.750000
4093,-93.750000
4094,-93.750000
4095,-95.703125
4096,-95.703125
4097,-95.703125
4098,-95.703125
4099,-95.703125
4100,-93.750000
4101,-95.703125
4102,-97.656250
4103,-95.703125
4104,-97.656250
4105,-97.656250
4106,-97.656250
4107,-97.656250
4108,-97.656250
4109,-97.656250
4110,-97.656250
4111,-97.656250
4112,-97.656250
4113,-97.656250
4114,-97.656250
4115,-99.609375
4116,-99.609375
4117,-99.609375
4118,-99.609375
4119,-99.609375
4120,-99.609375
4121,-99.609375
4122,-99.609375
4123,-99.609375
4124,-101.562500
4125,-101.562500
4126,-99.609375
4127,-101.562500
4128,-101.562500
4129,-101.562500
4130,-101.562500
4131,-101.562500
4132,-101.562500
4133,-101.562500
4134,-103.515625
4135,-101.562500
4136,-101.562500
4137,-103.515625
4138,-103.515625
4139,-103.515625
4140,-103.515625
4141,-103.515625
4142,-103.515625
4143,-103.515625
4144,-103.515625
4145,-103.515625
4146,-103.515625
4147,-103.515625
4148,-105.468750
4149,-103.515625
4150,-105.468750
4151,-105.468750
4152,-105.468750
4153,-105.468750
4154,-105.468750
4155,-105.468750
4156,-105.468750
4157,-105.468750
4158,-105.468750
4159,-105.468750
4160,-105.468750
4161,-105.468750
4162,-107.421875
4163,-107.421875
4164,-107.421875
4165,-107.421875
4166,-107.421875
4167,-107.421875
4168,-107.421875
4169,-107.421875
4170,-107.421875
4171,-107.421875
4172,-109.375000
4173,-107.421875
4174,-109.375000
4175,-109.375000
4176,-109.375000
4177,-109.375000
4178,-109.375000
4179,-109.375000
4180,-109.375000
4181,-109.375000
4182,-109.375000
4183,-109.375000
4184,-109.375000
4185,-109.375000
4186,-111.328125
4187,-111.328125
4188,-111.328125
4189,-111.328125
4190,-111.328125
4191,-111.328125
4192,-111.328125
4193,-111.328125
4194,-111.328125
4195,-111.328125
4196,-111.328125
4197,-111.328125
4198,-111.328125
4199,-111.328125
4200,-111.328125
4201,-111.328125
4202,-113.281250
4203,-111.328125
4204,-113.281250
4205,-113.281250
4206,-113.281250
4207,-113.281250
4208,-113.281250
4209,-113.281250
4210,-113.281250
4211,-113.281250
4212,-113.281250
4213,-113.281250
4214,-115.234375
4215,-113.281250
4216,-113.281250
4217,-115.234375
4218,-113.281250
4219,-115.234375
4220,-115.234375
4221,-115.234375
4222,-115.234375
4223,-115.234375
4224,-115.234375
4225,-115.234375
4226,-115.234375
4227,-115.234375
4228,-115.234375
4229,-115.234375
4230,-115.234375
4231,-115.234375
4232,-115.234375
4233,-117.187500
4234,-115.234375
4235,-115.234375
4236,-117.187500
4237,-115.234375
4238,-117.187500
4239,-117.187500
4240,-117.187500
4241,-117.187500
4242,-117.187500
4243,-117.187500
4244,-117.187500
4245,-117.187500
4246,-117.187500
4247,-117.187500
4248,-117.187500
4249,-117.187500
4250,-117.187500
4251,-117.187500
4252,-119.140625
4253,-117.187500
4254,-119.140625
4255,-119.140625
4256,-117.187500
4257,-119.140625
4258,-117.187500
4259,-119.140625
4260,-119.140625
4261,-119.140625
4262,-119.140625
4263,-119.140625
4264,-119.140625
4265,-119.140625
4266,-119.140625
4267,-121.093750
4268,-119.140625
4269,-119.140625
4270,-119.140625
4271,-119.140625
4272,-119.140625
4273,-119.140625
4274,-119.140625
4275,-119.140625
4276,-121.093750
4277,-121.093750
4278,-121.093750
4279,-121.093750
4280,-119.140625
4281,-121.093750
4282,-119.140625
4283,-121.093750
4284,-119.140625
4285,-121.093750
4286,-121.093750
4287,-121.093750
4288,-121.093750
4289,-121.093750
4290,-121.093750
4291,-121.093750
4292,-121.093750
4293,-121.093750
4294,-121.093750
4295,-121.093750
4296,-121.093750
4297,-121.093750
4298,-121.093750
4299,-121.093750
4300,-121.093750
4301,-121.093750
4302,-121.093750
4303,-121.093750
4304,-121.093750
4305,-121.093750
4306,-121.093750
4307,-121.093750
4308,-123.046875
4309,-121.093750
4310,-121.093750
4311,-123.046875
4312,-123.046875
4313,-123.046875
4314,-123.046875
4315,-123.046875
4316,-123.046875
4317,-123.046875
4318,-123.046875
4319,-121.093750
4320,-123.046875
4321,-123.046875
4322,-123.046875
4323,-123.046875
4324,-123.046875
4325,-123.046875
4326,-123.046875
4327,-123.046875
4328,-123.046875
4329,-123.046875
4330,-123.046875
4331,-123.046875
4332,-123.046875
4333,-123.046875
4334,-123.046875
4335,-123.046875
4336,-123.046875
4337,-123.046875
4338,-123.046875
4339,-123.046875
4340,-123.046875
4341,-123.046875
4342,-123.046875
4343,-123.046875
4344,-123.046875
4345,-123.046875
4346,-123.046875
4347,-123.046875
4348,-125.000000
4349,-123.046875
4350,-123.046875
4351,-125.000000
4352,-123.046875
4353,-123.046875
4354,-123.046875
4355,-126.953125
4356,-123.046875
4357,-123.046875
4358,-123.046875
4359,-123.046875
4360,-125.000000
4361,-123.046875
4362,-123.046875
4363,-123.046875
4364,-123.046875
4365,-125.000000
4366,-123.046875
4367,-123.046875
4368,-123.046875
4369,-123.046875
4370,-125.000000
4371,-123.046875
4372,-123.046875
4373,-123.046875
4374,-125.000000
4375,-123.046875
4376,-125.000000
4377,-123.046875
4378,-123.046875
4379,-123.046875
4380,-123.046875
4381,-125.000000
4382,-123.046875
4383,-123.046875
4384,-123.046875
4385,-123.046875
4386,-123.046875
4387,-123.046875
4388,-123.046875
4389,-123.046875
4390,-125.000000
4391,-123.046875
4392,-123.046875
4393,-123.046875
4394,-123.046875
4395,-125.000000
4396,-123.046875
4397,-123.046875
4398,-125.000000
4399,-123.046875
4400,-123.046875
4401,-123.046875
4402,-123.046875
4403,-123.046875
4404,-123.046875
4405,-123.046875
4406,-123.046875
4407,-123.046875
4408,-123.046875
4409,-123.046875
4410,-123.046875
4411,-123.046875
4412,-123.046875
4413,-123.046875
4414,-123.046875
4415,-123.046875
4416,-123.046875
4417,-123.046875
4418,-123.046875
4419,-123.046875
4420,-123.046875
4421,-123.046875
4422,-123.046875
4423,-123.046875
4424,-123.046875
4425,-123.046875
4426,-123.046875
4427,-123.046875
4428,-123.046875
4429,-123.046875
4430,-123.046875
4431,-123.046875
4432,-123.046875
4433,-123.046875
4434,-121.093750
4435,-123.046875
4436,-123.046875
4437,-123.046875
4438,-123.046875
4439,-123.046875
4440,-123.046875
4441,-123.046875
4442,-123.046875
4443,-123.046875
4444,-123.046875
4445,-123.046875
4446,-121.093750
4447,-123.046875
4448,-121.093750
4449,-121.093750
4450,-121.093750
4451,-121.093750
4452,-121.093750
4453,-121.093750
4454,-123.046875
4455,-121.093750
4456,-121.093750
4457,-121.093750
4458,-121.093750
4459,-121.093750
4460,-121.093750
4461,-121.093750
4462,-121.093750
4463,-121.093750
4464,-121.093750
4465,-121.093750
4466,-121.093750
4467,-121.093750
4468,-121.093750
4469,-121.093750
4470,-121.093750
4471,-119.140625
4472,-121.093750
4473,-121.093750
4474,-119.140625
4475,-121.093750
4476,-119.140625
4477,-121.093750
4478,-119.140625
4479,-121.093750
4480,-119.140625
4481,-119.140625
4482,-119.140625
4483,-119.140625
4484,-119.140625
4485,-119.140625
4486,-119.140625
4487,-119.140625
4488,-119.140625
4489,-119.140625
4490,-119.140625
4491,-119.140625
4492,-119.140625
4493,-119.140625
4494,-119.140625
4495,-119.140625
4496,-119.140625
4497,-119.140625
4498,-117.187500
4499,-119.140625
4500,-119.140625
4501,-117.187500
4502,-119.140625
4503,-117.187500
4504,-119.140625
4505,-117.187500
4506,-117.187500
4507,-117.187500
4508,-117.187500
4509,-117.187500
4510,-117.187500
4511,-117.187500
4512,-117.187500
4513,-117.187500
4514,-117.187500
4515,-117.187500
4516,-117.187500
4517,-117.187500
4518,-117.187500
4519,-115.234375
4520,-117.187500
4521,-115.234375
4522,-117.187500
4523,-115.234375
4524,-115.234375
4525,-115.234375
4526,-115.234375
4527,-115.234375
4528,-115.234375
4529,-115.234375
4530,-115.234375
4531,-115.234375
4532,-115.234375
4533,-115.234375
4534,-115.234375
4535,-115.234375
4536,-115.234375
4537,-113.281250
4538,-113.281250
4539,-113.281250
4540,-113.281250
4541,-113.281250
4542,-113.281250
4543,-113.281250
4544,-113.281250
4545,-113.281250
4546,-113.281250
4547,-113.281250
4548,-111.328125
4549,-113.281250
4550,-113.281250
4551,-113.281250
4552,-113.281250
4553,-111.328125
4554,-113.281250
4555,-111.328125
4556,-111.328125
4557,-111.328125
4558,-111.328125
4559,-111.328125
4560,-111.328125
4561,-111.328125
4562,-111.328125
4563,-111.328125
4564,-111.328125
4565,-109.375000
4566,-109.375000
4567,-109.375000
4568,-109.375000
4569,-109.375000
4570,-109.375000
4571,-109.375000
4572,-109.375000
4573,-109.375000
4574,-109.375000
4575,-109.375000
4576,-109.375000
4577,-109.375000
4578,-109.375000
4579,-109.375000
4580,-109.375000
4581,-109.375000
4582,-109.375000
4583,-107.421875
4584,-107.421875
4585,-107.421875
4586,-107.421875
4587,-107.421875
4588,-107.421875
4589,-107.421875
4590,-107.421875
4591,-107.421875
4592,-107.421875
4593,-105.468750
4594,-105.468750
4595,-105.468750
4596,-107.421875
4597,-105.468750
4598,-105.468750
4599,-105.468750
4600,-105.468750
4601,-105.468750
4602,-105.468750
4603,-105.468750
4604,-105.468750
4605,-105.468750
4606,-105.468750
4607,-103.515625
4608,-103.515625
4609,-103.515625
4610,-103.515625
4611,-103.515625
4612,-103.515625
4613,-103.515625
4614,-103.515625
4615,-103.515625
4616,-101.562500
4617,-103.515625
4618,-103.515625
4619,-101.562500
4620,-101.562500
4621,-101.562500
4622,-101.562500
4623,-101.562500
4624,-101.562500
4625,-101.562500
4626,-101.562500
4627,-101.562500
4628,-101.562500
4629,-101.562500
4630,-99.609375
4631,-101.562500
4632,-99.609375
4633,-99.609375
4634,-99.609375
4635,-99.609375
4636,-99.609375
4637,-99.609375
4638,-99.609375
4639,-99.609375
4640,-99.609375
4641,-99.609375
4642,-97.656250
4643,-99.609375
4644,-97.656250
4645,-97.656250
4646,-97.656250
4647,-97.656250
4648,-97.656250
4649,-95.703125
4650,-97.656250
4651,-95.703125
4652,-95.703125
4653,-95.703125
4654,-95.703125
4655,-95.703125
4656,-95.703125
4657,-95.703125
4658,-95.703125
4659,-95.703125
4660,-95.703125
4661,-95.703125
4662,-93.750000
4663,-93.750000
4664,-93.750000
4665,-93.750000
4666,-93.750000
4667,-93.750000
4668,-93.750000
4669,-93.750000
4670,-93.750000
4671,-91.796875
4672,-91.796875
4673,-91.796875
4674,-91.796875
4675,-91.796875
4676,-91.796875
4677,-89.843750
4678,-91.796875
4679,-91.796875
4680,-91.796875
4681,-89.843750
4682,-89.843750
4683,-89.843750
4684,-89.843750
4685,-89.843750
4686,-89.843750
4687,-89.843750
4688,-89.843750
4689,-87.890625
4690,-87.890625
4691,-87.890625
4692,-87.890625
4693,-87.890625
4694,-87.890625
4695,-87.890625
4696,-87.890625
4697,-87.890625
4698,-87.890625
4699,-85.937500
4700,-87.890625
4701,-85.937500
4702,-85.937500
4703,-85.937500
4704,-85.937500
4705,-85.937500
4706,-85.937500
4707,-85.937500
4708,-83.984375
4709,-83.984375
4710,-83.984375
4711,-83.984375
4712,-83.984375
4713,-83.984375
4714,-82.031250
4715,-83.984375
4716,-83.984375
4717,-83.984375
4718,-82.031250
4719,-82.031250
4720,-82.031250
4721,-82.031250
4722,-82.031250
4723,-82.031250
4724,-82.031250
4725,-82.031250
4726,-80.078125
4727,-80.078125
4728,-80.078125
4729,-80.078125
4730,-80.078125
4731,-80.078125
4732,-80.078125
4733,-80.078125
4734,-78.125000
4735,-78.125000
4736,-78.125000
4737,-78.125000
4738,-78.125000
4739,-78.125000
4740,-78.125000
4741,-78.125000
4742,-78.125000
4743,-78.125000
4744,-76.171875
4745,-76.171875
4746,-76.171875
4747,-76.171875
4748,-76.171875
4749,-74.218750
4750,-76.171875
4751,-74.218750
4752,-74.218750
4753,-74.218750
4754,-74.218750
4755,-74.218750
4756,-74.218750
4757,-74.218750
4758,-74.218750
4759,-72.265625
4760,-72.265625
4761,-72.265625
4762,-72.265625
4763,-72.265625
4764,-72.265625
4765,-72.265625
4766,-72.265625
4767,-72.265625
4768,-70.312500
4769,-70.312500
4770,-70.312500
4771,-70.312500
4772,-70.312500
4773,-70.312500
4774,-68.359375
4775,-70.312500
4776,-68.359375
4777,-68.359375
4778,-68.359375
4779,-68.359375
4780,-68.359375
4781,-68.359375
4782,-68.359375
4783,-66.406250
4784,-66.406250
4785,-66.406250
4786,-66.406250
4787,-64.453125
4788,-66.406250
4789,-64.453125
4790,-66.406250
4791,-64.453125
4792,-64.453125
4793,-64.453125
4794,-64.453125
4795,-64.453125
4796,-62.500000
4797,-64.453125
4798,-62.500000
4799,-62.500000
4800,-62.500000
4801,-62.500000
4802,-62.500000
4803,-62.500000
4804,-62.500000
4805,-60.546875
4806,-62.500000
4807,-60.546875
4808,-60.546875
4809,-60.546875
4810,-60.546875
4811,-60.546875
4812,-60.546875
4813,-58.593750
4814,-58.593750
4815,-58.593750
4816,-58.593750
4817,-58.593750
4818,-58.593750
4819,-58.593750
4820,-56.640625
4821,-56.640625
4822,-56.640625
4823,-56.640625
4824,-56.640625
4825,-56.640625
4826,-56.640625
4827,-54.687500
4828,-54.687500
4829,-54.687500
4830,-54.687500
4831,-54.687500
4832,-54.687500
4833,-54.687500
4834,-54.687500
4835,-52.734375
4836,-54.687500
4837,-52.734375
4838,-52.734375
4839,-52.734375
4840,-52.734375
4841,-52.734375
4842,-52.734375
4843,-50.781250
4844,-50.781250
4845,-50.781250
4846,-50.781250
4847,-50.781250
4848,-48.828125
4849,-50.781250
4850,-48.828125
4851,-48.828125
4852,-48.828125
4853,-48.828125
4854,-48.828125
4855,-48.828125
4856,-48.828125
4857,-46.875000
4858,-46.875000
4859,-46.875000
4860,-46.875000
4861,-46.875000
4862,-46.875000
4863,-46.875000
4864,-44.921875
4865,-44.921875
4866,-44.921875
4867,-44.921875
4868,-44.921875
4869,-44.921875
4870,-44.921875
4871,-42.968750
4872,-42.968750
4873,-42.968750
4874,-42.968750
4875,-42.968750
4876,-42.968750
4877,-42.968750
4878,-41.015625
4879,-42.968750
4880,-41.015625
4881,-41.015625
4882,-41.015625
4883,-41.015625
4884,-41.015625
4885,-39.062500
4886,-41.015625
4887,-39.062500
4888,-39.062500
4889,-39.062500
4890,-39.062500
4891,-39.062500
4892,-39.062500
4893,-39.062500
4894,-37.109375
4895,-37.109375
4896,-37.109375
4897,-37.109375
4898,-37.109375
4899,-35.156250
4900,-35.156250
4901,-35.156250
4902,-35.156250
4903,-35.156250
4904,-35.156250
4905,-33.203125
4906,-33.203125
4907,-33.203125
4908,-33.203125
4909,-33.203125
4910,-33.203125
4911,-33.203125
4912,-31.250000
4913,-33.203125
4914,-31.250000
4915,-31.250000
4916,-31.250000
4917,-31.250000
4918,-31.250000
4919,-31.250000
4920,-29.296875
4921,-29.296875
4922,-29.296875
4923,-29.296875
4924,-29.296875
4925,-29.296875
4926,-29.296875
4927,-29.296875
4928,-27.343750
4929,-27.343750
4930,-27.343750
4931,-27.343750
4932,-27.343750
4933,-27.343750
4934,-25.390625
4935,-25.390625
4936,-25.390625
4937,-25.390625
4938,-25.390625
4939,-25.390625
4940,-23.437500
4941,-25.390625
4942,-23.437500
4943,-23.437500
4944,-23.437500
4945,-23.437500
4946,-23.437500
4947,-23.437500
4948,-23.437500
4949,-21.484375
4950,-21.484375
4951,-21.484375
4952,-21.484375
4953,-21.484375
4954,-19.531250
4955,-19.531250
4956,-19.531250
4957,-19.531250
4958,-19.531250
4959,-19.531250
4960,-19.531250
4961,-17.578125
4962,-19.531250
4963,-17.578125
4964,-17.578125
4965,-17.578125
4966,-17.578125
4967,-17.578125
4968,-15.625000
4969,-15.625000
4970,-15.625000
4971,-15.625000
4972,-15.625000
4973,-15.625000
4974,-15.625000
4975,-13.671875
4976,-13.671875
4977,-13.671875
4978,-13.671875
4979,-13.671875
4980,-11.718750
4981,-13.671875
4982,-11.718750
4983,-11.718750
4984,-11.718750
4985,-11.718750
4986,-11.718750
4987,-11.718750
4988,-11.718750
4989,-9.765625
4990,-9.765625
4991,-9.765625
4992,-9.765625
4993,-9.765625
4994,-9.765625
4995,-7.812500
4996,-7.812500
4997,-7.812500
4998,-7.812500
4999,-7.812500
5000,-7.812500
5001,-7.812500
5002,-5.859375
5003,-7.812500
5004,-5.859375
5005,-5.859375
5006,-5.859375
5007,-5.859375
5008,-5.859375
5009,-3.906250
5010,-3.906250
5011,-3.906250
5012,-3.906250
5013,-3.906250
5014,-3.906250
5015,-3.906250
5016,-1.953125
5017,-1.953125
5018,-1.953125
5019,-1.953125
5020,-1.953125
5021,-1.953125
5022,0.000000
5023,-1.953125
5024,0.000000
5025,0.000000
5026,0.000000
5027,0.000000
5028,0.000000
5029,1.953125
5030,0.000000
5031,1.953125
5032,1.953125
5033,1.953125
5034,1.953125
5035,1.953125
5036,3.906250
5037,3.906250
5038,3.906250
5039,3.906250
5040,3.906250
5041,3.906250
5042,3.906250
5043,3.906250
5044,3.906250
5045,5.859375
5046,5.859375
5047,5.859375
5048,5.859375
5049,5.859375
5050,5.859375
5051,7.812500
5052,7.812500
5053,7.812500
5054,7.812500
5055,7.812500
5056,9.765625
5057,7.812500
5058,9.765625
5059,9.765625
5060,9.765625
5061,9.765625
5062,9.765625
5063,9.765625
5064,11.718750
5065,9.765625
5066,11.718750
5067,11.718750
5068,11.718750
5069,11.718750
5070,11.718750
5071,11.718750
5072,11.718750
5073,13.671875
5074,13.671875
5075,13.671875
5076,13.671875
5077,13.671875
5078,13.671875
5079,15.625000
5080,13.671875
5081,15.625000
5082,15.625000
5083,15.625000
5084,15.625000
5085,15.625000
5086,17.578125
5087,17.578125
5088,17.578125
5089,17.578125
5090,19.531250
5091,17.578125
5092,17.578125
5093,19.531250
5094,19.531250
5095,19.531250
5096,19.531250
5097,19.531250
5098,19.531250
5099,19.531250
5100,21.484375
5101,21.484375
5102,21.484375
5103,21.484375
5104,21.484375
5105,21.484375
5106,21.484375
5107,23.437500
5108,23.437500
5109,23.437500
5110,23.437500
5111,23.437500
5112,23.437500
5113,23.437500
5114,23.437500
5115,25.390625
5116,25.390625
5117,25.390625
5118,25.390625
5119,25.390625
5120,25.390625
5121,25.390625
5122,25.390625
5123,27.343750
5124,25.390625
5125,27.343750
5126,27.343750
5127,27.343750
5128,27.343750
5129,27.343750
5130,29.296875
5131,29.296875
5132,29.296875
5133,29.296875
5134,29.296875
5135,29.296875
5136,29.296875
5137,31.250000
5138,31.250000
5139,31.250000
5140,31.250000
5141,31.250000
5142,31.250000
5143,33.203125
5144,31.250000
5145,33.203125
5146,33.203125
5147,33.203125
5148,33.203125
5149,33.203125
5150,33.203125
5151,35.156250
5152,33.203125
5153,37.109375
5154,35.156250
5155,35.156250
5156,35.156250
5157,35.156250
5158,35.156250
5159,37.109375
5160,35.156250
5161,37.109375
5162,37.109375
5163,37.109375
5164,37.109375
5165,37.109375
5166,39.062500
5167,37.109375
5168,39.062500
5169,39.062500
5170,39.062500
5171,39.062500
5172,39.062500
5173,41.015625
5174,39.062500
5175,41.015625
5176,41.015625
5177,39.062500
5178,41.015625
5179,41.015625
5180,41.015625
5181,41.015625
5182,41.015625
5183,42.968750
5184,42.968750
5185,42.968750
5186,42.968750
5187,42.968750
5188,42.968750
5189,42.968750
5190,42.968750
5191,44.921875
5192,44.921875
5193,44.921875
5194,44.921875
5195,44.921875
5196,44.921875
5197,44.921875
5198,46.875000
5199,46.875000
5200,46.875000
5201,46.875000
5202,46.875000
5203,46.875000
5204,46.875000
5205,46.875000
5206,46.875000
5207,48.828125
5208,48.828125
5209,46.875000
5210,48.828125
5211,48.828125
5212,48.828125
5213,50.781250
5214,48.828125
5215,50.781250
5216,50.781250
5217,50.781250
5218,50.781250
5219,50.781250
5220,50.781250
5221,50.781250
5222,52.734375
5223,50.781250
5224,52.734375
5225,52.734375
5226,52.734375
5227,52.734375
5228,52.734375
5229,52.734375
5230,52.734375
5231,52.734375
5232,54.687500
5233,54.687500
5234,54.687500
5235,54.687500
5236,54.687500
5237,54.687500
5238,54.687500
5239,54.687500
5240,54.687500
5241,56.640625
5242,56.640625
5243,56.640625
5244,56.640625
5245,56.640625
5246,56.640625
5247,56.640625
5248,56.640625
5249,56.640625
5250,58.593750
5251,58.593750
5252,58.593750
5253,58.593750
5254,58.593750
5255,58.593750
5256,58.593750
5257,60.546875
5258,58.593750
5259,58.593750
5260,60.546875
5261,60.546875
5262,60.546875
5263,60.546875
5264,60.546875
5265,60.546875
5266,60.546875
5267,62.500000
5268,62.500000
5269,62.500000
5270,62.500000
5271,62.500000
5272,62.500000
5273,62.500000
5274,64.453125
5275,64.453125
5276,62.500000
5277,64.453125
5278,64.453125
5279,64.453125
5280,64.453125
5281,64.453125
5282,64.453125
5283,64.453125
5284,64.453125
5285,64.453125
5286,66.406250
5287,66.406250
5288,66.406250
5289,66.406250
5290,66.406250
5291,66.406250
5292,66.406250
5293,68.359375
5294,66.406250
5295,68.359375
5296,68.359375
5297,68.359375
5298,68.359375
5299,68.359375
5300,70.312500
5301,68.359375
5302,70.312500
5303,70.312500
5304,70.312500
5305,70.312500
5306,70.312500
5307,70.312500
5308,70.312500
5309,70.312500
5310,70.312500
5311,70.312500
5312,72.265625
5313,70.312500
5314,72.265625
5315,72.265625
5316,72.265625
5317,72.265625
5318,72.265625
5319,72.265625
5320,70.312500
5321,74.218750
5322,72.265625
5323,72.265625
5324,74.218750
5325,74.218750
5326,74.218750
5327,74.218750
5328,74.218750
5329,74.218750
5330,74.218750
5331,74.218750
5332,74.218750
5333,74.218750
5334,74.218750
5335,74.218750
5336,76.171875
5337,76.171875
5338,76.171875
5339,76.171875
5340,76.171875
5341,76.171875
5342,76.171875
5343,76.171875
5344,76.171875
5345,78.125000
5346,78.125000
5347,78.125000
5348,78.125000
5349,78.125000
5350,76.171875
5351,78.125000
5352,78.125000
5353,78.125000
5354,80.078125
5355,78.125000
5356,80.078125
5357,80.078125
5358,80.078125
5359,80.078125
5360,80.078125
5361,80.078125
5362,80.078125
5363,80.078125
5364,80.078125
5365,80.078125
5366,80.078125
5367,82.031250
5368,80.078125
5369,82.031250
5370,82.031250
5371,82.031250
5372,82.031250
5373,82.031250
5374,82.031250
5375,82.031250
5376,83.984375
5377,82.031250
5378,83.984375
5379,83.984375
5380,83.984375
5381,83.984375
5382,83.984375
5383,83.984375
5384,83.984375
5385,83.984375
5386,83.984375
5387,83.984375
5388,83.984375
5389,83.984375
5390,83.984375
5391,85.937500
5392,85.937500
5393,85.937500
5394,85.937500
5395,85.937500
5396,85.937500
5397,85.937500
5398,85.937500
5399,85.937500
5400,85.937500
5401,85.937500
5402,87.890625
5403,85.937500
5404,87.890625
5405,83.984375
5406,87.890625
5407,87.890625
5408,87.890625
5409,87.890625
5410,87.890625
5411,87.890625
5412,87.890625
5413,87.890625
5414,87.890625
5415,87.890625
5416,89.843750
5417,87.890625
5418,89.843750
5419,89.843750
5420,87.890625
5421,89.843750
5422,89.843750
5423,89.843750
5424,89.843750
5425,89.843750
5426,89.843750
5427,89.843750
5428,89.843750
5429,89.843750
5430,89.843750
5431,91.796875
5432,91.796875
5433,91.796875
5434,91.796875
5435,91.796875
5436,91.796875
5437,91.796875
5438,91.796875
5439,91.796875
5440,91.796875
5441,91.796875
5442,91.796875
5443,91.796875
5444,93.750000
5445,91.796875
5446,93.750000
5447,93.750000
5448,93.750000
5449,93.750000
5450,93.750000
5451,93.750000
5452,93.750000
5453,93.750000
5454,93.750000
5455,93.750000
5456,93.750000
5457,93.750000
5458,93.750000
5459,93.750000
5460,95.703125
5461,95.703125
5462,95.703125
5463,95.703125
5464,95.703125
5465,95.703125
5466,95.703125
5467,95.703125
5468,95.703125
5469,95.703125
5470,95.703125
5471,95.703125
5472,95.703125
5473,95.703125
5474,95.703125
5475,95.703125
5476,95.703125
5477,97.656250
5478,97.656250
5479,97.656250
5480,97.656250
5481,97.656250
5482,97.656250
5483,97.656250
5484,97.656250
5485,97.656250
5486,97.656250
5487,97.656250
5488,97.656250
5489,97.656250
5490,97.656250
5491,97.656250
5492,99.609375
5493,99.609375
5494,97.656250
5495,99.609375
5496,99.609375
5497,97.656250
5498,99.609375
5499,99.609375
5500,99.609375
5501,99.609375
5502,99.609375
5503,99.609375
5504,99.609375
5505,99.609375
5506,99.609375
5507,99.609375
5508,99.609375
5509,99.609375
5510,99.609375
5511,99.609375
5512,99.609375
5513,101.562500
5514,99.609375
5515,101.562500
5516,99.609375
5517,101.562500
5518,101.562500
5519,101.562500
5520,101.562500
5521,101.562500
5522,101.562500
5523,101.562500
5524,101.562500
5525,101.562500
5526,101.562500
5527,101.562500
5528,101.562500
5529,101.562500
5530,101.562500
5531,101.562500
5532,101.562500
5533,103.515625
5534,103.515625
5535,101.562500
5536,103.515625
5537,103.515625
5538,103.515625
5539,103.515625
5540,101.562500
5541,103.515625
5542,103.515625
5543,103.515625
5544,103.515625
5545,103.515625
5546,103.515625
5547,103.515625
5548,103.515625
5549,103.515625
5550,103.515625
5551,103.515625
5552,103.515625
5553,103.515625
5554,103.515625
5555,103.515625
5556,103.515625
5557,103.515625
5558,103.515625
5559,105.468750
5560,103.515625
5561,103.515625
5562,105.468750
5563,105.468750
5564,105.468750
5565,103.515625
5566,105.468750
5567,105.468750
5568,103.515625
5569,105.468750
5570,105.468750
5571,105.468750
5572,105.468750
5573,105.468750
5574,105.468750
5575,105.468750
5576,105.468750
5577,105.468750
5578,105.468750
5579,105.468750
5580,105.468750
5581,105.468750
5582,105.468750
5583,105.468750
5584,105.468750
5585,105.468750
5586,105.468750
5587,105.468750
5588,105.468750
5589,105.468750
5590,105.468750
5591,105.468750
5592,105.468750
5593,105.468750
5594,107.421875
5595,105.468750
5596,107.421875
5597,107.421875
5598,105.468750
5599,107.421875
5600,105.468750
5601,107.421875
5602,107.421875
5603,107.421875
5604,107.421875
5605,107.421875
5606,107.421875
5607,107.421875
5608,107.421875
5609,107.421875
5610,107.421875
5611,107.421875
5612,107.421875
5613,107.421875
5614,107.421875
5615,107.421875
5616,107.421875
5617,107.421875
5618,107.421875
5619,107.421875
5620,107.421875
5621,107.421875
5622,107.421875
5623,107.421875
5624,107.421875
5625,107.421875
5626,107.421875
5627,107.421875
5628,107.421875
5629,107.421875
5630,107.421875
5631,107.421875
5632,107.421875
5633,107.421875
5634,107.421875
5635,107.421875
5636,107.421875
5637,107.421875
5638,107.421875
5639,107.421875
5640,107.421875
5641,107.421875
5642,109.375000
5643,107.421875
5644,107.421875
5645,107.421875
5646,107.421875
5647,107.421875
5648,107.421875
5649,109.375000
5650,107.421875
5651,107.421875
5652,109.375000
5653,107.421875
5654,109.375000
5655,107.421875
5656,107.421875
5657,107.421875
5658,107.421875
5659,109.375000
5660,107.421875
5661,107.421875
5662,109.375000
5663,109.375000
5664,107.421875
5665,109.375000
5666,107.421875
5667,109.375000
5668,109.375000
5669,109.375000
5670,109.375000
5671,109.375000
5672,109.375000
5673,107.421875
5674,109.375000
5675,107.421875
5676,109.375000
5677,109.375000
5678,109.375000
5679,109.375000
5680,107.421875
5681,109.375000
5682,107.421875
5683,109.375000
5684,109.375000
5685,107.421875
5686,109.375000
5687,107.421875
5688,109.375000
5689,109.375000
5690,109.375000
5691,109.375000
5692,109.375000
5693,109.375000
5694,107.421875
5695,107.421875
5696,107.421875
5697,109.375000
5698,107.421875
5699,109.375000
5700,107.421875
5701,107.421875
5702,107.421875
5703,107.421875
5704,109.375000
5705,107.421875
5706,109.375000
5707,107.421875
5708,109.375000
5709,109.375000
5710,107.421875
5711,109.375000
5712,107.421875
5713,109.375000
5714,107.421875
5715,107.421875
5716,107.421875
5717,107.421875
5718,107.421875
5719,107.421875
5720,107.421875
5721,107.421875
5722,107.421875
5723,107.421875
5724,109.375000
5725,107.421875
5726,107.421875
5727,107.421875
5728,107.421875
5729,109.375000
5730,107.421875
5731,107.421875
5732,107.421875
5733,107.421875
5734,107.421875
5735,107.421875
5736,109.375000
5737,107.421875
5738,109.375000
5739,107.421875
5740,107.421875
5741,107.421875
5742,107.421875
5743,107.421875
5744,107.421875
5745,107.421875
5746,107.421875
5747,107.421875
5748,107.421875
5749,107.421875
5750,107.421875
5751,107.421875
5752,107.421875
5753,107.421875
5754,107.421875
5755,107.421875
5756,107.421875
5757,107.421875
5758,107.421875
5759,107.421875
5760,107.421875
5761,107.421875
5762,107.421875
5763,107.421875
5764,107.421875
5765,107.421875
5766,107.421875
5767,105.468750
5768,107.421875
5769,107.421875
5770,107.421875
5771,105.468750
5772,105.468750
5773,107.421875
5774,105.468750
5775,107.421875
5776,105.468750
5777,105.468750
5778,107.421875
5779,105.468750
5780,105.468750
5781,105.468750
5782,105.468750
5783,105.468750
5784,105.468750
5785,105.468750
5786,105.468750
5787,105.468750
5788,105.468750
5789,105.468750
5790,105.468750
5791,105.468750
5792,105.468750
5793,105.468750
5794,105.468750
5795,105.468750
5796,105.468750
5797,105.468750
5798,105.468750
5799,103.515625
5800,105.468750
5801,105.468750
5802,103.515625
5803,105.468750
5804,105.468750
5805,105.468750
5806,105.468750
5807,103.515625
5808,103.515625
5809,103.515625
5810,103.515625
5811,103.515625
5812,103.515625
5813,103.515625
5814,103.515625
5815,103.515625
5816,103.515625
5817,103.515625
5818,103.515625
5819,101.562500
5820,103.515625
5821,103.515625
5822,103.515625
5823,103.515625
5824,103.515625
5825,103.515625
5826,103.515625
5827,103.515625
5828,103.515625
5829,103.515625
5830,101.562500
5831,103.515625
5832,101.562500
5833,101.562500
5834,101.562500
5835,101.562500
5836,101.562500
5837,101.562500
5838,101.562500
5839,101.562500
5840,101.562500
5841,101.562500
5842,101.562500
5843,101.562500
5844,101.562500
5845,101.562500
5846,101.562500
5847,101.562500
5848,101.562500
5849,101.562500
5850,101.562500
5851,99.609375
5852,101.562500
5853,101.562500
5854,101.562500
5855,101.562500
5856,99.609375
5857,99.609375
5858,99.609375
5859,99.609375
5860,99.609375
5861,99.609375
5862,99.609375
5863,99.609375
5864,99.609375
5865,99.609375
5866,99.609375
5867,99.609375
5868,99.609375
5869,99.609375
5870,99.609375
5871,99.609375
5872,97.656250
5873,99.609375
5874,97.656250
5875,97.656250
5876,97.656250
5877,97.656250
5878,97.656250
5879,97.656250
5880,97.656250
5881,97.656250
5882,97.656250
5883,97.656250
5884,97.656250
5885,97.656250
5886,97.656250
5887,97.656250
5888,97.656250
5889,97.656250
5890,97.656250
5891,95.703125
5892,97.656250
5893,95.703125
5894,95.703125
5895,95.703125
5896,95.703125
5897,95.703125
5898,95.703125
5899,95.703125
5900,95.703125
5901,95.703125
5902,95.703125
5903,93.750000
5904,93.750000
5905,93.750000
5906,95.703125
5907,93.750000
5908,93.750000
5909,93.750000
5910,93.750000
5911,93.750000
5912,93.750000
5913,93.750000
5914,93.750000
5915,93.750000
5916,93.750000
5917,93.750000
5918,93.750000
5919,93.750000
5920,93.750000
5921,91.796875
5922,93.750000
5923,91.796875
5924,91.796875
5925,91.796875
5926,91.796875
5927,91.796875
5928,91.796875
5929,91.796875
5930,91.796875
5931,91.796875
5932,91.796875
5933,89.843750
5934,91.796875
5935,91.796875
5936,91.796875
5937,91.796875
5938,89.843750
5939,91.796875
5940,89.843750
5941,89.843750
5942,89.843750
5943,89.843750
5944,89.843750
5945,89.843750
5946,89.843750
5947,89.843750
5948,89.843750
5949,87.890625
5950,87.890625
5951,87.890625
5952,87.890625
5953,87.890625
5954,87.890625
5955,87.890625
5956,87.890625
5957,87.890625
5958,87.890625
5959,87.890625
5960,87.890625
5961,87.890625
5962,87.890625
5963,87.890625
5964,85.937500
5965,85.937500
5966,85.937500
5967,85.937500
5968,85.937500
5969,85.937500
5970,85.937500
5971,85.937500
5972,85.937500
5973,83.984375
5974,85.937500
5975,85.937500
5976,83.984375
5977,85.937500
5978,83.984375
5979,83.984375
5980,83.984375
5981,83.984375
5982,83.984375
5983,83.984375
5984,83.984375
5985,82.031250
5986,83.984375
5987,82.031250
5988,83.984375
5989,83.984375
5990,82.031250
5991,82.031250
5992,82.031250
5993,82.031250
5994,82.031250
5995,82.031250
5996,82.031250
5997,82.031250
5998,82.031250
5999,82.031250
6000,80.078125
6001,82.031250
6002,80.078125
6003,80.078125
6004,80.078125
6005,80.078125
6006,80.078125
6007,80.078125
6008,80.078125
6009,80.078125
6010,80.078125
6011,80.078125
6012,78.125000
6013,78.125000
6014,78.125000
6015,78.125000
6016,78.125000
6017,78.125000
6018,78.125000
6019,78.125000
6020,78.125000
6021,76.171875
6022,78.125000
6023,76.171875
6024,76.171875
6025,76.171875
6026,76.171875
6027,76.171875
6028,76.171875
6029,76.171875
6030,76.171875
6031,76.171875
6032,76.171875
6033,74.218750
6034,76.171875
6035,74.218750
6036,74.218750
6037,74.218750
6038,74.218750
6039,74.218750
6040,72.265625
6041,74.218750
6042,72.265625
6043,72.265625
6044,72.265625
6045,74.218750
6046,72.265625
6047,72.265625
6048,72.265625
6049,72.265625
6050,72.265625
6051,72.265625
6052,70.312500
6053,70.312500
6054,70.312500
6055,70.312500
6056,70.312500
6057,70.312500
6058,70.312500
6059,70.312500
6060,70.312500
6061,70.312500
6062,68.359375
6063,70.312500
6064,68.359375
6065,68.359375
6066,68.359375
6067,68.359375
6068,68.359375
6069,68.359375
6070,68.359375
6071,68.359375
6072,68.359375
6073,66.406250
6074,66.406250
6075,66.406250
6076,66.406250
6077,66.406250
6078,66.406250
6079,66.406250
6080,66.406250
6081,64.453125
6082,64.453125
6083,64.453125
6084,64.453125
6085,64.453125
6086,64.453125
6087,64.453125
6088,64.453125
6089,64.453125
6090,64.453125
6091,64.453125
6092,62.500000
6093,62.500000
6094,62.500000
6095,62.500000
6096,62.500000
6097,62.500000
6098,62.500000
6099,62.500000
6100,60.546875
6101,60.546875
6102,60.546875
6103,60.546875
6104,60.546875
6105,60.546875
6106,60.546875
6107,60.546875
6108,60.546875
6109,60.546875
6110,58.593750
6111,58.593750
6112,58.593750
6113,58.593750
6114,58.593750
6115,58.593750
6116,58.593750
6117,56.640625
6118,58.593750
6119,56.640625
6120,56.640625
6121,56.640625
6122,56.640625
6123,56.640625
6124,54.687500
6125,56.640625
6126,54.687500
6127,54.687500
6128,54.687500
6129,54.687500
6130,54.687500
6131,54.687500
6132,54.687500
6133,54.687500
6134,54.687500
6135,54.687500
6136,52.734375
6137,52.734375
6138,52.734375
6139,52.734375
6140,52.734375
6141,52.734375
6142,52.734375
6143,52.734375
6144,50.781250
6145,50.781250
6146,50.781250
6147,50.781250
6148,50.781250
6149,50.781250
6150,50.781250
6151,48.828125
6152,50.781250
6153,48.828125
6154,48.828125
6155,48.828125
6156,48.828125
6157,48.828125
6158,48.828125
6159,46.875000
6160,46.875000
6161,46.875000
6162,48.828125
6163,46.875000
6164,46.875000
6165,46.875000
6166,46.875000
6167,46.875000
6168,46.875000
6169,44.921875
6170,44.921875
6171,44.921875
6172,44.921875
6173,44.921875
6174,42.968750
6175,44.921875
6176,42.968750
6177,42.968750
6178,42.968750
6179,42.968750
6180,42.968750
6181,42.968750
6182,42.968750
6183,42.968750
6184,41.015625
6185,41.015625
6186,41.015625
6187,41.015625
6188,41.015625
6189,41.015625
6190,41.015625
6191,41.015625
6192,41.015625
6193,39.062500
6194,39.062500
6195,39.062500
6196,39.062500
6197,39.062500
6198,39.062500
6199,37.109375
6200,37.109375
6201,37.109375
6202,37.109375
6203,37.109375
6204,37.109375
6205,37.109375
6206,37.109375
6207,35.156250
6208,35.156250
6209,35.156250
6210,35.156250
6211,35.156250
6212,35.156250
6213,35.156250
6214,33.203125
6215,35.156250
6216,33.203125
6217,33.203125
6218,33.203125
6219,33.203125
6220,33.203125
6221,31.250000
6222,33.203125
6223,31.250000
6224,31.250000
6225,31.250000
6226,31.250000
6227,31.250000
6228,29.296875
6229,31.250000
6230,29.296875
6231,29.296875
6232,29.296875
6233,29.296875
6234,29.296875
6235,29.296875
6236,29.296875
6237,27.343750
6238,27.343750
6239,27.343750
6240,27.343750
6241,27.343750
6242,27.343750
6243,27.343750
6244,25.390625
6245,27.343750
6246,27.343750
6247,25.390625
6248,25.390625
6249,25.390625
6250,25.390625
6251,23.437500
6252,23.437500
6253,23.437500
6254,23.437500
6255,23.437500
6256,23.437500
6257,23.437500
6258,21.484375
6259,23.437500
6260,21.484375
6261,21.484375
6262,21.484375
6263,21.484375
6264,21.484375
6265,21.484375
6266,19.531250
6267,19.531250
6268,19.531250
6269,19.531250
6270,19.531250
6271,19.531250
6272,19.531250
6273,17.578125
6274,19.531250
6275,17.578125
6276,17.578125
6277,17.578125
6278,17.578125
6279,15.625000
6280,15.625000
6281,15.625000
6282,15.625000
6283,15.625000
6284,15.625000
6285,15.625000
6286,15.625000
6287,15.625000
6288,13.671875
6289,13.671875
6290,13.671875
6291,13.671875
6292,13.671875
6293,13.671875
6294,11.718750
6295,11.718750
6296,11.718750
6297,11.718750
6298,11.718750
6299,11.718750
6300,11.718750
6301,9.765625
6302,9.765625
6303,9.765625
6304,9.765625
6305,9.765625
6306,9.765625
6307,9.765625
6308,9.765625
6309,9.765625
6310,7.812500
6311,7.812500
6312,7.812500
6313,7.812500
6314,7.812500
6315,5.859375
6316,7.812500
6317,5.859375
6318,5.859375
6319,5.859375
6320,5.859375
6321,5.859375
6322,3.906250
6323,3.906250
6324,1.953125
6325,3.906250
6326,3.906250
6327,3.906250
6328,3.906250
6329,3.906250
6330,1.953125
6331,3.906250
6332,1.953125
6333,1.953125
6334,1.953125
6335,0.000000
6336,0.000000
6337,0.000000
6338,0.000000
6339,0.000000
6340,0.000000
6341,0.000000
6342,0.000000
6343,-1.953125
6344,-1.953125
6345,-1.953125
6346,-1.953125
6347,-1.953125
6348,-1.953125
6349,-1.953125
6350,-3.906250
6351,-3.906250
6352,-3.906250
6353,-3.906250
6354,-3.906250
6355,-5.859375
6356,-3.906250
6357,-5.859375
6358,-5.859375
6359,-5.859375
6360,-5.859375
6361,-5.859375
6362,-5.859375
6363,-5.859375
6364,-7.812500
6365,-7.812500
6366,-7.812500
6367,-7.812500
6368,-7.812500
6369,-7.812500
6370,-7.812500
6371,-9.765625
6372,-9.765625
6373,-9.765625
6374,-9.765625
6375,-9.765625
6376,-9.765625
6377,-9.765625
6378,-11.718750
6379,-11.718750
6380,-11.718750
6381,-11.718750
6382,-11.718750
6383,-11.718750
6384,-11.718750
6385,-13.671875
6386,-13.671875
6387,-13.671875
6388,-13.671875
6389,-13.671875
6390,-15.625000
6391,-13.671875
6392,-15.625000
6393,-15.625000
6394,-15.625000
6395,-15.625000
6396,-15.625000
6397,-17.578125
6398,-15.625000
6399,-17.578125
6400,-17.578125
6401,-17.578125
6402,-17.578125
6403,-17.578125
6404,-17.578125
6405,-19.531250
6406,-19.531250
6407,-19.531250
6408,-17.578125
6409,-19.531250
6410,-19.531250
6411,-19.531250
6412,-21.484375
6413,-21.484375
6414,-21.484375
6415,-21.484375
6416,-21.484375
6417,-21.484375
6418,-21.484375
6419,-21.484375
6420,-23.437500
6421,-23.437500
6422,-23.437500
6423,-23.437500
6424,-23.437500
6425,-25.390625
6426,-25.390625
6427,-25.390625
6428,-25.390625
6429,-25.390625
6430,-25.390625
6431,-25.390625
6432,-27.343750
6433,-27.343750
6434,-27.343750
6435,-27.343750
6436,-27.343750
6437,-27.343750
6438,-27.343750
6439,-27.343750
6440,-29.296875
6441,-29.296875
6442,-29.296875
6443,-29.296875
6444,-29.296875
6445,-29.296875
6446,-29.296875
6447,-31.250000
6448,-31.250000
6449,-31.250000
6450,-31.250000
6451,-31.250000
6452,-31.250000
6453,-31.250000
6454,-33.203125
6455,-33.203125
6456,-33.203125
6457,-33.203125
6458,-33.203125
6459,-35.156250
6460,-33.203125
6461,-35.156250
6462,-35.156250
6463,-35.156250
6464,-35.156250
6465,-35.156250
6466,-35.156250
6467,-35.156250
6468,-37.109375
6469,-37.109375
6470,-37.109375
6471,-37.109375
6472,-37.109375
6473,-37.109375
6474,-39.062500
6475,-39.062500
6476,-39.062500
6477,-39.062500
6478,-39.062500
6479,-39.062500
6480,-39.062500
6481,-41.015625
6482,-39.062500
6483,-41.015625
6484,-41.015625
6485,-41.015625
6486,-41.015625
6487,-42.968750
6488,-41.015625
6489,-42.968750
6490,-42.968750
6491,-42.968750
6492,-42.968750
6493,-42.968750
6494,-44.921875
6495,-42.968750
6496,-44.921875
6497,-44.921875
6498,-44.921875
6499,-44.921875
6500,-44.921875
6501,-46.875000
6502,-44.921875
6503,-46.875000
6504,-46.875000
6505,-46.875000
6506,-46.875000
6507,-46.875000
6508,-46.875000
6509,-46.875000
6510,-48.828125
6511,-48.828125
6512,-48.828125
6513,-48.828125
6514,-48.828125
6515,-48.828125
6516,-48.828125
6517,-48.828125
6518,-50.781250
6519,-50.781250
6520,-50.781250
6521,-50.781250
6522,-50.781250
6523,-50.781250
6524,-50.781250
6525,-52.734375
6526,-52.734375
6527,-52.734375
6528,-52.734375
6529,-52.734375
6530,-52.734375
6531,-54.687500
6532,-54.687500
6533,-54.687500
6534,-54.687500
6535,-54.687500
6536,-54.687500
6537,-54.687500
6538,-54.687500
6539,-56.640625
6540,-56.640625
6541,-56.640625
6542,-56.640625
6543,-56.640625
6544,-56.640625
6545,-58.593750
6546,-58.593750
6547,-58.593750
6548,-58.593750
6549,-58.593750
6550,-58.593750
6551,-60.546875
6552,-58.593750
6553,-60.546875
6554,-58.593750
6555,-60.546875
6556,-60.546875
6557,-60.546875
6558,-60.546875
6559,-60.546875
6560,-60.546875
6561,-62.500000
6562,-62.500000
6563,-62.500000
6564,-62.500000
6565,-62.500000
6566,-62.500000
6567,-62.500000
6568,-64.453125
6569,-64.453125
6570,-64.453125
6571,-64.453125
6572,-64.453125
6573,-64.453125
6574,-64.453125
6575,-64.453125
6576,-64.453125
6577,-66.406250
6578,-66.406250
6579,-66.406250
6580,-66.406250
6581,-66.406250
6582,-66.406250
6583,-66.406250
6584,-66.406250
6585,-68.359375
6586,-68.359375
6587,-68.359375
6588,-68.359375
6589,-68.359375
6590,-68.359375
6591,-70.312500
6592,-70.312500
6593,-70.312500
6594,-70.312500
6595,-70.312500
6596,-70.312500
6597,-70.312500
6598,-70.312500
6599,-72.265625
6600,-72.265625
6601,-72.265625
6602,-72.265625
6603,-72.265625
6604,-72.265625
6605,-72.265625
6606,-72.265625
6607,-72.265625
6608,-74.218750
6609,-74.218750
6610,-74.218750
6611,-74.218750
6612,-74.218750
6613,-74.218750
6614,-74.218750
6615,-74.218750
6616,-76.171875
6617,-74.218750
6618,-76.171875
6619,-76.171875
6620,-76.171875
6621,-76.171875
6622,-76.171875
6623,-78.125000
6624,-76.171875
6625,-78.125000
6626,-78.125000
6627,-78.125000
6628,-78.125000
6629,-78.125000
6630,-78.125000
6631,-78.125000
6632,-78.125000
6633,-80.078125
6634,-80.078125
6635,-80.078125
6636,-80.078125
6637,-80.078125
6638,-80.078125
6639,-80.078125
6640,-82.031250
6641,-80.078125
6642,-82.031250
6643,-82.031250
6644,-82.031250
6645,-82.031250
6646,-82.031250
6647,-82.031250
6648,-82.031250
6649,-82.031250
6650,-83.984375
6651,-83.984375
6652,-83.984375
6653,-83.984375
6654,-83.984375
6655,-83.984375
6656,-83.984375
6657,-83.984375
6658,-85.937500
6659,-85.937500
6660,-85.937500
6661,-85.937500
6662,-85.937500
6663,-85.937500
6664,-85.937500
6665,-85.937500
6666,-87.890625
6667,-85.937500
6668,-87.890625
6669,-87.890625
6670,-87.890625
6671,-87.890625
6672,-87.890625
6673,-87.890625
6674,-87.890625
6675,-87.890625
6676,-89.843750
6677,-87.890625
6678,-89.843750
6679,-87.890625
6680,-89.843750
6681,-89.843750
6682,-89.843750
6683,-89.843750
6684,-89.843750
6685,-91.796875
6686,-89.843750
6687,-91.796875
6688,-89.843750
6689,-91.796875
6690,-91.796875
6691,-91.796875
6692,-93.750000
6693,-91.796875
6694,-91.796875
6695,-91.796875
6696,-93.750000
6697,-93.750000
6698,-93.750000
6699,-93.750000
6700,-93.750000
6701,-93.750000
6702,-93.750000
6703,-93.750000
6704,-93.750000
6705,-95.703125
6706,-93.750000
6707,-93.750000
6708,-95.703125
6709,-95.703125
6710,-95.703125
6711,-95.703125
6712,-95.703125
6713,-95.703125
6714,-95.703125
6715,-97.656250
6716,-97.656250
6717,-97.656250
6718,-97.656250
6719,-97.656250
6720,-97.656250
6721,-97.656250
6722,-97.656250
6723,-97.656250
6724,-97.656250
6725,-97.656250
6726,-97.656250
6727,-99.609375
6728,-99.609375
6729,-99.609375
6730,-99.609375
6731,-99.609375
6732,-99.609375
6733,-99.609375
6734,-99.609375
6735,-99.609375
6736,-101.562500
6737,-99.609375
6738,-101.562500
6739,-101.562500
6740,-101.562500
6741,-101.562500
6742,-101.562500
6743,-101.562500
6744,-103.515625
6745,-101.562500
6746,-101.562500
6747,-101.562500
6748,-101.562500
6749,-101.562500
6750,-103.515625
6751,-103.515625
6752,-103.515625
6753,-103.515625
6754,-103.515625
6755,-103.515625
6756,-103.515625
6757,-103.515625
6758,-103.515625
6759,-103.515625
6760,-105.468750
6761,-105.468750
6762,-105.468750
6763,-103.515625
6764,-105.468750
6765,-105.468750
6766,-105.468750
6767,-105.468750
6768,-105.468750
6769,-105.468750
6770,-105.468750
6771,-107.421875
6772,-105.468750
6773,-105.468750
6774,-107.421875
6775,-107.421875
6776,-107.421875
6777,-107.421875
6778,-107.421875
6779,-107.421875
6780,-107.421875
6781,-107.421875
6782,-109.375000
6783,-107.421875
6784,-107.421875
6785,-107.421875
6786,-107.421875
6787,-109.375000
6788,-109.375000
6789,-109.375000
6790,-109.375000
6791,-107.421875
6792,-109.375000
6793,-109.375000
6794,-109.375000
6795,-109.375000
6796,-109.375000
6797,-109.375000
6798,-109.375000
6799,-111.328125
6800,-109.375000
6801,-111.328125
6802,-111.328125
6803,-109.375000
6804,-111.328125
6805,-111.328125
6806,-111.328125
6807,-111.328125
6808,-111.328125
6809,-111.328125
6810,-111.328125
6811,-111.328125
6812,-111.328125
6813,-111.328125
6814,-113.281250
6815,-111.328125
6816,-113.281250
6817,-113.281250
6818,-113.281250
6819,-113.281250
6820,-113.281250
6821,-113.281250
6822,-113.281250
6823,-113.281250
6824,-113.281250
6825,-113.281250
6826,-113.281250
6827,-113.281250
6828,-117.187500
6829,-113.281250
6830,-115.234375
6831,-115.234375
6832,-115.234375
6833,-115.234375
6834,-115.234375
6835,-115.234375
6836,-115.234375
6837,-115.234375
6838,-115.234375
6839,-115.234375
6840,-115.234375
6841,-115.234375
6842,-115.234375
6843,-115.234375
6844,-115.234375
6845,-115.234375
6846,-115.234375
6847,-115.234375
6848,-117.187500
6849,-115.234375
6850,-115.234375
6851,-117.187500
6852,-117.187500
6853,-117.187500
6854,-117.187500
6855,-117.187500
6856,-117.187500
6857,-117.187500
6858,-117.187500
6859,-117.187500
6860,-115.234375
6861,-117.187500
6862,-117.187500
6863,-121.093750
6864,-117.187500
6865,-117.187500
6866,-119.140625
6867,-119.140625
6868,-119.140625
6869,-119.140625
6870,-119.140625
6871,-119.140625
6872,-119.140625
6873,-119.140625
6874,-115.234375
6875,-119.140625
6876,-119.140625
6877,-119.140625
6878,-119.140625
6879,-119.140625
6880,-119.140625
6881,-119.140625
6882,-119.140625
6883,-119.140625
6884,-119.140625
6885,-119.140625
6886,-119.140625
6887,-119.140625
6888,-119.140625
6889,-119.140625
6890,-119.140625
6891,-121.093750
6892,-121.093750
6893,-121.093750
6894,-121.093750
6895,-119.140625
6896,-121.093750
6897,-121.093750
6898,-121.093750
6899,-121.093750
6900,-121.093750
6901,-121.093750
6902,-121.093750
6903,-121.093750
6904,-121.093750
6905,-121.093750
6906,-121.093750
6907,-121.093750
6908,-121.093750
6909,-121.093750
6910,-121.093750
6911,-121.093750
6912,-121.093750
6913,-121.093750
6914,-121.093750
6915,-121.093750
6916,-121.093750
6917,-121.093750
6918,-121.093750
6919,-121.093750
6920,-121.093750
6921,-121.093750
6922,-123.046875
6923,-123.046875
6924,-123.046875
6925,-121.093750
6926,-123.046875
6927,-123.046875
6928,-123.046875
6929,-123.046875
6930,-123.046875
6931,-123.046875
6932,-123.046875
6933,-123.046875
6934,-123.046875
6935,-123.046875
6936,-123.046875
6937,-123.046875
6938,-123.046875
6939,-123.046875
6940,-123.046875
6941,-123.046875
6942,-123.046875
6943,-123.046875
6944,-123.046875
6945,-123.046875
6946,-123.046875
6947,-123.046875
6948,-123.046875
6949,-123.046875
6950,-123.046875
6951,-123.046875
6952,-123.046875
6953,-123.046875
6954,-123.046875
6955,-123.046875
6956,-123.046875
6957,-123.046875
6958,-123.046875
6959,-121.093750
6960,-123.046875
6961,-123.046875
6962,-123.046875
6963,-123.046875
6964,-123.046875
6965,-123.046875
6966,-123.046875
6967,-123.046875
6968,-123.046875
6969,-123.046875
6970,-123.046875
6971,-123.046875
6972,-123.046875
6973,-125.000000
6974,-123.046875
6975,-123.046875
6976,-123.046875
6977,-123.046875
6978,-123.046875
6979,-123.046875
6980,-125.000000
6981,-123.046875
6982,-123.046875
6983,-123.046875
6984,-123.046875
6985,-123.046875
6986,-123.046875
6987,-123.046875
6988,-123.046875
6989,-123.046875
6990,-123.046875
6991,-123.046875
6992,-123.046875
6993,-123.046875
6994,-125.000000
6995,-123.046875
6996,-125.000000
6997,-123.046875
6998,-123.046875
6999,-123.046875
7000,-123.046875
7001,-123.046875
7002,-123.046875
7003,-125.000000
7004,-123.046875
7005,-123.046875
7006,-123.046875
7007,-123.046875
7008,-123.046875
7009,-123.046875
7010,-123.046875
7011,-123.046875
7012,-123.046875
7013,-123.046875
7014,-123.046875
7015,-123.046875
7016,-123.046875
7017,-123.046875
7018,-123.046875
7019,-123.046875
7020,-123.046875
7021,-123.046875
7022,-123.046875
7023,-123.046875
7024,-123.046875
7025,-123.046875
7026,-123.046875
7027,-123.046875
7028,-123.046875
7029,-123.046875
7030,-123.046875
7031,-123.046875
7032,-123.046875
7033,-123.046875
7034,-123.046875
7035,-123.046875
7036,-123.046875
7037,-123.046875
7038,-123.046875
7039,-123.046875
7040,-123.046875
7041,-123.046875
7042,-123.046875
7043,-123.046875
7044,-123.046875
7045,-123.046875
7046,-123.046875
7047,-123.046875
7048,-123.046875
7049,-123.046875
7050,-123.046875
7051,-123.046875
7052,-123.046875
7053,-123.046875
7054,-123.046875
7055,-123.046875
7056,-121.093750
7057,-123.046875
7058,-121.093750
7059,-123.046875
7060,-121.093750
7061,-121.093750
7062,-123.046875
7063,-121.093750
7064,-121.093750
7065,-121.093750
7066,-121.093750
7067,-121.093750
7068,-121.093750
7069,-121.093750
7070,-121.093750
7071,-121.093750
7072,-121.093750
7073,-121.093750
7074,-121.093750
7075,-121.093750
7076,-121.093750
7077,-121.093750
7078,-121.093750
7079,-121.093750
7080,-117.187500
7081,-121.093750
7082,-121.093750
7083,-119.140625
7084,-119.140625
7085,-121.093750
7086,-121.093750
7087,-119.140625
7088,-121.093750
7089,-119.140625
7090,-119.140625
7091,-119.140625
7092,-119.140625
7093,-119.140625
7094,-119.140625
7095,-119.140625
7096,-119.140625
7097,-119.140625
7098,-119.140625
7099,-119.140625
7100,-119.140625
7101,-119.140625
7102,-119.140625
7103,-119.140625
7104,-119.140625
7105,-119.140625
7106,-119.140625
7107,-119.140625
7108,-119.140625
7109,-119.140625
7110,-117.187500
7111,-117.187500
7112,-119.140625
7113,-117.187500
7114,-119.140625
7115,-117.187500
7116,-117.187500
7117,-117.187500
7118,-117.187500
7119,-117.187500
7120,-117.187500
7121,-117.187500
7122,-117.187500
7123,-117.187500
7124,-117.187500
7125,-117.187500
7126,-117.187500
7127,-117.187500
7128,-117.187500
7129,-117.187500
7130,-117.187500
7131,-117.187500
7132,-115.234375
7133,-117.187500
7134,-117.187500
7135,-115.234375
7136,-115.234375
7137,-115.234375
7138,-115.234375
7139,-115.234375
7140,-115.234375
7141,-115.234375
7142,-115.234375
7143,-115.234375
7144,-115.234375
7145,-113.281250
7146,-115.234375
7147,-113.281250
7148,-113.281250
7149,-115.234375
7150,-113.281250
7151,-113.281250
7152,-113.281250
7153,-113.281250
7154,-113.281250
7155,-113.281250
7156,-113.281250
7157,-113.281250
7158,-113.281250
7159,-113.281250
7160,-113.281250
7161,-113.281250
7162,-111.328125
7163,-113.281250
7164,-113.281250
7165,-111.328125
7166,-111.328125
7167,-111.328125
7168,-111.328125
7169,-111.328125
7170,-111.328125
7171,-111.328125
7172,-111.328125
7173,-111.328125
7174,-111.328125
7175,-109.375000
7176,-111.328125
7177,-111.328125
7178,-111.328125
7179,-109.375000
7180,-109.375000
7181,-109.375000
7182,-109.375000
7183,-109.375000
7184,-109.375000
7185,-109.375000
7186,-109.375000
7187,-109.375000
7188,-109.375000
7189,-109.375000
7190,-109.375000
7191,-109.375000
7192,-107.421875
7193,-109.375000
7194,-109.375000
7195,-107.421875
7196,-107.421875
7197,-107.421875
7198,-107.421875
7199,-107.421875
7200,-107.421875
7201,-107.421875
7202,-105.468750
7203,-107.421875
7204,-105.468750
7205,-107.421875
7206,-105.468750
7207,-105.468750
7208,-107.421875
7209,-105.468750
7210,-105.468750
7211,-105.468750
7212,-105.468750
7213,-105.468750
7214,-105.468750
7215,-105.468750
7216,-105.468750
7217,-103.515625
7218,-103.515625
7219,-103.515625
7220,-103.515625
7221,-103.515625
7222,-103.515625
7223,-103.515625
7224,-103.515625
7225,-103.515625
7226,-103.515625
7227,-103.515625
7228,-103.515625
7229,-103.515625
7230,-101.562500
7231,-101.562500
7232,-101.562500
7233,-101.562500
7234,-101.562500
7235,-101.562500
7236,-101.562500
7237,-101.562500
7238,-101.562500
7239,-101.562500
7240,-101.562500
7241,-101.562500
7242,-99.609375
7243,-101.562500
7244,-99.609375
7245,-99.609375
7246,-99.609375
7247,-99.609375
7248,-99.609375
7249,-99.609375
7250,-99.609375
7251,-99.609375
7252,-97.656250
7253,-97.656250
7254,-97.656250
7255,-97.656250
7256,-97.656250
7257,-97.656250
7258,-97.656250
7259,-97.656250
7260,-97.656250
7261,-97.656250
7262,-97.656250
7263,-95.703125
7264,-95.703125
7265,-95.703125
7266,-95.703125
7267,-95.703125
7268,-95.703125
7269,-95.703125
7270,-95.703125
7271,-95.703125
7272,-93.750000
7273,-95.703125
7274,-93.750000
7275,-95.703125
7276,-93.750000
7277,-93.750000
7278,-93.750000
7279,-93.750000
7280,-93.750000
7281,-91.796875
7282,-91.796875
7283,-91.796875
7284,-91.796875
7285,-91.796875
7286,-91.796875
7287,-89.843750
7288,-91.796875
7289,-91.796875
7290,-91.796875
7291,-89.843750
7292,-91.796875
7293,-91.796875
7294,-89.843750
7295,-89.843750
7296,-89.843750
7297,-89.843750
7298,-89.843750
7299,-89.843750
7300,-89.843750
7301,-89.843750
7302,-87.890625
7303,-89.843750
7304,-87.890625
7305,-87.890625
7306,-87.890625
7307,-87.890625
7308,-87.890625
7309,-87.890625
7310,-87.890625
7311,-85.937500
7312,-87.890625
7313,-85.937500
7314,-85.937500
7315,-85.937500
7316,-85.937500
7317,-85.937500
7318,-85.937500
7319,-85.937500
7320,-83.984375
7321,-83.984375
7322,-83.984375
7323,-83.984375
7324,-83.984375
7325,-83.984375
7326,-83.984375
7327,-82.031250
7328,-83.984375
7329,-82.031250
7330,-82.031250
7331,-82.031250
7332,-82.031250
7333,-82.031250
7334,-82.031250
7335,-82.031250
7336,-82.031250
7337,-82.031250
7338,-80.078125
7339,-80.078125
7340,-80.078125
7341,-80.078125
7342,-80.078125
7343,-80.078125
7344,-80.078125
7345,-80.078125
7346,-80.078125
7347,-78.125000
7348,-78.125000
7349,-78.125000
7350,-78.125000
7351,-78.125000
7352,-78.125000
7353,-78.125000
7354,-76.171875
7355,-76.171875
7356,-76.171875
7357,-76.171875
7358,-76.171875
7359,-76.171875
7360,-76.171875
7361,-74.218750
7362,-76.171875
7363,-74.218750
7364,-74.218750
7365,-74.218750
7366,-74.218750
7367,-74.218750
7368,-74.218750
7369,-74.218750
7370,-74.218750
7371,-72.265625
7372,-74.218750
7373,-72.265625
7374,-72.265625
7375,-72.265625
7376,-70.312500
7377,-74.218750
7378,-70.312500
7379,-70.312500
7380,-70.312500
7381,-70.312500
7382,-70.312500
7383,-70.312500
7384,-70.312500
7385,-68.359375
7386,-68.359375
7387,-68.359375
7388,-68.359375
7389,-68.359375
7390,-68.359375
7391,-68.359375
7392,-68.359375
7393,-66.406250
7394,-68.359375
7395,-68.359375
7396,-66.406250
7397,-66.406250
7398,-66.406250
7399,-66.406250
7400,-66.406250
7401,-64.453125
7402,-64.453125
7403,-64.453125
7404,-64.453125
7405,-64.453125
7406,-64.453125
7407,-64.453125
7408,-62.500000
7409,-62.500000
7410,-64.453125
7411,-62.500000
7412,-62.500000
7413,-62.500000
7414,-62.500000
7415,-62.500000
7416,-62.500000
7417,-60.546875
7418,-60.546875
7419,-60.546875
7420,-60.546875
7421,-60.546875
7422,-60.546875
7423,-60.546875
7424,-60.546875
7425,-58.593750
7426,-58.593750
7427,-58.593750
7428,-58.593750
7429,-58.593750
7430,-58.593750
7431,-58.593750
7432,-56.640625
7433,-56.640625
7434,-56.640625
7435,-56.640625
7436,-56.640625
7437,-56.640625
7438,-54.687500
7439,-56.640625
7440,-54.687500
7441,-54.687500
7442,-54.687500
7443,-54.687500
7444,-54.687500
7445,-54.687500
7446,-54.687500
7447,-54.687500
7448,-52.734375
7449,-52.734375
7450,-52.734375
7451,-52.734375
7452,-50.781250
7453,-50.781250
7454,-50.781250
7455,-52.734375
7456,-50.781250
7457,-50.781250
7458,-50.781250
7459,-50.781250
7460,-50.781250
7461,-48.828125
7462,-54.687500
7463,-48.828125
7464,-48.828125
7465,-48.828125
7466,-48.828125
7467,-48.828125
7468,-48.828125
7469,-48.828125
7470,-46.875000
7471,-46.875000
7472,-46.875000
7473,-46.875000
7474,-46.875000
7475,-44.921875
7476,-44.921875
7477,-44.921875
7478,-44.921875
7479,-44.921875
7480,-44.921875
7481,-44.921875
7482,-44.921875
7483,-42.968750
7484,-42.968750
7485,-42.968750
7486,-42.968750
7487,-42.968750
7488,-41.015625
7489,-42.968750
7490,-41.015625
7491,-42.968750
7492,-41.015625
7493,-41.015625
7494,-41.015625
7495,-41.015625
7496,-41.015625
7497,-39.062500
7498,-39.062500
7499,-39.062500
7500,-39.062500
7501,-39.062500
7502,-39.062500
7503,-39.062500
7504,-37.109375
7505,-39.062500
7506,-37.109375
7507,-37.109375
7508,-37.109375
7509,-37.109375
7510,-37.109375
7511,-37.109375
7512,-35.156250
7513,-35.156250
7514,-35.156250
7515,-35.156250
7516,-35.156250
7517,-35.156250
7518,-33.203125
7519,-33.203125
7520,-33.203125
7521,-33.203125
7522,-31.250000
7523,-33.203125
7524,-31.250000
7525,-31.250000
7526,-31.250000
7527,-31.250000
7528,-31.250000
7529,-31.250000
7530,-31.250000
7531,-31.250000
7532,-29.296875
7533,-29.296875
7534,-29.296875
7535,-29.296875
7536,-29.296875
7537,-29.296875
7538,-29.296875
7539,-27.343750
7540,-27.343750
7541,-25.390625
7542,-27.343750
7543,-27.343750
7544,-27.343750
7545,-25.390625
7546,-27.343750
7547,-25.390625
7548,-25.390625
7549,-25.390625
7550,-25.390625
7551,-25.390625
7552,-23.437500
7553,-25.390625
7554,-23.437500
7555,-23.437500
7556,-23.437500
7557,-23.437500
7558,-23.437500
7559,-21.484375
7560,-21.484375
7561,-21.484375
7562,-21.484375
7563,-21.484375
7564,-21.484375
7565,-21.484375
7566,-19.531250
7567,-19.531250
7568,-19.531250
7569,-19.531250
7570,-19.531250
7571,-19.531250
7572,-17.578125
7573,-17.578125
7574,-19.531250
7575,-17.578125
7576,-17.578125
7577,-17.578125
7578,-17.578125
7579,-15.625000
7580,-17.578125
7581,-15.625000
7582,-15.625000
7583,-15.625000
7584,-15.625000
7585,-15.625000
7586,-15.625000
7587,-13.671875
7588,-13.671875
7589,-13.671875
7590,-13.671875
7591,-13.671875
7592,-13.671875
7593,-11.718750
7594,-11.718750
7595,-11.718750
7596,-11.718750
7597,-11.718750
7598,-11.718750
7599,-9.765625
7600,-9.765625
7601,-9.765625
7602,-9.765625
7603,-9.765625
7604,-9.765625
7605,-9.765625
7606,-9.765625
7607,-9.765625
7608,-7.812500
7609,-7.812500
7610,-7.812500
7611,-7.812500
7612,-7.812500
7613,-7.812500
7614,-5.859375
7615,-5.859375
7616,-5.859375
7617,-5.859375
7618,-5.859375
7619,-5.859375
7620,-5.859375
7621,-3.906250
7622,-3.906250
7623,-1.953125
7624,-3.906250
7625,-3.906250
7626,-3.906250
7627,-3.906250
7628,-3.906250
7629,-1.953125
7630,-1.953125
7631,-1.953125
7632,-1.953125
7633,-1.953125
7634,0.000000
7635,0.000000
7636,0.000000
7637,0.000000
7638,0.000000
7639,0.000000
7640,0.000000
7641,0.000000
7642,1.953125
7643,1.953125
7644,1.953125
7645,1.953125
7646,1.953125
7647,1.953125
7648,1.953125
7649,3.906250
7650,3.906250
7651,3.906250
7652,3.906250
7653,3.906250
7654,3.906250
7655,3.906250
7656,5.859375
7657,5.859375
7658,5.859375
7659,5.859375
7660,5.859375
7661,5.859375
7662,7.812500
7663,7.812500
7664,7.812500
7665,7.812500
7666,7.812500
7667,7.812500
7668,7.812500
7669,9.765625
7670,9.765625
7671,9.765625
7672,9.765625
7673,9.765625
7674,9.765625
7675,9.765625
7676,11.718750
7677,9.765625
7678,11.718750
7679,11.718750
7680,11.718750
7681,11.718750
7682,11.718750
7683,11.718750
7684,13.671875
7685,13.671875
7686,13.671875
7687,13.671875
7688,13.671875
7689,13.671875
7690,13.671875
7691,15.625000
7692,15.625000
7693,15.625000
7694,15.625000
7695,15.625000
7696,17.578125
7697,15.625000
7698,15.625000
7699,17.578125
7700,17.578125
7701,17.578125
7702,17.578125
7703,15.625000
7704,17.578125
7705,19.531250
7706,17.578125
7707,19.531250
7708,23.437500
7709,19.531250
7710,19.531250
7711,19.531250
7712,23.437500
7713,21.484375
7714,21.484375
7715,23.437500
7716,21.484375
7717,21.484375
7718,21.484375
7719,23.437500
7720,23.437500
7721,23.437500
7722,23.437500
7723,23.437500
7724,23.437500
7725,25.390625
7726,25.390625
7727,23.437500
7728,25.390625
7729,25.390625
7730,25.390625
7731,25.390625
7732,25.390625
7733,25.390625
7734,25.390625
7735,27.343750
7736,27.343750
7737,27.343750
7738,27.343750
7739,27.343750
7740,29.296875
7741,27.343750
7742,29.296875
7743,29.296875
7744,29.296875
7745,29.296875
7746,29.296875
7747,29.296875
7748,29.296875
7749,31.250000
7750,31.250000
7751,31.250000
7752,31.250000
7753,31.250000
7754,31.250000
7755,33.203125
7756,31.250000
7757,33.203125
7758,33.203125
7759,33.203125
7760,33.203125
7761,33.203125
7762,33.203125
7763,35.156250
7764,33.203125
7765,35.156250
7766,35.156250
7767,35.156250
7768,35.156250
7769,35.156250
7770,35.156250
7771,37.109375
7772,35.156250
7773,37.109375
7774,37.109375
7775,37.109375
7776,37.109375
7777,37.109375
7778,37.109375
7779,37.109375
7780,39.062500
7781,39.062500
7782,39.062500
7783,39.062500
7784,39.062500
7785,39.062500
7786,41.015625
7787,41.015625
7788,41.015625
7789,41.015625
7790,41.015625
7791,41.015625
7792,41.015625
7793,42.968750
7794,41.015625
7795,42.968750
7796,42.968750
7797,42.968750
7798,42.968750
7799,44.921875
7800,44.921875
7801,42.968750
7802,44.921875
7803,44.921875
7804,44.921875
7805,44.921875
7806,44.921875
7807,44.921875
7808,44.921875
7809,44.921875
7810,46.875000
7811,46.875000
7812,46.875000
7813,46.875000
7814,46.875000
7815,46.875000
7816,46.875000
7817,46.875000
7818,48.828125
7819,46.875000
7820,48.828125
7821,48.828125
7822,48.828125
7823,48.828125
7824,48.828125
7825,48.828125
7826,48.828125
7827,50.781250
7828,50.781250
7829,50.781250
7830,50.781250
7831,50.781250
7832,50.781250
7833,50.781250
7834,50.781250
7835,52.734375
7836,52.734375
7837,52.734375
7838,52.734375
7839,52.734375
7840,52.734375
7841,52.734375
7842,52.734375
7843,54.687500
7844,56.640625
7845,54.687500
7846,54.687500
7847,54.687500
7848,54.687500
7849,54.687500
7850,56.640625
7851,54.687500
7852,56.640625
7853,54.687500
7854,56.640625
7855,56.640625
7856,56.640625
7857,56.640625
7858,56.640625
7859,56.640625
7860,58.593750
7861,58.593750
7862,58.593750
7863,58.593750
7864,58.593750
7865,58.593750
7866,58.593750
7867,58.593750
7868,58.593750
7869,58.593750
7870,60.546875
7871,60.546875
7872,60.546875
7873,60.546875
7874,60.546875
7875,60.546875
7876,60.546875
7877,62.500000
7878,60.546875
7879,62.500000
7880,62.500000
7881,62.500000
7882,62.500000
7883,62.500000
7884,62.500000
7885,62.500000
7886,62.500000
7887,62.500000
7888,62.500000
7889,64.453125
7890,64.453125
7891,64.453125
7892,64.453125
7893,64.453125
7894,64.453125
7895,64.453125
7896,64.453125
7897,64.453125
7898,64.453125
7899,66.406250
7900,66.406250
7901,66.406250
7902,66.406250
7903,66.406250
7904,68.359375
7905,66.406250
7906,68.359375
7907,68.359375
7908,68.359375
7909,68.359375
7910,68.359375
7911,68.359375
7912,68.359375
7913,68.359375
7914,68.359375
7915,70.312500
7916,70.312500
7917,70.312500
7918,70.312500
7919,70.312500
7920,70.312500
7921,70.312500
7922,70.312500
7923,70.312500
7924,70.312500
7925,70.312500
7926,72.265625
7927,70.312500
7928,72.265625
7929,72.265625
7930,72.265625
7931,72.265625
7932,72.265625
7933,72.265625
7934,72.265625
7935,74.218750
7936,72.265625
7937,74.218750
7938,74.218750
7939,74.218750
7940,74.218750
7941,74.218750
7942,74.218750
7943,74.218750
7944,74.218750
7945,74.218750
7946,76.171875
7947,74.218750
7948,76.171875
7949,76.171875
7950,76.171875
7951,76.171875
7952,76.171875
7953,76.171875
7954,76.171875
7955,76.171875
7956,76.171875
7957,78.125000
7958,78.125000
7959,78.125000
7960,78.125000
7961,78.125000
7962,78.125000
7963,78.125000
7964,78.125000
7965,78.125000
7966,80.078125
7967,80.078125
7968,78.125000
7969,80.078125
7970,80.078125
7971,80.078125
7972,80.078125
7973,80.078125
7974,80.078125
7975,80.078125
7976,80.078125
7977,80.078125
7978,80.078125
7979,80.078125
7980,82.031250
7981,82.031250
7982,82.031250
7983,82.031250
7984,82.031250
7985,82.031250
7986,82.031250
7987,82.031250
7988,82.031250
7989,82.031250
7990,82.031250
7991,83.984375
7992,83.984375
7993,83.984375
7994,83.984375
7995,83.984375
7996,83.984375
7997,83.984375
7998,83.984375
7999,83.984375
8000,83.984375
8001,83.984375
8002,85.937500
8003,85.937500
8004,83.984375
8005,85.937500
8006,85.937500
8007,85.937500
8008,85.937500
8009,85.937500
8010,85.937500
8011,85.937500
8012,85.937500
8013,85.937500
8014,85.937500
8015,85.937500
8016,87.890625
8017,87.890625
8018,87.890625
8019,87.890625
8020,87.890625
8021,87.890625
8022,87.890625
8023,87.890625
8024,87.890625
8025,87.890625
8026,89.843750
8027,87.890625
8028,87.890625
8029,89.843750
8030,89.843750
8031,89.843750
8032,89.843750
8033,89.843750
8034,89.843750
8035,89.843750
8036,89.843750
8037,89.843750
8038,89.843750
8039,89.843750
8040,89.843750
8041,91.796875
8042,89.843750
8043,91.796875
8044,91.796875
8045,89.843750
8046,91.796875
8047,91.796875
8048,91.796875
8049,91.796875
8050,91.796875
8051,91.796875
8052,91.796875
8053,91.796875
8054,91.796875
8055,91.796875
8056,93.750000
8057,91.796875
8058,93.750000
8059,93.750000
8060,93.750000
8061,91.796875
8062,93.750000
8063,93.750000
8064,93.750000
8065,93.750000
8066,93.750000
8067,93.750000
8068,93.750000
8069,93.750000
8070,93.750000
8071,93.750000
8072,93.750000
8073,95.703125
8074,93.750000
8075,95.703125
8076,95.703125
8077,95.703125
8078,95.703125
8079,95.703125
8080,95.703125
8081,95.703125
8082,95.703125
8083,95.703125
8084,95.703125
8085,95.703125
8086,95.703125
8087,95.703125
8088,97.656250
8089,95.703125
8090,95.703125
8091,95.703125
8092,97.656250
8093,97.656250
8094,95.703125
8095,97.656250
8096,95.703125
8097,97.656250
8098,97.656250
8099,97.656250
8100,97.656250
8101,97.656250
8102,97.656250
8103,97.656250
8104,97.656250
8105,99.609375
8106,97.656250
8107,99.609375
8108,99.609375
8109,99.609375
8110,99.609375
8111,99.609375
8112,99.609375
8113,99.609375
8114,99.609375
8115,99.609375
8116,99.609375
8117,99.609375
8118,99.609375
8119,99.609375
8120,99.609375
8121,99.609375
8122,99.609375
8123,101.562500
8124,99.609375
8125,101.562500
8126,99.609375
8127,101.562500
8128,99.609375
8129,99.609375
8130,101.562500
8131,101.562500
8132,101.562500
8133,101.562500
8134,101.562500
8135,101.562500
8136,101.562500
8137,101.562500
8138,101.562500
8139,101.562500
8140,101.562500
8141,101.562500
8142,101.562500
8143,101.562500
8144,101.562500
8145,101.562500
8146,101.562500
8147,101.562500
8148,103.515625
8149,101.562500
8150,103.515625
8151,101.562500
8152,101.562500
8153,103.515625
8154,101.562500
8155,103.515625
8156,103.515625
8157,103.515625
8158,103.515625
8159,103.515625
8160,103.515625
8161,103.515625
8162,103.515625
8163,103.515625
8164,103.515625
8165,103.515625
8166,103.515625
8167,103.515625
8168,103.515625
8169,103.515625
8170,103.515625
8171,103.515625
8172,103.515625
8173,105.468750
8174,103.515625
8175,105.468750
8176,103.515625
8177,105.468750
8178,105.468750
8179,103.515625
8180,105.468750
8181,105.468750
8182,105.468750
8183,105.468750
8184,105.468750
8185,105.468750
8186,105.468750
8187,105.468750
8188,105.468750
8189,105.468750
8190,105.468750
8191,105.468750
8192,105.468750
8193,105.468750
8194,105.468750
8195,105.468750
8196,105.468750
8197,105.468750
8198,105.468750
8199,105.468750
8200,105.468750
8201,105.468750
8202,105.468750
8203,105.468750
8204,105.468750
8205,105.468750
8206,105.468750
8207,107.421875
8208,105.468750
8209,105.468750
8210,105.468750
8211,105.468750
8212,107.421875
8213,105.468750
8214,107.421875
8215,105.468750
8216,107.421875
8217,107.421875
8218,107.421875
8219,107.421875
8220,107.421875
8221,107.421875
8222,107.421875
8223,105.468750
8224,107.421875
8225,105.468750
8226,107.421875
8227,107.421875
8228,107.421875
8229,107.421875
8230,107.421875
8231,107.421875
8232,107.421875
8233,107.421875
8234,107.421875
8235,107.421875
8236,107.421875
8237,107.421875
8238,107.421875
8239,107.421875
8240,107.421875
8241,107.421875
8242,107.421875
8243,107.421875
8244,107.421875
8245,107.421875
8246,107.421875
8247,107.421875
8248,107.421875
8249,107.421875
8250,107.421875
8251,107.421875
8252,107.421875
8253,107.421875
8254,107.421875
8255,107.421875
8256,107.421875
8257,107.421875
8258,109.375000
8259,107.421875
8260,107.421875
8261,107.421875
8262,107.421875
8263,107.421875
8264,107.421875
8265,107.421875
8266,107.421875
8267,107.421875
8268,107.421875
8269,109.375000
8270,107.421875
8271,107.421875
8272,109.375000
8273,107.421875
8274,109.375000
8275,107.421875
8276,109.375000
8277,109.375000
8278,109.375000
8279,109.375000
8280,107.421875
8281,107.421875
8282,109.375000
8283,109.375000
8284,107.421875
8285,107.421875
8286,109.375000
8287,109.375000
8288,109.375000
8289,109.375000
8290,107.421875
8291,107.421875
8292,107.421875
8293,109.375000
8294,107.421875
8295,107.421875
8296,109.375000
8297,107.421875
8298,109.375000
8299,109.375000
8300,107.421875
8301,109.375000
8302,109.375000
8303,107.421875
8304,109.375000
8305,107.421875
8306,109.375000
8307,107.421875
8308,109.375000
8309,107.421875
8310,107.421875
8311,107.421875
8312,107.421875
8313,109.375000
8314,109.375000
8315,107.421875
8316,109.375000
8317,107.421875
8318,109.375000
8319,107.421875
8320,107.421875
8321,107.421875
8322,107.421875
8323,109.375000
8324,107.421875
8325,107.421875
8326,107.421875
8327,107.421875
8328,107.421875
8329,109.375000
8330,107.421875
8331,109.375000
8332,107.421875
8333,109.375000
8334,107.421875
8335,107.421875
8336,109.375000
8337,107.421875
8338,107.421875
8339,107.421875
8340,107.421875
8341,107.421875
8342,107.421875
8343,107.421875
8344,107.421875
8345,107.421875
8346,107.421875
8347,107.421875
8348,107.421875
8349,107.421875
8350,107.421875
8351,107.421875
8352,107.421875
8353,107.421875
8354,107.421875
8355,107.421875
8356,107.421875
8357,107.421875
8358,107.421875
8359,107.421875
8360,107.421875
8361,107.421875
8362,107.421875
8363,107.421875
8364,107.421875
8365,107.421875
8366,107.421875
8367,107.421875
8368,107.421875
8369,107.421875
8370,107.421875
8371,107.421875
8372,107.421875
8373,107.421875
8374,107.421875
8375,107.421875
8376,105.468750
8377,107.421875
8378,105.468750
8379,107.421875
8380,105.468750
8381,107.421875
8382,105.468750
8383,105.468750
8384,105.468750
8385,105.468750
8386,105.468750
8387,105.468750
8388,105.468750
8389,105.468750
8390,105.468750
8391,105.468750
8392,105.468750
8393,105.468750
8394,105.468750
8395,105.468750
8396,105.468750
8397,105.468750
8398,105.468750
8399,105.468750
8400,105.468750
8401,105.468750
8402,105.468750
8403,105.468750
8404,105.468750
8405,105.468750
8406,105.468750
8407,105.468750
8408,105.468750
8409,105.468750
8410,103.515625
8411,105.468750
8412,103.515625
8413,105.468750
8414,103.515625
8415,103.515625
8416,105.468750
8417,103.515625
8418,105.468750
8419,103.515625
8420,103.515625
8421,103.515625
8422,103.515625
8423,103.515625
8424,103.515625
8425,103.515625
8426,103.515625
8427,103.515625
8428,103.515625
8429,103.515625
8430,103.515625
8431,103.515625
8432,103.515625
8433,103.515625
8434,103.515625
8435,103.515625
8436,103.515625
8437,101.562500
8438,103.515625
8439,101.562500
8440,103.515625
8441,103.515625
8442,101.562500
8443,103.515625
8444,101.562500
8445,101.562500
8446,101.562500
8447,101.562500
8448,101.562500
8449,101.562500
8450,101.562500
8451,101.562500
8452,101.562500
8453,101.562500
8454,101.562500
8455,101.562500
8456,101.562500
8457,101.562500
8458,101.562500
8459,101.562500
8460,101.562500
8461,101.562500
8462,99.609375
8463,101.562500
8464,101.562500
8465,99.609375
8466,99.609375
8467,99.609375
8468,99.609375
8469,99.609375
8470,99.609375
8471,99.609375
8472,99.609375
8473,99.609375
8474,99.609375
8475,99.609375
8476,99.609375
8477,99.609375
8478,99.609375
8479,99.609375
8480,99.609375
8481,99.609375
8482,99.609375
8483,99.609375
8484,97.656250
8485,99.609375
8486,97.656250
8487,97.656250
8488,97.656250
8489,97.656250
8490,97.656250
8491,97.656250
8492,97.656250
8493,97.656250
8494,97.656250
8495,97.656250
8496,97.656250
8497,97.656250
8498,97.656250
8499,97.656250
8500,95.703125
8501,95.703125
8502,97.656250
8503,97.656250
8504,95.703125
8505,95.703125
8506,95.703125
8507,95.703125
8508,95.703125
8509,95.703125
8510,95.703125
8511,95.703125
8512,95.703125
8513,95.703125
8514,95.703125
8515,95.703125
8516,95.703125
8517,93.750000
8518,93.750000
8519,93.750000
8520,93.750000
8521,93.750000
8522,93.750000
8523,93.750000
8524,93.750000
8525,93.750000
8526,93.750000
8527,93.750000
8528,93.750000
8529,93.750000
8530,93.750000
8531,93.750000
8532,93.750000
8533,91.796875
8534,91.796875
8535,91.796875
8536,91.796875
8537,91.796875
8538,91.796875
8539,91.796875
8540,91.796875
8541,91.796875
8542,91.796875
8543,91.796875
8544,91.796875
8545,91.796875
8546,89.843750
8547,91.796875
8548,89.843750
8549,91.796875
8550,89.843750
8551,89.843750
8552,89.843750
8553,89.843750
8554,89.843750
8555,89.843750
8556,89.843750
8557,89.843750
8558,89.843750
8559,89.843750
8560,87.890625
8561,87.890625
8562,89.843750
8563,87.890625
8564,89.843750
8565,87.890625
8566,87.890625
8567,87.890625
8568,87.890625
8569,87.890625
8570,87.890625
8571,87.890625
8572,87.890625
8573,87.890625
8574,87.890625
8575,87.890625
8576,85.937500
8577,85.937500
8578,85.937500
8579,85.937500
8580,85.937500
8581,85.937500
8582,85.937500
8583,85.937500
8584,85.937500
8585,85.937500
8586,85.937500
8587,85.937500
8588,83.984375
8589,85.937500
8590,83.984375
8591,83.984375
8592,83.984375
8593,83.984375
8594,83.984375
8595,83.984375
8596,83.984375
8597,83.984375
8598,82.031250
8599,82.031250
8600,82.031250
8601,82.031250
8602,82.031250
8603,82.031250
8604,82.031250
8605,82.031250
8606,82.031250
8607,82.031250
8608,82.031250
8609,82.031250
8610,80.078125
8611,82.031250
8612,80.078125
8613,80.078125
8614,80.078125
8615,80.078125
8616,80.078125
8617,80.078125
8618,80.078125
8619,80.078125
8620,80.078125
8621,80.078125
8622,80.078125
8623,78.125000
8624,78.125000
8625,78.125000
8626,78.125000
8627,78.125000
8628,78.125000
8629,78.125000
8630,78.125000
8631,76.171875
8632,76.171875
8633,76.171875
8634,78.125000
8635,76.171875
8636,76.171875
8637,76.171875
8638,76.171875
8639,76.171875
8640,76.171875
8641,76.171875
8642,74.218750
8643,74.218750
8644,74.218750
8645,74.218750
8646,74.218750
8647,74.218750
8648,74.218750
8649,74.218750
8650,74.218750
8651,74.218750
8652,74.218750
8653,74.218750
8654,74.218750
8655,72.265625
8656,74.218750
8657,72.265625
8658,72.265625
8659,72.265625
8660,72.265625
8661,72.265625
8662,72.265625
8663,72.265625
8664,70.312500
8665,70.312500
8666,70.312500
8667,70.312500
8668,70.312500
8669,70.312500
8670,70.312500
8671,70.312500
8672,68.359375
8673,70.312500
8674,70.312500
8675,70.312500
8676,70.312500
8677,68.359375
8678,68.359375
8679,68.359375
8680,68.359375
8681,68.359375
8682,66.406250
8683,68.359375
8684,66.406250
8685,66.406250
8686,66.406250
8687,66.406250
8688,66.406250
8689,66.406250
8690,66.406250
8691,66.406250
8692,64.453125
8693,64.453125
8694,64.453125
8695,64.453125
8696,64.453125
8697,64.453125
8698,64.453125
8699,64.453125
8700,64.453125
8701,64.453125
8702,62.500000
8703,64.453125
8704,62.500000
8705,62.500000
8706,62.500000
8707,62.500000
8708,62.500000
8709,60.546875
8710,62.500000
8711,60.546875
8712,60.546875
8713,60.546875
8714,60.546875
8715,60.546875
8716,60.546875
8717,60.546875
8718,60.546875
8719,60.546875
8720,58.593750
8721,58.593750
8722,58.593750
8723,58.593750
8724,58.593750
8725,58.593750
8726,58.593750
8727,58.593750
8728,58.593750
8729,56.640625
8730,58.593750
8731,56.640625
8732,56.640625
8733,56.640625
8734,56.640625
8735,56.640625
8736,54.687500
8737,56.640625
8738,54.687500
8739,54.687500
8740,54.687500
8741,54.687500
8742,54.687500
8743,54.687500
8744,54.687500
8745,54.687500
8746,54.687500
8747,52.734375
8748,52.734375
8749,52.734375
8750,52.734375
8751,52.734375
8752,50.781250
8753,52.734375
8754,50.781250
8755,52.734375
8756,50.781250
8757,50.781250
8758,50.781250
8759,50.781250
8760,50.781250
8761,48.828125
8762,50.781250
8763,48.828125
8764,48.828125
8765,48.828125
8766,48.828125
8767,48.828125
8768,48.828125
8769,48.828125
8770,48.828125
8771,48.828125
8772,46.875000
8773,46.875000
8774,46.875000
8775,46.875000
8776,46.875000
8777,46.875000
8778,46.875000
8779,44.921875
8780,46.875000
8781,44.921875
8782,44.921875
8783,44.921875
8784,44.921875
8785,44.921875
8786,44.921875
8787,42.968750
8788,42.968750
8789,42.968750
8790,42.968750
8791,42.968750
8792,42.968750
8793,42.968750
8794,42.968750
8795,42.968750
8796,41.015625
8797,41.015625
8798,41.015625
8799,41.015625
8800,41.015625
8801,41.015625
8802,39.062500
8803,39.062500
8804,39.062500
8805,39.062500
8806,39.062500
8807,39.062500
8808,39.062500
8809,39.062500
8810,39.062500
8811,37.109375
8812,37.109375
8813,37.109375
8814,37.109375
8815,37.109375
8816,35.156250
8817,37.109375
8818,35.156250
8819,35.156250
8820,37.109375
8821,35.156250
8822,35.156250
8823,35.156250
8824,35.156250
8825,33.203125
8826,35.156250
8827,33.203125
8828,33.203125
8829,33.203125
8830,33.203125
8831,33.203125
8832,33.203125
8833,33.203125
8834,31.250000
8835,31.250000
8836,31.250000
8837,31.250000
8838,31.250000
8839,31.250000
8840,31.250000
8841,29.296875
8842,29.296875
8843,29.296875
8844,29.296875
8845,29.296875
8846,29.296875
8847,29.296875
8848,29.296875
8849,29.296875
8850,27.343750
8851,27.343750
8852,27.343750
8853,27.343750
8854,25.390625
8855,27.343750
8856,25.390625
8857,25.390625
8858,25.390625
8859,25.390625
8860,25.390625
8861,25.390625
8862,25.390625
8863,23.437500
8864,25.390625
8865,23.437500
8866,23.437500
8867,23.437500
8868,23.437500
8869,23.437500
8870,21.484375
8871,23.437500
8872,21.484375
8873,21.484375
8874,21.484375
8875,21.484375
8876,21.484375
8877,21.484375
8878,19.531250
8879,19.531250
8880,19.531250
8881,19.531250
8882,19.531250
8883,19.531250
8884,17.578125
8885,19.531250
8886,17.578125
8887,17.578125
8888,17.578125
8889,17.578125
8890,17.578125
8891,15.625000
8892,17.578125
8893,15.625000
8894,15.625000
8895,15.625000
8896,15.625000
8897,15.625000
8898,13.671875
8899,15.625000
8900,13.671875
8901,13.671875
8902,13.671875
8903,13.671875
8904,13.671875
8905,13.671875
8906,11.718750
8907,11.718750
8908,11.718750
8909,11.718750
8910,11.718750
8911,11.718750
8912,9.765625
8913,9.765625
8914,9.765625
8915,9.765625
8916,9.765625
8917,9.765625
8918,9.765625
8919,9.765625
8920,9.765625
8921,7.812500
8922,7.812500
8923,7.812500
8924,7.812500
8925,7.812500
8926,5.859375
8927,7.812500
8928,5.859375
8929,7.812500
8930,5.859375
8931,5.859375
8932,5.859375
8933,5.859375
8934,5.859375
8935,3.906250
8936,3.906250
8937,3.906250
8938,3.906250
8939,3.906250
8940,3.906250
8941,3.906250
8942,1.953125
8943,1.953125
8944,1.953125
8945,1.953125
8946,1.953125
8947,0.000000
8948,1.953125
8949,0.000000
8950,0.000000
8951,0.000000
8952,0.000000
8953,0.000000
8954,0.000000
8955,-1.953125
8956,-1.953125
8957,-1.953125
8958,-1.953125
8959,-1.953125
8960,-1.953125
8961,-1.953125
8962,-3.906250
8963,-3.906250
8964,-3.906250
8965,-3.906250
8966,-3.906250
8967,-5.859375
8968,-3.906250
8969,-5.859375
8970,-5.859375
8971,-5.859375
8972,-5.859375
8973,-5.859375
8974,-7.812500
8975,-5.859375
8976,-7.812500
8977,-7.812500
8978,-7.812500
8979,-7.812500
8980,-7.812500
8981,-7.812500
8982,-7.812500
8983,-9.765625
8984,-9.765625
8985,-9.765625
8986,-9.765625
8987,-9.765625
8988,-9.765625
8989,-11.718750
8990,-11.718750
8991,-11.718750
8992,-11.718750
8993,-11.718750
8994,-13.671875
8995,-11.718750
8996,-13.671875
8997,-13.671875
8998,-13.671875
8999,-13.671875
9000,-13.671875
9001,-15.625000
9002,-15.625000
9003,-15.625000
9004,-15.625000
9005,-15.625000
9006,-15.625000
9007,-15.625000
9008,-15.625000
9009,-17.578125
9010,-17.578125
9011,-17.578125
9012,-17.578125
9013,-17.578125
9014,-17.578125
9015,-19.531250
9016,-17.578125
9017,-19.531250
9018,-19.531250
9019,-19.531250
9020,-19.531250
9021,-19.531250
9022,-21.484375
9023,-19.531250
9024,-21.484375
9025,-19.531250
9026,-21.484375
9027,-21.484375
9028,-21.484375
9029,-21.484375
9030,-21.484375
9031,-23.437500
9032,-23.437500
9033,-23.437500
9034,-23.437500
9035,-23.437500
9036,-23.437500
9037,-25.390625
9038,-25.390625
9039,-25.390625
9040,-25.390625
9041,-25.390625
9042,-25.390625
9043,-25.390625
9044,-27.343750
9045,-25.390625
9046,-27.343750
9047,-27.343750
9048,-27.343750
9049,-27.343750
9050,-27.343750
9051,-29.296875
9052,-29.296875
9053,-29.296875
9054,-29.296875
9055,-29.296875
9056,-29.296875
9057,-29.296875
9058,-31.250000
9059,-31.250000
9060,-31.250000
9061,-31.250000
9062,-31.250000
9063,-31.250000
9064,-31.250000
9065,-33.203125
9066,-33.203125
9067,-33.203125
9068,-33.203125
9069,-33.203125
9070,-33.203125
9071,-33.203125
9072,-35.156250
9073,-35.156250
9074,-35.156250
9075,-33.203125
9076,-35.156250
9077,-35.156250
9078,-35.156250
9079,-35.156250
9080,-37.109375
9081,-37.109375
9082,-37.109375
9083,-37.109375
9084,-37.109375
9085,-39.062500
9086,-37.109375
9087,-39.062500
9088,-37.109375
9089,-39.062500
9090,-39.062500
9091,-39.062500
9092,-39.062500
9093,-41.015625
9094,-41.015625
9095,-41.015625
9096,-41.015625
9097,-41.015625
9098,-41.015625
9099,-41.015625
9100,-42.968750
9101,-42.968750
9102,-42.968750
9103,-42.968750
9104,-42.968750
9105,-44.921875
9106,-42.968750
9107,-44.921875
9108,-44.921875
9109,-44.921875
9110,-44.921875
9111,-44.921875
9112,-44.921875
9113,-44.921875
9114,-46.875000
9115,-44.921875
9116,-46.875000
9117,-46.875000
9118,-46.875000
9119,-46.875000
9120,-46.875000
9121,-48.828125
9122,-48.828125
9123,-48.828125
9124,-48.828125
9125,-48.828125
9126,-48.828125
9127,-48.828125
9128,-48.828125
9129,-50.781250
9130,-48.828125
9131,-50.781250
9132,-50.781250
9133,-50.781250
9134,-50.781250
9135,-50.781250
9136,-52.734375
9137,-52.734375
9138,-52.734375
9139,-52.734375
9140,-52.734375
9141,-52.734375
9142,-52.734375
9143,-52.734375
9144,-54.687500
9145,-54.687500
9146,-54.687500
9147,-54.687500
9148,-54.687500
9149,-54.687500
9150,-54.687500
9151,-56.640625
9152,-56.640625
9153,-56.640625
9154,-56.640625
9155,-56.640625
9156,-56.640625
9157,-56.640625
9158,-56.640625
9159,-58.593750
9160,-58.593750
9161,-58.593750
9162,-58.593750
9163,-58.593750
9164,-58.593750
9165,-58.593750
9166,-58.593750
9167,-58.593750
9168,-60.546875
9169,-60.546875
9170,-60.546875
9171,-62.500000
9172,-60.546875
9173,-62.500000
9174,-62.500000
9175,-62.500000
9176,-62.500000
9177,-62.500000
9178,-64.453125
9179,-62.500000
9180,-64.453125
9181,-62.500000
9182,-64.453125
9183,-64.453125
9184,-64.453125
9185,-64.453125
9186,-64.453125
9187,-64.453125
9188,-64.453125
9189,-66.406250
9190,-66.406250
9191,-66.406250
9192,-66.406250
9193,-66.406250
9194,-66.406250
9195,-66.406250
9196,-68.359375
9197,-66.406250
9198,-68.359375
9199,-68.359375
9200,-68.359375
9201,-68.359375
9202,-68.359375
9203,-70.312500
9204,-68.359375
9205,-70.312500
9206,-70.312500
9207,-70.312500
9208,-70.312500
9209,-70.312500
9210,-72.265625
9211,-70.312500
9212,-72.265625
9213,-72.265625
9214,-72.265625
9215,-72.265625
9216,-74.218750
9217,-72.265625
9218,-72.265625
9219,-74.218750
9220,-72.265625
9221,-74.218750
9222,-72.265625
9223,-74.218750
9224,-74.218750
9225,-74.218750
9226,-74.218750
9227,-76.171875
9228,-74.218750
9229,-74.218750
9230,-76.171875
9231,-76.171875
9232,-76.171875
9233,-76.171875
9234,-76.171875
9235,-78.125000
9236,-76.171875
9237,-78.125000
9238,-78.125000
9239,-78.125000
9240,-78.125000
9241,-78.125000
9242,-78.125000
9243,-78.125000
9244,-78.125000
9245,-80.078125
9246,-78.125000
9247,-80.078125
9248,-80.078125
9249,-80.078125
9250,-80.078125
9251,-80.078125
9252,-80.078125
9253,-82.031250
9254,-82.031250
9255,-82.031250
9256,-82.031250
9257,-82.031250
9258,-82.031250
9259,-82.031250
9260,-83.984375
9261,-82.031250
9262,-83.984375
9263,-83.984375
9264,-83.984375
9265,-83.984375
9266,-83.984375
9267,-83.984375
9268,-83.984375
9269,-83.984375
9270,-85.937500
9271,-83.984375
9272,-85.937500
9273,-83.984375
9274,-85.937500
9275,-85.937500
9276,-85.937500
9277,-85.937500
9278,-85.937500
9279,-85.937500
9280,-87.890625
9281,-85.937500
9282,-87.890625
9283,-87.890625
9284,-87.890625
9285,-87.890625
9286,-87.890625
9287,-87.890625
9288,-89.843750
9289,-89.843750
9290,-89.843750
9291,-87.890625
9292,-89.843750
9293,-89.843750
9294,-89.843750
9295,-89.843750
9296,-89.843750
9297,-91.796875
9298,-89.843750
9299,-91.796875
9300,-91.796875
9301,-91.796875
9302,-91.796875
9303,-91.796875
9304,-91.796875
9305,-91.796875
9306,-91.796875
9307,-91.796875
9308,-91.796875
9309,-93.750000
9310,-93.750000
9311,-93.750000
9312,-93.750000
9313,-93.750000
9314,-93.750000
9315,-93.750000
9316,-93.750000
9317,-93.750000
9318,-93.750000
9319,-95.703125
9320,-95.703125
9321,-95.703125
9322,-95.703125
9323,-95.703125
9324,-95.703125
9325,-95.703125
9326,-95.703125
9327,-97.656250
9328,-95.703125
9329,-97.656250
9330,-97.656250
9331,-97.656250
9332,-97.656250
9333,-97.656250
9334,-97.656250
9335,-97.656250
9336,-97.656250
9337,-97.656250
9338,-97.656250
9339,-99.609375
9340,-97.656250
9341,-99.609375
9342,-99.609375
9343,-99.609375
9344,-99.609375
9345,-99.609375
9346,-99.609375
9347,-99.609375
9348,-99.609375
9349,-101.562500
9350,-99.609375
9351,-101.562500
9352,-101.562500
9353,-101.562500
9354,-101.562500
9355,-101.562500
9356,-101.562500
9357,-101.562500
9358,-101.562500
9359,-101.562500
9360,-103.515625
9361,-103.515625
9362,-103.515625
9363,-103.515625
9364,-103.515625
9365,-103.515625
9366,-103.515625
9367,-103.515625
9368,-103.515625
9369,-103.515625
9370,-103.515625
9371,-105.468750
9372,-103.515625
9373,-103.515625
9374,-105.468750
9375,-103.515625
9376,-105.468750
9377,-105.468750
9378,-105.468750
9379,-105.468750
9380,-105.468750
9381,-105.468750
9382,-105.468750
9383,-105.468750
9384,-105.468750
9385,-107.421875
9386,-107.421875
9387,-107.421875
9388,-107.421875
9389,-107.421875
9390,-107.421875
9391,-107.421875
9392,-107.421875
9393,-107.421875
9394,-107.421875
9395,-107.421875
9396,-107.421875
9397,-107.421875
9398,-107.421875
9399,-109.375000
9400,-107.421875
9401,-109.375000
9402,-109.375000
9403,-109.375000
9404,-109.375000
9405,-109.375000
9406,-109.375000
9407,-109.375000
9408,-109.375000
9409,-109.375000
9410,-109.375000
9411,-111.328125
9412,-109.375000
9413,-111.328125
9414,-109.375000
9415,-111.328125
9416,-111.328125
9417,-111.328125
9418,-111.328125
9419,-111.328125
9420,-111.328125
9421,-111.328125
9422,-111.328125
9423,-111.328125
9424,-111.328125
9425,-111.328125
9426,-113.281250
9427,-111.328125
9428,-113.281250
9429,-113.281250
9430,-111.328125
9431,-111.328125
9432,-113.281250
9433,-113.281250
9434,-113.281250
9435,-113.281250
9436,-113.281250
9437,-113.281250
9438,-113.281250
9439,-113.281250
9440,-113.281250
9441,-113.281250
9442,-113.281250
9443,-113.281250
9444,-113.281250
9445,-115.234375
9446,-115.234375
9447,-115.234375
9448,-115.234375
9449,-115.234375
9450,-115.234375
9451,-115.234375
9452,-115.234375
9453,-115.234375
9454,-115.234375
9455,-115.234375
9456,-117.187500
9457,-115.234375
9458,-117.187500
9459,-117.187500
9460,-115.234375
9461,-117.187500
9462,-115.234375
9463,-117.187500
9464,-115.234375
9465,-117.187500
9466,-117.187500
9467,-117.187500
9468,-117.187500
9469,-117.187500
9470,-117.187500
9471,-117.187500
9472,-117.187500
9473,-117.187500
9474,-117.187500
9475,-117.187500
9476,-117.187500
9477,-117.187500
9478,-117.187500
9479,-117.187500
9480,-117.187500
9481,-119.140625
9482,-117.187500
9483,-119.140625
9484,-119.140625
9485,-119.140625
9486,-119.140625
9487,-119.140625
9488,-119.140625
9489,-119.140625
9490,-119.140625
9491,-119.140625
9492,-119.140625
9493,-119.140625
9494,-119.140625
9495,-119.140625
9496,-119.140625
9497,-119.140625
9498,-119.140625
9499,-119.140625
9500,-119.140625
9501,-119.140625
9502,-119.140625
9503,-121.093750
9504,-119.140625
9505,-121.093750
9506,-121.093750
9507,-121.093750
9508,-121.093750
9509,-119.140625
9510,-121.093750
9511,-121.093750
9512,-121.093750
9513,-121.093750
9514,-121.093750
9515,-121.093750
9516,-121.093750
9517,-121.093750
9518,-121.093750
9519,-121.093750
9520,-121.093750
9521,-121.093750
9522,-121.093750
9523,-121.093750
9524,-121.093750
9525,-121.093750
9526,-123.046875
9527,-121.093750
9528,-123.046875
9529,-121.093750
9530,-121.093750
9531,-121.093750
9532,-121.093750
9533,-123.046875
9534,-121.093750
9535,-123.046875
9536,-121.093750
9537,-123.046875
9538,-121.093750
9539,-123.046875
9540,-123.046875
9541,-121.093750
9542,-123.046875
9543,-123.046875
9544,-123.046875
9545,-123.046875
9546,-123.046875
9547,-123.046875
9548,-123.046875
9549,-123.046875
9550,-123.046875
9551,-123.046875
9552,-123.046875
9553,-123.046875
9554,-123.046875
9555,-123.046875
9556,-123.046875
9557,-123.046875
9558,-123.046875
9559,-123.046875
9560,-123.046875
9561,-123.046875
9562,-123.046875
9563,-123.046875
9564,-123.046875
9565,-123.046875
9566,-123.046875
9567,-123.046875
9568,-123.046875
9569,-123.046875
9570,-123.046875
9571,-123.046875
9572,-123.046875
9573,-123.046875
9574,-123.046875
9575,-123.046875
9576,-123.046875
9577,-123.046875
9578,-123.046875
9579,-123.046875
9580,-125.000000
9581,-123.046875
9582,-123.046875
9583,-123.046875
9584,-123.046875
9585,-123.046875
9586,-123.046875
9587,-123.046875
9588,-123.046875
9589,-123.046875
9590,-123.046875
9591,-123.046875
9592,-123.046875
9593,-123.046875
9594,-123.046875
9595,-123.046875
9596,-123.046875
9597,-123.046875
9598,-123.046875
9599,-125.000000
9600,-123.046875
9601,-123.046875
9602,-123.046875
9603,-125.000000
9604,-123.046875
9605,-125.000000
9606,-123.046875
9607,-125.000000
9608,-123.046875
9609,-123.046875
9610,-123.046875
9611,-123.046875
9612,-125.000000
9613,-123.046875
9614,-123.046875
9615,-123.046875
9616,-123.046875
9617,-123.046875
9618,-123.046875
9619,-123.046875
9620,-123.046875
9621,-123.046875
9622,-123.046875
9623,-123.046875
9624,-123.046875
9625,-123.046875
9626,-123.046875
9627,-123.046875
9628,-123.046875
9629,-123.046875
9630,-123.046875
9631,-123.046875
9632,-123.046875
9633,-123.046875
9634,-123.046875
9635,-123.046875
9636,-123.046875
9637,-123.046875
9638,-123.046875
9639,-123.046875
9640,-123.046875
9641,-123.046875
9642,-123.046875
9643,-123.046875
9644,-123.046875
9645,-123.046875
9646,-123.046875
9647,-123.046875
9648,-123.046875
9649,-123.046875
9650,-123.046875
9651,-123.046875
9652,-123.046875
9653,-123.046875
9654,-123.046875
9655,-123.046875
9656,-123.046875
9657,-123.046875
9658,-123.046875
9659,-123.046875
9660,-121.093750
9661,-123.046875
9662,-123.046875
9663,-121.093750
9664,-121.093750
9665,-123.046875
9666,-121.093750
9667,-121.093750
9668,-123.046875
9669,-123.046875
9670,-123.046875
9671,-121.093750
9672,-123.046875
9673,-121.093750
9674,-121.093750
9675,-121.093750
9676,-121.093750
9677,-121.093750
9678,-121.093750
9679,-121.093750
9680,-121.093750
9681,-121.093750
9682,-121.093750
9683,-121.093750
9684,-121.093750
9685,-123.046875
9686,-121.093750
9687,-121.093750
9688,-121.093750
9689,-121.093750
9690,-121.093750
9691,-121.093750
9692,-121.093750
9693,-119.140625
9694,-121.093750
9695,-121.093750
9696,-121.093750
9697,-121.093750
9698,-119.140625
9699,-121.093750
9700,-121.093750
9701,-121.093750
9702,-119.140625
9703,-119.140625
9704,-119.140625
9705,-119.140625
9706,-119.140625
9707,-119.140625
9708,-119.140625
9709,-119.140625
9710,-119.140625
9711,-119.140625
9712,-119.140625
9713,-119.140625
9714,-119.140625
9715,-119.140625
9716,-119.140625
9717,-119.140625
9718,-119.140625
9719,-119.140625
9720,-119.140625
9721,-119.140625
9722,-119.140625
9723,-117.187500
9724,-119.140625
9725,-117.187500
9726,-117.187500
9727,-117.187500
9728,-117.187500
9729,-117.187500
9730,-117.187500
9731,-117.187500
9732,-117.187500
9733,-117.187500
9734,-117.187500
9735,-117.187500
9736,-117.187500
9737,-117.187500
9738,-117.187500
9739,-117.187500
9740,-117.187500
9741,-117.187500
9742,-115.234375
9743,-115.234375
9744,-115.234375
9745,-115.234375
9746,-115.234375
9747,-115.234375
9748,-115.234375
9749,-115.234375
9750,-115.234375
9751,-115.234375
9752,-115.234375
9753,-115.234375
9754,-115.234375
9755,-115.234375
9756,-115.234375
9757,-115.234375
9758,-115.234375
9759,-115.234375
9760,-113.281250
9761,-113.281250
9762,-115.234375
9763,-113.281250
9764,-113.281250
9765,-113.281250
9766,-113.281250
9767,-113.281250
9768,-113.281250
9769,-117.187500
9770,-111.328125
9771,-113.281250
9772,-113.281250
9773,-113.281250
9774,-113.281250
9775,-111.328125
9776,-113.281250
9777,-111.328125
9778,-113.281250
9779,-111.328125
9780,-111.328125
9781,-111.328125
9782,-111.328125
9783,-111.328125
9784,-111.328125
9785,-111.328125
9786,-111.328125
9787,-111.328125
9788,-111.328125
9789,-111.328125
9790,-111.328125
9791,-111.328125
9792,-109.375000
9793,-109.375000
9794,-109.375000
9795,-109.375000
9796,-109.375000
9797,-109.375000
9798,-109.375000
9799,-109.375000
9800,-109.375000
9801,-109.375000
9802,-107.421875
9803,-109.375000
9804,-107.421875
9805,-109.375000
9806,-109.375000
9807,-107.421875
9808,-107.421875
9809,-107.421875
9810,-107.421875
9811,-107.421875
9812,-107.421875
9813,-107.421875
9814,-107.421875
9815,-107.421875
9816,-105.468750
9817,-105.468750
9818,-107.421875
9819,-105.468750
9820,-105.468750
9821,-105.468750
9822,-105.468750
9823,-105.468750
9824,-105.468750
9825,-105.468750
9826,-105.468750
9827,-103.515625
9828,-105.468750
9829,-103.515625
9830,-103.515625
9831,-103.515625
9832,-103.515625
9833,-103.515625
9834,-103.515625
9835,-103.515625
9836,-103.515625
9837,-103.515625
9838,-103.515625
9839,-101.562500
9840,-103.515625
9841,-101.562500
9842,-103.515625
9843,-103.515625
9844,-101.562500
9845,-101.562500
9846,-101.562500
9847,-101.562500
9848,-101.562500
9849,-101.562500
9850,-101.562500
9851,-101.562500
9852,-101.562500
9853,-99.609375
9854,-99.609375
9855,-99.609375
9856,-99.609375
9857,-99.609375
9858,-99.609375
9859,-99.609375
9860,-99.609375
9861,-99.609375
9862,-97.656250
9863,-99.609375
9864,-97.656250
9865,-97.656250
9866,-97.656250
9867,-97.656250
9868,-97.656250
9869,-97.656250
9870,-97.656250
9871,-97.656250
9872,-97.656250
9873,-97.656250
9874,-95.703125
9875,-97.656250
9876,-95.703125
9877,-95.703125
9878,-95.703125
9879,-95.703125
9880,-95.703125
9881,-95.703125
9882,-95.703125
9883,-95.703125
9884,-93.750000
9885,-93.750000
9886,-93.750000
9887,-93.750000
9888,-95.703125
9889,-93.750000
9890,-93.750000
9891,-93.750000
9892,-91.796875
9893,-93.750000
9894,-91.796875
9895,-91.796875
9896,-91.796875
9897,-91.796875
9898,-91.796875
9899,-91.796875
9900,-91.796875
9901,-91.796875
9902,-91.796875
9903,-91.796875
9904,-89.843750
9905,-89.843750
9906,-89.843750
9907,-89.843750
9908,-89.843750
9909,-89.843750
9910,-89.843750
9911,-89.843750
9912,-89.843750
9913,-89.843750
9914,-87.890625
9915,-87.890625
9916,-87.890625
9917,-87.890625
9918,-87.890625
9919,-87.890625
9920,-87.890625
9921,-87.890625
9922,-87.890625
9923,-87.890625
9924,-85.937500
9925,-85.937500
9926,-85.937500
9927,-85.937500
9928,-85.937500
9929,-85.937500
9930,-83.984375
9931,-85.937500
9932,-83.984375
9933,-83.984375
9934,-83.984375
9935,-83.984375
9936,-83.984375
9937,-83.984375
9938,-83.984375
9939,-83.984375
9940,-82.031250
9941,-82.031250
9942,-82.031250
9943,-82.031250
9944,-82.031250
9945,-82.031250
9946,-80.078125
9947,-82.031250
9948,-80.078125
9949,-80.078125
9950,-80.078125
9951,-80.078125
9952,-80.078125
9953,-80.078125
9954,-80.078125
9955,-80.078125
9956,-80.078125
9957,-80.078125
9958,-78.125000
9959,-78.125000
9960,-78.125000
9961,-78.125000
9962,-78.125000
9963,-78.125000
9964,-76.171875
9965,-78.125000
9966,-76.171875
9967,-76.171875
9968,-76.171875
9969,-76.171875
9970,-76.171875
9971,-76.171875
9972,-76.171875
9973,-74.218750
9974,-76.171875
9975,-74.218750
9976,-74.218750
9977,-74.218750
9978,-74.218750
9979,-74.218750
9980,-74.218750
9981,-74.218750
9982,-74.218750
9983,-72.265625
9984,-74.218750
9985,-72.265625
9986,-72.265625
9987,-72.265625
9988,-72.265625
9989,-70.312500
9990,-72.265625
9991,-70.312500
9992,-70.312500
9993,-70.312500
9994,-70.312500
9995,-70.312500
9996,-68.359375
9997,-70.312500
9998,-70.312500
9999,-70.312500
10000,-68.359375
