Channel              :,CH1
Frequency            :,1.010kHz
Period               :,0.990ms
PK-PK                :,125.0mV
Probe attenuation    :,1X
Voltage per ADC value:,0.244141mV
Time interval        :,1.00000us

index,CH1_Voltage(mV)
1,-39.062500
2,-39.062500
3,-39.062500
4,-39.062500
5,-39.062500
6,-39.062500
7,-39.062500
8,-39.062500
9,-35.156250
10,-35.156250
11,-35.156250
12,-35.156250
13,-35.156250
14,-35.156250
15,-35.156250
16,-35.156250
17,-35.156250
18,-35.156250
19,-35.156250
20,-31.250000
21,-31.250000
22,-31.250000
23,-31.250000
24,-31.250000
25,-31.250000
26,-31.250000
27,-31.250000
28,-31.250000
29,-27.343750
30,-27.343750
31,-27.343750
32,-27.343750
33,-27.343750
34,-27.343750
35,-27.343750
36,-27.343750
37,-27.343750
38,-27.343750
39,-27.343750
40,-27.343750
41,-23.437500
42,-23.437500
43,-23.437500
44,-23.437500
45,-23.437500
46,-23.437500
47,-23.437500
48,-23.437500
49,-23.437500
50,-19.531250
51,-19.531250
52,-19.531250
53,-19.531250
54,-19.531250
55,-19.531250
56,-19.531250
57,-19.531250
58,-19.531250
59,-19.531250
60,-19.531250
61,-15.625000
62,-15.625000
63,-15.625000
64,-15.625000
65,-15.625000
66,-15.625000
67,-15.625000
68,-15.625000
69,-15.625000
70,-15.625000
71,-11.718750
72,-11.718750
73,-11.718750
74,-11.718750
75,-11.718750
76,-11.718750
77,-11.718750
78,-7.812500
79,-7.812500
80,-11.718750
81,-7.812500
82,-7.812500
83,-7.812500
84,-7.812500
85,-7.812500
86,-7.812500
87,-7.812500
88,-7.812500
89,-3.906250
90,-3.906250
91,-3.906250
92,-3.906250
93,-3.906250
94,-3.906250
95,-3.906250
96,-3.906250
97,-3.906250
98,-3.906250
99,-3.906250
100,-3.906250
101,0.000000
102,0.000000
103,0.000000
104,0.000000
105,0.000000
106,0.000000
107,0.000000
108,0.000000
109,0.000000
110,0.000000
111,3.906250
112,3.906250
113,3.906250
114,3.906250
115,3.906250
116,3.906250
117,3.906250
118,3.906250
119,3.906250
120,3.906250
121,7.812500
122,7.812500
123,7.812500
124,7.812500
125,7.812500
126,7.812500
127,7.812500
128,7.812500
129,7.812500
130,7.812500
131,11.718750
132,11.718750
133,11.718750
134,11.718750
135,11.718750
136,11.718750
137,11.718750
138,11.718750
139,11.718750
140,11.718750
141,11.718750
142,11.718750
143,15.625000
144,15.625000
145,11.718750
146,15.625000
147,15.625000
148,15.625000
149,15.625000
150,15.625000
151,15.625000
152,15.625000
153,15.625000
154,15.625000
155,15.625000
156,19.531250
157,19.531250
158,19.531250
159,19.531250
160,19.531250
161,19.531250
162,19.531250
163,19.531250
164,19.531250
165,19.531250
166,19.531250
167,19.531250
168,23.437500
169,23.437500
170,23.437500
171,23.437500
172,23.437500
173,23.437500
174,23.437500
175,23.437500
176,23.437500
177,23.437500
178,23.437500
179,23.437500
180,23.437500
181,23.437500
182,27.343750
183,27.343750
184,27.343750
185,27.343750
186,27.343750
187,27.343750
188,27.343750
189,27.343750
190,27.343750
191,27.343750
192,27.343750
193,27.343750
194,27.343750
195,27.343750
196,27.343750
197,27.343750
198,31.250000
199,31.250000
200,31.250000
201,31.250000
202,31.250000
203,31.250000
204,31.250000
205,31.250000
206,31.250000
207,31.250000
208,31.250000
209,35.156250
210,35.156250
211,31.250000
212,31.250000
213,31.250000
214,35.156250
215,35.156250
216,35.156250
217,35.156250
218,35.156250
219,35.156250
220,35.156250
221,35.156250
222,35.156250
223,35.156250
224,35.156250
225,35.156250
226,35.156250
227,35.156250
228,35.156250
229,39.062500
230,35.156250
231,39.062500
232,39.062500
233,35.156250
234,35.156250
235,39.062500
236,39.062500
237,39.062500
238,39.062500
239,39.062500
240,39.062500
241,39.062500
242,39.062500
243,39.062500
244,39.062500
245,39.062500
246,39.062500
247,39.062500
248,39.062500
249,39.062500
250,39.062500
251,39.062500
252,39.062500
253,39.062500
254,39.062500
255,42.968750
256,42.968750
257,42.968750
258,42.968750
259,42.968750
260,42.968750
261,42.968750
262,42.968750
263,42.968750
264,42.968750
265,42.968750
266,42.968750
267,42.968750
268,42.968750
269,42.968750
270,42.968750
271,42.968750
272,42.968750
273,42.968750
274,42.968750
275,42.968750
276,42.968750
277,42.968750
278,42.968750
279,42.968750
280,42.968750
281,42.968750
282,42.968750
283,42.968750
284,42.968750
285,46.875000
286,42.968750
287,42.968750
288,42.968750
289,42.968750
290,42.968750
291,46.875000
292,42.968750
293,42.968750
294,46.875000
295,46.875000
296,46.875000
297,46.875000
298,42.968750
299,46.875000
300,46.875000
301,46.875000
302,46.875000
303,46.875000
304,42.968750
305,46.875000
306,46.875000
307,46.875000
308,46.875000
309,46.875000
310,46.875000
311,46.875000
312,46.875000
313,46.875000
314,46.875000
315,46.875000
316,46.875000
317,46.875000
318,46.875000
319,46.875000
320,46.875000
321,46.875000
322,46.875000
323,46.875000
324,46.875000
325,46.875000
326,46.875000
327,42.968750
328,46.875000
329,46.875000
330,46.875000
331,46.875000
332,46.875000
333,46.875000
334,46.875000
335,46.875000
336,46.875000
337,46.875000
338,46.875000
339,46.875000
340,46.875000
341,46.875000
342,46.875000
343,46.875000
344,42.968750
345,42.968750
346,46.875000
347,46.875000
348,46.875000
349,46.875000
350,46.875000
351,46.875000
352,42.968750
353,42.968750
354,42.968750
355,46.875000
356,42.968750
357,46.875000
358,46.875000
359,42.968750
360,42.968750
361,42.968750
362,42.968750
363,42.968750
364,42.968750
365,42.968750
366,42.968750
367,42.968750
368,42.968750
369,42.968750
370,42.968750
371,42.968750
372,42.968750
373,42.968750
374,42.968750
375,42.968750
376,42.968750
377,42.968750
378,42.968750
379,42.968750
380,42.968750
381,42.968750
382,42.968750
383,42.968750
384,42.968750
385,42.968750
386,42.968750
387,42.968750
388,42.968750
389,42.968750
390,39.062500
391,42.968750
392,39.062500
393,39.062500
394,39.062500
395,39.062500
396,39.062500
397,39.062500
398,39.062500
399,39.062500
400,39.062500
401,39.062500
402,39.062500
403,39.062500
404,39.062500
405,39.062500
406,39.062500
407,39.062500
408,39.062500
409,39.062500
410,39.062500
411,39.062500
412,39.062500
413,39.062500
414,39.062500
415,39.062500
416,39.062500
417,35.156250
418,35.156250
419,35.156250
420,35.156250
421,35.156250
422,35.156250
423,35.156250
424,35.156250
425,35.156250
426,35.156250
427,35.156250
428,35.156250
429,35.156250
430,35.156250
431,35.156250
432,35.156250
433,35.156250
434,31.250000
435,31.250000
436,31.250000
437,31.250000
438,31.250000
439,31.250000
440,31.250000
441,31.250000
442,31.250000
443,31.250000
444,31.250000
445,31.250000
446,31.250000
447,31.250000
448,31.250000
449,31.250000
450,31.250000
451,31.250000
452,27.343750
453,27.343750
454,27.343750
455,27.343750
456,27.343750
457,27.343750
458,27.343750
459,27.343750
460,27.343750
461,27.343750
462,27.343750
463,27.343750
464,27.343750
465,23.437500
466,23.437500
467,23.437500
468,23.437500
469,23.437500
470,23.437500
471,23.437500
472,23.437500
473,23.437500
474,23.437500
475,23.437500
476,23.437500
477,23.437500
478,23.437500
479,19.531250
480,19.531250
481,19.531250
482,19.531250
483,19.531250
484,19.531250
485,19.531250
486,19.531250
487,19.531250
488,19.531250
489,19.531250
490,19.531250
491,19.531250
492,15.625000
493,15.625000
494,15.625000
495,15.625000
496,15.625000
497,15.625000
498,15.625000
499,15.625000
500,15.625000
501,15.625000
502,15.625000
503,15.625000
504,11.718750
505,15.625000
506,11.718750
507,11.718750
508,11.718750
509,11.718750
510,11.718750
511,11.718750
512,11.718750
513,11.718750
514,11.718750
515,11.718750
516,7.812500
517,7.812500
518,7.812500
519,7.812500
520,7.812500
521,7.812500
522,7.812500
523,7.812500
524,7.812500
525,7.812500
526,7.812500
527,3.906250
528,3.906250
529,3.906250
530,3.906250
531,3.906250
532,3.906250
533,3.906250
534,3.906250
535,3.906250
536,3.906250
537,3.906250
538,0.000000
539,0.000000
540,0.000000
541,0.000000
542,0.000000
543,0.000000
544,0.000000
545,0.000000
546,0.000000
547,0.000000
548,-3.906250
549,-3.906250
550,-3.906250
551,-3.906250
552,-3.906250
553,-3.906250
554,-3.906250
555,-3.906250
556,-7.812500
557,-3.906250
558,-7.812500
559,-7.812500
560,-7.812500
561,-7.812500
562,-7.812500
563,-7.812500
564,-7.812500
565,-7.812500
566,-7.812500
567,-7.812500
568,-11.718750
569,-11.718750
570,-11.718750
571,-11.718750
572,-11.718750
573,-11.718750
574,-11.718750
575,-11.718750
576,-11.718750
577,-11.718750
578,-15.625000
579,-15.625000
580,-15.625000
581,-15.625000
582,-15.625000
583,-15.625000
584,-15.625000
585,-15.625000
586,-19.531250
587,-15.625000
588,-19.531250
589,-19.531250
590,-19.531250
591,-19.531250
592,-19.531250
593,-19.531250
594,-19.531250
595,-19.531250
596,-23.437500
597,-23.437500
598,-19.531250
599,-23.437500
600,-23.437500
601,-23.437500
602,-23.437500
603,-23.437500
604,-23.437500
605,-27.343750
606,-23.437500
607,-23.437500
608,-23.437500
609,-23.437500
610,-27.343750
611,-27.343750
612,-27.343750
613,-27.343750
614,-27.343750
615,-27.343750
616,-27.343750
617,-27.343750
618,-31.250000
619,-31.250000
620,-31.250000
621,-31.250000
622,-31.250000
623,-31.250000
624,-31.250000
625,-31.250000
626,-31.250000
627,-31.250000
628,-35.156250
629,-35.156250
630,-35.156250
631,-35.156250
632,-35.156250
633,-35.156250
634,-35.156250
635,-35.156250
636,-35.156250
637,-35.156250
638,-35.156250
639,-35.156250
640,-39.062500
641,-39.062500
642,-39.062500
643,-39.062500
644,-39.062500
645,-39.062500
646,-39.062500
647,-39.062500
648,-39.062500
649,-39.062500
650,-42.968750
651,-42.968750
652,-42.968750
653,-42.968750
654,-42.968750
655,-42.968750
656,-42.968750
657,-42.968750
658,-42.968750
659,-46.875000
660,-42.968750
661,-46.875000
662,-46.875000
663,-46.875000
664,-46.875000
665,-46.875000
666,-46.875000
667,-46.875000
668,-46.875000
669,-46.875000
670,-46.875000
671,-46.875000
672,-50.781250
673,-50.781250
674,-50.781250
675,-50.781250
676,-50.781250
677,-50.781250
678,-50.781250
679,-50.781250
680,-50.781250
681,-50.781250
682,-54.687500
683,-54.687500
684,-54.687500
685,-54.687500
686,-50.781250
687,-54.687500
688,-54.687500
689,-54.687500
690,-54.687500
691,-54.687500
692,-54.687500
693,-54.687500
694,-54.687500
695,-54.687500
696,-54.687500
697,-58.593750
698,-58.593750
699,-58.593750
700,-58.593750
701,-58.593750
702,-58.593750
703,-58.593750
704,-58.593750
705,-58.593750
706,-58.593750
707,-58.593750
708,-58.593750
709,-58.593750
710,-62.500000
711,-62.500000
712,-62.500000
713,-62.500000
714,-62.500000
715,-62.500000
716,-62.500000
717,-62.500000
718,-62.500000
719,-62.500000
720,-62.500000
721,-62.500000
722,-62.500000
723,-62.500000
724,-62.500000
725,-62.500000
726,-62.500000
727,-66.406250
728,-66.406250
729,-66.406250
730,-66.406250
731,-66.406250
732,-66.406250
733,-66.406250
734,-66.406250
735,-66.406250
736,-66.406250
737,-66.406250
738,-66.406250
739,-66.406250
740,-66.406250
741,-66.406250
742,-66.406250
743,-66.406250
744,-70.312500
745,-70.312500
746,-70.312500
747,-70.312500
748,-70.312500
749,-70.312500
750,-70.312500
751,-70.312500
752,-70.312500
753,-70.312500
754,-70.312500
755,-70.312500
756,-70.312500
757,-70.312500
758,-70.312500
759,-70.312500
760,-70.312500
761,-70.312500
762,-70.312500
763,-70.312500
764,-70.312500
765,-70.312500
766,-70.312500
767,-74.218750
768,-70.312500
769,-74.218750
770,-74.218750
771,-74.218750
772,-74.218750
773,-70.312500
774,-74.218750
775,-74.218750
776,-74.218750
777,-74.218750
778,-74.218750
779,-74.218750
780,-74.218750
781,-74.218750
782,-74.218750
783,-74.218750
784,-74.218750
785,-74.218750
786,-74.218750
787,-74.218750
788,-74.218750
789,-74.218750
790,-74.218750
791,-74.218750
792,-74.218750
793,-74.218750
794,-74.218750
795,-74.218750
796,-74.218750
797,-74.218750
798,-78.125000
799,-78.125000
800,-78.125000
801,-74.218750
802,-74.218750
803,-74.218750
804,-74.218750
805,-74.218750
806,-74.218750
807,-78.125000
808,-78.125000
809,-78.125000
810,-74.218750
811,-74.218750
812,-74.218750
813,-74.218750
814,-74.218750
815,-78.125000
816,-78.125000
817,-78.125000
818,-78.125000
819,-74.218750
820,-74.218750
821,-74.218750
822,-74.218750
823,-78.125000
824,-78.125000
825,-78.125000
826,-78.125000
827,-74.218750
828,-74.218750
829,-74.218750
830,-74.218750
831,-78.125000
832,-78.125000
833,-78.125000
834,-78.125000
835,-74.218750
836,-74.218750
837,-74.218750
838,-74.218750
839,-74.218750
840,-74.218750
841,-74.218750
842,-74.218750
843,-74.218750
844,-74.218750
845,-74.218750
846,-74.218750
847,-74.218750
848,-74.218750
849,-74.218750
850,-74.218750
851,-74.218750
852,-74.218750
853,-74.218750
854,-74.218750
855,-74.218750
856,-74.218750
857,-74.218750
858,-74.218750
859,-74.218750
860,-74.218750
861,-74.218750
862,-74.218750
863,-74.218750
864,-74.218750
865,-74.218750
866,-74.218750
867,-74.218750
868,-74.218750
869,-74.218750
870,-70.312500
871,-70.312500
872,-70.312500
873,-70.312500
874,-70.312500
875,-70.312500
876,-70.312500
877,-70.312500
878,-70.312500
879,-70.312500
880,-70.312500
881,-70.312500
882,-70.312500
883,-70.312500
884,-70.312500
885,-70.312500
886,-70.312500
887,-70.312500
888,-70.312500
889,-70.312500
890,-70.312500
891,-70.312500
892,-66.406250
893,-66.406250
894,-66.406250
895,-70.312500
896,-66.406250
897,-66.406250
898,-66.406250
899,-66.406250
900,-66.406250
901,-66.406250
902,-66.406250
903,-66.406250
904,-66.406250
905,-66.406250
906,-66.406250
907,-66.406250
908,-66.406250
909,-66.406250
910,-62.500000
911,-66.406250
912,-66.406250
913,-62.500000
914,-62.500000
915,-62.500000
916,-62.500000
917,-62.500000
918,-62.500000
919,-62.500000
920,-62.500000
921,-62.500000
922,-62.500000
923,-62.500000
924,-62.500000
925,-58.593750
926,-62.500000
927,-62.500000
928,-58.593750
929,-58.593750
930,-58.593750
931,-58.593750
932,-58.593750
933,-58.593750
934,-58.593750
935,-58.593750
936,-58.593750
937,-58.593750
938,-58.593750
939,-54.687500
940,-54.687500
941,-54.687500
942,-54.687500
943,-54.687500
944,-54.687500
945,-54.687500
946,-54.687500
947,-54.687500
948,-54.687500
949,-50.781250
950,-54.687500
951,-54.687500
952,-54.687500
953,-50.781250
954,-54.687500
955,-50.781250
956,-50.781250
957,-50.781250
958,-50.781250
959,-50.781250
960,-50.781250
961,-50.781250
962,-50.781250
963,-50.781250
964,-50.781250
965,-46.875000
966,-46.875000
967,-46.875000
968,-46.875000
969,-46.875000
970,-46.875000
971,-46.875000
972,-46.875000
973,-46.875000
974,-46.875000
975,-42.968750
976,-42.968750
977,-42.968750
978,-42.968750
979,-42.968750
980,-42.968750
981,-42.968750
982,-42.968750
983,-42.968750
984,-42.968750
985,-39.062500
986,-39.062500
987,-39.062500
988,-39.062500
989,-39.062500
990,-39.062500
991,-39.062500
992,-39.062500
993,-39.062500
994,-39.062500
995,-39.062500
996,-39.062500
997,-39.062500
998,-35.156250
999,-35.156250
1000,-35.156250
1001,-35.156250
1002,-35.156250
1003,-35.156250
1004,-35.156250
1005,-35.156250
1006,-35.156250
1007,-35.156250
1008,-35.156250
1009,-31.250000
1010,-31.250000
1011,-31.250000
1012,-31.250000
1013,-31.250000
1014,-31.250000
1015,-31.250000
1016,-31.250000
1017,-31.250000
1018,-27.343750
1019,-27.343750
1020,-27.343750
1021,-27.343750
1022,-27.343750
1023,-27.343750
1024,-27.343750
1025,-27.343750
1026,-27.343750
1027,-27.343750
1028,-23.437500
1029,-23.437500
1030,-23.437500
1031,-23.437500
1032,-23.437500
1033,-23.437500
1034,-23.437500
1035,-23.437500
1036,-23.437500
1037,-23.437500
1038,-23.437500
1039,-19.531250
1040,-19.531250
1041,-19.531250
1042,-19.531250
1043,-19.531250
1044,-19.531250
1045,-19.531250
1046,-19.531250
1047,-15.625000
1048,-19.531250
1049,-19.531250
1050,-15.625000
1051,-15.625000
1052,-15.625000
1053,-15.625000
1054,-15.625000
1055,-15.625000
1056,-15.625000
1057,-15.625000
1058,-15.625000
1059,-11.718750
1060,-11.718750
1061,-11.718750
1062,-11.718750
1063,-11.718750
1064,-11.718750
1065,-11.718750
1066,-11.718750
1067,-11.718750
1068,-11.718750
1069,-7.812500
1070,-7.812500
1071,-7.812500
1072,-7.812500
1073,-7.812500
1074,-7.812500
1075,-7.812500
1076,-7.812500
1077,-7.812500
1078,-7.812500
1079,-3.906250
1080,-3.906250
1081,-3.906250
1082,-3.906250
1083,-3.906250
1084,-3.906250
1085,-3.906250
1086,-3.906250
1087,0.000000
1088,-3.906250
1089,0.000000
1090,0.000000
1091,0.000000
1092,0.000000
1093,0.000000
1094,0.000000
1095,0.000000
1096,0.000000
1097,0.000000
1098,3.906250
1099,3.906250
1100,0.000000
1101,3.906250
1102,3.906250
1103,3.906250
1104,3.906250
1105,3.906250
1106,3.906250
1107,3.906250
1108,3.906250
1109,7.812500
1110,3.906250
1111,7.812500
1112,7.812500
1113,7.812500
1114,7.812500
1115,7.812500
1116,7.812500
1117,7.812500
1118,7.812500
1119,7.812500
1120,7.812500
1121,11.718750
1122,11.718750
1123,11.718750
1124,11.718750
1125,11.718750
1126,11.718750
1127,11.718750
1128,11.718750
1129,11.718750
1130,11.718750
1131,11.718750
1132,15.625000
1133,15.625000
1134,15.625000
1135,15.625000
1136,15.625000
1137,15.625000
1138,15.625000
1139,15.625000
1140,15.625000
1141,15.625000
1142,15.625000
1143,15.625000
1144,15.625000
1145,15.625000
1146,19.531250
1147,19.531250
1148,19.531250
1149,19.531250
1150,19.531250
1151,19.531250
1152,19.531250
1153,19.531250
1154,19.531250
1155,19.531250
1156,19.531250
1157,23.437500
1158,23.437500
1159,23.437500
1160,23.437500
1161,23.437500
1162,23.437500
1163,23.437500
1164,23.437500
1165,23.437500
1166,23.437500
1167,23.437500
1168,23.437500
1169,23.437500
1170,23.437500
1171,23.437500
1172,27.343750
1173,27.343750
1174,27.343750
1175,27.343750
1176,27.343750
1177,27.343750
1178,27.343750
1179,27.343750
1180,27.343750
1181,27.343750
1182,27.343750
1183,31.250000
1184,27.343750
1185,27.343750
1186,31.250000
1187,27.343750
1188,27.343750
1189,31.250000
1190,31.250000
1191,31.250000
1192,31.250000
1193,31.250000
1194,31.250000
1195,31.250000
1196,31.250000
1197,31.250000
1198,31.250000
1199,31.250000
1200,31.250000
1201,31.250000
1202,35.156250
1203,35.156250
1204,31.250000
1205,35.156250
1206,35.156250
1207,35.156250
1208,35.156250
1209,35.156250
1210,35.156250
1211,35.156250
1212,35.156250
1213,35.156250
1214,35.156250
1215,35.156250
1216,35.156250
1217,35.156250
1218,35.156250
1219,39.062500
1220,39.062500
1221,39.062500
1222,39.062500
1223,39.062500
1224,39.062500
1225,39.062500
1226,39.062500
1227,39.062500
1228,39.062500
1229,39.062500
1230,39.062500
1231,39.062500
1232,39.062500
1233,39.062500
1234,39.062500
1235,39.062500
1236,39.062500
1237,39.062500
1238,39.062500
1239,39.062500
1240,39.062500
1241,39.062500
1242,42.968750
1243,39.062500
1244,42.968750
1245,39.062500
1246,42.968750
1247,42.968750
1248,42.968750
1249,42.968750
1250,42.968750
1251,42.968750
1252,42.968750
1253,42.968750
1254,42.968750
1255,42.968750
1256,42.968750
1257,42.968750
1258,42.968750
1259,42.968750
1260,42.968750
1261,42.968750
1262,42.968750
1263,42.968750
1264,42.968750
1265,42.968750
1266,42.968750
1267,42.968750
1268,42.968750
1269,42.968750
1270,42.968750
1271,42.968750
1272,42.968750
1273,42.968750
1274,42.968750
1275,46.875000
1276,46.875000
1277,46.875000
1278,46.875000
1279,46.875000
1280,42.968750
1281,42.968750
1282,42.968750
1283,42.968750
1284,46.875000
1285,46.875000
1286,46.875000
1287,46.875000
1288,46.875000
1289,46.875000
1290,42.968750
1291,46.875000
1292,46.875000
1293,46.875000
1294,46.875000
1295,46.875000
1296,46.875000
1297,46.875000
1298,46.875000
1299,46.875000
1300,46.875000
1301,46.875000
1302,46.875000
1303,46.875000
1304,46.875000
1305,46.875000
1306,46.875000
1307,46.875000
1308,46.875000
1309,46.875000
1310,46.875000
1311,46.875000
1312,46.875000
1313,46.875000
1314,46.875000
1315,46.875000
1316,46.875000
1317,46.875000
1318,46.875000
1319,46.875000
1320,46.875000
1321,46.875000
1322,46.875000
1323,46.875000
1324,46.875000
1325,46.875000
1326,46.875000
1327,46.875000
1328,46.875000
1329,46.875000
1330,46.875000
1331,46.875000
1332,46.875000
1333,46.875000
1334,46.875000
1335,46.875000
1336,42.968750
1337,46.875000
1338,46.875000
1339,46.875000
1340,42.968750
1341,46.875000
1342,42.968750
1343,42.968750
1344,42.968750
1345,46.875000
1346,46.875000
1347,46.875000
1348,42.968750
1349,42.968750
1350,42.968750
1351,42.968750
1352,42.968750
1353,42.968750
1354,42.968750
1355,42.968750
1356,42.968750
1357,42.968750
1358,42.968750
1359,42.968750
1360,42.968750
1361,42.968750
1362,42.968750
1363,42.968750
1364,42.968750
1365,42.968750
1366,42.968750
1367,42.968750
1368,42.968750
1369,42.968750
1370,42.968750
1371,42.968750
1372,42.968750
1373,42.968750
1374,42.968750
1375,42.968750
1376,42.968750
1377,42.968750
1378,42.968750
1379,39.062500
1380,42.968750
1381,39.062500
1382,42.968750
1383,39.062500
1384,39.062500
1385,39.062500
1386,39.062500
1387,39.062500
1388,39.062500
1389,39.062500
1390,39.062500
1391,39.062500
1392,39.062500
1393,39.062500
1394,39.062500
1395,39.062500
1396,39.062500
1397,39.062500
1398,39.062500
1399,39.062500
1400,39.062500
1401,39.062500
1402,39.062500
1403,39.062500
1404,35.156250
1405,35.156250
1406,35.156250
1407,39.062500
1408,35.156250
1409,39.062500
1410,35.156250
1411,35.156250
1412,35.156250
1413,35.156250
1414,35.156250
1415,35.156250
1416,35.156250
1417,35.156250
1418,35.156250
1419,35.156250
1420,35.156250
1421,35.156250
1422,35.156250
1423,35.156250
1424,31.250000
1425,31.250000
1426,31.250000
1427,31.250000
1428,31.250000
1429,31.250000
1430,31.250000
1431,31.250000
1432,31.250000
1433,31.250000
1434,31.250000
1435,31.250000
1436,31.250000
1437,31.250000
1438,31.250000
1439,27.343750
1440,27.343750
1441,27.343750
1442,31.250000
1443,27.343750
1444,27.343750
1445,27.343750
1446,27.343750
1447,27.343750
1448,27.343750
1449,27.343750
1450,27.343750
1451,27.343750
1452,23.437500
1453,27.343750
1454,23.437500
1455,27.343750
1456,23.437500
1457,23.437500
1458,23.437500
1459,23.437500
1460,23.437500
1461,23.437500
1462,23.437500
1463,23.437500
1464,23.437500
1465,23.437500
1466,19.531250
1467,23.437500
1468,23.437500
1469,23.437500
1470,19.531250
1471,19.531250
1472,19.531250
1473,19.531250
1474,19.531250
1475,19.531250
1476,19.531250
1477,19.531250
1478,19.531250
1479,19.531250
1480,15.625000
1481,15.625000
1482,15.625000
1483,15.625000
1484,15.625000
1485,15.625000
1486,15.625000
1487,15.625000
1488,15.625000
1489,15.625000
1490,15.625000
1491,11.718750
1492,15.625000
1493,15.625000
1494,11.718750
1495,11.718750
1496,11.718750
1497,11.718750
1498,11.718750
1499,11.718750
1500,11.718750
1501,11.718750
1502,11.718750
1503,11.718750
1504,7.812500
1505,7.812500
1506,7.812500
1507,7.812500
1508,7.812500
1509,7.812500
1510,7.812500
1511,7.812500
1512,7.812500
1513,7.812500
1514,3.906250
1515,3.906250
1516,3.906250
1517,3.906250
1518,7.812500
1519,3.906250
1520,3.906250
1521,3.906250
1522,3.906250
1523,3.906250
1524,3.906250
1525,3.906250
1526,3.906250
1527,0.000000
1528,0.000000
1529,0.000000
1530,0.000000
1531,0.000000
1532,0.000000
1533,0.000000
1534,0.000000
1535,0.000000
1536,0.000000
1537,-3.906250
1538,-3.906250
1539,-3.906250
1540,-3.906250
1541,-3.906250
1542,-3.906250
1543,-3.906250
1544,-3.906250
1545,-3.906250
1546,-7.812500
1547,-7.812500
1548,-3.906250
1549,-7.812500
1550,-7.812500
1551,-7.812500
1552,-7.812500
1553,-7.812500
1554,-7.812500
1555,-7.812500
1556,-7.812500
1557,-11.718750
1558,-11.718750
1559,-11.718750
1560,-11.718750
1561,-11.718750
1562,-11.718750
1563,-11.718750
1564,-11.718750
1565,-11.718750
1566,-15.625000
1567,-11.718750
1568,-15.625000
1569,-15.625000
1570,-15.625000
1571,-15.625000
1572,-15.625000
1573,-15.625000
1574,-15.625000
1575,-15.625000
1576,-15.625000
1577,-19.531250
1578,-19.531250
1579,-19.531250
1580,-19.531250
1581,-19.531250
1582,-19.531250
1583,-19.531250
1584,-19.531250
1585,-19.531250
1586,-23.437500
1587,-19.531250
1588,-23.437500
1589,-23.437500
1590,-23.437500
1591,-23.437500
1592,-23.437500
1593,-23.437500
1594,-23.437500
1595,-23.437500
1596,-23.437500
1597,-23.437500
1598,-27.343750
1599,-27.343750
1600,-27.343750
1601,-27.343750
1602,-27.343750
1603,-27.343750
1604,-27.343750
1605,-27.343750
1606,-27.343750
1607,-27.343750
1608,-31.250000
1609,-31.250000
1610,-31.250000
1611,-31.250000
1612,-31.250000
1613,-31.250000
1614,-31.250000
1615,-31.250000
1616,-31.250000
1617,-31.250000
1618,-35.156250
1619,-35.156250
1620,-35.156250
1621,-35.156250
1622,-35.156250
1623,-35.156250
1624,-35.156250
1625,-35.156250
1626,-35.156250
1627,-35.156250
1628,-39.062500
1629,-39.062500
1630,-39.062500
1631,-39.062500
1632,-39.062500
1633,-39.062500
1634,-39.062500
1635,-39.062500
1636,-39.062500
1637,-39.062500
1638,-42.968750
1639,-39.062500
1640,-39.062500
1641,-42.968750
1642,-42.968750
1643,-42.968750
1644,-42.968750
1645,-42.968750
1646,-42.968750
1647,-42.968750
1648,-42.968750
1649,-42.968750
1650,-42.968750
1651,-46.875000
1652,-46.875000
1653,-46.875000
1654,-46.875000
1655,-46.875000
1656,-46.875000
1657,-46.875000
1658,-46.875000
1659,-46.875000
1660,-46.875000
1661,-50.781250
1662,-50.781250
1663,-50.781250
1664,-46.875000
1665,-50.781250
1666,-50.781250
1667,-50.781250
1668,-50.781250
1669,-50.781250
1670,-50.781250
1671,-50.781250
1672,-50.781250
1673,-50.781250
1674,-54.687500
1675,-54.687500
1676,-54.687500
1677,-54.687500
1678,-54.687500
1679,-54.687500
1680,-54.687500
1681,-54.687500
1682,-54.687500
1683,-54.687500
1684,-54.687500
1685,-58.593750
1686,-58.593750
1687,-58.593750
1688,-58.593750
1689,-58.593750
1690,-58.593750
1691,-58.593750
1692,-58.593750
1693,-58.593750
1694,-58.593750
1695,-58.593750
1696,-58.593750
1697,-58.593750
1698,-58.593750
1699,-58.593750
1700,-62.500000
1701,-62.500000
1702,-62.500000
1703,-62.500000
1704,-62.500000
1705,-62.500000
1706,-62.500000
1707,-62.500000
1708,-62.500000
1709,-62.500000
1710,-62.500000
1711,-62.500000
1712,-62.500000
1713,-62.500000
1714,-62.500000
1715,-62.500000
1716,-66.406250
1717,-66.406250
1718,-66.406250
1719,-66.406250
1720,-66.406250
1721,-66.406250
1722,-66.406250
1723,-66.406250
1724,-66.406250
1725,-66.406250
1726,-66.406250
1727,-66.406250
1728,-66.406250
1729,-66.406250
1730,-66.406250
1731,-66.406250
1732,-70.312500
1733,-70.312500
1734,-70.312500
1735,-70.312500
1736,-66.406250
1737,-70.312500
1738,-70.312500
1739,-70.312500
1740,-70.312500
1741,-70.312500
1742,-70.312500
1743,-70.312500
1744,-70.312500
1745,-70.312500
1746,-70.312500
1747,-70.312500
1748,-70.312500
1749,-70.312500
1750,-70.312500
1751,-70.312500
1752,-70.312500
1753,-70.312500
1754,-70.312500
1755,-70.312500
1756,-70.312500
1757,-70.312500
1758,-74.218750
1759,-74.218750
1760,-74.218750
1761,-74.218750
1762,-74.218750
1763,-74.218750
1764,-74.218750
1765,-74.218750
1766,-74.218750
1767,-74.218750
1768,-74.218750
1769,-74.218750
1770,-74.218750
1771,-74.218750
1772,-74.218750
1773,-74.218750
1774,-74.218750
1775,-74.218750
1776,-74.218750
1777,-74.218750
1778,-74.218750
1779,-74.218750
1780,-74.218750
1781,-74.218750
1782,-74.218750
1783,-74.218750
1784,-74.218750
1785,-74.218750
1786,-74.218750
1787,-78.125000
1788,-74.218750
1789,-74.218750
1790,-74.218750
1791,-74.218750
1792,-74.218750
1793,-74.218750
1794,-74.218750
1795,-74.218750
1796,-74.218750
1797,-74.218750
1798,-74.218750
1799,-74.218750
1800,-74.218750
1801,-74.218750
1802,-74.218750
1803,-74.218750
1804,-74.218750
1805,-74.218750
1806,-74.218750
1807,-74.218750
1808,-74.218750
1809,-74.218750
1810,-74.218750
1811,-74.218750
1812,-74.218750
1813,-74.218750
1814,-74.218750
1815,-74.218750
1816,-74.218750
1817,-74.218750
1818,-74.218750
1819,-74.218750
1820,-74.218750
1821,-74.218750
1822,-74.218750
1823,-74.218750
1824,-74.218750
1825,-74.218750
1826,-74.218750
1827,-74.218750
1828,-74.218750
1829,-74.218750
1830,-74.218750
1831,-74.218750
1832,-74.218750
1833,-74.218750
1834,-74.218750
1835,-74.218750
1836,-74.218750
1837,-74.218750
1838,-74.218750
1839,-74.218750
1840,-74.218750
1841,-74.218750
1842,-74.218750
1843,-74.218750
1844,-74.218750
1845,-74.218750
1846,-74.218750
1847,-74.218750
1848,-74.218750
1849,-74.218750
1850,-74.218750
1851,-74.218750
1852,-74.218750
1853,-74.218750
1854,-70.312500
1855,-74.218750
1856,-70.312500
1857,-70.312500
1858,-70.312500
1859,-70.312500
1860,-70.312500
1861,-70.312500
1862,-70.312500
1863,-70.312500
1864,-70.312500
1865,-70.312500
1866,-70.312500
1867,-70.312500
1868,-70.312500
1869,-70.312500
1870,-70.312500
1871,-70.312500
1872,-70.312500
1873,-70.312500
1874,-70.312500
1875,-70.312500
1876,-70.312500
1877,-70.312500
1878,-70.312500
1879,-70.312500
1880,-66.406250
1881,-66.406250
1882,-66.406250
1883,-70.312500
1884,-70.312500
1885,-66.406250
1886,-66.406250
1887,-66.406250
1888,-66.406250
1889,-66.406250
1890,-66.406250
1891,-66.406250
1892,-66.406250
1893,-66.406250
1894,-66.406250
1895,-66.406250
1896,-66.406250
1897,-66.406250
1898,-66.406250
1899,-66.406250
1900,-62.500000
1901,-62.500000
1902,-62.500000
1903,-62.500000
1904,-62.500000
1905,-62.500000
1906,-62.500000
1907,-62.500000
1908,-62.500000
1909,-62.500000
1910,-62.500000
1911,-62.500000
1912,-62.500000
1913,-62.500000
1914,-62.500000
1915,-62.500000
1916,-58.593750
1917,-58.593750
1918,-58.593750
1919,-58.593750
1920,-58.593750
1921,-58.593750
1922,-58.593750
1923,-58.593750
1924,-58.593750
1925,-58.593750
1926,-58.593750
1927,-54.687500
1928,-54.687500
1929,-58.593750
1930,-54.687500
1931,-54.687500
1932,-54.687500
1933,-54.687500
1934,-54.687500
1935,-54.687500
1936,-54.687500
1937,-54.687500
1938,-54.687500
1939,-54.687500
1940,-54.687500
1941,-54.687500
1942,-50.781250
1943,-50.781250
1944,-50.781250
1945,-50.781250
1946,-50.781250
1947,-50.781250
1948,-50.781250
1949,-50.781250
1950,-50.781250
1951,-50.781250
1952,-50.781250
1953,-46.875000
1954,-46.875000
1955,-46.875000
1956,-46.875000
1957,-46.875000
1958,-46.875000
1959,-46.875000
1960,-46.875000
1961,-46.875000
1962,-46.875000
1963,-46.875000
1964,-46.875000
1965,-42.968750
1966,-42.968750
1967,-42.968750
1968,-42.968750
1969,-42.968750
1970,-42.968750
1971,-42.968750
1972,-42.968750
1973,-42.968750
1974,-42.968750
1975,-42.968750
1976,-42.968750
1977,-39.062500
1978,-39.062500
1979,-39.062500
1980,-39.062500
1981,-39.062500
1982,-39.062500
1983,-39.062500
1984,-39.062500
1985,-39.062500
1986,-39.062500
1987,-35.156250
1988,-35.156250
1989,-35.156250
1990,-35.156250
1991,-35.156250
1992,-35.156250
1993,-35.156250
1994,-35.156250
1995,-35.156250
1996,-35.156250
1997,-35.156250
1998,-31.250000
1999,-31.250000
2000,-31.250000
2001,-31.250000
2002,-31.250000
2003,-31.250000
2004,-31.250000
2005,-31.250000
2006,-31.250000
2007,-31.250000
2008,-27.343750
2009,-27.343750
2010,-27.343750
2011,-27.343750
2012,-27.343750
2013,-27.343750
2014,-27.343750
2015,-27.343750
2016,-27.343750
2017,-23.437500
2018,-27.343750
2019,-23.437500
2020,-23.437500
2021,-23.437500
2022,-23.437500
2023,-23.437500
2024,-23.437500
2025,-23.437500
2026,-19.531250
2027,-19.531250
2028,-23.437500
2029,-23.437500
2030,-19.531250
2031,-19.531250
2032,-19.531250
2033,-19.531250
2034,-19.531250
2035,-19.531250
2036,-19.531250
2037,-19.531250
2038,-15.625000
2039,-15.625000
2040,-15.625000
2041,-15.625000
2042,-15.625000
2043,-15.625000
2044,-15.625000
2045,-15.625000
2046,-15.625000
2047,-15.625000
2048,-11.718750
2049,-11.718750
2050,-11.718750
2051,-11.718750
2052,-11.718750
2053,-11.718750
2054,-11.718750
2055,-11.718750
2056,-11.718750
2057,-7.812500
2058,-11.718750
2059,-7.812500
2060,-7.812500
2061,-7.812500
2062,-7.812500
2063,-7.812500
2064,-7.812500
2065,-7.812500
2066,-7.812500
2067,-7.812500
2068,-3.906250
2069,-3.906250
2070,-3.906250
2071,-3.906250
2072,-3.906250
2073,-3.906250
2074,-3.906250
2075,-3.906250
2076,-3.906250
2077,0.000000
2078,0.000000
2079,-3.906250
2080,-3.906250
2081,0.000000
2082,0.000000
2083,0.000000
2084,0.000000
2085,0.000000
2086,0.000000
2087,0.000000
2088,0.000000
2089,3.906250
2090,3.906250
2091,3.906250
2092,3.906250
2093,3.906250
2094,3.906250
2095,3.906250
2096,3.906250
2097,3.906250
2098,3.906250
2099,3.906250
2100,3.906250
2101,7.812500
2102,7.812500
2103,7.812500
2104,7.812500
2105,7.812500
2106,7.812500
2107,7.812500
2108,7.812500
2109,11.718750
2110,7.812500
2111,11.718750
2112,11.718750
2113,11.718750
2114,11.718750
2115,11.718750
2116,11.718750
2117,11.718750
2118,11.718750
2119,11.718750
2120,11.718750
2121,11.718750
2122,11.718750
2123,11.718750
2124,15.625000
2125,15.625000
2126,15.625000
2127,15.625000
2128,15.625000
2129,15.625000
2130,15.625000
2131,15.625000
2132,15.625000
2133,19.531250
2134,19.531250
2135,15.625000
2136,15.625000
2137,19.531250
2138,19.531250
2139,19.531250
2140,19.531250
2141,19.531250
2142,19.531250
2143,19.531250
2144,19.531250
2145,19.531250
2146,23.437500
2147,23.437500
2148,23.437500
2149,23.437500
2150,23.437500
2151,23.437500
2152,23.437500
2153,23.437500
2154,23.437500
2155,23.437500
2156,23.437500
2157,23.437500
2158,23.437500
2159,23.437500
2160,23.437500
2161,23.437500
2162,27.343750
2163,27.343750
2164,27.343750
2165,27.343750
2166,27.343750
2167,27.343750
2168,27.343750
2169,27.343750
2170,27.343750
2171,27.343750
2172,27.343750
2173,27.343750
2174,31.250000
2175,27.343750
2176,27.343750
2177,31.250000
2178,31.250000
2179,31.250000
2180,31.250000
2181,31.250000
2182,31.250000
2183,31.250000
2184,31.250000
2185,31.250000
2186,31.250000
2187,31.250000
2188,31.250000
2189,35.156250
2190,31.250000
2191,31.250000
2192,31.250000
2193,31.250000
2194,35.156250
2195,35.156250
2196,35.156250
2197,35.156250
2198,35.156250
2199,35.156250
2200,35.156250
2201,35.156250
2202,35.156250
2203,35.156250
2204,35.156250
2205,35.156250
2206,35.156250
2207,35.156250
2208,35.156250
2209,35.156250
2210,35.156250
2211,35.156250
2212,39.062500
2213,39.062500
2214,39.062500
2215,39.062500
2216,39.062500
2217,39.062500
2218,39.062500
2219,39.062500
2220,39.062500
2221,39.062500
2222,39.062500
2223,39.062500
2224,39.062500
2225,39.062500
2226,39.062500
2227,39.062500
2228,39.062500
2229,39.062500
2230,39.062500
2231,39.062500
2232,39.062500
2233,39.062500
2234,39.062500
2235,39.062500
2236,42.968750
2237,39.062500
2238,42.968750
2239,42.968750
2240,42.968750
2241,42.968750
2242,42.968750
2243,42.968750
2244,42.968750
2245,42.968750
2246,42.968750
2247,42.968750
2248,42.968750
2249,42.968750
2250,42.968750
2251,42.968750
2252,42.968750
2253,42.968750
2254,42.968750
2255,42.968750
2256,42.968750
2257,42.968750
2258,42.968750
2259,42.968750
2260,42.968750
2261,42.968750
2262,42.968750
2263,42.968750
2264,42.968750
2265,42.968750
2266,42.968750
2267,42.968750
2268,42.968750
2269,42.968750
2270,42.968750
2271,42.968750
2272,42.968750
2273,42.968750
2274,46.875000
2275,42.968750
2276,46.875000
2277,46.875000
2278,46.875000
2279,42.968750
2280,46.875000
2281,46.875000
2282,46.875000
2283,46.875000
2284,46.875000
2285,46.875000
2286,46.875000
2287,46.875000
2288,46.875000
2289,46.875000
2290,46.875000
2291,46.875000
2292,46.875000
2293,46.875000
2294,46.875000
2295,46.875000
2296,46.875000
2297,46.875000
2298,46.875000
2299,46.875000
2300,46.875000
2301,46.875000
2302,46.875000
2303,46.875000
2304,46.875000
2305,46.875000
2306,46.875000
2307,46.875000
2308,46.875000
2309,46.875000
2310,46.875000
2311,46.875000
2312,42.968750
2313,46.875000
2314,46.875000
2315,46.875000
2316,46.875000
2317,46.875000
2318,46.875000
2319,46.875000
2320,42.968750
2321,46.875000
2322,46.875000
2323,46.875000
2324,46.875000
2325,46.875000
2326,46.875000
2327,46.875000
2328,46.875000
2329,46.875000
2330,42.968750
2331,46.875000
2332,42.968750
2333,42.968750
2334,42.968750
2335,42.968750
2336,42.968750
2337,46.875000
2338,42.968750
2339,42.968750
2340,42.968750
2341,42.968750
2342,42.968750
2343,42.968750
2344,42.968750
2345,42.968750
2346,42.968750
2347,42.968750
2348,42.968750
2349,42.968750
2350,42.968750
2351,42.968750
2352,42.968750
2353,42.968750
2354,42.968750
2355,42.968750
2356,42.968750
2357,42.968750
2358,42.968750
2359,42.968750
2360,42.968750
2361,42.968750
2362,42.968750
2363,42.968750
2364,42.968750
2365,42.968750
2366,42.968750
2367,42.968750
2368,42.968750
2369,39.062500
2370,39.062500
2371,42.968750
2372,39.062500
2373,39.062500
2374,39.062500
2375,39.062500
2376,39.062500
2377,39.062500
2378,39.062500
2379,39.062500
2380,39.062500
2381,39.062500
2382,39.062500
2383,39.062500
2384,39.062500
2385,39.062500
2386,39.062500
2387,39.062500
2388,39.062500
2389,39.062500
2390,35.156250
2391,39.062500
2392,39.062500
2393,39.062500
2394,35.156250
2395,35.156250
2396,35.156250
2397,35.156250
2398,35.156250
2399,35.156250
2400,35.156250
2401,35.156250
2402,35.156250
2403,35.156250
2404,35.156250
2405,35.156250
2406,35.156250
2407,35.156250
2408,35.156250
2409,35.156250
2410,35.156250
2411,35.156250
2412,35.156250
2413,31.250000
2414,35.156250
2415,31.250000
2416,31.250000
2417,31.250000
2418,31.250000
2419,31.250000
2420,31.250000
2421,31.250000
2422,31.250000
2423,31.250000
2424,31.250000
2425,31.250000
2426,31.250000
2427,31.250000
2428,27.343750
2429,27.343750
2430,31.250000
2431,31.250000
2432,31.250000
2433,27.343750
2434,27.343750
2435,27.343750
2436,27.343750
2437,27.343750
2438,27.343750
2439,27.343750
2440,27.343750
2441,27.343750
2442,27.343750
2443,27.343750
2444,27.343750
2445,27.343750
2446,23.437500
2447,23.437500
2448,23.437500
2449,23.437500
2450,23.437500
2451,23.437500
2452,23.437500
2453,23.437500
2454,23.437500
2455,23.437500
2456,23.437500
2457,23.437500
2458,23.437500
2459,23.437500
2460,23.437500
2461,19.531250
2462,19.531250
2463,19.531250
2464,19.531250
2465,19.531250
2466,19.531250
2467,19.531250
2468,19.531250
2469,19.531250
2470,19.531250
2471,19.531250
2472,15.625000
2473,15.625000
2474,15.625000
2475,15.625000
2476,15.625000
2477,15.625000
2478,15.625000
2479,15.625000
2480,15.625000
2481,15.625000
2482,15.625000
2483,15.625000
2484,11.718750
2485,11.718750
2486,11.718750
2487,11.718750
2488,11.718750
2489,11.718750
2490,11.718750
2491,11.718750
2492,7.812500
2493,11.718750
2494,11.718750
2495,7.812500
2496,7.812500
2497,7.812500
2498,7.812500
2499,7.812500
2500,7.812500
2501,7.812500
2502,7.812500
2503,7.812500
2504,3.906250
2505,3.906250
2506,3.906250
2507,3.906250
2508,3.906250
2509,3.906250
2510,3.906250
2511,3.906250
2512,3.906250
2513,3.906250
2514,3.906250
2515,3.906250
2516,0.000000
2517,0.000000
2518,0.000000
2519,0.000000
2520,0.000000
2521,0.000000
2522,0.000000
2523,0.000000
2524,0.000000
2525,0.000000
2526,-3.906250
2527,-3.906250
2528,-3.906250
2529,-3.906250
2530,-3.906250
2531,-3.906250
2532,-3.906250
2533,-3.906250
2534,-3.906250
2535,-3.906250
2536,-3.906250
2537,-3.906250
2538,-7.812500
2539,-7.812500
2540,-7.812500
2541,-7.812500
2542,-7.812500
2543,-7.812500
2544,-7.812500
2545,-7.812500
2546,-7.812500
2547,-7.812500
2548,-11.718750
2549,-11.718750
2550,-11.718750
2551,-11.718750
2552,-11.718750
2553,-11.718750
2554,-11.718750
2555,-11.718750
2556,-11.718750
2557,-11.718750
2558,-15.625000
2559,-15.625000
2560,-15.625000
2561,-15.625000
2562,-15.625000
2563,-15.625000
2564,-15.625000
2565,-15.625000
2566,-15.625000
2567,-15.625000
2568,-19.531250
2569,-19.531250
2570,-19.531250
2571,-19.531250
2572,-19.531250
2573,-19.531250
2574,-19.531250
2575,-19.531250
2576,-19.531250
2577,-19.531250
2578,-23.437500
2579,-23.437500
2580,-23.437500
2581,-23.437500
2582,-23.437500
2583,-23.437500
2584,-23.437500
2585,-23.437500
2586,-23.437500
2587,-23.437500
2588,-27.343750
2589,-27.343750
2590,-27.343750
2591,-27.343750
2592,-27.343750
2593,-27.343750
2594,-27.343750
2595,-27.343750
2596,-27.343750
2597,-27.343750
2598,-31.250000
2599,-31.250000
2600,-31.250000
2601,-31.250000
2602,-31.250000
2603,-31.250000
2604,-31.250000
2605,-31.250000
2606,-31.250000
2607,-31.250000
2608,-35.156250
2609,-31.250000
2610,-35.156250
2611,-35.156250
2612,-35.156250
2613,-35.156250
2614,-35.156250
2615,-35.156250
2616,-35.156250
2617,-35.156250
2618,-39.062500
2619,-39.062500
2620,-39.062500
2621,-39.062500
2622,-39.062500
2623,-39.062500
2624,-39.062500
2625,-39.062500
2626,-39.062500
2627,-39.062500
2628,-39.062500
2629,-39.062500
2630,-39.062500
2631,-42.968750
2632,-42.968750
2633,-42.968750
2634,-42.968750
2635,-42.968750
2636,-42.968750
2637,-42.968750
2638,-42.968750
2639,-46.875000
2640,-46.875000
2641,-46.875000
2642,-46.875000
2643,-46.875000
2644,-46.875000
2645,-46.875000
2646,-46.875000
2647,-46.875000
2648,-50.781250
2649,-46.875000
2650,-46.875000
2651,-46.875000
2652,-50.781250
2653,-50.781250
2654,-50.781250
2655,-50.781250
2656,-50.781250
2657,-50.781250
2658,-50.781250
2659,-50.781250
2660,-50.781250
2661,-50.781250
2662,-50.781250
2663,-50.781250
2664,-54.687500
2665,-54.687500
2666,-54.687500
2667,-54.687500
2668,-54.687500
2669,-54.687500
2670,-54.687500
2671,-54.687500
2672,-54.687500
2673,-54.687500
2674,-54.687500
2675,-54.687500
2676,-58.593750
2677,-58.593750
2678,-58.593750
2679,-58.593750
2680,-58.593750
2681,-58.593750
2682,-58.593750
2683,-58.593750
2684,-58.593750
2685,-58.593750
2686,-58.593750
2687,-58.593750
2688,-58.593750
2689,-58.593750
2690,-58.593750
2691,-62.500000
2692,-62.500000
2693,-62.500000
2694,-62.500000
2695,-62.500000
2696,-62.500000
2697,-62.500000
2698,-62.500000
2699,-62.500000
2700,-62.500000
2701,-62.500000
2702,-62.500000
2703,-62.500000
2704,-62.500000
2705,-66.406250
2706,-66.406250
2707,-66.406250
2708,-66.406250
2709,-66.406250
2710,-66.406250
2711,-66.406250
2712,-66.406250
2713,-66.406250
2714,-66.406250
2715,-66.406250
2716,-66.406250
2717,-66.406250
2718,-66.406250
2719,-66.406250
2720,-66.406250
2721,-66.406250
2722,-66.406250
2723,-66.406250
2724,-66.406250
2725,-66.406250
2726,-70.312500
2727,-70.312500
2728,-70.312500
2729,-70.312500
2730,-70.312500
2731,-70.312500
2732,-70.312500
2733,-70.312500
2734,-70.312500
2735,-70.312500
2736,-70.312500
2737,-70.312500
2738,-70.312500
2739,-70.312500
2740,-70.312500
2741,-70.312500
2742,-70.312500
2743,-70.312500
2744,-70.312500
2745,-70.312500
2746,-70.312500
2747,-70.312500
2748,-74.218750
2749,-70.312500
2750,-74.218750
2751,-74.218750
2752,-74.218750
2753,-74.218750
2754,-74.218750
2755,-74.218750
2756,-74.218750
2757,-74.218750
2758,-74.218750
2759,-74.218750
2760,-74.218750
2761,-74.218750
2762,-74.218750
2763,-74.218750
2764,-74.218750
2765,-74.218750
2766,-74.218750
2767,-74.218750
2768,-74.218750
2769,-74.218750
2770,-74.218750
2771,-74.218750
2772,-74.218750
2773,-74.218750
2774,-74.218750
2775,-74.218750
2776,-74.218750
2777,-74.218750
2778,-74.218750
2779,-74.218750
2780,-74.218750
2781,-74.218750
2782,-74.218750
2783,-74.218750
2784,-74.218750
2785,-74.218750
2786,-74.218750
2787,-74.218750
2788,-74.218750
2789,-74.218750
2790,-74.218750
2791,-78.125000
2792,-74.218750
2793,-74.218750
2794,-74.218750
2795,-74.218750
2796,-74.218750
2797,-74.218750
2798,-74.218750
2799,-74.218750
2800,-74.218750
2801,-74.218750
2802,-78.125000
2803,-74.218750
2804,-74.218750
2805,-74.218750
2806,-74.218750
2807,-74.218750
2808,-74.218750
2809,-74.218750
2810,-74.218750
2811,-74.218750
2812,-74.218750
2813,-74.218750
2814,-74.218750
2815,-74.218750
2816,-74.218750
2817,-74.218750
2818,-74.218750
2819,-74.218750
2820,-74.218750
2821,-74.218750
2822,-74.218750
2823,-74.218750
2824,-74.218750
2825,-74.218750
2826,-74.218750
2827,-74.218750
2828,-74.218750
2829,-74.218750
2830,-74.218750
2831,-74.218750
2832,-74.218750
2833,-74.218750
2834,-74.218750
2835,-74.218750
2836,-74.218750
2837,-74.218750
2838,-74.218750
2839,-74.218750
2840,-74.218750
2841,-74.218750
2842,-74.218750
2843,-74.218750
2844,-74.218750
2845,-74.218750
2846,-74.218750
2847,-74.218750
2848,-70.312500
2849,-70.312500
2850,-70.312500
2851,-70.312500
2852,-70.312500
2853,-70.312500
2854,-70.312500
2855,-70.312500
2856,-70.312500
2857,-70.312500
2858,-70.312500
2859,-70.312500
2860,-70.312500
2861,-70.312500
2862,-70.312500
2863,-70.312500
2864,-70.312500
2865,-70.312500
2866,-70.312500
2867,-70.312500
2868,-70.312500
2869,-66.406250
2870,-70.312500
2871,-70.312500
2872,-70.312500
2873,-70.312500
2874,-66.406250
2875,-66.406250
2876,-66.406250
2877,-66.406250
2878,-66.406250
2879,-66.406250
2880,-66.406250
2881,-66.406250
2882,-66.406250
2883,-66.406250
2884,-66.406250
2885,-66.406250
2886,-66.406250
2887,-66.406250
2888,-66.406250
2889,-62.500000
2890,-66.406250
2891,-62.500000
2892,-62.500000
2893,-62.500000
2894,-62.500000
2895,-62.500000
2896,-62.500000
2897,-62.500000
2898,-62.500000
2899,-62.500000
2900,-62.500000
2901,-62.500000
2902,-62.500000
2903,-62.500000
2904,-62.500000
2905,-62.500000
2906,-58.593750
2907,-58.593750
2908,-58.593750
2909,-58.593750
2910,-58.593750
2911,-58.593750
2912,-58.593750
2913,-58.593750
2914,-58.593750
2915,-58.593750
2916,-58.593750
2917,-58.593750
2918,-58.593750
2919,-58.593750
2920,-58.593750
2921,-54.687500
2922,-54.687500
2923,-54.687500
2924,-54.687500
2925,-54.687500
2926,-54.687500
2927,-54.687500
2928,-54.687500
2929,-54.687500
2930,-54.687500
2931,-54.687500
2932,-54.687500
2933,-50.781250
2934,-50.781250
2935,-50.781250
2936,-50.781250
2937,-50.781250
2938,-50.781250
2939,-50.781250
2940,-50.781250
2941,-50.781250
2942,-50.781250
2943,-50.781250
2944,-50.781250
2945,-50.781250
2946,-46.875000
2947,-46.875000
2948,-46.875000
2949,-46.875000
2950,-46.875000
2951,-46.875000
2952,-46.875000
2953,-46.875000
2954,-46.875000
2955,-42.968750
2956,-42.968750
2957,-42.968750
2958,-42.968750
2959,-42.968750
2960,-42.968750
2961,-42.968750
2962,-42.968750
2963,-42.968750
2964,-42.968750
2965,-42.968750
2966,-42.968750
2967,-39.062500
2968,-39.062500
2969,-39.062500
2970,-39.062500
2971,-39.062500
2972,-39.062500
2973,-39.062500
2974,-39.062500
2975,-39.062500
2976,-35.156250
2977,-39.062500
2978,-35.156250
2979,-35.156250
2980,-35.156250
2981,-35.156250
2982,-35.156250
2983,-35.156250
2984,-35.156250
2985,-35.156250
2986,-35.156250
2987,-35.156250
2988,-31.250000
2989,-31.250000
2990,-31.250000
2991,-31.250000
2992,-31.250000
2993,-31.250000
2994,-31.250000
2995,-31.250000
2996,-31.250000
2997,-31.250000
2998,-31.250000
2999,-27.343750
3000,-27.343750
3001,-27.343750
3002,-27.343750
3003,-27.343750
3004,-27.343750
3005,-27.343750
3006,-27.343750
3007,-27.343750
3008,-23.437500
3009,-23.437500
3010,-23.437500
3011,-23.437500
3012,-23.437500
3013,-23.437500
3014,-23.437500
3015,-23.437500
3016,-23.437500
3017,-23.437500
3018,-19.531250
3019,-19.531250
3020,-19.531250
3021,-19.531250
3022,-19.531250
3023,-19.531250
3024,-19.531250
3025,-19.531250
3026,-19.531250
3027,-15.625000
3028,-19.531250
3029,-15.625000
3030,-15.625000
3031,-15.625000
3032,-15.625000
3033,-15.625000
3034,-15.625000
3035,-15.625000
3036,-15.625000
3037,-15.625000
3038,-15.625000
3039,-11.718750
3040,-11.718750
3041,-11.718750
3042,-11.718750
3043,-11.718750
3044,-11.718750
3045,-11.718750
3046,-11.718750
3047,-11.718750
3048,-11.718750
3049,-11.718750
3050,-7.812500
3051,-7.812500
3052,-7.812500
3053,-7.812500
3054,-7.812500
3055,-7.812500
3056,-7.812500
3057,-7.812500
3058,-3.906250
3059,-3.906250
3060,-3.906250
3061,-3.906250
3062,-3.906250
3063,-3.906250
3064,-3.906250
3065,-3.906250
3066,-3.906250
3067,-3.906250
3068,-3.906250
3069,-3.906250
3070,-3.906250
3071,0.000000
3072,0.000000
3073,0.000000
3074,0.000000
3075,0.000000
3076,0.000000
3077,0.000000
3078,0.000000
3079,3.906250
3080,3.906250
3081,3.906250
3082,3.906250
3083,3.906250
3084,3.906250
3085,3.906250
3086,3.906250
3087,3.906250
3088,3.906250
3089,7.812500
3090,7.812500
3091,7.812500
3092,7.812500
3093,7.812500
3094,7.812500
3095,7.812500
3096,7.812500
3097,7.812500
3098,7.812500
3099,7.812500
3100,7.812500
3101,7.812500
3102,7.812500
3103,11.718750
3104,11.718750
3105,11.718750
3106,11.718750
3107,11.718750
3108,11.718750
3109,11.718750
3110,11.718750
3111,11.718750
3112,15.625000
3113,15.625000
3114,15.625000
3115,15.625000
3116,15.625000
3117,15.625000
3118,15.625000
3119,15.625000
3120,15.625000
3121,15.625000
3122,15.625000
3123,15.625000
3124,15.625000
3125,19.531250
3126,19.531250
3127,19.531250
3128,19.531250
3129,19.531250
3130,19.531250
3131,19.531250
3132,19.531250
3133,19.531250
3134,19.531250
3135,19.531250
3136,19.531250
3137,19.531250
3138,19.531250
3139,23.437500
3140,23.437500
3141,23.437500
3142,23.437500
3143,23.437500
3144,23.437500
3145,23.437500
3146,23.437500
3147,23.437500
3148,23.437500
3149,23.437500
3150,23.437500
3151,23.437500
3152,23.437500
3153,27.343750
3154,27.343750
3155,27.343750
3156,27.343750
3157,27.343750
3158,27.343750
3159,27.343750
3160,27.343750
3161,27.343750
3162,27.343750
3163,27.343750
3164,27.343750
3165,27.343750
3166,27.343750
3167,27.343750
3168,31.250000
3169,31.250000
3170,31.250000
3171,31.250000
3172,31.250000
3173,31.250000
3174,31.250000
3175,31.250000
3176,31.250000
3177,31.250000
3178,31.250000
3179,31.250000
3180,31.250000
3181,35.156250
3182,35.156250
3183,31.250000
3184,35.156250
3185,35.156250
3186,35.156250
3187,35.156250
3188,35.156250
3189,35.156250
3190,35.156250
3191,35.156250
3192,35.156250
3193,35.156250
3194,35.156250
3195,35.156250
3196,35.156250
3197,35.156250
3198,35.156250
3199,35.156250
3200,39.062500
3201,39.062500
3202,39.062500
3203,39.062500
3204,39.062500
3205,39.062500
3206,39.062500
3207,39.062500
3208,39.062500
3209,39.062500
3210,39.062500
3211,39.062500
3212,39.062500
3213,39.062500
3214,39.062500
3215,39.062500
3216,39.062500
3217,39.062500
3218,39.062500
3219,39.062500
3220,39.062500
3221,42.968750
3222,39.062500
3223,42.968750
3224,42.968750
3225,42.968750
3226,42.968750
3227,39.062500
3228,42.968750
3229,42.968750
3230,42.968750
3231,42.968750
3232,42.968750
3233,42.968750
3234,42.968750
3235,42.968750
3236,42.968750
3237,42.968750
3238,42.968750
3239,42.968750
3240,42.968750
3241,42.968750
3242,42.968750
3243,42.968750
3244,42.968750
3245,42.968750
3246,42.968750
3247,42.968750
3248,42.968750
3249,42.968750
3250,42.968750
3251,42.968750
3252,42.968750
3253,42.968750
3254,42.968750
3255,42.968750
3256,42.968750
3257,46.875000
3258,46.875000
3259,42.968750
3260,42.968750
3261,46.875000
3262,46.875000
3263,46.875000
3264,46.875000
3265,42.968750
3266,46.875000
3267,42.968750
3268,42.968750
3269,46.875000
3270,46.875000
3271,46.875000
3272,46.875000
3273,46.875000
3274,46.875000
3275,46.875000
3276,46.875000
3277,46.875000
3278,46.875000
3279,46.875000
3280,46.875000
3281,46.875000
3282,46.875000
3283,46.875000
3284,46.875000
3285,46.875000
3286,46.875000
3287,46.875000
3288,46.875000
3289,46.875000
3290,46.875000
3291,46.875000
3292,46.875000
3293,46.875000
3294,46.875000
3295,46.875000
3296,46.875000
3297,46.875000
3298,46.875000
3299,46.875000
3300,42.968750
3301,46.875000
3302,46.875000
3303,46.875000
3304,46.875000
3305,46.875000
3306,46.875000
3307,46.875000
3308,46.875000
3309,46.875000
3310,46.875000
3311,46.875000
3312,46.875000
3313,46.875000
3314,46.875000
3315,46.875000
3316,46.875000
3317,42.968750
3318,42.968750
3319,42.968750
3320,42.968750
3321,46.875000
3322,46.875000
3323,46.875000
3324,46.875000
3325,42.968750
3326,42.968750
3327,42.968750
3328,42.968750
3329,42.968750
3330,42.968750
3331,42.968750
3332,42.968750
3333,42.968750
3334,42.968750
3335,42.968750
3336,42.968750
3337,42.968750
3338,42.968750
3339,42.968750
3340,42.968750
3341,42.968750
3342,42.968750
3343,42.968750
3344,42.968750
3345,42.968750
3346,42.968750
3347,42.968750
3348,42.968750
3349,42.968750
3350,42.968750
3351,42.968750
3352,42.968750
3353,42.968750
3354,42.968750
3355,42.968750
3356,42.968750
3357,42.968750
3358,42.968750
3359,42.968750
3360,42.968750
3361,39.062500
3362,39.062500
3363,39.062500
3364,39.062500
3365,39.062500
3366,39.062500
3367,39.062500
3368,39.062500
3369,39.062500
3370,39.062500
3371,39.062500
3372,39.062500
3373,39.062500
3374,39.062500
3375,39.062500
3376,39.062500
3377,39.062500
3378,39.062500
3379,39.062500
3380,39.062500
3381,39.062500
3382,39.062500
3383,39.062500
3384,35.156250
3385,35.156250
3386,35.156250
3387,35.156250
3388,35.156250
3389,35.156250
3390,35.156250
3391,35.156250
3392,35.156250
3393,35.156250
3394,35.156250
3395,35.156250
3396,35.156250
3397,35.156250
3398,35.156250
3399,35.156250
3400,35.156250
3401,35.156250
3402,31.250000
3403,31.250000
3404,31.250000
3405,31.250000
3406,31.250000
3407,31.250000
3408,31.250000
3409,31.250000
3410,31.250000
3411,31.250000
3412,31.250000
3413,31.250000
3414,31.250000
3415,31.250000
3416,27.343750
3417,27.343750
3418,31.250000
3419,31.250000
3420,27.343750
3421,31.250000
3422,27.343750
3423,27.343750
3424,27.343750
3425,27.343750
3426,27.343750
3427,27.343750
3428,27.343750
3429,27.343750
3430,27.343750
3431,27.343750
3432,27.343750
3433,27.343750
3434,23.437500
3435,23.437500
3436,23.437500
3437,23.437500
3438,23.437500
3439,23.437500
3440,23.437500
3441,23.437500
3442,23.437500
3443,23.437500
3444,23.437500
3445,23.437500
3446,19.531250
3447,19.531250
3448,19.531250
3449,19.531250
3450,19.531250
3451,19.531250
3452,19.531250
3453,19.531250
3454,19.531250
3455,19.531250
3456,19.531250
3457,19.531250
3458,19.531250
3459,19.531250
3460,19.531250
3461,15.625000
3462,15.625000
3463,15.625000
3464,15.625000
3465,15.625000
3466,15.625000
3467,15.625000
3468,15.625000
3469,15.625000
3470,15.625000
3471,15.625000
3472,15.625000
3473,11.718750
3474,11.718750
3475,11.718750
3476,11.718750
3477,11.718750
3478,11.718750
3479,11.718750
3480,11.718750
3481,11.718750
3482,11.718750
3483,11.718750
3484,7.812500
3485,7.812500
3486,7.812500
3487,7.812500
3488,7.812500
3489,7.812500
3490,7.812500
3491,7.812500
3492,7.812500
3493,7.812500
3494,7.812500
3495,3.906250
3496,3.906250
3497,3.906250
3498,3.906250
3499,3.906250
3500,3.906250
3501,3.906250
3502,3.906250
3503,3.906250
3504,3.906250
3505,3.906250
3506,3.906250
3507,0.000000
3508,0.000000
3509,0.000000
3510,0.000000
3511,0.000000
3512,0.000000
3513,0.000000
3514,0.000000
3515,0.000000
3516,0.000000
3517,-3.906250
3518,-3.906250
3519,-3.906250
3520,-3.906250
3521,-3.906250
3522,-3.906250
3523,-3.906250
3524,-3.906250
3525,-3.906250
3526,-3.906250
3527,-3.906250
3528,-7.812500
3529,-7.812500
3530,-7.812500
3531,-7.812500
3532,-7.812500
3533,-7.812500
3534,-7.812500
3535,-7.812500
3536,-11.718750
3537,-7.812500
3538,-11.718750
3539,-11.718750
3540,-11.718750
3541,-11.718750
3542,-11.718750
3543,-11.718750
3544,-11.718750
3545,-11.718750
3546,-15.625000
3547,-11.718750
3548,-15.625000
3549,-15.625000
3550,-15.625000
3551,-15.625000
3552,-15.625000
3553,-15.625000
3554,-15.625000
3555,-15.625000
3556,-15.625000
3557,-19.531250
3558,-19.531250
3559,-19.531250
3560,-19.531250
3561,-19.531250
3562,-19.531250
3563,-19.531250
3564,-19.531250
3565,-19.531250
3566,-23.437500
3567,-23.437500
3568,-23.437500
3569,-23.437500
3570,-23.437500
3571,-23.437500
3572,-23.437500
3573,-23.437500
3574,-23.437500
3575,-23.437500
3576,-27.343750
3577,-27.343750
3578,-27.343750
3579,-27.343750
3580,-27.343750
3581,-27.343750
3582,-27.343750
3583,-27.343750
3584,-27.343750
3585,-27.343750
3586,-27.343750
3587,-31.250000
3588,-31.250000
3589,-31.250000
3590,-31.250000
3591,-31.250000
3592,-31.250000
3593,-31.250000
3594,-31.250000
3595,-31.250000
3596,-31.250000
3597,-31.250000
3598,-31.250000
3599,-35.156250
3600,-35.156250
3601,-35.156250
3602,-35.156250
3603,-35.156250
3604,-35.156250
3605,-35.156250
3606,-35.156250
3607,-35.156250
3608,-39.062500
3609,-39.062500
3610,-39.062500
3611,-39.062500
3612,-39.062500
3613,-39.062500
3614,-39.062500
3615,-39.062500
3616,-39.062500
3617,-39.062500
3618,-39.062500
3619,-42.968750
3620,-42.968750
3621,-42.968750
3622,-42.968750
3623,-42.968750
3624,-42.968750
3625,-42.968750
3626,-42.968750
3627,-42.968750
3628,-42.968750
3629,-42.968750
3630,-46.875000
3631,-46.875000
3632,-46.875000
3633,-46.875000
3634,-46.875000
3635,-46.875000
3636,-46.875000
3637,-46.875000
3638,-46.875000
3639,-46.875000
3640,-50.781250
3641,-50.781250
3642,-50.781250
3643,-50.781250
3644,-50.781250
3645,-50.781250
3646,-50.781250
3647,-50.781250
3648,-50.781250
3649,-50.781250
3650,-50.781250
3651,-50.781250
3652,-54.687500
3653,-50.781250
3654,-54.687500
3655,-54.687500
3656,-54.687500
3657,-54.687500
3658,-54.687500
3659,-54.687500
3660,-54.687500
3661,-54.687500
3662,-54.687500
3663,-54.687500
3664,-54.687500
3665,-54.687500
3666,-58.593750
3667,-58.593750
3668,-58.593750
3669,-58.593750
3670,-58.593750
3671,-58.593750
3672,-58.593750
3673,-58.593750
3674,-58.593750
3675,-58.593750
3676,-58.593750
3677,-58.593750
3678,-58.593750
3679,-58.593750
3680,-62.500000
3681,-58.593750
3682,-62.500000
3683,-62.500000
3684,-62.500000
3685,-62.500000
3686,-62.500000
3687,-62.500000
3688,-62.500000
3689,-66.406250
3690,-62.500000
3691,-62.500000
3692,-66.406250
3693,-62.500000
3694,-62.500000
3695,-66.406250
3696,-66.406250
3697,-66.406250
3698,-66.406250
3699,-66.406250
3700,-66.406250
3701,-66.406250
3702,-66.406250
3703,-66.406250
3704,-70.312500
3705,-66.406250
3706,-66.406250
3707,-66.406250
3708,-66.406250
3709,-66.406250
3710,-66.406250
3711,-66.406250
3712,-66.406250
3713,-66.406250
3714,-66.406250
3715,-70.312500
3716,-70.312500
3717,-70.312500
3718,-70.312500
3719,-70.312500
3720,-70.312500
3721,-70.312500
3722,-70.312500
3723,-70.312500
3724,-70.312500
3725,-70.312500
3726,-70.312500
3727,-70.312500
3728,-70.312500
3729,-70.312500
3730,-70.312500
3731,-70.312500
3732,-70.312500
3733,-70.312500
3734,-70.312500
3735,-70.312500
3736,-70.312500
3737,-70.312500
3738,-70.312500
3739,-74.218750
3740,-74.218750
3741,-74.218750
3742,-74.218750
3743,-74.218750
3744,-74.218750
3745,-74.218750
3746,-74.218750
3747,-74.218750
3748,-74.218750
3749,-74.218750
3750,-74.218750
3751,-74.218750
3752,-74.218750
3753,-74.218750
3754,-74.218750
3755,-74.218750
3756,-74.218750
3757,-74.218750
3758,-74.218750
3759,-74.218750
3760,-74.218750
3761,-74.218750
3762,-74.218750
3763,-74.218750
3764,-74.218750
3765,-74.218750
3766,-74.218750
3767,-74.218750
3768,-74.218750
3769,-74.218750
3770,-74.218750
3771,-74.218750
3772,-74.218750
3773,-74.218750
3774,-74.218750
3775,-74.218750
3776,-74.218750
3777,-74.218750
3778,-74.218750
3779,-74.218750
3780,-74.218750
3781,-74.218750
3782,-74.218750
3783,-74.218750
3784,-74.218750
3785,-74.218750
3786,-74.218750
3787,-74.218750
3788,-74.218750
3789,-74.218750
3790,-74.218750
3791,-74.218750
3792,-74.218750
3793,-74.218750
3794,-74.218750
3795,-74.218750
3796,-74.218750
3797,-74.218750
3798,-74.218750
3799,-74.218750
3800,-74.218750
3801,-74.218750
3802,-74.218750
3803,-74.218750
3804,-74.218750
3805,-74.218750
3806,-74.218750
3807,-74.218750
3808,-74.218750
3809,-74.218750
3810,-74.218750
3811,-74.218750
3812,-74.218750
3813,-74.218750
3814,-74.218750
3815,-74.218750
3816,-74.218750
3817,-74.218750
3818,-74.218750
3819,-74.218750
3820,-78.125000
3821,-74.218750
3822,-74.218750
3823,-74.218750
3824,-74.218750
3825,-74.218750
3826,-74.218750
3827,-74.218750
3828,-74.218750
3829,-74.218750
3830,-74.218750
3831,-74.218750
3832,-74.218750
3833,-74.218750
3834,-74.218750
3835,-70.312500
3836,-74.218750
3837,-70.312500
3838,-70.312500
3839,-70.312500
3840,-74.218750
3841,-70.312500
3842,-70.312500
3843,-70.312500
3844,-70.312500
3845,-70.312500
3846,-70.312500
3847,-70.312500
3848,-70.312500
3849,-70.312500
3850,-70.312500
3851,-70.312500
3852,-70.312500
3853,-70.312500
3854,-70.312500
3855,-70.312500
3856,-70.312500
3857,-70.312500
3858,-70.312500
3859,-70.312500
3860,-70.312500
3861,-66.406250
3862,-66.406250
3863,-66.406250
3864,-66.406250
3865,-66.406250
3866,-66.406250
3867,-66.406250
3868,-66.406250
3869,-66.406250
3870,-66.406250
3871,-66.406250
3872,-66.406250
3873,-66.406250
3874,-66.406250
3875,-66.406250
3876,-62.500000
3877,-62.500000
3878,-66.406250
3879,-66.406250
3880,-62.500000
3881,-62.500000
3882,-62.500000
3883,-62.500000
3884,-62.500000
3885,-62.500000
3886,-62.500000
3887,-62.500000
3888,-62.500000
3889,-62.500000
3890,-62.500000
3891,-62.500000
3892,-62.500000
3893,-62.500000
3894,-62.500000
3895,-58.593750
3896,-62.500000
3897,-58.593750
3898,-58.593750
3899,-58.593750
3900,-58.593750
3901,-58.593750
3902,-58.593750
3903,-58.593750
3904,-58.593750
3905,-58.593750
3906,-58.593750
3907,-58.593750
3908,-58.593750
3909,-54.687500
3910,-54.687500
3911,-54.687500
3912,-54.687500
3913,-54.687500
3914,-54.687500
3915,-54.687500
3916,-54.687500
3917,-54.687500
3918,-54.687500
3919,-54.687500
3920,-54.687500
3921,-50.781250
3922,-50.781250
3923,-50.781250
3924,-50.781250
3925,-50.781250
3926,-50.781250
3927,-50.781250
3928,-50.781250
3929,-50.781250
3930,-50.781250
3931,-50.781250
3932,-50.781250
3933,-50.781250
3934,-46.875000
3935,-46.875000
3936,-46.875000
3937,-46.875000
3938,-46.875000
3939,-46.875000
3940,-46.875000
3941,-46.875000
3942,-46.875000
3943,-46.875000
3944,-46.875000
3945,-42.968750
3946,-42.968750
3947,-42.968750
3948,-42.968750
3949,-42.968750
3950,-42.968750
3951,-42.968750
3952,-42.968750
3953,-42.968750
3954,-42.968750
3955,-42.968750
3956,-42.968750
3957,-42.968750
3958,-39.062500
3959,-39.062500
3960,-39.062500
3961,-39.062500
3962,-39.062500
3963,-39.062500
3964,-39.062500
3965,-39.062500
3966,-39.062500
3967,-35.156250
3968,-35.156250
3969,-35.156250
3970,-35.156250
3971,-35.156250
3972,-35.156250
3973,-35.156250
3974,-35.156250
3975,-35.156250
3976,-31.250000
3977,-31.250000
3978,-31.250000
3979,-31.250000
3980,-31.250000
3981,-31.250000
3982,-31.250000
3983,-31.250000
3984,-31.250000
3985,-31.250000
3986,-31.250000
3987,-31.250000
3988,-27.343750
3989,-27.343750
3990,-27.343750
3991,-27.343750
3992,-27.343750
3993,-27.343750
3994,-23.437500
3995,-27.343750
3996,-27.343750
3997,-23.437500
3998,-23.437500
3999,-23.437500
4000,-23.437500
4001,-23.437500
4002,-23.437500
4003,-23.437500
4004,-23.437500
4005,-19.531250
4006,-19.531250
4007,-19.531250
4008,-19.531250
4009,-19.531250
4010,-19.531250
4011,-19.531250
4012,-19.531250
4013,-19.531250
4014,-19.531250
4015,-19.531250
4016,-19.531250
4017,-15.625000
4018,-15.625000
4019,-15.625000
4020,-15.625000
4021,-15.625000
4022,-15.625000
4023,-15.625000
4024,-15.625000
4025,-15.625000
4026,-15.625000
4027,-11.718750
4028,-11.718750
4029,-15.625000
4030,-11.718750
4031,-11.718750
4032,-11.718750
4033,-11.718750
4034,-11.718750
4035,-11.718750
4036,-11.718750
4037,-11.718750
4038,-11.718750
4039,-7.812500
4040,-7.812500
4041,-7.812500
4042,-7.812500
4043,-7.812500
4044,-7.812500
4045,-7.812500
4046,-7.812500
4047,-3.906250
4048,-3.906250
4049,-3.906250
4050,-3.906250
4051,-3.906250
4052,-3.906250
4053,-3.906250
4054,-3.906250
4055,-3.906250
4056,0.000000
4057,-3.906250
4058,-3.906250
4059,-3.906250
4060,0.000000
4061,0.000000
4062,0.000000
4063,0.000000
4064,0.000000
4065,0.000000
4066,0.000000
4067,0.000000
4068,3.906250
4069,3.906250
4070,3.906250
4071,3.906250
4072,3.906250
4073,3.906250
4074,3.906250
4075,3.906250
4076,7.812500
4077,3.906250
4078,3.906250
4079,3.906250
4080,3.906250
4081,3.906250
4082,7.812500
4083,7.812500
4084,7.812500
4085,7.812500
4086,7.812500
4087,7.812500
4088,7.812500
4089,7.812500
4090,7.812500
4091,7.812500
4092,7.812500
4093,11.718750
4094,11.718750
4095,11.718750
4096,11.718750
4097,11.718750
4098,11.718750
4099,11.718750
4100,11.718750
4101,11.718750
4102,15.625000
4103,15.625000
4104,15.625000
4105,15.625000
4106,15.625000
4107,15.625000
4108,15.625000
4109,15.625000
4110,15.625000
4111,15.625000
4112,19.531250
4113,19.531250
4114,19.531250
4115,19.531250
4116,19.531250
4117,19.531250
4118,19.531250
4119,19.531250
4120,19.531250
4121,19.531250
4122,19.531250
4123,19.531250
4124,19.531250
4125,23.437500
4126,23.437500
4127,23.437500
4128,19.531250
4129,23.437500
4130,23.437500
4131,23.437500
4132,23.437500
4133,23.437500
4134,23.437500
4135,23.437500
4136,23.437500
4137,23.437500
4138,23.437500
4139,23.437500
4140,23.437500
4141,27.343750
4142,27.343750
4143,27.343750
4144,27.343750
4145,27.343750
4146,27.343750
4147,27.343750
4148,27.343750
4149,27.343750
4150,27.343750
4151,27.343750
4152,27.343750
4153,27.343750
4154,31.250000
4155,31.250000
4156,31.250000
4157,31.250000
4158,27.343750
4159,31.250000
4160,31.250000
4161,31.250000
4162,31.250000
4163,31.250000
4164,31.250000
4165,31.250000
4166,31.250000
4167,31.250000
4168,31.250000
4169,31.250000
4170,31.250000
4171,35.156250
4172,35.156250
4173,35.156250
4174,31.250000
4175,31.250000
4176,35.156250
4177,35.156250
4178,35.156250
4179,35.156250
4180,35.156250
4181,35.156250
4182,35.156250
4183,35.156250
4184,35.156250
4185,35.156250
4186,35.156250
4187,35.156250
4188,35.156250
4189,35.156250
4190,35.156250
4191,35.156250
4192,39.062500
4193,39.062500
4194,39.062500
4195,39.062500
4196,39.062500
4197,39.062500
4198,39.062500
4199,39.062500
4200,39.062500
4201,39.062500
4202,39.062500
4203,39.062500
4204,39.062500
4205,39.062500
4206,39.062500
4207,39.062500
4208,39.062500
4209,39.062500
4210,39.062500
4211,39.062500
4212,39.062500
4213,42.968750
4214,42.968750
4215,42.968750
4216,39.062500
4217,39.062500
4218,42.968750
4219,42.968750
4220,42.968750
4221,42.968750
4222,42.968750
4223,42.968750
4224,42.968750
4225,42.968750
4226,42.968750
4227,42.968750
4228,42.968750
4229,42.968750
4230,42.968750
4231,42.968750
4232,42.968750
4233,42.968750
4234,42.968750
4235,42.968750
4236,42.968750
4237,42.968750
4238,42.968750
4239,42.968750
4240,42.968750
4241,42.968750
4242,42.968750
4243,42.968750
4244,42.968750
4245,42.968750
4246,42.968750
4247,42.968750
4248,42.968750
4249,42.968750
4250,46.875000
4251,42.968750
4252,42.968750
4253,42.968750
4254,46.875000
4255,42.968750
4256,42.968750
4257,42.968750
4258,46.875000
4259,46.875000
4260,46.875000
4261,46.875000
4262,46.875000
4263,46.875000
4264,42.968750
4265,46.875000
4266,46.875000
4267,46.875000
4268,46.875000
4269,46.875000
4270,46.875000
4271,42.968750
4272,46.875000
4273,42.968750
4274,46.875000
4275,46.875000
4276,46.875000
4277,46.875000
4278,42.968750
4279,46.875000
4280,46.875000
4281,46.875000
4282,46.875000
4283,46.875000
4284,46.875000
4285,46.875000
4286,42.968750
4287,42.968750
4288,46.875000
4289,46.875000
4290,46.875000
4291,42.968750
4292,42.968750
4293,46.875000
4294,46.875000
4295,46.875000
4296,46.875000
4297,46.875000
4298,46.875000
4299,46.875000
4300,42.968750
4301,42.968750
4302,42.968750
4303,46.875000
4304,42.968750
4305,46.875000
4306,42.968750
4307,42.968750
4308,42.968750
4309,42.968750
4310,42.968750
4311,42.968750
4312,42.968750
4313,46.875000
4314,42.968750
4315,42.968750
4316,42.968750
4317,42.968750
4318,42.968750
4319,42.968750
4320,42.968750
4321,42.968750
4322,42.968750
4323,42.968750
4324,42.968750
4325,42.968750
4326,42.968750
4327,42.968750
4328,42.968750
4329,42.968750
4330,42.968750
4331,42.968750
4332,42.968750
4333,42.968750
4334,42.968750
4335,42.968750
4336,42.968750
4337,42.968750
4338,42.968750
4339,42.968750
4340,42.968750
4341,42.968750
4342,42.968750
4343,42.968750
4344,42.968750
4345,39.062500
4346,42.968750
4347,39.062500
4348,39.062500
4349,39.062500
4350,39.062500
4351,39.062500
4352,39.062500
4353,39.062500
4354,39.062500
4355,39.062500
4356,39.062500
4357,39.062500
4358,39.062500
4359,39.062500
4360,39.062500
4361,39.062500
4362,39.062500
4363,39.062500
4364,39.062500
4365,39.062500
4366,39.062500
4367,39.062500
4368,39.062500
4369,39.062500
4370,39.062500
4371,39.062500
4372,35.156250
4373,35.156250
4374,35.156250
4375,39.062500
4376,39.062500
4377,35.156250
4378,35.156250
4379,35.156250
4380,35.156250
4381,35.156250
4382,35.156250
4383,35.156250
4384,35.156250
4385,35.156250
4386,35.156250
4387,35.156250
4388,35.156250
4389,35.156250
4390,35.156250
4391,35.156250
4392,31.250000
4393,31.250000
4394,31.250000
4395,31.250000
4396,31.250000
4397,31.250000
4398,31.250000
4399,31.250000
4400,31.250000
4401,31.250000
4402,31.250000
4403,31.250000
4404,31.250000
4405,31.250000
4406,27.343750
4407,27.343750
4408,27.343750
4409,27.343750
4410,27.343750
4411,27.343750
4412,27.343750
4413,27.343750
4414,27.343750
4415,27.343750
4416,27.343750
4417,27.343750
4418,27.343750
4419,27.343750
4420,27.343750
4421,23.437500
4422,23.437500
4423,23.437500
4424,23.437500
4425,23.437500
4426,23.437500
4427,23.437500
4428,23.437500
4429,23.437500
4430,23.437500
4431,23.437500
4432,23.437500
4433,23.437500
4434,23.437500
4435,23.437500
4436,19.531250
4437,19.531250
4438,19.531250
4439,19.531250
4440,19.531250
4441,19.531250
4442,19.531250
4443,19.531250
4444,19.531250
4445,19.531250
4446,19.531250
4447,19.531250
4448,19.531250
4449,19.531250
4450,15.625000
4451,15.625000
4452,15.625000
4453,15.625000
4454,15.625000
4455,15.625000
4456,15.625000
4457,15.625000
4458,15.625000
4459,15.625000
4460,15.625000
4461,11.718750
4462,11.718750
4463,11.718750
4464,11.718750
4465,11.718750
4466,11.718750
4467,11.718750
4468,11.718750
4469,11.718750
4470,11.718750
4471,11.718750
4472,11.718750
4473,7.812500
4474,7.812500
4475,7.812500
4476,7.812500
4477,7.812500
4478,7.812500
4479,7.812500
4480,7.812500
4481,7.812500
4482,7.812500
4483,7.812500
4484,3.906250
4485,3.906250
4486,3.906250
4487,3.906250
4488,3.906250
4489,3.906250
4490,3.906250
4491,3.906250
4492,3.906250
4493,3.906250
4494,3.906250
4495,0.000000
4496,3.906250
4497,0.000000
4498,0.000000
4499,0.000000
4500,0.000000
4501,0.000000
4502,0.000000
4503,0.000000
4504,0.000000
4505,0.000000
4506,-3.906250
4507,-3.906250
4508,-3.906250
4509,-3.906250
4510,-3.906250
4511,-3.906250
4512,-3.906250
4513,-3.906250
4514,-3.906250
4515,-3.906250
4516,-7.812500
4517,-7.812500
4518,-7.812500
4519,-7.812500
4520,-7.812500
4521,-7.812500
4522,-7.812500
4523,-7.812500
4524,-7.812500
4525,-7.812500
4526,-7.812500
4527,-11.718750
4528,-11.718750
4529,-11.718750
4530,-11.718750
4531,-11.718750
4532,-11.718750
4533,-11.718750
4534,-11.718750
4535,-11.718750
4536,-15.625000
4537,-11.718750
4538,-15.625000
4539,-15.625000
4540,-15.625000
4541,-15.625000
4542,-15.625000
4543,-15.625000
4544,-15.625000
4545,-15.625000
4546,-15.625000
4547,-19.531250
4548,-19.531250
4549,-19.531250
4550,-19.531250
4551,-19.531250
4552,-19.531250
4553,-19.531250
4554,-19.531250
4555,-19.531250
4556,-19.531250
4557,-19.531250
4558,-23.437500
4559,-23.437500
4560,-23.437500
4561,-23.437500
4562,-23.437500
4563,-23.437500
4564,-23.437500
4565,-23.437500
4566,-23.437500
4567,-27.343750
4568,-27.343750
4569,-27.343750
4570,-27.343750
4571,-27.343750
4572,-27.343750
4573,-27.343750
4574,-27.343750
4575,-27.343750
4576,-31.250000
4577,-31.250000
4578,-27.343750
4579,-31.250000
4580,-31.250000
4581,-31.250000
4582,-31.250000
4583,-31.250000
4584,-31.250000
4585,-31.250000
4586,-31.250000
4587,-31.250000
4588,-35.156250
4589,-35.156250
4590,-35.156250
4591,-35.156250
4592,-35.156250
4593,-35.156250
4594,-35.156250
4595,-35.156250
4596,-35.156250
4597,-35.156250
4598,-39.062500
4599,-39.062500
4600,-39.062500
4601,-35.156250
4602,-39.062500
4603,-39.062500
4604,-39.062500
4605,-39.062500
4606,-39.062500
4607,-39.062500
4608,-39.062500
4609,-39.062500
4610,-42.968750
4611,-42.968750
4612,-42.968750
4613,-42.968750
4614,-42.968750
4615,-42.968750
4616,-42.968750
4617,-42.968750
4618,-46.875000
4619,-46.875000
4620,-42.968750
4621,-46.875000
4622,-46.875000
4623,-46.875000
4624,-46.875000
4625,-46.875000
4626,-46.875000
4627,-46.875000
4628,-46.875000
4629,-46.875000
4630,-46.875000
4631,-46.875000
4632,-46.875000
4633,-50.781250
4634,-50.781250
4635,-50.781250
4636,-50.781250
4637,-50.781250
4638,-50.781250
4639,-50.781250
4640,-50.781250
4641,-50.781250
4642,-50.781250
4643,-50.781250
4644,-50.781250
4645,-50.781250
4646,-54.687500
4647,-54.687500
4648,-54.687500
4649,-54.687500
4650,-54.687500
4651,-54.687500
4652,-54.687500
4653,-54.687500
4654,-54.687500
4655,-54.687500
4656,-54.687500
4657,-54.687500
4658,-54.687500
4659,-58.593750
4660,-58.593750
4661,-58.593750
4662,-58.593750
4663,-58.593750
4664,-58.593750
4665,-58.593750
4666,-58.593750
4667,-58.593750
4668,-58.593750
4669,-58.593750
4670,-62.500000
4671,-62.500000
4672,-62.500000
4673,-62.500000
4674,-62.500000
4675,-62.500000
4676,-62.500000
4677,-62.500000
4678,-62.500000
4679,-62.500000
4680,-62.500000
4681,-62.500000
4682,-62.500000
4683,-62.500000
4684,-62.500000
4685,-62.500000
4686,-66.406250
4687,-62.500000
4688,-66.406250
4689,-62.500000
4690,-66.406250
4691,-66.406250
4692,-66.406250
4693,-66.406250
4694,-66.406250
4695,-66.406250
4696,-66.406250
4697,-66.406250
4698,-66.406250
4699,-66.406250
4700,-66.406250
4701,-66.406250
4702,-66.406250
4703,-70.312500
4704,-70.312500
4705,-66.406250
4706,-66.406250
4707,-70.312500
4708,-70.312500
4709,-70.312500
4710,-70.312500
4711,-70.312500
4712,-70.312500
4713,-70.312500
4714,-70.312500
4715,-70.312500
4716,-70.312500
4717,-70.312500
4718,-70.312500
4719,-70.312500
4720,-70.312500
4721,-70.312500
4722,-70.312500
4723,-70.312500
4724,-70.312500
4725,-74.218750
4726,-74.218750
4727,-70.312500
4728,-70.312500
4729,-70.312500
4730,-70.312500
4731,-70.312500
4732,-74.218750
4733,-74.218750
4734,-74.218750
4735,-74.218750
4736,-74.218750
4737,-74.218750
4738,-74.218750
4739,-74.218750
4740,-70.312500
4741,-74.218750
4742,-74.218750
4743,-74.218750
4744,-74.218750
4745,-74.218750
4746,-74.218750
4747,-74.218750
4748,-74.218750
4749,-74.218750
4750,-74.218750
4751,-74.218750
4752,-74.218750
4753,-74.218750
4754,-74.218750
4755,-74.218750
4756,-74.218750
4757,-74.218750
4758,-74.218750
4759,-74.218750
4760,-74.218750
4761,-74.218750
4762,-74.218750
4763,-74.218750
4764,-74.218750
4765,-74.218750
4766,-74.218750
4767,-74.218750
4768,-74.218750
4769,-74.218750
4770,-74.218750
4771,-74.218750
4772,-74.218750
4773,-74.218750
4774,-74.218750
4775,-74.218750
4776,-74.218750
4777,-74.218750
4778,-74.218750
4779,-74.218750
4780,-74.218750
4781,-74.218750
4782,-74.218750
4783,-74.218750
4784,-74.218750
4785,-74.218750
4786,-74.218750
4787,-74.218750
4788,-74.218750
4789,-74.218750
4790,-74.218750
4791,-74.218750
4792,-74.218750
4793,-74.218750
4794,-74.218750
4795,-74.218750
4796,-74.218750
4797,-74.218750
4798,-74.218750
4799,-74.218750
4800,-74.218750
4801,-74.218750
4802,-74.218750
4803,-74.218750
4804,-74.218750
4805,-74.218750
4806,-74.218750
4807,-74.218750
4808,-74.218750
4809,-74.218750
4810,-74.218750
4811,-74.218750
4812,-74.218750
4813,-74.218750
4814,-74.218750
4815,-74.218750
4816,-74.218750
4817,-74.218750
4818,-74.218750
4819,-74.218750
4820,-74.218750
4821,-74.218750
4822,-74.218750
4823,-70.312500
4824,-70.312500
4825,-70.312500
4826,-74.218750
4827,-74.218750
4828,-70.312500
4829,-70.312500
4830,-70.312500
4831,-70.312500
4832,-70.312500
4833,-70.312500
4834,-70.312500
4835,-70.312500
4836,-70.312500
4837,-70.312500
4838,-70.312500
4839,-70.312500
4840,-70.312500
4841,-70.312500
4842,-70.312500
4843,-70.312500
4844,-70.312500
4845,-70.312500
4846,-70.312500
4847,-70.312500
4848,-70.312500
4849,-66.406250
4850,-66.406250
4851,-66.406250
4852,-66.406250
4853,-66.406250
4854,-66.406250
4855,-66.406250
4856,-66.406250
4857,-66.406250
4858,-66.406250
4859,-66.406250
4860,-66.406250
4861,-66.406250
4862,-66.406250
4863,-66.406250
4864,-66.406250
4865,-66.406250
4866,-66.406250
4867,-66.406250
4868,-62.500000
4869,-62.500000
4870,-62.500000
4871,-62.500000
4872,-62.500000
4873,-62.500000
4874,-62.500000
4875,-62.500000
4876,-62.500000
4877,-62.500000
4878,-62.500000
4879,-62.500000
4880,-62.500000
4881,-62.500000
4882,-62.500000
4883,-58.593750
4884,-62.500000
4885,-58.593750
4886,-58.593750
4887,-58.593750
4888,-58.593750
4889,-58.593750
4890,-58.593750
4891,-58.593750
4892,-58.593750
4893,-58.593750
4894,-58.593750
4895,-58.593750
4896,-58.593750
4897,-54.687500
4898,-54.687500
4899,-54.687500
4900,-54.687500
4901,-54.687500
4902,-54.687500
4903,-54.687500
4904,-54.687500
4905,-54.687500
4906,-54.687500
4907,-54.687500
4908,-54.687500
4909,-54.687500
4910,-50.781250
4911,-50.781250
4912,-50.781250
4913,-50.781250
4914,-50.781250
4915,-50.781250
4916,-50.781250
4917,-50.781250
4918,-50.781250
4919,-46.875000
4920,-50.781250
4921,-50.781250
4922,-50.781250
4923,-50.781250
4924,-50.781250
4925,-46.875000
4926,-46.875000
4927,-46.875000
4928,-46.875000
4929,-46.875000
4930,-46.875000
4931,-46.875000
4932,-46.875000
4933,-46.875000
4934,-46.875000
4935,-46.875000
4936,-46.875000
4937,-42.968750
4938,-42.968750
4939,-42.968750
4940,-42.968750
4941,-42.968750
4942,-42.968750
4943,-42.968750
4944,-42.968750
4945,-42.968750
4946,-42.968750
4947,-39.062500
4948,-39.062500
4949,-39.062500
4950,-39.062500
4951,-39.062500
4952,-39.062500
4953,-39.062500
4954,-39.062500
4955,-39.062500
4956,-39.062500
4957,-35.156250
4958,-35.156250
4959,-35.156250
4960,-35.156250
4961,-35.156250
4962,-35.156250
4963,-35.156250
4964,-35.156250
4965,-35.156250
4966,-35.156250
4967,-31.250000
4968,-35.156250
4969,-31.250000
4970,-31.250000
4971,-31.250000
4972,-31.250000
4973,-31.250000
4974,-31.250000
4975,-31.250000
4976,-31.250000
4977,-31.250000
4978,-31.250000
4979,-27.343750
4980,-27.343750
4981,-27.343750
4982,-27.343750
4983,-27.343750
4984,-27.343750
4985,-27.343750
4986,-27.343750
4987,-27.343750
4988,-23.437500
4989,-23.437500
4990,-23.437500
4991,-23.437500
4992,-23.437500
4993,-23.437500
4994,-23.437500
4995,-23.437500
4996,-23.437500
4997,-19.531250
4998,-19.531250
4999,-19.531250
5000,-19.531250
5001,-19.531250
5002,-19.531250
5003,-19.531250
5004,-19.531250
5005,-19.531250
5006,-19.531250
5007,-19.531250
5008,-19.531250
5009,-15.625000
5010,-15.625000
5011,-15.625000
5012,-15.625000
5013,-15.625000
5014,-15.625000
5015,-15.625000
5016,-15.625000
5017,-15.625000
5018,-15.625000
5019,-11.718750
5020,-11.718750
5021,-11.718750
5022,-11.718750
5023,-11.718750
5024,-11.718750
5025,-11.718750
5026,-11.718750
5027,-11.718750
5028,-11.718750
5029,-7.812500
5030,-7.812500
5031,-7.812500
5032,-7.812500
5033,-7.812500
5034,-7.812500
5035,-7.812500
5036,-7.812500
5037,-7.812500
5038,-7.812500
5039,-3.906250
5040,-3.906250
5041,-3.906250
5042,-3.906250
5043,-3.906250
5044,-3.906250
5045,-3.906250
5046,-3.906250
5047,-3.906250
5048,-3.906250
5049,-3.906250
5050,-3.906250
5051,0.000000
5052,0.000000
5053,0.000000
5054,0.000000
5055,0.000000
5056,0.000000
5057,0.000000
5058,0.000000
5059,0.000000
5060,0.000000
5061,3.906250
5062,3.906250
5063,3.906250
5064,3.906250
5065,3.906250
5066,3.906250
5067,3.906250
5068,3.906250
5069,7.812500
5070,3.906250
5071,7.812500
5072,7.812500
5073,3.906250
5074,7.812500
5075,7.812500
5076,7.812500
5077,7.812500
5078,7.812500
5079,7.812500
5080,11.718750
5081,7.812500
5082,7.812500
5083,11.718750
5084,7.812500
5085,11.718750
5086,11.718750
5087,11.718750
5088,11.718750
5089,11.718750
5090,11.718750
5091,11.718750
5092,11.718750
5093,11.718750
5094,11.718750
5095,11.718750
5096,15.625000
5097,15.625000
5098,15.625000
5099,15.625000
5100,15.625000
5101,15.625000
5102,15.625000
5103,15.625000
5104,15.625000
5105,15.625000
5106,15.625000
5107,15.625000
5108,19.531250
5109,19.531250
5110,19.531250
5111,19.531250
5112,19.531250
5113,19.531250
5114,19.531250
5115,19.531250
5116,19.531250
5117,19.531250
5118,19.531250
5119,19.531250
5120,23.437500
5121,23.437500
5122,23.437500
5123,23.437500
5124,23.437500
5125,23.437500
5126,23.437500
5127,23.437500
5128,23.437500
5129,23.437500
5130,23.437500
5131,23.437500
5132,27.343750
5133,27.343750
5134,27.343750
5135,27.343750
5136,27.343750
5137,27.343750
5138,27.343750
5139,27.343750
5140,27.343750
5141,27.343750
5142,27.343750
5143,27.343750
5144,31.250000
5145,31.250000
5146,31.250000
5147,31.250000
5148,31.250000
5149,31.250000
5150,31.250000
5151,31.250000
5152,31.250000
5153,31.250000
5154,31.250000
5155,31.250000
5156,31.250000
5157,31.250000
5158,31.250000
5159,31.250000
5160,31.250000
5161,31.250000
5162,35.156250
5163,35.156250
5164,35.156250
5165,35.156250
5166,35.156250
5167,35.156250
5168,35.156250
5169,35.156250
5170,35.156250
5171,35.156250
5172,35.156250
5173,35.156250
5174,35.156250
5175,35.156250
5176,35.156250
5177,35.156250
5178,35.156250
5179,35.156250
5180,35.156250
5181,39.062500
5182,39.062500
5183,39.062500
5184,35.156250
5185,35.156250
5186,39.062500
5187,39.062500
5188,39.062500
5189,39.062500
5190,39.062500
5191,39.062500
5192,39.062500
5193,39.062500
5194,39.062500
5195,39.062500
5196,39.062500
5197,39.062500
5198,39.062500
5199,39.062500
5200,39.062500
5201,39.062500
5202,39.062500
5203,39.062500
5204,39.062500
5205,39.062500
5206,39.062500
5207,39.062500
5208,42.968750
5209,42.968750
5210,42.968750
5211,42.968750
5212,42.968750
5213,42.968750
5214,42.968750
5215,42.968750
5216,42.968750
5217,42.968750
5218,42.968750
5219,42.968750
5220,42.968750
5221,42.968750
5222,42.968750
5223,42.968750
5224,42.968750
5225,42.968750
5226,42.968750
5227,42.968750
5228,42.968750
5229,42.968750
5230,42.968750
5231,42.968750
5232,42.968750
5233,42.968750
5234,42.968750
5235,42.968750
5236,42.968750
5237,42.968750
5238,42.968750
5239,42.968750
5240,42.968750
5241,42.968750
5242,46.875000
5243,46.875000
5244,46.875000
5245,46.875000
5246,42.968750
5247,46.875000
5248,42.968750
5249,42.968750
5250,42.968750
5251,46.875000
5252,46.875000
5253,46.875000
5254,46.875000
5255,46.875000
5256,46.875000
5257,46.875000
5258,46.875000
5259,46.875000
5260,46.875000
5261,46.875000
5262,46.875000
5263,46.875000
5264,46.875000
5265,46.875000
5266,42.968750
5267,46.875000
5268,42.968750
5269,46.875000
5270,42.968750
5271,46.875000
5272,46.875000
5273,46.875000
5274,46.875000
5275,46.875000
5276,46.875000
5277,46.875000
5278,46.875000
5279,46.875000
5280,46.875000
5281,46.875000
5282,46.875000
5283,46.875000
5284,46.875000
5285,46.875000
5286,46.875000
5287,46.875000
5288,46.875000
5289,42.968750
5290,42.968750
5291,42.968750
5292,42.968750
5293,42.968750
5294,46.875000
5295,46.875000
5296,46.875000
5297,46.875000
5298,46.875000
5299,46.875000
5300,42.968750
5301,42.968750
5302,42.968750
5303,46.875000
5304,46.875000
5305,42.968750
5306,42.968750
5307,42.968750
5308,42.968750
5309,42.968750
5310,42.968750
5311,42.968750
5312,42.968750
5313,42.968750
5314,42.968750
5315,42.968750
5316,42.968750
5317,42.968750
5318,42.968750
5319,42.968750
5320,42.968750
5321,42.968750
5322,42.968750
5323,42.968750
5324,42.968750
5325,42.968750
5326,42.968750
5327,42.968750
5328,42.968750
5329,42.968750
5330,42.968750
5331,42.968750
5332,42.968750
5333,42.968750
5334,39.062500
5335,42.968750
5336,39.062500
5337,39.062500
5338,42.968750
5339,42.968750
5340,39.062500
5341,42.968750
5342,39.062500
5343,39.062500
5344,42.968750
5345,39.062500
5346,39.062500
5347,42.968750
5348,39.062500
5349,39.062500
5350,39.062500
5351,39.062500
5352,39.062500
5353,39.062500
5354,39.062500
5355,39.062500
5356,39.062500
5357,39.062500
5358,39.062500
5359,39.062500
5360,39.062500
5361,39.062500
5362,35.156250
5363,35.156250
5364,35.156250
5365,35.156250
5366,35.156250
5367,35.156250
5368,35.156250
5369,35.156250
5370,35.156250
5371,35.156250
5372,35.156250
5373,35.156250
5374,35.156250
5375,35.156250
5376,35.156250
5377,35.156250
5378,35.156250
5379,35.156250
5380,35.156250
5381,31.250000
5382,31.250000
5383,31.250000
5384,31.250000
5385,31.250000
5386,31.250000
5387,31.250000
5388,31.250000
5389,31.250000
5390,31.250000
5391,31.250000
5392,31.250000
5393,31.250000
5394,31.250000
5395,31.250000
5396,31.250000
5397,31.250000
5398,27.343750
5399,27.343750
5400,27.343750
5401,27.343750
5402,27.343750
5403,27.343750
5404,27.343750
5405,27.343750
5406,27.343750
5407,27.343750
5408,27.343750
5409,27.343750
5410,27.343750
5411,27.343750
5412,27.343750
5413,27.343750
5414,27.343750
5415,23.437500
5416,23.437500
5417,27.343750
5418,23.437500
5419,23.437500
5420,23.437500
5421,23.437500
5422,23.437500
5423,23.437500
5424,23.437500
5425,23.437500
5426,23.437500
5427,23.437500
5428,19.531250
5429,19.531250
5430,19.531250
5431,19.531250
5432,19.531250
5433,19.531250
5434,19.531250
5435,19.531250
5436,19.531250
5437,19.531250
5438,19.531250
5439,19.531250
5440,15.625000
5441,19.531250
5442,15.625000
5443,15.625000
5444,15.625000
5445,15.625000
5446,15.625000
5447,15.625000
5448,15.625000
5449,15.625000
5450,15.625000
5451,15.625000
5452,15.625000
5453,15.625000
5454,11.718750
5455,11.718750
5456,11.718750
5457,11.718750
5458,11.718750
5459,11.718750
5460,11.718750
5461,11.718750
5462,7.812500
5463,7.812500
5464,7.812500
5465,7.812500
5466,7.812500
5467,7.812500
5468,7.812500
5469,7.812500
5470,7.812500
5471,7.812500
5472,7.812500
5473,7.812500
5474,3.906250
5475,3.906250
5476,3.906250
5477,3.906250
5478,3.906250
5479,3.906250
5480,3.906250
5481,3.906250
5482,3.906250
5483,3.906250
5484,3.906250
5485,3.906250
5486,0.000000
5487,3.906250
5488,0.000000
5489,0.000000
5490,0.000000
5491,0.000000
5492,0.000000
5493,0.000000
5494,0.000000
5495,0.000000
5496,-3.906250
5497,-3.906250
5498,-3.906250
5499,-3.906250
5500,-3.906250
5501,-3.906250
5502,-3.906250
5503,-3.906250
5504,-3.906250
5505,-3.906250
5506,-7.812500
5507,-7.812500
5508,-7.812500
5509,-7.812500
5510,-7.812500
5511,-7.812500
5512,-7.812500
5513,-7.812500
5514,-7.812500
5515,-7.812500
5516,-7.812500
5517,-11.718750
5518,-11.718750
5519,-11.718750
5520,-11.718750
5521,-11.718750
5522,-11.718750
5523,-11.718750
5524,-11.718750
5525,-11.718750
5526,-11.718750
5527,-11.718750
5528,-15.625000
5529,-15.625000
5530,-15.625000
5531,-15.625000
5532,-15.625000
5533,-15.625000
5534,-15.625000
5535,-15.625000
5536,-15.625000
5537,-15.625000
5538,-19.531250
5539,-19.531250
5540,-19.531250
5541,-19.531250
5542,-19.531250
5543,-19.531250
5544,-19.531250
5545,-19.531250
5546,-19.531250
5547,-19.531250
5548,-23.437500
5549,-23.437500
5550,-23.437500
5551,-23.437500
5552,-23.437500
5553,-23.437500
5554,-23.437500
5555,-23.437500
5556,-23.437500
5557,-23.437500
5558,-23.437500
5559,-27.343750
5560,-27.343750
5561,-27.343750
5562,-27.343750
5563,-27.343750
5564,-27.343750
5565,-27.343750
5566,-27.343750
5567,-27.343750
5568,-27.343750
5569,-27.343750
5570,-31.250000
5571,-31.250000
5572,-31.250000
5573,-31.250000
5574,-31.250000
5575,-31.250000
5576,-31.250000
5577,-31.250000
5578,-35.156250
5579,-35.156250
5580,-35.156250
5581,-35.156250
5582,-35.156250
5583,-35.156250
5584,-35.156250
5585,-35.156250
5586,-35.156250
5587,-35.156250
5588,-39.062500
5589,-39.062500
5590,-39.062500
5591,-39.062500
5592,-39.062500
5593,-39.062500
5594,-39.062500
5595,-39.062500
5596,-39.062500
5597,-39.062500
5598,-39.062500
5599,-39.062500
5600,-39.062500
5601,-42.968750
5602,-42.968750
5603,-42.968750
5604,-42.968750
5605,-42.968750
5606,-42.968750
5607,-42.968750
5608,-42.968750
5609,-42.968750
5610,-46.875000
5611,-46.875000
5612,-46.875000
5613,-46.875000
5614,-46.875000
5615,-46.875000
5616,-46.875000
5617,-46.875000
5618,-46.875000
5619,-46.875000
5620,-46.875000
5621,-50.781250
5622,-50.781250
5623,-46.875000
5624,-50.781250
5625,-46.875000
5626,-50.781250
5627,-50.781250
5628,-50.781250
5629,-50.781250
5630,-50.781250
5631,-50.781250
5632,-50.781250
5633,-54.687500
5634,-54.687500
5635,-54.687500
5636,-54.687500
5637,-54.687500
5638,-54.687500
5639,-54.687500
5640,-54.687500
5641,-54.687500
5642,-54.687500
5643,-54.687500
5644,-54.687500
5645,-54.687500
5646,-58.593750
5647,-58.593750
5648,-58.593750
5649,-58.593750
5650,-58.593750
5651,-58.593750
5652,-58.593750
5653,-58.593750
5654,-58.593750
5655,-58.593750
5656,-58.593750
5657,-58.593750
5658,-58.593750
5659,-62.500000
5660,-58.593750
5661,-58.593750
5662,-62.500000
5663,-62.500000
5664,-62.500000
5665,-62.500000
5666,-62.500000
5667,-62.500000
5668,-62.500000
5669,-62.500000
5670,-62.500000
5671,-62.500000
5672,-62.500000
5673,-62.500000
5674,-66.406250
5675,-62.500000
5676,-66.406250
5677,-62.500000
5678,-66.406250
5679,-66.406250
5680,-66.406250
5681,-66.406250
5682,-66.406250
5683,-66.406250
5684,-66.406250
5685,-66.406250
5686,-66.406250
5687,-66.406250
5688,-66.406250
5689,-66.406250
5690,-66.406250
5691,-66.406250
5692,-66.406250
5693,-66.406250
5694,-66.406250
5695,-70.312500
5696,-70.312500
5697,-70.312500
5698,-70.312500
5699,-70.312500
5700,-70.312500
5701,-70.312500
5702,-70.312500
5703,-70.312500
5704,-70.312500
5705,-70.312500
5706,-70.312500
5707,-70.312500
5708,-70.312500
5709,-70.312500
5710,-70.312500
5711,-70.312500
5712,-70.312500
5713,-70.312500
5714,-70.312500
5715,-70.312500
5716,-70.312500
5717,-74.218750
5718,-74.218750
5719,-74.218750
5720,-74.218750
5721,-74.218750
5722,-74.218750
5723,-70.312500
5724,-74.218750
5725,-74.218750
5726,-74.218750
5727,-74.218750
5728,-74.218750
5729,-74.218750
5730,-74.218750
5731,-74.218750
5732,-74.218750
5733,-74.218750
5734,-74.218750
5735,-74.218750
5736,-74.218750
5737,-74.218750
5738,-74.218750
5739,-74.218750
5740,-74.218750
5741,-74.218750
5742,-74.218750
5743,-78.125000
5744,-74.218750
5745,-74.218750
5746,-78.125000
5747,-74.218750
5748,-74.218750
5749,-74.218750
5750,-74.218750
5751,-74.218750
5752,-78.125000
5753,-74.218750
5754,-74.218750
5755,-74.218750
5756,-74.218750
5757,-78.125000
5758,-74.218750
5759,-74.218750
5760,-74.218750
5761,-74.218750
5762,-74.218750
5763,-74.218750
5764,-74.218750
5765,-74.218750
5766,-74.218750
5767,-74.218750
5768,-74.218750
5769,-74.218750
5770,-74.218750
5771,-74.218750
5772,-74.218750
5773,-74.218750
5774,-74.218750
5775,-74.218750
5776,-74.218750
5777,-74.218750
5778,-74.218750
5779,-74.218750
5780,-78.125000
5781,-74.218750
5782,-78.125000
5783,-74.218750
5784,-74.218750
5785,-74.218750
5786,-74.218750
5787,-74.218750
5788,-74.218750
5789,-74.218750
5790,-74.218750
5791,-74.218750
5792,-74.218750
5793,-74.218750
5794,-74.218750
5795,-74.218750
5796,-74.218750
5797,-74.218750
5798,-74.218750
5799,-74.218750
5800,-74.218750
5801,-74.218750
5802,-74.218750
5803,-74.218750
5804,-74.218750
5805,-74.218750
5806,-74.218750
5807,-74.218750
5808,-74.218750
5809,-74.218750
5810,-74.218750
5811,-74.218750
5812,-74.218750
5813,-74.218750
5814,-74.218750
5815,-74.218750
5816,-74.218750
5817,-74.218750
5818,-70.312500
5819,-74.218750
5820,-70.312500
5821,-70.312500
5822,-70.312500
5823,-70.312500
5824,-70.312500
5825,-70.312500
5826,-70.312500
5827,-70.312500
5828,-70.312500
5829,-70.312500
5830,-70.312500
5831,-70.312500
5832,-70.312500
5833,-70.312500
5834,-70.312500
5835,-70.312500
5836,-70.312500
5837,-70.312500
5838,-70.312500
5839,-70.312500
5840,-66.406250
5841,-70.312500
5842,-70.312500
5843,-70.312500
5844,-66.406250
5845,-66.406250
5846,-66.406250
5847,-66.406250
5848,-66.406250
5849,-66.406250
5850,-66.406250
5851,-66.406250
5852,-66.406250
5853,-66.406250
5854,-66.406250
5855,-66.406250
5856,-66.406250
5857,-66.406250
5858,-66.406250
5859,-66.406250
5860,-66.406250
5861,-62.500000
5862,-62.500000
5863,-62.500000
5864,-62.500000
5865,-62.500000
5866,-62.500000
5867,-62.500000
5868,-62.500000
5869,-62.500000
5870,-62.500000
5871,-62.500000
5872,-62.500000
5873,-62.500000
5874,-62.500000
5875,-58.593750
5876,-62.500000
5877,-58.593750
5878,-62.500000
5879,-58.593750
5880,-58.593750
5881,-58.593750
5882,-58.593750
5883,-58.593750
5884,-58.593750
5885,-58.593750
5886,-58.593750
5887,-58.593750
5888,-58.593750
5889,-58.593750
5890,-58.593750
5891,-54.687500
5892,-54.687500
5893,-54.687500
5894,-54.687500
5895,-54.687500
5896,-54.687500
5897,-54.687500
5898,-54.687500
5899,-54.687500
5900,-54.687500
5901,-54.687500
5902,-54.687500
5903,-50.781250
5904,-50.781250
5905,-50.781250
5906,-50.781250
5907,-50.781250
5908,-50.781250
5909,-50.781250
5910,-50.781250
5911,-50.781250
5912,-50.781250
5913,-50.781250
5914,-50.781250
5915,-50.781250
5916,-46.875000
5917,-46.875000
5918,-46.875000
5919,-46.875000
5920,-46.875000
5921,-46.875000
5922,-46.875000
5923,-46.875000
5924,-46.875000
5925,-42.968750
5926,-42.968750
5927,-42.968750
5928,-42.968750
5929,-42.968750
5930,-42.968750
5931,-42.968750
5932,-42.968750
5933,-42.968750
5934,-42.968750
5935,-42.968750
5936,-42.968750
5937,-39.062500
5938,-39.062500
5939,-39.062500
5940,-39.062500
5941,-39.062500
5942,-39.062500
5943,-39.062500
5944,-39.062500
5945,-39.062500
5946,-39.062500
5947,-35.156250
5948,-35.156250
5949,-35.156250
5950,-35.156250
5951,-35.156250
5952,-35.156250
5953,-35.156250
5954,-35.156250
5955,-35.156250
5956,-35.156250
5957,-35.156250
5958,-31.250000
5959,-31.250000
5960,-31.250000
5961,-31.250000
5962,-31.250000
5963,-31.250000
5964,-31.250000
5965,-31.250000
5966,-31.250000
5967,-31.250000
5968,-31.250000
5969,-31.250000
5970,-27.343750
5971,-27.343750
5972,-27.343750
5973,-27.343750
5974,-27.343750
5975,-27.343750
5976,-27.343750
5977,-27.343750
5978,-27.343750
5979,-23.437500
5980,-23.437500
5981,-23.437500
5982,-23.437500
5983,-23.437500
5984,-23.437500
5985,-23.437500
5986,-23.437500
5987,-23.437500
5988,-23.437500
5989,-23.437500
5990,-19.531250
5991,-19.531250
5992,-19.531250
5993,-19.531250
5994,-19.531250
5995,-19.531250
5996,-19.531250
5997,-19.531250
5998,-15.625000
5999,-19.531250
6000,-15.625000
6001,-15.625000
6002,-15.625000
6003,-15.625000
6004,-15.625000
6005,-15.625000
6006,-15.625000
6007,-15.625000
6008,-15.625000
6009,-11.718750
6010,-11.718750
6011,-11.718750
6012,-11.718750
6013,-11.718750
6014,-11.718750
6015,-11.718750
6016,-11.718750
6017,-11.718750
6018,-7.812500
6019,-7.812500
6020,-7.812500
6021,-7.812500
6022,-7.812500
6023,-7.812500
6024,-7.812500
6025,-7.812500
6026,-7.812500
6027,-7.812500
6028,-7.812500
6029,-7.812500
6030,-7.812500
6031,-3.906250
6032,-3.906250
6033,-3.906250
6034,-3.906250
6035,-3.906250
6036,-3.906250
6037,-3.906250
6038,0.000000
6039,0.000000
6040,0.000000
6041,0.000000
6042,0.000000
6043,0.000000
6044,0.000000
6045,0.000000
6046,0.000000
6047,0.000000
6048,0.000000
6049,0.000000
6050,3.906250
6051,3.906250
6052,3.906250
6053,3.906250
6054,3.906250
6055,3.906250
6056,3.906250
6057,3.906250
6058,3.906250
6059,3.906250
6060,3.906250
6061,7.812500
6062,7.812500
6063,7.812500
6064,7.812500
6065,7.812500
6066,7.812500
6067,7.812500
6068,7.812500
6069,7.812500
6070,11.718750
6071,11.718750
6072,11.718750
6073,11.718750
6074,11.718750
6075,11.718750
6076,11.718750
6077,11.718750
6078,11.718750
6079,11.718750
6080,11.718750
6081,11.718750
6082,11.718750
6083,11.718750
6084,15.625000
6085,15.625000
6086,15.625000
6087,15.625000
6088,15.625000
6089,15.625000
6090,15.625000
6091,15.625000
6092,15.625000
6093,15.625000
6094,15.625000
6095,15.625000
6096,19.531250
6097,19.531250
6098,19.531250
6099,19.531250
6100,19.531250
6101,19.531250
6102,19.531250
6103,19.531250
6104,19.531250
6105,19.531250
6106,19.531250
6107,19.531250
6108,23.437500
6109,23.437500
6110,23.437500
6111,23.437500
6112,23.437500
6113,23.437500
6114,23.437500
6115,23.437500
6116,23.437500
6117,23.437500
6118,23.437500
6119,23.437500
6120,23.437500
6121,27.343750
6122,27.343750
6123,27.343750
6124,27.343750
6125,27.343750
6126,27.343750
6127,27.343750
6128,27.343750
6129,27.343750
6130,27.343750
6131,27.343750
6132,27.343750
6133,27.343750
6134,27.343750
6135,31.250000
6136,27.343750
6137,31.250000
6138,31.250000
6139,31.250000
6140,31.250000
6141,31.250000
6142,31.250000
6143,31.250000
6144,31.250000
6145,31.250000
6146,31.250000
6147,31.250000
6148,31.250000
6149,31.250000
6150,31.250000
6151,31.250000
6152,31.250000
6153,35.156250
6154,35.156250
6155,35.156250
6156,35.156250
6157,35.156250
6158,35.156250
6159,35.156250
6160,35.156250
6161,35.156250
6162,35.156250
6163,35.156250
6164,35.156250
6165,35.156250
6166,35.156250
6167,35.156250
6168,39.062500
6169,39.062500
6170,39.062500
6171,35.156250
6172,39.062500
6173,39.062500
6174,39.062500
6175,39.062500
6176,39.062500
6177,39.062500
6178,39.062500
6179,39.062500
6180,39.062500
6181,39.062500
6182,39.062500
6183,39.062500
6184,39.062500
6185,39.062500
6186,39.062500
6187,39.062500
6188,39.062500
6189,39.062500
6190,39.062500
6191,39.062500
6192,42.968750
6193,42.968750
6194,39.062500
6195,39.062500
6196,42.968750
6197,42.968750
6198,42.968750
6199,42.968750
6200,42.968750
6201,42.968750
6202,42.968750
6203,42.968750
6204,42.968750
6205,42.968750
6206,42.968750
6207,42.968750
6208,42.968750
6209,42.968750
6210,42.968750
6211,42.968750
6212,42.968750
6213,42.968750
6214,42.968750
6215,42.968750
6216,42.968750
6217,42.968750
6218,42.968750
6219,42.968750
6220,42.968750
6221,42.968750
6222,42.968750
6223,42.968750
6224,42.968750
6225,42.968750
6226,42.968750
6227,46.875000
6228,42.968750
6229,42.968750
6230,42.968750
6231,42.968750
6232,42.968750
6233,42.968750
6234,42.968750
6235,46.875000
6236,42.968750
6237,46.875000
6238,46.875000
6239,46.875000
6240,42.968750
6241,46.875000
6242,46.875000
6243,46.875000
6244,46.875000
6245,46.875000
6246,46.875000
6247,46.875000
6248,42.968750
6249,46.875000
6250,46.875000
6251,46.875000
6252,46.875000
6253,46.875000
6254,46.875000
6255,46.875000
6256,46.875000
6257,46.875000
6258,46.875000
6259,46.875000
6260,46.875000
6261,46.875000
6262,46.875000
6263,46.875000
6264,46.875000
6265,46.875000
6266,46.875000
6267,46.875000
6268,46.875000
6269,46.875000
6270,46.875000
6271,46.875000
6272,46.875000
6273,46.875000
6274,46.875000
6275,46.875000
6276,46.875000
6277,42.968750
6278,42.968750
6279,46.875000
6280,46.875000
6281,46.875000
6282,46.875000
6283,46.875000
6284,46.875000
6285,46.875000
6286,42.968750
6287,42.968750
6288,46.875000
6289,42.968750
6290,46.875000
6291,42.968750
6292,42.968750
6293,42.968750
6294,42.968750
6295,46.875000
6296,42.968750
6297,42.968750
6298,42.968750
6299,42.968750
6300,46.875000
6301,42.968750
6302,42.968750
6303,42.968750
6304,42.968750
6305,42.968750
6306,42.968750
6307,42.968750
6308,42.968750
6309,42.968750
6310,42.968750
6311,42.968750
6312,42.968750
6313,42.968750
6314,42.968750
6315,42.968750
6316,42.968750
6317,42.968750
6318,42.968750
6319,42.968750
6320,42.968750
6321,42.968750
6322,42.968750
6323,42.968750
6324,42.968750
6325,42.968750
6326,42.968750
6327,42.968750
6328,42.968750
6329,42.968750
6330,39.062500
6331,39.062500
6332,39.062500
6333,39.062500
6334,39.062500
6335,39.062500
6336,39.062500
6337,39.062500
6338,39.062500
6339,39.062500
6340,39.062500
6341,39.062500
6342,39.062500
6343,39.062500
6344,39.062500
6345,39.062500
6346,39.062500
6347,39.062500
6348,39.062500
6349,39.062500
6350,39.062500
6351,39.062500
6352,39.062500
6353,35.156250
6354,35.156250
6355,35.156250
6356,35.156250
6357,35.156250
6358,35.156250
6359,35.156250
6360,35.156250
6361,35.156250
6362,35.156250
6363,35.156250
6364,35.156250
6365,35.156250
6366,35.156250
6367,35.156250
6368,35.156250
6369,35.156250
6370,35.156250
6371,35.156250
6372,35.156250
6373,35.156250
6374,35.156250
6375,31.250000
6376,31.250000
6377,31.250000
6378,31.250000
6379,31.250000
6380,31.250000
6381,31.250000
6382,31.250000
6383,31.250000
6384,31.250000
6385,31.250000
6386,31.250000
6387,31.250000
6388,31.250000
6389,31.250000
6390,27.343750
6391,27.343750
6392,27.343750
6393,27.343750
6394,27.343750
6395,27.343750
6396,27.343750
6397,27.343750
6398,27.343750
6399,27.343750
6400,27.343750
6401,27.343750
6402,27.343750
6403,27.343750
6404,23.437500
6405,23.437500
6406,23.437500
6407,23.437500
6408,23.437500
6409,23.437500
6410,23.437500
6411,23.437500
6412,23.437500
6413,23.437500
6414,23.437500
6415,23.437500
6416,23.437500
6417,23.437500
6418,19.531250
6419,19.531250
6420,19.531250
6421,19.531250
6422,19.531250
6423,19.531250
6424,19.531250
6425,19.531250
6426,19.531250
6427,19.531250
6428,19.531250
6429,19.531250
6430,19.531250
6431,19.531250
6432,15.625000
6433,15.625000
6434,15.625000
6435,15.625000
6436,15.625000
6437,15.625000
6438,15.625000
6439,15.625000
6440,15.625000
6441,15.625000
6442,11.718750
6443,15.625000
6444,11.718750
6445,11.718750
6446,11.718750
6447,11.718750
6448,11.718750
6449,11.718750
6450,11.718750
6451,11.718750
6452,7.812500
6453,7.812500
6454,7.812500
6455,7.812500
6456,7.812500
6457,7.812500
6458,7.812500
6459,7.812500
6460,7.812500
6461,7.812500
6462,7.812500
6463,7.812500
6464,3.906250
6465,3.906250
6466,3.906250
6467,3.906250
6468,3.906250
6469,3.906250
6470,3.906250
6471,3.906250
6472,3.906250
6473,3.906250
6474,3.906250
6475,3.906250
6476,0.000000
6477,0.000000
6478,0.000000
6479,0.000000
6480,0.000000
6481,0.000000
6482,0.000000
6483,0.000000
6484,0.000000
6485,-3.906250
6486,0.000000
6487,-3.906250
6488,-3.906250
6489,-3.906250
6490,-3.906250
6491,-3.906250
6492,-3.906250
6493,-3.906250
6494,-7.812500
6495,-3.906250
6496,-7.812500
6497,-7.812500
6498,-7.812500
6499,-7.812500
6500,-7.812500
6501,-7.812500
6502,-7.812500
6503,-7.812500
6504,-7.812500
6505,-7.812500
6506,-11.718750
6507,-11.718750
6508,-11.718750
6509,-11.718750
6510,-11.718750
6511,-11.718750
6512,-11.718750
6513,-11.718750
6514,-11.718750
6515,-11.718750
6516,-15.625000
6517,-15.625000
6518,-15.625000
6519,-15.625000
6520,-15.625000
6521,-15.625000
6522,-15.625000
6523,-15.625000
6524,-15.625000
6525,-15.625000
6526,-19.531250
6527,-19.531250
6528,-19.531250
6529,-19.531250
6530,-19.531250
6531,-19.531250
6532,-19.531250
6533,-19.531250
6534,-19.531250
6535,-19.531250
6536,-23.437500
6537,-23.437500
6538,-23.437500
6539,-23.437500
6540,-23.437500
6541,-23.437500
6542,-23.437500
6543,-23.437500
6544,-23.437500
6545,-23.437500
6546,-23.437500
6547,-27.343750
6548,-27.343750
6549,-27.343750
6550,-27.343750
6551,-27.343750
6552,-27.343750
6553,-27.343750
6554,-27.343750
6555,-27.343750
6556,-31.250000
6557,-31.250000
6558,-31.250000
6559,-31.250000
6560,-31.250000
6561,-31.250000
6562,-31.250000
6563,-31.250000
6564,-31.250000
6565,-31.250000
6566,-35.156250
6567,-35.156250
6568,-35.156250
6569,-35.156250
6570,-35.156250
6571,-35.156250
6572,-35.156250
6573,-35.156250
6574,-35.156250
6575,-35.156250
6576,-35.156250
6577,-39.062500
6578,-39.062500
6579,-39.062500
6580,-39.062500
6581,-39.062500
6582,-39.062500
6583,-39.062500
6584,-39.062500
6585,-39.062500
6586,-39.062500
6587,-39.062500
6588,-39.062500
6589,-42.968750
6590,-42.968750
6591,-42.968750
6592,-42.968750
6593,-42.968750
6594,-42.968750
6595,-42.968750
6596,-42.968750
6597,-42.968750
6598,-42.968750
6599,-42.968750
6600,-42.968750
6601,-46.875000
6602,-46.875000
6603,-46.875000
6604,-46.875000
6605,-46.875000
6606,-46.875000
6607,-46.875000
6608,-46.875000
6609,-46.875000
6610,-50.781250
6611,-46.875000
6612,-50.781250
6613,-50.781250
6614,-50.781250
6615,-50.781250
6616,-50.781250
6617,-50.781250
6618,-50.781250
6619,-50.781250
6620,-50.781250
6621,-50.781250
6622,-50.781250
6623,-54.687500
6624,-54.687500
6625,-54.687500
6626,-54.687500
6627,-54.687500
6628,-54.687500
6629,-54.687500
6630,-54.687500
6631,-54.687500
6632,-54.687500
6633,-54.687500
6634,-58.593750
6635,-54.687500
6636,-58.593750
6637,-58.593750
6638,-58.593750
6639,-58.593750
6640,-58.593750
6641,-58.593750
6642,-58.593750
6643,-58.593750
6644,-58.593750
6645,-58.593750
6646,-58.593750
6647,-58.593750
6648,-62.500000
6649,-58.593750
6650,-62.500000
6651,-62.500000
6652,-62.500000
6653,-62.500000
6654,-62.500000
6655,-62.500000
6656,-62.500000
6657,-62.500000
6658,-62.500000
6659,-62.500000
6660,-62.500000
6661,-62.500000
6662,-62.500000
6663,-62.500000
6664,-62.500000
6665,-62.500000
6666,-66.406250
6667,-66.406250
6668,-66.406250
6669,-66.406250
6670,-66.406250
6671,-66.406250
6672,-66.406250
6673,-66.406250
6674,-66.406250
6675,-66.406250
6676,-66.406250
6677,-66.406250
6678,-66.406250
6679,-66.406250
6680,-66.406250
6681,-66.406250
6682,-66.406250
6683,-66.406250
6684,-66.406250
6685,-70.312500
6686,-70.312500
6687,-70.312500
6688,-70.312500
6689,-70.312500
6690,-70.312500
6691,-70.312500
6692,-70.312500
6693,-70.312500
6694,-70.312500
6695,-70.312500
6696,-70.312500
6697,-70.312500
6698,-70.312500
6699,-70.312500
6700,-70.312500
6701,-70.312500
6702,-70.312500
6703,-70.312500
6704,-70.312500
6705,-70.312500
6706,-70.312500
6707,-70.312500
6708,-70.312500
6709,-70.312500
6710,-74.218750
6711,-74.218750
6712,-74.218750
6713,-74.218750
6714,-74.218750
6715,-74.218750
6716,-74.218750
6717,-74.218750
6718,-74.218750
6719,-74.218750
6720,-74.218750
6721,-74.218750
6722,-74.218750
6723,-74.218750
6724,-74.218750
6725,-74.218750
6726,-74.218750
6727,-74.218750
6728,-74.218750
6729,-74.218750
6730,-74.218750
6731,-74.218750
6732,-74.218750
6733,-74.218750
6734,-74.218750
6735,-74.218750
6736,-74.218750
6737,-74.218750
6738,-74.218750
6739,-74.218750
6740,-74.218750
6741,-74.218750
6742,-74.218750
6743,-74.218750
6744,-74.218750
6745,-74.218750
6746,-74.218750
6747,-74.218750
6748,-78.125000
6749,-74.218750
6750,-78.125000
6751,-74.218750
6752,-78.125000
6753,-74.218750
6754,-74.218750
6755,-74.218750
6756,-74.218750
6757,-74.218750
6758,-74.218750
6759,-74.218750
6760,-78.125000
6761,-78.125000
6762,-78.125000
6763,-74.218750
6764,-74.218750
6765,-74.218750
6766,-74.218750
6767,-74.218750
6768,-74.218750
6769,-78.125000
6770,-78.125000
6771,-78.125000
6772,-74.218750
6773,-74.218750
6774,-74.218750
6775,-74.218750
6776,-74.218750
6777,-74.218750
6778,-74.218750
6779,-74.218750
6780,-78.125000
6781,-74.218750
6782,-74.218750
6783,-74.218750
6784,-74.218750
6785,-74.218750
6786,-74.218750
6787,-74.218750
6788,-74.218750
6789,-74.218750
6790,-74.218750
6791,-74.218750
6792,-78.125000
6793,-74.218750
6794,-74.218750
6795,-74.218750
6796,-74.218750
6797,-74.218750
6798,-74.218750
6799,-74.218750
6800,-74.218750
6801,-74.218750
6802,-74.218750
6803,-74.218750
6804,-74.218750
6805,-74.218750
6806,-74.218750
6807,-70.312500
6808,-74.218750
6809,-70.312500
6810,-70.312500
6811,-70.312500
6812,-70.312500
6813,-70.312500
6814,-70.312500
6815,-70.312500
6816,-70.312500
6817,-70.312500
6818,-70.312500
6819,-70.312500
6820,-70.312500
6821,-70.312500
6822,-70.312500
6823,-70.312500
6824,-70.312500
6825,-70.312500
6826,-70.312500
6827,-70.312500
6828,-70.312500
6829,-70.312500
6830,-70.312500
6831,-70.312500
6832,-70.312500
6833,-66.406250
6834,-66.406250
6835,-66.406250
6836,-66.406250
6837,-66.406250
6838,-66.406250
6839,-66.406250
6840,-66.406250
6841,-66.406250
6842,-66.406250
6843,-66.406250
6844,-66.406250
6845,-66.406250
6846,-66.406250
6847,-66.406250
6848,-66.406250
6849,-66.406250
6850,-66.406250
6851,-66.406250
6852,-62.500000
6853,-62.500000
6854,-62.500000
6855,-62.500000
6856,-62.500000
6857,-62.500000
6858,-62.500000
6859,-62.500000
6860,-62.500000
6861,-62.500000
6862,-62.500000
6863,-62.500000
6864,-62.500000
6865,-58.593750
6866,-62.500000
6867,-62.500000
6868,-58.593750
6869,-58.593750
6870,-58.593750
6871,-58.593750
6872,-58.593750
6873,-58.593750
6874,-58.593750
6875,-58.593750
6876,-58.593750
6877,-58.593750
6878,-58.593750
6879,-58.593750
6880,-54.687500
6881,-54.687500
6882,-54.687500
6883,-54.687500
6884,-54.687500
6885,-54.687500
6886,-54.687500
6887,-54.687500
6888,-54.687500
6889,-54.687500
6890,-54.687500
6891,-54.687500
6892,-54.687500
6893,-54.687500
6894,-50.781250
6895,-50.781250
6896,-50.781250
6897,-50.781250
6898,-50.781250
6899,-50.781250
6900,-50.781250
6901,-50.781250
6902,-50.781250
6903,-50.781250
6904,-50.781250
6905,-50.781250
6906,-46.875000
6907,-46.875000
6908,-46.875000
6909,-46.875000
6910,-46.875000
6911,-46.875000
6912,-46.875000
6913,-46.875000
6914,-46.875000
6915,-42.968750
6916,-46.875000
6917,-42.968750
6918,-42.968750
6919,-42.968750
6920,-42.968750
6921,-42.968750
6922,-42.968750
6923,-42.968750
6924,-42.968750
6925,-42.968750
6926,-42.968750
6927,-42.968750
6928,-39.062500
6929,-39.062500
6930,-39.062500
6931,-39.062500
6932,-39.062500
6933,-39.062500
6934,-39.062500
6935,-39.062500
6936,-39.062500
6937,-39.062500
6938,-39.062500
6939,-35.156250
6940,-35.156250
6941,-35.156250
6942,-35.156250
6943,-35.156250
6944,-35.156250
6945,-35.156250
6946,-35.156250
6947,-31.250000
6948,-31.250000
6949,-31.250000
6950,-31.250000
6951,-31.250000
6952,-31.250000
6953,-31.250000
6954,-31.250000
6955,-31.250000
6956,-31.250000
6957,-31.250000
6958,-31.250000
6959,-27.343750
6960,-27.343750
6961,-27.343750
6962,-27.343750
6963,-27.343750
6964,-27.343750
6965,-27.343750
6966,-27.343750
6967,-27.343750
6968,-27.343750
6969,-27.343750
6970,-23.437500
6971,-23.437500
6972,-23.437500
6973,-23.437500
6974,-23.437500
6975,-23.437500
6976,-23.437500
6977,-23.437500
6978,-23.437500
6979,-19.531250
6980,-19.531250
6981,-19.531250
6982,-19.531250
6983,-19.531250
6984,-19.531250
6985,-19.531250
6986,-19.531250
6987,-15.625000
6988,-15.625000
6989,-15.625000
6990,-15.625000
6991,-15.625000
6992,-15.625000
6993,-15.625000
6994,-15.625000
6995,-15.625000
6996,-15.625000
6997,-11.718750
6998,-11.718750
6999,-15.625000
7000,-15.625000
7001,-11.718750
7002,-11.718750
7003,-11.718750
7004,-11.718750
7005,-11.718750
7006,-11.718750
7007,-11.718750
7008,-11.718750
7009,-11.718750
7010,-7.812500
7011,-7.812500
7012,-7.812500
7013,-7.812500
7014,-7.812500
7015,-7.812500
7016,-7.812500
7017,-3.906250
7018,-7.812500
7019,-3.906250
7020,-3.906250
7021,-3.906250
7022,-3.906250
7023,-3.906250
7024,-3.906250
7025,-3.906250
7026,-3.906250
7027,-3.906250
7028,-3.906250
7029,0.000000
7030,0.000000
7031,0.000000
7032,0.000000
7033,0.000000
7034,0.000000
7035,0.000000
7036,0.000000
7037,0.000000
7038,0.000000
7039,3.906250
7040,3.906250
7041,3.906250
7042,3.906250
7043,3.906250
7044,3.906250
7045,3.906250
7046,3.906250
7047,3.906250
7048,3.906250
7049,7.812500
7050,3.906250
7051,3.906250
7052,3.906250
7053,7.812500
7054,7.812500
7055,7.812500
7056,7.812500
7057,7.812500
7058,7.812500
7059,7.812500
7060,7.812500
7061,7.812500
7062,11.718750
7063,11.718750
7064,7.812500
7065,11.718750
7066,11.718750
7067,11.718750
7068,11.718750
7069,11.718750
7070,11.718750
7071,11.718750
7072,11.718750
7073,15.625000
7074,15.625000
7075,15.625000
7076,15.625000
7077,15.625000
7078,15.625000
7079,15.625000
7080,15.625000
7081,15.625000
7082,15.625000
7083,15.625000
7084,15.625000
7085,19.531250
7086,19.531250
7087,19.531250
7088,19.531250
7089,19.531250
7090,19.531250
7091,19.531250
7092,19.531250
7093,19.531250
7094,19.531250
7095,19.531250
7096,23.437500
7097,23.437500
7098,23.437500
7099,23.437500
7100,23.437500
7101,23.437500
7102,23.437500
7103,23.437500
7104,23.437500
7105,23.437500
7106,23.437500
7107,23.437500
7108,23.437500
7109,23.437500
7110,23.437500
7111,27.343750
7112,27.343750
7113,27.343750
7114,27.343750
7115,27.343750
7116,27.343750
7117,27.343750
7118,27.343750
7119,27.343750
7120,27.343750
7121,27.343750
7122,31.250000
7123,27.343750
7124,31.250000
7125,31.250000
7126,27.343750
7127,31.250000
7128,31.250000
7129,27.343750
7130,31.250000
7131,31.250000
7132,31.250000
7133,31.250000
7134,31.250000
7135,31.250000
7136,31.250000
7137,31.250000
7138,31.250000
7139,35.156250
7140,31.250000
7141,35.156250
7142,35.156250
7143,31.250000
7144,35.156250
7145,31.250000
7146,35.156250
7147,35.156250
7148,35.156250
7149,35.156250
7150,35.156250
7151,35.156250
7152,35.156250
7153,35.156250
7154,35.156250
7155,35.156250
7156,35.156250
7157,35.156250
7158,35.156250
7159,35.156250
7160,39.062500
7161,39.062500
7162,35.156250
7163,39.062500
7164,39.062500
7165,39.062500
7166,39.062500
7167,39.062500
7168,39.062500
7169,39.062500
7170,39.062500
7171,39.062500
7172,39.062500
7173,39.062500
7174,39.062500
7175,42.968750
7176,39.062500
7177,39.062500
7178,39.062500
7179,39.062500
7180,39.062500
7181,42.968750
7182,39.062500
7183,42.968750
7184,42.968750
7185,42.968750
7186,42.968750
7187,39.062500
7188,42.968750
7189,42.968750
7190,42.968750
7191,42.968750
7192,42.968750
7193,42.968750
7194,42.968750
7195,42.968750
7196,42.968750
7197,42.968750
7198,42.968750
7199,42.968750
7200,42.968750
7201,42.968750
7202,42.968750
7203,42.968750
7204,42.968750
7205,42.968750
7206,42.968750
7207,42.968750
7208,42.968750
7209,42.968750
7210,42.968750
7211,42.968750
7212,42.968750
7213,46.875000
7214,42.968750
7215,46.875000
7216,46.875000
7217,46.875000
7218,42.968750
7219,46.875000
7220,42.968750
7221,42.968750
7222,42.968750
7223,42.968750
7224,46.875000
7225,46.875000
7226,46.875000
7227,46.875000
7228,46.875000
7229,42.968750
7230,42.968750
7231,46.875000
7232,46.875000
7233,46.875000
7234,46.875000
7235,46.875000
7236,46.875000
7237,46.875000
7238,46.875000
7239,46.875000
7240,46.875000
7241,46.875000
7242,46.875000
7243,46.875000
7244,46.875000
7245,46.875000
7246,46.875000
7247,46.875000
7248,46.875000
7249,46.875000
7250,46.875000
7251,46.875000
7252,46.875000
7253,46.875000
7254,46.875000
7255,46.875000
7256,46.875000
7257,46.875000
7258,46.875000
7259,46.875000
7260,42.968750
7261,46.875000
7262,46.875000
7263,46.875000
7264,46.875000
7265,46.875000
7266,46.875000
7267,46.875000
7268,46.875000
7269,46.875000
7270,42.968750
7271,46.875000
7272,42.968750
7273,46.875000
7274,42.968750
7275,46.875000
7276,46.875000
7277,46.875000
7278,46.875000
7279,46.875000
7280,42.968750
7281,46.875000
7282,42.968750
7283,42.968750
7284,42.968750
7285,42.968750
7286,42.968750
7287,42.968750
7288,42.968750
7289,42.968750
7290,42.968750
7291,42.968750
7292,42.968750
7293,42.968750
7294,42.968750
7295,42.968750
7296,42.968750
7297,42.968750
7298,42.968750
7299,42.968750
7300,42.968750
7301,42.968750
7302,42.968750
7303,42.968750
7304,42.968750
7305,42.968750
7306,42.968750
7307,42.968750
7308,42.968750
7309,42.968750
7310,42.968750
7311,42.968750
7312,39.062500
7313,42.968750
7314,42.968750
7315,42.968750
7316,42.968750
7317,39.062500
7318,42.968750
7319,39.062500
7320,39.062500
7321,39.062500
7322,39.062500
7323,39.062500
7324,39.062500
7325,39.062500
7326,39.062500
7327,39.062500
7328,39.062500
7329,39.062500
7330,39.062500
7331,39.062500
7332,39.062500
7333,39.062500
7334,39.062500
7335,39.062500
7336,39.062500
7337,39.062500
7338,39.062500
7339,39.062500
7340,39.062500
7341,39.062500
7342,39.062500
7343,39.062500
7344,35.156250
7345,35.156250
7346,35.156250
7347,35.156250
7348,35.156250
7349,35.156250
7350,35.156250
7351,35.156250
7352,35.156250
7353,35.156250
7354,35.156250
7355,35.156250
7356,35.156250
7357,35.156250
7358,35.156250
7359,35.156250
7360,35.156250
7361,35.156250
7362,35.156250
7363,31.250000
7364,31.250000
7365,31.250000
7366,31.250000
7367,31.250000
7368,31.250000
7369,31.250000
7370,31.250000
7371,31.250000
7372,31.250000
7373,31.250000
7374,31.250000
7375,31.250000
7376,31.250000
7377,31.250000
7378,31.250000
7379,27.343750
7380,27.343750
7381,27.343750
7382,27.343750
7383,27.343750
7384,27.343750
7385,27.343750
7386,27.343750
7387,27.343750
7388,27.343750
7389,23.437500
7390,23.437500
7391,27.343750
7392,27.343750
7393,23.437500
7394,23.437500
7395,23.437500
7396,23.437500
7397,23.437500
7398,23.437500
7399,23.437500
7400,23.437500
7401,23.437500
7402,23.437500
7403,23.437500
7404,23.437500
7405,19.531250
7406,19.531250
7407,19.531250
7408,19.531250
7409,19.531250
7410,19.531250
7411,19.531250
7412,19.531250
7413,19.531250
7414,19.531250
7415,19.531250
7416,19.531250
7417,19.531250
7418,19.531250
7419,19.531250
7420,15.625000
7421,15.625000
7422,15.625000
7423,15.625000
7424,15.625000
7425,15.625000
7426,15.625000
7427,15.625000
7428,15.625000
7429,15.625000
7430,11.718750
7431,15.625000
7432,11.718750
7433,11.718750
7434,11.718750
7435,11.718750
7436,11.718750
7437,11.718750
7438,11.718750
7439,11.718750
7440,11.718750
7441,7.812500
7442,7.812500
7443,7.812500
7444,7.812500
7445,7.812500
7446,7.812500
7447,7.812500
7448,7.812500
7449,7.812500
7450,7.812500
7451,7.812500
7452,7.812500
7453,7.812500
7454,7.812500
7455,7.812500
7456,3.906250
7457,3.906250
7458,3.906250
7459,3.906250
7460,3.906250
7461,3.906250
7462,3.906250
7463,3.906250
7464,3.906250
7465,0.000000
7466,0.000000
7467,0.000000
7468,0.000000
7469,0.000000
7470,0.000000
7471,0.000000
7472,0.000000
7473,0.000000
7474,-3.906250
7475,0.000000
7476,-3.906250
7477,-3.906250
7478,-3.906250
7479,-3.906250
7480,-3.906250
7481,-3.906250
7482,-3.906250
7483,-3.906250
7484,-3.906250
7485,-7.812500
7486,-3.906250
7487,-3.906250
7488,-7.812500
7489,-7.812500
7490,-7.812500
7491,-7.812500
7492,-7.812500
7493,-7.812500
7494,-7.812500
7495,-7.812500
7496,-7.812500
7497,-11.718750
7498,-11.718750
7499,-11.718750
7500,-11.718750
7501,-11.718750
7502,-11.718750
7503,-11.718750
7504,-11.718750
7505,-11.718750
7506,-15.625000
7507,-15.625000
7508,-15.625000
7509,-15.625000
7510,-15.625000
7511,-15.625000
7512,-15.625000
7513,-15.625000
7514,-15.625000
7515,-15.625000
7516,-19.531250
7517,-19.531250
7518,-19.531250
7519,-19.531250
7520,-19.531250
7521,-19.531250
7522,-19.531250
7523,-19.531250
7524,-19.531250
7525,-23.437500
7526,-23.437500
7527,-23.437500
7528,-23.437500
7529,-23.437500
7530,-23.437500
7531,-23.437500
7532,-23.437500
7533,-23.437500
7534,-23.437500
7535,-23.437500
7536,-23.437500
7537,-27.343750
7538,-27.343750
7539,-27.343750
7540,-27.343750
7541,-27.343750
7542,-27.343750
7543,-27.343750
7544,-27.343750
7545,-27.343750
7546,-27.343750
7547,-31.250000
7548,-31.250000
7549,-31.250000
7550,-31.250000
7551,-31.250000
7552,-31.250000
7553,-31.250000
7554,-31.250000
7555,-31.250000
7556,-31.250000
7557,-35.156250
7558,-35.156250
7559,-35.156250
7560,-35.156250
7561,-35.156250
7562,-35.156250
7563,-35.156250
7564,-35.156250
7565,-35.156250
7566,-35.156250
7567,-39.062500
7568,-39.062500
7569,-39.062500
7570,-39.062500
7571,-39.062500
7572,-39.062500
7573,-39.062500
7574,-39.062500
7575,-39.062500
7576,-39.062500
7577,-39.062500
7578,-42.968750
7579,-42.968750
7580,-42.968750
7581,-42.968750
7582,-42.968750
7583,-42.968750
7584,-42.968750
7585,-42.968750
7586,-42.968750
7587,-42.968750
7588,-42.968750
7589,-42.968750
7590,-42.968750
7591,-46.875000
7592,-46.875000
7593,-46.875000
7594,-46.875000
7595,-46.875000
7596,-46.875000
7597,-46.875000
7598,-46.875000
7599,-46.875000
7600,-46.875000
7601,-50.781250
7602,-50.781250
7603,-50.781250
7604,-50.781250
7605,-50.781250
7606,-50.781250
7607,-50.781250
7608,-50.781250
7609,-50.781250
7610,-50.781250
7611,-54.687500
7612,-54.687500
7613,-54.687500
7614,-54.687500
7615,-54.687500
7616,-54.687500
7617,-54.687500
7618,-54.687500
7619,-54.687500
7620,-54.687500
7621,-54.687500
7622,-54.687500
7623,-54.687500
7624,-54.687500
7625,-54.687500
7626,-54.687500
7627,-58.593750
7628,-58.593750
7629,-54.687500
7630,-58.593750
7631,-58.593750
7632,-58.593750
7633,-58.593750
7634,-58.593750
7635,-58.593750
7636,-58.593750
7637,-58.593750
7638,-58.593750
7639,-62.500000
7640,-58.593750
7641,-62.500000
7642,-62.500000
7643,-62.500000
7644,-62.500000
7645,-62.500000
7646,-62.500000
7647,-62.500000
7648,-62.500000
7649,-62.500000
7650,-62.500000
7651,-62.500000
7652,-62.500000
7653,-62.500000
7654,-62.500000
7655,-66.406250
7656,-66.406250
7657,-66.406250
7658,-66.406250
7659,-66.406250
7660,-66.406250
7661,-66.406250
7662,-66.406250
7663,-66.406250
7664,-66.406250
7665,-66.406250
7666,-66.406250
7667,-66.406250
7668,-66.406250
7669,-66.406250
7670,-66.406250
7671,-66.406250
7672,-70.312500
7673,-70.312500
7674,-70.312500
7675,-70.312500
7676,-70.312500
7677,-70.312500
7678,-70.312500
7679,-70.312500
7680,-70.312500
7681,-70.312500
7682,-70.312500
7683,-70.312500
7684,-70.312500
7685,-70.312500
7686,-70.312500
7687,-70.312500
7688,-70.312500
7689,-70.312500
7690,-70.312500
7691,-70.312500
7692,-74.218750
7693,-70.312500
7694,-70.312500
7695,-70.312500
7696,-74.218750
7697,-74.218750
7698,-74.218750
7699,-74.218750
7700,-74.218750
7701,-74.218750
7702,-74.218750
7703,-74.218750
7704,-74.218750
7705,-74.218750
7706,-74.218750
7707,-74.218750
7708,-74.218750
7709,-74.218750
7710,-74.218750
7711,-74.218750
7712,-74.218750
7713,-74.218750
7714,-74.218750
7715,-74.218750
7716,-74.218750
7717,-74.218750
7718,-74.218750
7719,-74.218750
7720,-74.218750
7721,-74.218750
7722,-74.218750
7723,-74.218750
7724,-74.218750
7725,-74.218750
7726,-74.218750
7727,-74.218750
7728,-74.218750
7729,-74.218750
7730,-74.218750
7731,-74.218750
7732,-74.218750
7733,-74.218750
7734,-74.218750
7735,-74.218750
7736,-74.218750
7737,-74.218750
7738,-74.218750
7739,-74.218750
7740,-74.218750
7741,-74.218750
7742,-74.218750
7743,-74.218750
7744,-74.218750
7745,-74.218750
7746,-74.218750
7747,-74.218750
7748,-74.218750
7749,-74.218750
7750,-74.218750
7751,-74.218750
7752,-74.218750
7753,-74.218750
7754,-74.218750
7755,-78.125000
7756,-78.125000
7757,-74.218750
7758,-74.218750
7759,-74.218750
7760,-74.218750
7761,-74.218750
7762,-74.218750
7763,-74.218750
7764,-74.218750
7765,-74.218750
7766,-74.218750
7767,-74.218750
7768,-74.218750
7769,-74.218750
7770,-74.218750
7771,-74.218750
7772,-74.218750
7773,-74.218750
7774,-74.218750
7775,-74.218750
7776,-74.218750
7777,-74.218750
7778,-74.218750
7779,-74.218750
7780,-74.218750
7781,-74.218750
7782,-74.218750
7783,-74.218750
7784,-74.218750
7785,-74.218750
7786,-74.218750
7787,-74.218750
7788,-74.218750
7789,-74.218750
7790,-74.218750
7791,-74.218750
7792,-74.218750
7793,-74.218750
7794,-74.218750
7795,-74.218750
7796,-74.218750
7797,-74.218750
7798,-74.218750
7799,-70.312500
7800,-70.312500
7801,-70.312500
7802,-70.312500
7803,-74.218750
7804,-74.218750
7805,-70.312500
7806,-70.312500
7807,-70.312500
7808,-70.312500
7809,-70.312500
7810,-70.312500
7811,-70.312500
7812,-70.312500
7813,-70.312500
7814,-70.312500
7815,-70.312500
7816,-70.312500
7817,-70.312500
7818,-70.312500
7819,-70.312500
7820,-70.312500
7821,-70.312500
7822,-70.312500
7823,-66.406250
7824,-66.406250
7825,-66.406250
7826,-66.406250
7827,-66.406250
7828,-66.406250
7829,-66.406250
7830,-66.406250
7831,-66.406250
7832,-66.406250
7833,-66.406250
7834,-66.406250
7835,-66.406250
7836,-66.406250
7837,-66.406250
7838,-66.406250
7839,-66.406250
7840,-66.406250
7841,-66.406250
7842,-66.406250
7843,-62.500000
7844,-62.500000
7845,-62.500000
7846,-62.500000
7847,-62.500000
7848,-62.500000
7849,-62.500000
7850,-62.500000
7851,-62.500000
7852,-62.500000
7853,-62.500000
7854,-62.500000
7855,-58.593750
7856,-58.593750
7857,-58.593750
7858,-58.593750
7859,-58.593750
7860,-58.593750
7861,-58.593750
7862,-58.593750
7863,-58.593750
7864,-58.593750
7865,-58.593750
7866,-58.593750
7867,-58.593750
7868,-58.593750
7869,-54.687500
7870,-54.687500
7871,-54.687500
7872,-54.687500
7873,-54.687500
7874,-54.687500
7875,-54.687500
7876,-54.687500
7877,-54.687500
7878,-54.687500
7879,-54.687500
7880,-54.687500
7881,-54.687500
7882,-54.687500
7883,-50.781250
7884,-50.781250
7885,-50.781250
7886,-50.781250
7887,-50.781250
7888,-50.781250
7889,-50.781250
7890,-50.781250
7891,-50.781250
7892,-50.781250
7893,-50.781250
7894,-50.781250
7895,-46.875000
7896,-46.875000
7897,-46.875000
7898,-46.875000
7899,-46.875000
7900,-46.875000
7901,-46.875000
7902,-46.875000
7903,-46.875000
7904,-46.875000
7905,-46.875000
7906,-42.968750
7907,-42.968750
7908,-42.968750
7909,-42.968750
7910,-42.968750
7911,-42.968750
7912,-42.968750
7913,-42.968750
7914,-42.968750
7915,-42.968750
7916,-42.968750
7917,-39.062500
7918,-39.062500
7919,-39.062500
7920,-39.062500
7921,-39.062500
7922,-39.062500
7923,-39.062500
7924,-39.062500
7925,-39.062500
7926,-39.062500
7927,-35.156250
7928,-35.156250
7929,-35.156250
7930,-35.156250
7931,-35.156250
7932,-35.156250
7933,-35.156250
7934,-35.156250
7935,-35.156250
7936,-35.156250
7937,-35.156250
7938,-35.156250
7939,-31.250000
7940,-31.250000
7941,-31.250000
7942,-31.250000
7943,-31.250000
7944,-31.250000
7945,-31.250000
7946,-31.250000
7947,-31.250000
7948,-27.343750
7949,-27.343750
7950,-27.343750
7951,-27.343750
7952,-27.343750
7953,-27.343750
7954,-27.343750
7955,-27.343750
7956,-23.437500
7957,-27.343750
7958,-23.437500
7959,-23.437500
7960,-23.437500
7961,-23.437500
7962,-23.437500
7963,-23.437500
7964,-23.437500
7965,-23.437500
7966,-23.437500
7967,-23.437500
7968,-23.437500
7969,-19.531250
7970,-19.531250
7971,-19.531250
7972,-19.531250
7973,-19.531250
7974,-19.531250
7975,-19.531250
7976,-19.531250
7977,-19.531250
7978,-19.531250
7979,-15.625000
7980,-15.625000
7981,-15.625000
7982,-15.625000
7983,-15.625000
7984,-15.625000
7985,-15.625000
7986,-15.625000
7987,-15.625000
7988,-15.625000
7989,-11.718750
7990,-11.718750
7991,-11.718750
7992,-11.718750
7993,-11.718750
7994,-11.718750
7995,-11.718750
7996,-11.718750
7997,-11.718750
7998,-11.718750
7999,-7.812500
8000,-7.812500
8001,-7.812500
8002,-7.812500
8003,-7.812500
8004,-7.812500
8005,-7.812500
8006,-7.812500
8007,-7.812500
8008,-7.812500
8009,-3.906250
8010,-3.906250
8011,-3.906250
8012,-3.906250
8013,-3.906250
8014,-3.906250
8015,-3.906250
8016,-3.906250
8017,-3.906250
8018,-3.906250
8019,0.000000
8020,0.000000
8021,0.000000
8022,0.000000
8023,0.000000
8024,0.000000
8025,0.000000
8026,0.000000
8027,0.000000
8028,0.000000
8029,3.906250
8030,3.906250
8031,3.906250
8032,3.906250
8033,3.906250
8034,3.906250
8035,3.906250
8036,3.906250
8037,3.906250
8038,3.906250
8039,3.906250
8040,7.812500
8041,7.812500
8042,7.812500
8043,7.812500
8044,7.812500
8045,7.812500
8046,7.812500
8047,7.812500
8048,7.812500
8049,7.812500
8050,7.812500
8051,7.812500
8052,11.718750
8053,11.718750
8054,11.718750
8055,11.718750
8056,11.718750
8057,11.718750
8058,11.718750
8059,11.718750
8060,11.718750
8061,11.718750
8062,11.718750
8063,11.718750
8064,15.625000
8065,15.625000
8066,15.625000
8067,15.625000
8068,15.625000
8069,15.625000
8070,15.625000
8071,15.625000
8072,15.625000
8073,15.625000
8074,15.625000
8075,19.531250
8076,19.531250
8077,19.531250
8078,19.531250
8079,19.531250
8080,19.531250
8081,19.531250
8082,19.531250
8083,19.531250
8084,19.531250
8085,19.531250
8086,19.531250
8087,23.437500
8088,23.437500
8089,23.437500
8090,23.437500
8091,23.437500
8092,23.437500
8093,23.437500
8094,23.437500
8095,23.437500
8096,23.437500
8097,23.437500
8098,23.437500
8099,23.437500
8100,23.437500
8101,23.437500
8102,27.343750
8103,27.343750
8104,27.343750
8105,27.343750
8106,27.343750
8107,27.343750
8108,27.343750
8109,27.343750
8110,27.343750
8111,27.343750
8112,27.343750
8113,27.343750
8114,27.343750
8115,31.250000
8116,31.250000
8117,31.250000
8118,31.250000
8119,31.250000
8120,31.250000
8121,31.250000
8122,31.250000
8123,31.250000
8124,31.250000
8125,31.250000
8126,31.250000
8127,31.250000
8128,31.250000
8129,31.250000
8130,31.250000
8131,31.250000
8132,31.250000
8133,35.156250
8134,35.156250
8135,35.156250
8136,35.156250
8137,35.156250
8138,35.156250
8139,35.156250
8140,35.156250
8141,35.156250
8142,35.156250
8143,35.156250
8144,35.156250
8145,35.156250
8146,35.156250
8147,35.156250
8148,35.156250
8149,35.156250
8150,35.156250
8151,35.156250
8152,35.156250
8153,39.062500
8154,39.062500
8155,39.062500
8156,39.062500
8157,39.062500
8158,39.062500
8159,39.062500
8160,39.062500
8161,39.062500
8162,39.062500
8163,39.062500
8164,39.062500
8165,39.062500
8166,39.062500
8167,39.062500
8168,39.062500
8169,39.062500
8170,39.062500
8171,39.062500
8172,39.062500
8173,39.062500
8174,42.968750
8175,42.968750
8176,42.968750
8177,42.968750
8178,39.062500
8179,39.062500
8180,39.062500
8181,42.968750
8182,42.968750
8183,42.968750
8184,42.968750
8185,42.968750
8186,42.968750
8187,42.968750
8188,42.968750
8189,42.968750
8190,42.968750
8191,42.968750
8192,42.968750
8193,42.968750
8194,42.968750
8195,42.968750
8196,42.968750
8197,42.968750
8198,42.968750
8199,42.968750
8200,42.968750
8201,42.968750
8202,46.875000
8203,42.968750
8204,46.875000
8205,42.968750
8206,42.968750
8207,42.968750
8208,42.968750
8209,42.968750
8210,42.968750
8211,42.968750
8212,46.875000
8213,46.875000
8214,42.968750
8215,46.875000
8216,42.968750
8217,42.968750
8218,42.968750
8219,42.968750
8220,42.968750
8221,46.875000
8222,46.875000
8223,46.875000
8224,46.875000
8225,46.875000
8226,46.875000
8227,46.875000
8228,46.875000
8229,46.875000
8230,46.875000
8231,46.875000
8232,46.875000
8233,46.875000
8234,46.875000
8235,46.875000
8236,46.875000
8237,46.875000
8238,46.875000
8239,46.875000
8240,46.875000
8241,46.875000
8242,46.875000
8243,46.875000
8244,46.875000
8245,46.875000
8246,46.875000
8247,46.875000
8248,46.875000
8249,46.875000
8250,46.875000
8251,46.875000
8252,46.875000
8253,46.875000
8254,46.875000
8255,46.875000
8256,46.875000
8257,46.875000
8258,46.875000
8259,42.968750
8260,46.875000
8261,46.875000
8262,46.875000
8263,46.875000
8264,46.875000
8265,46.875000
8266,46.875000
8267,46.875000
8268,46.875000
8269,46.875000
8270,42.968750
8271,46.875000
8272,42.968750
8273,46.875000
8274,46.875000
8275,46.875000
8276,46.875000
8277,42.968750
8278,42.968750
8279,42.968750
8280,42.968750
8281,42.968750
8282,42.968750
8283,42.968750
8284,42.968750
8285,46.875000
8286,42.968750
8287,42.968750
8288,42.968750
8289,42.968750
8290,42.968750
8291,42.968750
8292,42.968750
8293,42.968750
8294,42.968750
8295,42.968750
8296,42.968750
8297,42.968750
8298,42.968750
8299,42.968750
8300,42.968750
8301,42.968750
8302,42.968750
8303,42.968750
8304,42.968750
8305,42.968750
8306,39.062500
8307,39.062500
8308,42.968750
8309,39.062500
8310,42.968750
8311,42.968750
8312,42.968750
8313,39.062500
8314,39.062500
8315,39.062500
8316,39.062500
8317,39.062500
8318,39.062500
8319,39.062500
8320,39.062500
8321,39.062500
8322,39.062500
8323,39.062500
8324,39.062500
8325,39.062500
8326,39.062500
8327,39.062500
8328,39.062500
8329,39.062500
8330,39.062500
8331,39.062500
8332,39.062500
8333,39.062500
8334,39.062500
8335,35.156250
8336,35.156250
8337,35.156250
8338,35.156250
8339,35.156250
8340,35.156250
8341,35.156250
8342,35.156250
8343,35.156250
8344,35.156250
8345,35.156250
8346,35.156250
8347,35.156250
8348,35.156250
8349,35.156250
8350,35.156250
8351,35.156250
8352,35.156250
8353,35.156250
8354,31.250000
8355,31.250000
8356,31.250000
8357,31.250000
8358,31.250000
8359,31.250000
8360,31.250000
8361,31.250000
8362,31.250000
8363,31.250000
8364,27.343750
8365,31.250000
8366,27.343750
8367,27.343750
8368,31.250000
8369,27.343750
8370,27.343750
8371,27.343750
8372,27.343750
8373,27.343750
8374,27.343750
8375,27.343750
8376,27.343750
8377,27.343750
8378,23.437500
8379,27.343750
8380,27.343750
8381,27.343750
8382,27.343750
8383,27.343750
8384,23.437500
8385,23.437500
8386,23.437500
8387,23.437500
8388,23.437500
8389,23.437500
8390,23.437500
8391,23.437500
8392,23.437500
8393,23.437500
8394,23.437500
8395,23.437500
8396,23.437500
8397,19.531250
8398,19.531250
8399,19.531250
8400,19.531250
8401,19.531250
8402,19.531250
8403,19.531250
8404,19.531250
8405,19.531250
8406,19.531250
8407,19.531250
8408,19.531250
8409,19.531250
8410,15.625000
8411,15.625000
8412,15.625000
8413,15.625000
8414,15.625000
8415,15.625000
8416,15.625000
8417,15.625000
8418,15.625000
8419,15.625000
8420,15.625000
8421,15.625000
8422,11.718750
8423,11.718750
8424,11.718750
8425,11.718750
8426,11.718750
8427,11.718750
8428,11.718750
8429,11.718750
8430,11.718750
8431,11.718750
8432,11.718750
8433,11.718750
8434,7.812500
8435,7.812500
8436,7.812500
8437,7.812500
8438,7.812500
8439,7.812500
8440,7.812500
8441,7.812500
8442,7.812500
8443,7.812500
8444,3.906250
8445,3.906250
8446,3.906250
8447,3.906250
8448,3.906250
8449,3.906250
8450,3.906250
8451,3.906250
8452,3.906250
8453,3.906250
8454,3.906250
8455,0.000000
8456,0.000000
8457,0.000000
8458,0.000000
8459,0.000000
8460,0.000000
8461,0.000000
8462,0.000000
8463,0.000000
8464,0.000000
8465,-3.906250
8466,-3.906250
8467,-3.906250
8468,-3.906250
8469,-3.906250
8470,-3.906250
8471,-3.906250
8472,-3.906250
8473,-3.906250
8474,-3.906250
8475,-3.906250
8476,-7.812500
8477,-7.812500
8478,-7.812500
8479,-7.812500
8480,-7.812500
8481,-7.812500
8482,-7.812500
8483,-7.812500
8484,-7.812500
8485,-11.718750
8486,-7.812500
8487,-11.718750
8488,-11.718750
8489,-11.718750
8490,-11.718750
8491,-11.718750
8492,-11.718750
8493,-11.718750
8494,-15.625000
8495,-11.718750
8496,-11.718750
8497,-15.625000
8498,-15.625000
8499,-15.625000
8500,-15.625000
8501,-15.625000
8502,-15.625000
8503,-15.625000
8504,-15.625000
8505,-15.625000
8506,-19.531250
8507,-19.531250
8508,-19.531250
8509,-19.531250
8510,-19.531250
8511,-19.531250
8512,-19.531250
8513,-19.531250
8514,-19.531250
8515,-19.531250
8516,-23.437500
8517,-23.437500
8518,-23.437500
8519,-23.437500
8520,-23.437500
8521,-23.437500
8522,-23.437500
8523,-23.437500
8524,-23.437500
8525,-23.437500
8526,-27.343750
8527,-27.343750
8528,-27.343750
8529,-27.343750
8530,-27.343750
8531,-27.343750
8532,-27.343750
8533,-27.343750
8534,-31.250000
8535,-31.250000
8536,-31.250000
8537,-31.250000
8538,-27.343750
8539,-31.250000
8540,-31.250000
8541,-31.250000
8542,-31.250000
8543,-31.250000
8544,-31.250000
8545,-31.250000
8546,-31.250000
8547,-31.250000
8548,-35.156250
8549,-35.156250
8550,-35.156250
8551,-35.156250
8552,-35.156250
8553,-35.156250
8554,-35.156250
8555,-35.156250
8556,-35.156250
8557,-35.156250
8558,-35.156250
8559,-39.062500
8560,-39.062500
8561,-39.062500
8562,-39.062500
8563,-39.062500
8564,-39.062500
8565,-39.062500
8566,-39.062500
8567,-42.968750
8568,-39.062500
8569,-42.968750
8570,-42.968750
8571,-42.968750
8572,-42.968750
8573,-42.968750
8574,-42.968750
8575,-42.968750
8576,-42.968750
8577,-42.968750
8578,-46.875000
8579,-46.875000
8580,-46.875000
8581,-46.875000
8582,-46.875000
8583,-46.875000
8584,-46.875000
8585,-46.875000
8586,-46.875000
8587,-46.875000
8588,-46.875000
8589,-46.875000
8590,-50.781250
8591,-50.781250
8592,-50.781250
8593,-50.781250
8594,-50.781250
8595,-50.781250
8596,-50.781250
8597,-50.781250
8598,-50.781250
8599,-50.781250
8600,-50.781250
8601,-50.781250
8602,-50.781250
8603,-54.687500
8604,-54.687500
8605,-54.687500
8606,-54.687500
8607,-54.687500
8608,-54.687500
8609,-54.687500
8610,-54.687500
8611,-54.687500
8612,-54.687500
8613,-54.687500
8614,-54.687500
8615,-54.687500
8616,-58.593750
8617,-58.593750
8618,-58.593750
8619,-58.593750
8620,-58.593750
8621,-58.593750
8622,-58.593750
8623,-58.593750
8624,-58.593750
8625,-58.593750
8626,-62.500000
8627,-58.593750
8628,-62.500000
8629,-62.500000
8630,-62.500000
8631,-62.500000
8632,-62.500000
8633,-62.500000
8634,-62.500000
8635,-62.500000
8636,-62.500000
8637,-62.500000
8638,-62.500000
8639,-62.500000
8640,-62.500000
8641,-62.500000
8642,-62.500000
8643,-66.406250
8644,-66.406250
8645,-66.406250
8646,-66.406250
8647,-66.406250
8648,-66.406250
8649,-66.406250
8650,-66.406250
8651,-66.406250
8652,-66.406250
8653,-66.406250
8654,-66.406250
8655,-66.406250
8656,-66.406250
8657,-66.406250
8658,-66.406250
8659,-66.406250
8660,-66.406250
8661,-70.312500
8662,-66.406250
8663,-66.406250
8664,-66.406250
8665,-70.312500
8666,-70.312500
8667,-70.312500
8668,-70.312500
8669,-70.312500
8670,-70.312500
8671,-70.312500
8672,-70.312500
8673,-70.312500
8674,-70.312500
8675,-70.312500
8676,-70.312500
8677,-70.312500
8678,-70.312500
8679,-70.312500
8680,-70.312500
8681,-70.312500
8682,-70.312500
8683,-70.312500
8684,-70.312500
8685,-74.218750
8686,-74.218750
8687,-74.218750
8688,-74.218750
8689,-74.218750
8690,-74.218750
8691,-74.218750
8692,-74.218750
8693,-74.218750
8694,-74.218750
8695,-74.218750
8696,-74.218750
8697,-74.218750
8698,-74.218750
8699,-74.218750
8700,-74.218750
8701,-74.218750
8702,-74.218750
8703,-74.218750
8704,-74.218750
8705,-74.218750
8706,-74.218750
8707,-74.218750
8708,-74.218750
8709,-74.218750
8710,-74.218750
8711,-74.218750
8712,-74.218750
8713,-74.218750
8714,-74.218750
8715,-78.125000
8716,-74.218750
8717,-74.218750
8718,-74.218750
8719,-74.218750
8720,-74.218750
8721,-78.125000
8722,-74.218750
8723,-78.125000
8724,-78.125000
8725,-78.125000
8726,-74.218750
8727,-74.218750
8728,-74.218750
8729,-74.218750
8730,-78.125000
8731,-78.125000
8732,-78.125000
8733,-78.125000
8734,-78.125000
8735,-74.218750
8736,-78.125000
8737,-74.218750
8738,-74.218750
8739,-78.125000
8740,-78.125000
8741,-78.125000
8742,-78.125000
8743,-74.218750
8744,-78.125000
8745,-74.218750
8746,-74.218750
8747,-78.125000
8748,-74.218750
8749,-78.125000
8750,-78.125000
8751,-78.125000
8752,-74.218750
8753,-74.218750
8754,-74.218750
8755,-74.218750
8756,-74.218750
8757,-74.218750
8758,-74.218750
8759,-74.218750
8760,-74.218750
8761,-74.218750
8762,-74.218750
8763,-74.218750
8764,-74.218750
8765,-74.218750
8766,-74.218750
8767,-74.218750
8768,-74.218750
8769,-74.218750
8770,-74.218750
8771,-74.218750
8772,-74.218750
8773,-74.218750
8774,-74.218750
8775,-74.218750
8776,-74.218750
8777,-74.218750
8778,-74.218750
8779,-74.218750
8780,-74.218750
8781,-74.218750
8782,-74.218750
8783,-74.218750
8784,-74.218750
8785,-74.218750
8786,-74.218750
8787,-74.218750
8788,-74.218750
8789,-74.218750
8790,-74.218750
8791,-74.218750
8792,-74.218750
8793,-70.312500
8794,-70.312500
8795,-70.312500
8796,-70.312500
8797,-70.312500
8798,-70.312500
8799,-70.312500
8800,-70.312500
8801,-70.312500
8802,-70.312500
8803,-70.312500
8804,-70.312500
8805,-70.312500
8806,-70.312500
8807,-70.312500
8808,-70.312500
8809,-70.312500
8810,-70.312500
8811,-70.312500
8812,-70.312500
8813,-70.312500
8814,-66.406250
8815,-66.406250
8816,-66.406250
8817,-66.406250
8818,-66.406250
8819,-66.406250
8820,-66.406250
8821,-66.406250
8822,-66.406250
8823,-66.406250
8824,-66.406250
8825,-66.406250
8826,-66.406250
8827,-66.406250
8828,-66.406250
8829,-62.500000
8830,-66.406250
8831,-66.406250
8832,-62.500000
8833,-62.500000
8834,-62.500000
8835,-62.500000
8836,-62.500000
8837,-62.500000
8838,-62.500000
8839,-62.500000
8840,-66.406250
8841,-62.500000
8842,-62.500000
8843,-62.500000
8844,-62.500000
8845,-62.500000
8846,-62.500000
8847,-58.593750
8848,-58.593750
8849,-58.593750
8850,-58.593750
8851,-58.593750
8852,-58.593750
8853,-58.593750
8854,-58.593750
8855,-58.593750
8856,-58.593750
8857,-58.593750
8858,-58.593750
8859,-58.593750
8860,-58.593750
8861,-58.593750
8862,-58.593750
8863,-54.687500
8864,-54.687500
8865,-54.687500
8866,-54.687500
8867,-54.687500
8868,-54.687500
8869,-54.687500
8870,-54.687500
8871,-54.687500
8872,-54.687500
8873,-50.781250
8874,-50.781250
8875,-50.781250
8876,-50.781250
8877,-50.781250
8878,-50.781250
8879,-50.781250
8880,-50.781250
8881,-50.781250
8882,-50.781250
8883,-46.875000
8884,-46.875000
8885,-46.875000
8886,-46.875000
8887,-46.875000
8888,-46.875000
8889,-46.875000
8890,-46.875000
8891,-46.875000
8892,-46.875000
8893,-46.875000
8894,-46.875000
8895,-42.968750
8896,-42.968750
8897,-42.968750
8898,-42.968750
8899,-42.968750
8900,-42.968750
8901,-42.968750
8902,-42.968750
8903,-42.968750
8904,-42.968750
8905,-42.968750
8906,-42.968750
8907,-39.062500
8908,-39.062500
8909,-39.062500
8910,-39.062500
8911,-39.062500
8912,-39.062500
8913,-39.062500
8914,-39.062500
8915,-39.062500
8916,-35.156250
8917,-39.062500
8918,-35.156250
8919,-35.156250
8920,-35.156250
8921,-35.156250
8922,-35.156250
8923,-35.156250
8924,-35.156250
8925,-35.156250
8926,-35.156250
8927,-31.250000
8928,-31.250000
8929,-31.250000
8930,-31.250000
8931,-31.250000
8932,-31.250000
8933,-31.250000
8934,-31.250000
8935,-31.250000
8936,-31.250000
8937,-31.250000
8938,-27.343750
8939,-27.343750
8940,-27.343750
8941,-27.343750
8942,-27.343750
8943,-27.343750
8944,-27.343750
8945,-27.343750
8946,-27.343750
8947,-27.343750
8948,-27.343750
8949,-23.437500
8950,-23.437500
8951,-23.437500
8952,-23.437500
8953,-23.437500
8954,-23.437500
8955,-23.437500
8956,-23.437500
8957,-23.437500
8958,-19.531250
8959,-19.531250
8960,-19.531250
8961,-19.531250
8962,-19.531250
8963,-19.531250
8964,-19.531250
8965,-19.531250
8966,-19.531250
8967,-15.625000
8968,-15.625000
8969,-15.625000
8970,-15.625000
8971,-15.625000
8972,-15.625000
8973,-15.625000
8974,-15.625000
8975,-15.625000
8976,-15.625000
8977,-11.718750
8978,-15.625000
8979,-11.718750
8980,-11.718750
8981,-11.718750
8982,-11.718750
8983,-11.718750
8984,-11.718750
8985,-11.718750
8986,-11.718750
8987,-11.718750
8988,-11.718750
8989,-7.812500
8990,-7.812500
8991,-7.812500
8992,-7.812500
8993,-7.812500
8994,-7.812500
8995,-7.812500
8996,-7.812500
8997,-7.812500
8998,-7.812500
8999,-3.906250
9000,-3.906250
9001,-3.906250
9002,-3.906250
9003,-3.906250
9004,-3.906250
9005,-3.906250
9006,-3.906250
9007,0.000000
9008,0.000000
9009,0.000000
9010,0.000000
9011,0.000000
9012,0.000000
9013,0.000000
9014,0.000000
9015,0.000000
9016,0.000000
9017,0.000000
9018,0.000000
9019,3.906250
9020,3.906250
9021,3.906250
9022,3.906250
9023,3.906250
9024,3.906250
9025,3.906250
9026,3.906250
9027,3.906250
9028,3.906250
9029,7.812500
9030,7.812500
9031,7.812500
9032,7.812500
9033,7.812500
9034,7.812500
9035,7.812500
9036,7.812500
9037,7.812500
9038,7.812500
9039,11.718750
9040,11.718750
9041,11.718750
9042,11.718750
9043,11.718750
9044,11.718750
9045,11.718750
9046,11.718750
9047,11.718750
9048,11.718750
9049,11.718750
9050,11.718750
9051,15.625000
9052,15.625000
9053,15.625000
9054,15.625000
9055,15.625000
9056,15.625000
9057,15.625000
9058,15.625000
9059,15.625000
9060,15.625000
9061,15.625000
9062,19.531250
9063,15.625000
9064,15.625000
9065,19.531250
9066,19.531250
9067,19.531250
9068,19.531250
9069,19.531250
9070,19.531250
9071,19.531250
9072,19.531250
9073,19.531250
9074,19.531250
9075,23.437500
9076,19.531250
9077,23.437500
9078,23.437500
9079,23.437500
9080,23.437500
9081,23.437500
9082,23.437500
9083,23.437500
9084,23.437500
9085,23.437500
9086,23.437500
9087,23.437500
9088,27.343750
9089,27.343750
9090,27.343750
9091,27.343750
9092,27.343750
9093,27.343750
9094,27.343750
9095,27.343750
9096,27.343750
9097,27.343750
9098,27.343750
9099,27.343750
9100,27.343750
9101,27.343750
9102,27.343750
9103,27.343750
9104,27.343750
9105,27.343750
9106,31.250000
9107,31.250000
9108,31.250000
9109,31.250000
9110,31.250000
9111,31.250000
9112,27.343750
9113,31.250000
9114,31.250000
9115,31.250000
9116,31.250000
9117,31.250000
9118,35.156250
9119,35.156250
9120,31.250000
9121,35.156250
9122,35.156250
9123,35.156250
9124,35.156250
9125,35.156250
9126,35.156250
9127,35.156250
9128,35.156250
9129,35.156250
9130,35.156250
9131,35.156250
9132,35.156250
9133,35.156250
9134,35.156250
9135,35.156250
9136,39.062500
9137,39.062500
9138,39.062500
9139,39.062500
9140,39.062500
9141,35.156250
9142,39.062500
9143,39.062500
9144,39.062500
9145,39.062500
9146,39.062500
9147,39.062500
9148,39.062500
9149,39.062500
9150,39.062500
9151,39.062500
9152,39.062500
9153,39.062500
9154,39.062500
9155,39.062500
9156,39.062500
9157,39.062500
9158,39.062500
9159,39.062500
9160,39.062500
9161,39.062500
9162,39.062500
9163,42.968750
9164,42.968750
9165,42.968750
9166,42.968750
9167,42.968750
9168,42.968750
9169,42.968750
9170,42.968750
9171,42.968750
9172,42.968750
9173,42.968750
9174,42.968750
9175,42.968750
9176,42.968750
9177,42.968750
9178,42.968750
9179,42.968750
9180,42.968750
9181,42.968750
9182,42.968750
9183,42.968750
9184,42.968750
9185,42.968750
9186,42.968750
9187,42.968750
9188,42.968750
9189,42.968750
9190,42.968750
9191,42.968750
9192,42.968750
9193,46.875000
9194,42.968750
9195,42.968750
9196,42.968750
9197,46.875000
9198,42.968750
9199,46.875000
9200,46.875000
9201,46.875000
9202,46.875000
9203,46.875000
9204,46.875000
9205,46.875000
9206,46.875000
9207,42.968750
9208,46.875000
9209,46.875000
9210,42.968750
9211,46.875000
9212,46.875000
9213,46.875000
9214,46.875000
9215,46.875000
9216,46.875000
9217,42.968750
9218,46.875000
9219,46.875000
9220,46.875000
9221,46.875000
9222,46.875000
9223,46.875000
9224,46.875000
9225,46.875000
9226,46.875000
9227,46.875000
9228,46.875000
9229,46.875000
9230,46.875000
9231,46.875000
9232,46.875000
9233,46.875000
9234,46.875000
9235,46.875000
9236,46.875000
9237,46.875000
9238,46.875000
9239,46.875000
9240,46.875000
9241,46.875000
9242,46.875000
9243,46.875000
9244,46.875000
9245,46.875000
9246,46.875000
9247,46.875000
9248,46.875000
9249,46.875000
9250,46.875000
9251,46.875000
9252,42.968750
9253,42.968750
9254,46.875000
9255,46.875000
9256,42.968750
9257,42.968750
9258,46.875000
9259,42.968750
9260,46.875000
9261,46.875000
9262,46.875000
9263,46.875000
9264,46.875000
9265,42.968750
9266,42.968750
9267,42.968750
9268,42.968750
9269,42.968750
9270,42.968750
9271,46.875000
9272,42.968750
9273,42.968750
9274,42.968750
9275,42.968750
9276,42.968750
9277,42.968750
9278,42.968750
9279,42.968750
9280,42.968750
9281,42.968750
9282,42.968750
9283,42.968750
9284,42.968750
9285,42.968750
9286,42.968750
9287,42.968750
9288,42.968750
9289,42.968750
9290,42.968750
9291,42.968750
9292,42.968750
9293,42.968750
9294,42.968750
9295,42.968750
9296,39.062500
9297,42.968750
9298,42.968750
9299,42.968750
9300,42.968750
9301,39.062500
9302,39.062500
9303,39.062500
9304,39.062500
9305,39.062500
9306,39.062500
9307,39.062500
9308,39.062500
9309,39.062500
9310,39.062500
9311,39.062500
9312,39.062500
9313,39.062500
9314,39.062500
9315,39.062500
9316,39.062500
9317,39.062500
9318,39.062500
9319,39.062500
9320,39.062500
9321,39.062500
9322,35.156250
9323,35.156250
9324,35.156250
9325,35.156250
9326,35.156250
9327,35.156250
9328,35.156250
9329,35.156250
9330,35.156250
9331,35.156250
9332,35.156250
9333,35.156250
9334,35.156250
9335,35.156250
9336,35.156250
9337,35.156250
9338,35.156250
9339,35.156250
9340,31.250000
9341,31.250000
9342,35.156250
9343,31.250000
9344,31.250000
9345,31.250000
9346,31.250000
9347,31.250000
9348,31.250000
9349,31.250000
9350,31.250000
9351,31.250000
9352,31.250000
9353,31.250000
9354,31.250000
9355,31.250000
9356,31.250000
9357,31.250000
9358,27.343750
9359,27.343750
9360,27.343750
9361,27.343750
9362,27.343750
9363,27.343750
9364,27.343750
9365,27.343750
9366,27.343750
9367,27.343750
9368,27.343750
9369,27.343750
9370,27.343750
9371,27.343750
9372,27.343750
9373,27.343750
9374,23.437500
9375,23.437500
9376,23.437500
9377,23.437500
9378,23.437500
9379,23.437500
9380,23.437500
9381,23.437500
9382,23.437500
9383,23.437500
9384,23.437500
9385,23.437500
9386,23.437500
9387,19.531250
9388,19.531250
9389,19.531250
9390,19.531250
9391,19.531250
9392,19.531250
9393,19.531250
9394,19.531250
9395,19.531250
9396,15.625000
9397,19.531250
9398,15.625000
9399,19.531250
9400,19.531250
9401,19.531250
9402,15.625000
9403,15.625000
9404,15.625000
9405,15.625000
9406,15.625000
9407,15.625000
9408,15.625000
9409,15.625000
9410,15.625000
9411,15.625000
9412,11.718750
9413,11.718750
9414,11.718750
9415,11.718750
9416,11.718750
9417,11.718750
9418,11.718750
9419,11.718750
9420,11.718750
9421,11.718750
9422,11.718750
9423,11.718750
9424,7.812500
9425,7.812500
9426,7.812500
9427,7.812500
9428,7.812500
9429,7.812500
9430,7.812500
9431,7.812500
9432,7.812500
9433,7.812500
9434,3.906250
9435,3.906250
9436,3.906250
9437,3.906250
9438,3.906250
9439,3.906250
9440,3.906250
9441,3.906250
9442,3.906250
9443,3.906250
9444,3.906250
9445,3.906250
9446,0.000000
9447,0.000000
9448,0.000000
9449,0.000000
9450,0.000000
9451,0.000000
9452,0.000000
9453,0.000000
9454,0.000000
9455,-3.906250
9456,0.000000
9457,-3.906250
9458,-3.906250
9459,-3.906250
9460,-3.906250
9461,-3.906250
9462,-3.906250
9463,-3.906250
9464,-3.906250
9465,-3.906250
9466,-7.812500
9467,-7.812500
9468,-7.812500
9469,-7.812500
9470,-7.812500
9471,-7.812500
9472,-7.812500
9473,-7.812500
9474,-7.812500
9475,-11.718750
9476,-7.812500
9477,-11.718750
9478,-11.718750
9479,-11.718750
9480,-11.718750
9481,-11.718750
9482,-11.718750
9483,-11.718750
9484,-11.718750
9485,-11.718750
9486,-11.718750
9487,-15.625000
9488,-15.625000
9489,-15.625000
9490,-15.625000
9491,-15.625000
9492,-15.625000
9493,-15.625000
9494,-15.625000
9495,-15.625000
9496,-19.531250
9497,-19.531250
9498,-19.531250
9499,-19.531250
9500,-19.531250
9501,-19.531250
9502,-19.531250
9503,-19.531250
9504,-19.531250
9505,-19.531250
9506,-23.437500
9507,-23.437500
9508,-23.437500
9509,-23.437500
9510,-23.437500
9511,-23.437500
9512,-23.437500
9513,-23.437500
9514,-23.437500
9515,-23.437500
9516,-27.343750
9517,-27.343750
9518,-27.343750
9519,-27.343750
9520,-27.343750
9521,-27.343750
9522,-27.343750
9523,-27.343750
9524,-27.343750
9525,-31.250000
9526,-27.343750
9527,-31.250000
9528,-31.250000
9529,-31.250000
9530,-31.250000
9531,-31.250000
9532,-31.250000
9533,-31.250000
9534,-31.250000
9535,-31.250000
9536,-31.250000
9537,-35.156250
9538,-35.156250
9539,-35.156250
9540,-35.156250
9541,-35.156250
9542,-35.156250
9543,-35.156250
9544,-35.156250
9545,-35.156250
9546,-39.062500
9547,-35.156250
9548,-35.156250
9549,-39.062500
9550,-39.062500
9551,-39.062500
9552,-39.062500
9553,-39.062500
9554,-39.062500
9555,-39.062500
9556,-39.062500
9557,-42.968750
9558,-42.968750
9559,-42.968750
9560,-42.968750
9561,-42.968750
9562,-42.968750
9563,-42.968750
9564,-42.968750
9565,-42.968750
9566,-42.968750
9567,-42.968750
9568,-46.875000
9569,-46.875000
9570,-46.875000
9571,-46.875000
9572,-46.875000
9573,-46.875000
9574,-46.875000
9575,-46.875000
9576,-46.875000
9577,-46.875000
9578,-50.781250
9579,-50.781250
9580,-50.781250
9581,-50.781250
9582,-50.781250
9583,-50.781250
9584,-50.781250
9585,-50.781250
9586,-50.781250
9587,-50.781250
9588,-50.781250
9589,-50.781250
9590,-54.687500
9591,-54.687500
9592,-54.687500
9593,-54.687500
9594,-54.687500
9595,-54.687500
9596,-54.687500
9597,-54.687500
9598,-54.687500
9599,-54.687500
9600,-54.687500
9601,-54.687500
9602,-54.687500
9603,-54.687500
9604,-58.593750
9605,-58.593750
9606,-58.593750
9607,-58.593750
9608,-54.687500
9609,-58.593750
9610,-58.593750
9611,-58.593750
9612,-58.593750
9613,-58.593750
9614,-58.593750
9615,-58.593750
9616,-58.593750
9617,-58.593750
9618,-62.500000
9619,-62.500000
9620,-62.500000
9621,-58.593750
9622,-62.500000
9623,-62.500000
9624,-62.500000
9625,-62.500000
9626,-62.500000
9627,-62.500000
9628,-62.500000
9629,-62.500000
9630,-62.500000
9631,-62.500000
9632,-66.406250
9633,-62.500000
9634,-66.406250
9635,-66.406250
9636,-66.406250
9637,-66.406250
9638,-66.406250
9639,-66.406250
9640,-66.406250
9641,-66.406250
9642,-66.406250
9643,-66.406250
9644,-66.406250
9645,-66.406250
9646,-66.406250
9647,-66.406250
9648,-66.406250
9649,-70.312500
9650,-70.312500
9651,-70.312500
9652,-70.312500
9653,-66.406250
9654,-70.312500
9655,-70.312500
9656,-70.312500
9657,-70.312500
9658,-70.312500
9659,-70.312500
9660,-70.312500
9661,-70.312500
9662,-70.312500
9663,-70.312500
9664,-70.312500
9665,-70.312500
9666,-70.312500
9667,-70.312500
9668,-70.312500
9669,-70.312500
9670,-70.312500
9671,-70.312500
9672,-70.312500
9673,-70.312500
9674,-74.218750
9675,-74.218750
9676,-74.218750
9677,-74.218750
9678,-74.218750
9679,-74.218750
9680,-74.218750
9681,-74.218750
9682,-74.218750
9683,-74.218750
9684,-74.218750
9685,-74.218750
9686,-74.218750
9687,-74.218750
9688,-74.218750
9689,-74.218750
9690,-74.218750
9691,-74.218750
9692,-74.218750
9693,-74.218750
9694,-74.218750
9695,-74.218750
9696,-74.218750
9697,-74.218750
9698,-74.218750
9699,-74.218750
9700,-74.218750
9701,-74.218750
9702,-74.218750
9703,-74.218750
9704,-74.218750
9705,-74.218750
9706,-74.218750
9707,-74.218750
9708,-78.125000
9709,-74.218750
9710,-74.218750
9711,-74.218750
9712,-78.125000
9713,-74.218750
9714,-74.218750
9715,-74.218750
9716,-74.218750
9717,-78.125000
9718,-74.218750
9719,-78.125000
9720,-74.218750
9721,-74.218750
9722,-74.218750
9723,-74.218750
9724,-78.125000
9725,-78.125000
9726,-78.125000
9727,-78.125000
9728,-78.125000
9729,-74.218750
9730,-74.218750
9731,-74.218750
9732,-78.125000
9733,-78.125000
9734,-74.218750
9735,-74.218750
9736,-74.218750
9737,-74.218750
9738,-78.125000
9739,-74.218750
9740,-74.218750
9741,-74.218750
9742,-74.218750
9743,-74.218750
9744,-74.218750
9745,-78.125000
9746,-78.125000
9747,-74.218750
9748,-74.218750
9749,-74.218750
9750,-74.218750
9751,-74.218750
9752,-74.218750
9753,-74.218750
9754,-74.218750
9755,-74.218750
9756,-74.218750
9757,-74.218750
9758,-74.218750
9759,-74.218750
9760,-74.218750
9761,-74.218750
9762,-74.218750
9763,-74.218750
9764,-74.218750
9765,-74.218750
9766,-74.218750
9767,-74.218750
9768,-74.218750
9769,-74.218750
9770,-74.218750
9771,-74.218750
9772,-74.218750
9773,-74.218750
9774,-74.218750
9775,-74.218750
9776,-74.218750
9777,-74.218750
9778,-74.218750
9779,-74.218750
9780,-70.312500
9781,-70.312500
9782,-70.312500
9783,-70.312500
9784,-70.312500
9785,-70.312500
9786,-70.312500
9787,-70.312500
9788,-70.312500
9789,-70.312500
9790,-70.312500
9791,-70.312500
9792,-70.312500
9793,-70.312500
9794,-70.312500
9795,-70.312500
9796,-70.312500
9797,-70.312500
9798,-70.312500
9799,-70.312500
9800,-70.312500
9801,-70.312500
9802,-66.406250
9803,-70.312500
9804,-66.406250
9805,-66.406250
9806,-66.406250
9807,-66.406250
9808,-66.406250
9809,-66.406250
9810,-66.406250
9811,-66.406250
9812,-66.406250
9813,-66.406250
9814,-66.406250
9815,-66.406250
9816,-66.406250
9817,-66.406250
9818,-66.406250
9819,-66.406250
9820,-62.500000
9821,-62.500000
9822,-62.500000
9823,-62.500000
9824,-62.500000
9825,-62.500000
9826,-62.500000
9827,-62.500000
9828,-62.500000
9829,-62.500000
9830,-62.500000
9831,-62.500000
9832,-62.500000
9833,-62.500000
9834,-58.593750
9835,-62.500000
9836,-58.593750
9837,-58.593750
9838,-58.593750
9839,-58.593750
9840,-58.593750
9841,-58.593750
9842,-58.593750
9843,-58.593750
9844,-58.593750
9845,-58.593750
9846,-58.593750
9847,-54.687500
9848,-54.687500
9849,-58.593750
9850,-54.687500
9851,-54.687500
9852,-54.687500
9853,-54.687500
9854,-54.687500
9855,-54.687500
9856,-54.687500
9857,-54.687500
9858,-54.687500
9859,-54.687500
9860,-54.687500
9861,-50.781250
9862,-50.781250
9863,-50.781250
9864,-50.781250
9865,-50.781250
9866,-50.781250
9867,-50.781250
9868,-50.781250
9869,-50.781250
9870,-50.781250
9871,-50.781250
9872,-50.781250
9873,-50.781250
9874,-50.781250
9875,-46.875000
9876,-46.875000
9877,-46.875000
9878,-46.875000
9879,-46.875000
9880,-46.875000
9881,-46.875000
9882,-46.875000
9883,-46.875000
9884,-46.875000
9885,-42.968750
9886,-46.875000
9887,-42.968750
9888,-42.968750
9889,-42.968750
9890,-42.968750
9891,-42.968750
9892,-42.968750
9893,-42.968750
9894,-42.968750
9895,-42.968750
9896,-39.062500
9897,-39.062500
9898,-39.062500
9899,-39.062500
9900,-39.062500
9901,-39.062500
9902,-39.062500
9903,-39.062500
9904,-39.062500
9905,-35.156250
9906,-35.156250
9907,-35.156250
9908,-35.156250
9909,-39.062500
9910,-35.156250
9911,-35.156250
9912,-35.156250
9913,-35.156250
9914,-35.156250
9915,-35.156250
9916,-35.156250
9917,-31.250000
9918,-31.250000
9919,-31.250000
9920,-31.250000
9921,-31.250000
9922,-31.250000
9923,-31.250000
9924,-31.250000
9925,-31.250000
9926,-31.250000
9927,-27.343750
9928,-27.343750
9929,-27.343750
9930,-27.343750
9931,-27.343750
9932,-27.343750
9933,-27.343750
9934,-27.343750
9935,-23.437500
9936,-23.437500
9937,-27.343750
9938,-23.437500
9939,-23.437500
9940,-23.437500
9941,-23.437500
9942,-23.437500
9943,-23.437500
9944,-23.437500
9945,-23.437500
9946,-23.437500
9947,-19.531250
9948,-19.531250
9949,-19.531250
9950,-19.531250
9951,-19.531250
9952,-19.531250
9953,-19.531250
9954,-19.531250
9955,-19.531250
9956,-19.531250
9957,-15.625000
9958,-15.625000
9959,-15.625000
9960,-15.625000
9961,-15.625000
9962,-15.625000
9963,-15.625000
9964,-15.625000
9965,-15.625000
9966,-11.718750
9967,-11.718750
9968,-11.718750
9969,-11.718750
9970,-11.718750
9971,-11.718750
9972,-11.718750
9973,-11.718750
9974,-11.718750
9975,-11.718750
9976,-11.718750
9977,-7.812500
9978,-7.812500
9979,-7.812500
9980,-7.812500
9981,-7.812500
9982,-7.812500
9983,-7.812500
9984,-7.812500
9985,-7.812500
9986,-7.812500
9987,-7.812500
9988,-7.812500
9989,-3.906250
9990,-3.906250
9991,-3.906250
9992,-3.906250
9993,-3.906250
9994,-3.906250
9995,0.000000
9996,-3.906250
9997,-3.906250
9998,-3.906250
9999,0.000000
10000,0.000000
