Channel              :,CH1
Frequency            :,1.010kHz
Period               :,0.990ms
PK-PK                :,296.9mV
Probe attenuation    :,1X
Voltage per ADC value:,0.244141mV
Time interval        :,1.00000us

index,CH1_Voltage(mV)
1,-70.312500
2,-70.312500
3,-70.312500
4,-66.406250
5,-66.406250
6,-66.406250
7,-66.406250
8,-66.406250
9,-66.406250
10,-62.500000
11,-62.500000
12,-62.500000
13,-62.500000
14,-58.593750
15,-58.593750
16,-58.593750
17,-54.687500
18,-54.687500
19,-54.687500
20,-54.687500
21,-54.687500
22,-50.781250
23,-50.781250
24,-50.781250
25,-50.781250
26,-46.875000
27,-46.875000
28,-46.875000
29,-46.875000
30,-42.968750
31,-42.968750
32,-42.968750
33,-42.968750
34,-39.062500
35,-39.062500
36,-39.062500
37,-39.062500
38,-39.062500
39,-35.156250
40,-35.156250
41,-35.156250
42,-31.250000
43,-31.250000
44,-31.250000
45,-31.250000
46,-31.250000
47,-27.343750
48,-27.343750
49,-27.343750
50,-23.437500
51,-23.437500
52,-23.437500
53,-23.437500
54,-23.437500
55,-19.531250
56,-19.531250
57,-19.531250
58,-19.531250
59,-15.625000
60,-15.625000
61,-15.625000
62,-11.718750
63,-11.718750
64,-11.718750
65,-11.718750
66,-11.718750
67,-7.812500
68,-7.812500
69,-7.812500
70,-7.812500
71,-3.906250
72,-3.906250
73,-3.906250
74,-3.906250
75,0.000000
76,0.000000
77,0.000000
78,0.000000
79,3.906250
80,3.906250
81,3.906250
82,3.906250
83,7.812500
84,7.812500
85,7.812500
86,7.812500
87,7.812500
88,11.718750
89,11.718750
90,11.718750
91,11.718750
92,15.625000
93,15.625000
94,15.625000
95,15.625000
96,15.625000
97,19.531250
98,19.531250
99,19.531250
100,19.531250
101,23.437500
102,23.437500
103,23.437500
104,23.437500
105,23.437500
106,27.343750
107,27.343750
108,27.343750
109,27.343750
110,27.343750
111,31.250000
112,31.250000
113,31.250000
114,31.250000
115,35.156250
116,35.156250
117,35.156250
118,35.156250
119,35.156250
120,39.062500
121,39.062500
122,39.062500
123,39.062500
124,39.062500
125,42.968750
126,42.968750
127,42.968750
128,46.875000
129,46.875000
130,46.875000
131,46.875000
132,46.875000
133,50.781250
134,50.781250
135,50.781250
136,50.781250
137,50.781250
138,50.781250
139,54.687500
140,54.687500
141,54.687500
142,54.687500
143,54.687500
144,54.687500
145,58.593750
146,58.593750
147,58.593750
148,58.593750
149,62.500000
150,62.500000
151,62.500000
152,62.500000
153,62.500000
154,62.500000
155,62.500000
156,66.406250
157,66.406250
158,66.406250
159,66.406250
160,66.406250
161,70.312500
162,70.312500
163,70.312500
164,70.312500
165,70.312500
166,74.218750
167,74.218750
168,74.218750
169,74.218750
170,74.218750
171,74.218750
172,74.218750
173,78.125000
174,78.125000
175,78.125000
176,78.125000
177,78.125000
178,82.031250
179,82.031250
180,82.031250
181,82.031250
182,82.031250
183,82.031250
184,82.031250
185,85.937500
186,85.937500
187,85.937500
188,85.937500
189,85.937500
190,85.937500
191,89.843750
192,89.843750
193,89.843750
194,89.843750
195,89.843750
196,89.843750
197,89.843750
198,89.843750
199,93.750000
200,93.750000
201,93.750000
202,93.750000
203,93.750000
204,93.750000
205,97.656250
206,97.656250
207,97.656250
208,97.656250
209,97.656250
210,97.656250
211,97.656250
212,97.656250
213,101.562500
214,101.562500
215,101.562500
216,101.562500
217,101.562500
218,101.562500
219,101.562500
220,101.562500
221,101.562500
222,101.562500
223,105.468750
224,105.468750
225,105.468750
226,105.468750
227,105.468750
228,105.468750
229,105.468750
230,105.468750
231,109.375000
232,105.468750
233,109.375000
234,109.375000
235,109.375000
236,109.375000
237,109.375000
238,109.375000
239,109.375000
240,109.375000
241,109.375000
242,109.375000
243,113.281250
244,113.281250
245,113.281250
246,113.281250
247,113.281250
248,113.281250
249,113.281250
250,113.281250
251,113.281250
252,113.281250
253,113.281250
254,117.187500
255,117.187500
256,117.187500
257,117.187500
258,117.187500
259,117.187500
260,117.187500
261,117.187500
262,117.187500
263,117.187500
264,117.187500
265,117.187500
266,117.187500
267,117.187500
268,117.187500
269,117.187500
270,117.187500
271,121.093750
272,121.093750
273,121.093750
274,121.093750
275,121.093750
276,121.093750
277,121.093750
278,121.093750
279,121.093750
280,121.093750
281,121.093750
282,121.093750
283,121.093750
284,121.093750
285,121.093750
286,121.093750
287,121.093750
288,121.093750
289,121.093750
290,121.093750
291,125.000000
292,125.000000
293,121.093750
294,125.000000
295,121.093750
296,121.093750
297,125.000000
298,125.000000
299,121.093750
300,125.000000
301,125.000000
302,125.000000
303,125.000000
304,125.000000
305,125.000000
306,125.000000
307,125.000000
308,125.000000
309,125.000000
310,125.000000
311,125.000000
312,125.000000
313,125.000000
314,125.000000
315,125.000000
316,125.000000
317,125.000000
318,125.000000
319,125.000000
320,125.000000
321,125.000000
322,125.000000
323,125.000000
324,125.000000
325,125.000000
326,125.000000
327,125.000000
328,125.000000
329,125.000000
330,125.000000
331,125.000000
332,125.000000
333,125.000000
334,125.000000
335,125.000000
336,125.000000
337,125.000000
338,125.000000
339,125.000000
340,125.000000
341,121.093750
342,125.000000
343,125.000000
344,125.000000
345,121.093750
346,121.093750
347,125.000000
348,121.093750
349,121.093750
350,121.093750
351,121.093750
352,121.093750
353,121.093750
354,121.093750
355,121.093750
356,121.093750
357,121.093750
358,121.093750
359,121.093750
360,121.093750
361,121.093750
362,121.093750
363,121.093750
364,121.093750
365,121.093750
366,117.187500
367,117.187500
368,117.187500
369,117.187500
370,117.187500
371,117.187500
372,117.187500
373,117.187500
374,117.187500
375,117.187500
376,117.187500
377,117.187500
378,117.187500
379,117.187500
380,117.187500
381,117.187500
382,113.281250
383,113.281250
384,113.281250
385,113.281250
386,113.281250
387,113.281250
388,113.281250
389,113.281250
390,113.281250
391,113.281250
392,113.281250
393,113.281250
394,109.375000
395,109.375000
396,109.375000
397,109.375000
398,109.375000
399,109.375000
400,109.375000
401,109.375000
402,109.375000
403,109.375000
404,109.375000
405,105.468750
406,105.468750
407,105.468750
408,105.468750
409,105.468750
410,105.468750
411,105.468750
412,105.468750
413,105.468750
414,101.562500
415,105.468750
416,101.562500
417,101.562500
418,101.562500
419,101.562500
420,97.656250
421,101.562500
422,101.562500
423,97.656250
424,97.656250
425,97.656250
426,97.656250
427,97.656250
428,97.656250
429,97.656250
430,97.656250
431,93.750000
432,93.750000
433,93.750000
434,93.750000
435,93.750000
436,93.750000
437,93.750000
438,93.750000
439,89.843750
440,89.843750
441,89.843750
442,89.843750
443,89.843750
444,89.843750
445,89.843750
446,89.843750
447,85.937500
448,85.937500
449,85.937500
450,85.937500
451,85.937500
452,82.031250
453,82.031250
454,82.031250
455,82.031250
456,82.031250
457,82.031250
458,82.031250
459,78.125000
460,78.125000
461,78.125000
462,78.125000
463,78.125000
464,78.125000
465,74.218750
466,74.218750
467,74.218750
468,74.218750
469,74.218750
470,70.312500
471,70.312500
472,70.312500
473,70.312500
474,70.312500
475,70.312500
476,66.406250
477,66.406250
478,66.406250
479,66.406250
480,66.406250
481,66.406250
482,62.500000
483,62.500000
484,62.500000
485,62.500000
486,58.593750
487,58.593750
488,58.593750
489,58.593750
490,58.593750
491,54.687500
492,54.687500
493,54.687500
494,54.687500
495,50.781250
496,54.687500
497,50.781250
498,50.781250
499,50.781250
500,50.781250
501,46.875000
502,46.875000
503,46.875000
504,46.875000
505,46.875000
506,42.968750
507,42.968750
508,42.968750
509,42.968750
510,42.968750
511,39.062500
512,39.062500
513,39.062500
514,39.062500
515,35.156250
516,35.156250
517,35.156250
518,35.156250
519,31.250000
520,31.250000
521,31.250000
522,31.250000
523,31.250000
524,31.250000
525,27.343750
526,27.343750
527,27.343750
528,27.343750
529,23.437500
530,23.437500
531,23.437500
532,19.531250
533,23.437500
534,19.531250
535,19.531250
536,19.531250
537,19.531250
538,15.625000
539,15.625000
540,15.625000
541,15.625000
542,11.718750
543,11.718750
544,11.718750
545,11.718750
546,11.718750
547,7.812500
548,7.812500
549,7.812500
550,3.906250
551,3.906250
552,3.906250
553,3.906250
554,3.906250
555,0.000000
556,0.000000
557,0.000000
558,-3.906250
559,-3.906250
560,-3.906250
561,-3.906250
562,-3.906250
563,-7.812500
564,-7.812500
565,-7.812500
566,-7.812500
567,-11.718750
568,-11.718750
569,-11.718750
570,-11.718750
571,-15.625000
572,-15.625000
573,-15.625000
574,-15.625000
575,-15.625000
576,-19.531250
577,-19.531250
578,-19.531250
579,-19.531250
580,-23.437500
581,-23.437500
582,-23.437500
583,-27.343750
584,-27.343750
585,-27.343750
586,-27.343750
587,-31.250000
588,-31.250000
589,-31.250000
590,-31.250000
591,-35.156250
592,-35.156250
593,-35.156250
594,-35.156250
595,-35.156250
596,-39.062500
597,-39.062500
598,-39.062500
599,-42.968750
600,-42.968750
601,-42.968750
602,-42.968750
603,-46.875000
604,-46.875000
605,-46.875000
606,-46.875000
607,-46.875000
608,-50.781250
609,-50.781250
610,-50.781250
611,-50.781250
612,-54.687500
613,-54.687500
614,-54.687500
615,-54.687500
616,-58.593750
617,-58.593750
618,-58.593750
619,-62.500000
620,-62.500000
621,-62.500000
622,-62.500000
623,-66.406250
624,-66.406250
625,-66.406250
626,-66.406250
627,-66.406250
628,-70.312500
629,-70.312500
630,-70.312500
631,-70.312500
632,-74.218750
633,-74.218750
634,-74.218750
635,-74.218750
636,-78.125000
637,-78.125000
638,-78.125000
639,-78.125000
640,-78.125000
641,-82.031250
642,-82.031250
643,-82.031250
644,-85.937500
645,-85.937500
646,-85.937500
647,-85.937500
648,-85.937500
649,-89.843750
650,-89.843750
651,-89.843750
652,-89.843750
653,-93.750000
654,-93.750000
655,-93.750000
656,-93.750000
657,-93.750000
658,-97.656250
659,-97.656250
660,-97.656250
661,-97.656250
662,-101.562500
663,-101.562500
664,-101.562500
665,-101.562500
666,-101.562500
667,-101.562500
668,-105.468750
669,-105.468750
670,-105.468750
671,-105.468750
672,-109.375000
673,-109.375000
674,-109.375000
675,-109.375000
676,-109.375000
677,-113.281250
678,-113.281250
679,-113.281250
680,-113.281250
681,-113.281250
682,-117.187500
683,-117.187500
684,-117.187500
685,-117.187500
686,-117.187500
687,-117.187500
688,-121.093750
689,-121.093750
690,-121.093750
691,-121.093750
692,-121.093750
693,-125.000000
694,-125.000000
695,-125.000000
696,-125.000000
697,-125.000000
698,-125.000000
699,-128.906250
700,-128.906250
701,-128.906250
702,-128.906250
703,-132.812500
704,-132.812500
705,-132.812500
706,-132.812500
707,-132.812500
708,-132.812500
709,-132.812500
710,-136.718750
711,-136.718750
712,-136.718750
713,-136.718750
714,-136.718750
715,-136.718750
716,-140.625000
717,-140.625000
718,-140.625000
719,-140.625000
720,-140.625000
721,-140.625000
722,-140.625000
723,-144.531250
724,-144.531250
725,-144.531250
726,-144.531250
727,-144.531250
728,-144.531250
729,-144.531250
730,-148.437500
731,-148.437500
732,-148.437500
733,-148.437500
734,-148.437500
735,-148.437500
736,-148.437500
737,-148.437500
738,-152.343750
739,-152.343750
740,-152.343750
741,-152.343750
742,-152.343750
743,-152.343750
744,-152.343750
745,-152.343750
746,-152.343750
747,-156.250000
748,-156.250000
749,-156.250000
750,-156.250000
751,-156.250000
752,-156.250000
753,-156.250000
754,-156.250000
755,-156.250000
756,-160.156250
757,-160.156250
758,-160.156250
759,-160.156250
760,-160.156250
761,-160.156250
762,-160.156250
763,-160.156250
764,-160.156250
765,-160.156250
766,-160.156250
767,-160.156250
768,-160.156250
769,-160.156250
770,-164.062500
771,-164.062500
772,-164.062500
773,-164.062500
774,-164.062500
775,-164.062500
776,-164.062500
777,-164.062500
778,-164.062500
779,-164.062500
780,-164.062500
781,-164.062500
782,-164.062500
783,-167.968750
784,-167.968750
785,-167.968750
786,-167.968750
787,-167.968750
788,-167.968750
789,-167.968750
790,-167.968750
791,-167.968750
792,-167.968750
793,-167.968750
794,-167.968750
795,-167.968750
796,-167.968750
797,-167.968750
798,-167.968750
799,-167.968750
800,-167.968750
801,-167.968750
802,-167.968750
803,-167.968750
804,-167.968750
805,-167.968750
806,-167.968750
807,-167.968750
808,-167.968750
809,-167.968750
810,-167.968750
811,-167.968750
812,-167.968750
813,-167.968750
814,-167.968750
815,-167.968750
816,-167.968750
817,-167.968750
818,-167.968750
819,-167.968750
820,-167.968750
821,-167.968750
822,-167.968750
823,-167.968750
824,-167.968750
825,-167.968750
826,-167.968750
827,-167.968750
828,-167.968750
829,-167.968750
830,-167.968750
831,-167.968750
832,-167.968750
833,-167.968750
834,-167.968750
835,-164.062500
836,-164.062500
837,-164.062500
838,-164.062500
839,-164.062500
840,-164.062500
841,-164.062500
842,-164.062500
843,-164.062500
844,-164.062500
845,-164.062500
846,-164.062500
847,-164.062500
848,-164.062500
849,-164.062500
850,-164.062500
851,-164.062500
852,-164.062500
853,-160.156250
854,-160.156250
855,-160.156250
856,-160.156250
857,-160.156250
858,-160.156250
859,-160.156250
860,-160.156250
861,-160.156250
862,-160.156250
863,-160.156250
864,-156.250000
865,-160.156250
866,-156.250000
867,-156.250000
868,-156.250000
869,-156.250000
870,-156.250000
871,-156.250000
872,-156.250000
873,-156.250000
874,-156.250000
875,-156.250000
876,-152.343750
877,-152.343750
878,-152.343750
879,-152.343750
880,-152.343750
881,-152.343750
882,-152.343750
883,-152.343750
884,-152.343750
885,-148.437500
886,-152.343750
887,-148.437500
888,-148.437500
889,-148.437500
890,-148.437500
891,-148.437500
892,-144.531250
893,-144.531250
894,-144.531250
895,-144.531250
896,-144.531250
897,-144.531250
898,-144.531250
899,-144.531250
900,-140.625000
901,-140.625000
902,-140.625000
903,-140.625000
904,-140.625000
905,-136.718750
906,-136.718750
907,-136.718750
908,-136.718750
909,-136.718750
910,-136.718750
911,-136.718750
912,-136.718750
913,-136.718750
914,-132.812500
915,-132.812500
916,-132.812500
917,-132.812500
918,-132.812500
919,-128.906250
920,-128.906250
921,-128.906250
922,-128.906250
923,-128.906250
924,-125.000000
925,-125.000000
926,-125.000000
927,-125.000000
928,-125.000000
929,-121.093750
930,-121.093750
931,-121.093750
932,-121.093750
933,-121.093750
934,-121.093750
935,-121.093750
936,-117.187500
937,-117.187500
938,-117.187500
939,-113.281250
940,-113.281250
941,-113.281250
942,-113.281250
943,-113.281250
944,-113.281250
945,-109.375000
946,-109.375000
947,-109.375000
948,-109.375000
949,-105.468750
950,-109.375000
951,-105.468750
952,-105.468750
953,-105.468750
954,-105.468750
955,-101.562500
956,-101.562500
957,-101.562500
958,-101.562500
959,-101.562500
960,-97.656250
961,-97.656250
962,-97.656250
963,-97.656250
964,-97.656250
965,-93.750000
966,-93.750000
967,-93.750000
968,-93.750000
969,-89.843750
970,-89.843750
971,-89.843750
972,-89.843750
973,-85.937500
974,-85.937500
975,-85.937500
976,-85.937500
977,-85.937500
978,-82.031250
979,-82.031250
980,-82.031250
981,-82.031250
982,-82.031250
983,-78.125000
984,-78.125000
985,-78.125000
986,-74.218750
987,-74.218750
988,-74.218750
989,-74.218750
990,-74.218750
991,-70.312500
992,-70.312500
993,-70.312500
994,-70.312500
995,-66.406250
996,-66.406250
997,-66.406250
998,-66.406250
999,-62.500000
1000,-62.500000
1001,-62.500000
1002,-62.500000
1003,-62.500000
1004,-58.593750
1005,-58.593750
1006,-58.593750
1007,-54.687500
1008,-54.687500
1009,-54.687500
1010,-54.687500
1011,-50.781250
1012,-50.781250
1013,-50.781250
1014,-50.781250
1015,-50.781250
1016,-46.875000
1017,-46.875000
1018,-46.875000
1019,-46.875000
1020,-46.875000
1021,-42.968750
1022,-42.968750
1023,-42.968750
1024,-39.062500
1025,-39.062500
1026,-39.062500
1027,-39.062500
1028,-35.156250
1029,-35.156250
1030,-35.156250
1031,-35.156250
1032,-31.250000
1033,-31.250000
1034,-31.250000
1035,-31.250000
1036,-27.343750
1037,-27.343750
1038,-27.343750
1039,-27.343750
1040,-27.343750
1041,-23.437500
1042,-23.437500
1043,-23.437500
1044,-19.531250
1045,-19.531250
1046,-19.531250
1047,-19.531250
1048,-15.625000
1049,-15.625000
1050,-15.625000
1051,-15.625000
1052,-15.625000
1053,-11.718750
1054,-11.718750
1055,-11.718750
1056,-11.718750
1057,-7.812500
1058,-7.812500
1059,-7.812500
1060,-7.812500
1061,-3.906250
1062,-3.906250
1063,-3.906250
1064,-3.906250
1065,-3.906250
1066,0.000000
1067,0.000000
1068,0.000000
1069,3.906250
1070,3.906250
1071,3.906250
1072,3.906250
1073,3.906250
1074,7.812500
1075,7.812500
1076,7.812500
1077,7.812500
1078,11.718750
1079,11.718750
1080,11.718750
1081,11.718750
1082,15.625000
1083,15.625000
1084,15.625000
1085,15.625000
1086,15.625000
1087,19.531250
1088,19.531250
1089,19.531250
1090,19.531250
1091,23.437500
1092,23.437500
1093,23.437500
1094,23.437500
1095,27.343750
1096,27.343750
1097,27.343750
1098,27.343750
1099,27.343750
1100,31.250000
1101,31.250000
1102,31.250000
1103,31.250000
1104,35.156250
1105,35.156250
1106,35.156250
1107,35.156250
1108,35.156250
1109,39.062500
1110,39.062500
1111,39.062500
1112,39.062500
1113,39.062500
1114,42.968750
1115,42.968750
1116,42.968750
1117,42.968750
1118,46.875000
1119,46.875000
1120,46.875000
1121,46.875000
1122,46.875000
1123,46.875000
1124,50.781250
1125,50.781250
1126,50.781250
1127,50.781250
1128,50.781250
1129,54.687500
1130,54.687500
1131,54.687500
1132,54.687500
1133,58.593750
1134,58.593750
1135,58.593750
1136,58.593750
1137,58.593750
1138,58.593750
1139,62.500000
1140,62.500000
1141,62.500000
1142,62.500000
1143,66.406250
1144,66.406250
1145,66.406250
1146,66.406250
1147,66.406250
1148,66.406250
1149,66.406250
1150,70.312500
1151,70.312500
1152,70.312500
1153,70.312500
1154,70.312500
1155,74.218750
1156,74.218750
1157,74.218750
1158,74.218750
1159,74.218750
1160,74.218750
1161,78.125000
1162,78.125000
1163,78.125000
1164,78.125000
1165,78.125000
1166,78.125000
1167,78.125000
1168,82.031250
1169,82.031250
1170,82.031250
1171,82.031250
1172,82.031250
1173,85.937500
1174,82.031250
1175,85.937500
1176,85.937500
1177,85.937500
1178,85.937500
1179,85.937500
1180,85.937500
1181,89.843750
1182,89.843750
1183,89.843750
1184,89.843750
1185,89.843750
1186,89.843750
1187,93.750000
1188,93.750000
1189,93.750000
1190,93.750000
1191,93.750000
1192,93.750000
1193,93.750000
1194,93.750000
1195,97.656250
1196,97.656250
1197,97.656250
1198,97.656250
1199,97.656250
1200,97.656250
1201,97.656250
1202,97.656250
1203,97.656250
1204,101.562500
1205,101.562500
1206,101.562500
1207,101.562500
1208,101.562500
1209,101.562500
1210,101.562500
1211,101.562500
1212,101.562500
1213,105.468750
1214,105.468750
1215,105.468750
1216,105.468750
1217,105.468750
1218,105.468750
1219,105.468750
1220,109.375000
1221,109.375000
1222,109.375000
1223,109.375000
1224,109.375000
1225,109.375000
1226,109.375000
1227,109.375000
1228,109.375000
1229,109.375000
1230,109.375000
1231,113.281250
1232,113.281250
1233,113.281250
1234,113.281250
1235,113.281250
1236,113.281250
1237,113.281250
1238,113.281250
1239,113.281250
1240,113.281250
1241,113.281250
1242,113.281250
1243,113.281250
1244,117.187500
1245,117.187500
1246,117.187500
1247,117.187500
1248,117.187500
1249,117.187500
1250,117.187500
1251,117.187500
1252,117.187500
1253,117.187500
1254,117.187500
1255,117.187500
1256,117.187500
1257,117.187500
1258,117.187500
1259,121.093750
1260,121.093750
1261,121.093750
1262,121.093750
1263,121.093750
1264,121.093750
1265,121.093750
1266,121.093750
1267,121.093750
1268,121.093750
1269,121.093750
1270,121.093750
1271,121.093750
1272,121.093750
1273,121.093750
1274,121.093750
1275,121.093750
1276,121.093750
1277,121.093750
1278,121.093750
1279,121.093750
1280,121.093750
1281,121.093750
1282,121.093750
1283,125.000000
1284,121.093750
1285,125.000000
1286,121.093750
1287,125.000000
1288,125.000000
1289,125.000000
1290,125.000000
1291,125.000000
1292,125.000000
1293,125.000000
1294,125.000000
1295,125.000000
1296,125.000000
1297,125.000000
1298,125.000000
1299,125.000000
1300,125.000000
1301,125.000000
1302,125.000000
1303,125.000000
1304,125.000000
1305,125.000000
1306,125.000000
1307,125.000000
1308,125.000000
1309,125.000000
1310,125.000000
1311,125.000000
1312,125.000000
1313,125.000000
1314,125.000000
1315,125.000000
1316,125.000000
1317,125.000000
1318,125.000000
1319,125.000000
1320,125.000000
1321,125.000000
1322,125.000000
1323,125.000000
1324,125.000000
1325,125.000000
1326,125.000000
1327,125.000000
1328,121.093750
1329,125.000000
1330,125.000000
1331,125.000000
1332,125.000000
1333,125.000000
1334,125.000000
1335,121.093750
1336,121.093750
1337,121.093750
1338,121.093750
1339,121.093750
1340,121.093750
1341,121.093750
1342,121.093750
1343,121.093750
1344,121.093750
1345,121.093750
1346,121.093750
1347,121.093750
1348,121.093750
1349,121.093750
1350,121.093750
1351,121.093750
1352,121.093750
1353,121.093750
1354,121.093750
1355,121.093750
1356,121.093750
1357,117.187500
1358,121.093750
1359,117.187500
1360,117.187500
1361,117.187500
1362,117.187500
1363,117.187500
1364,117.187500
1365,117.187500
1366,117.187500
1367,117.187500
1368,117.187500
1369,117.187500
1370,117.187500
1371,117.187500
1372,117.187500
1373,113.281250
1374,113.281250
1375,113.281250
1376,113.281250
1377,113.281250
1378,113.281250
1379,113.281250
1380,113.281250
1381,113.281250
1382,113.281250
1383,113.281250
1384,113.281250
1385,109.375000
1386,109.375000
1387,109.375000
1388,109.375000
1389,109.375000
1390,109.375000
1391,109.375000
1392,109.375000
1393,109.375000
1394,109.375000
1395,105.468750
1396,105.468750
1397,105.468750
1398,105.468750
1399,105.468750
1400,105.468750
1401,105.468750
1402,105.468750
1403,105.468750
1404,105.468750
1405,101.562500
1406,101.562500
1407,101.562500
1408,101.562500
1409,101.562500
1410,101.562500
1411,101.562500
1412,101.562500
1413,101.562500
1414,97.656250
1415,97.656250
1416,97.656250
1417,97.656250
1418,97.656250
1419,97.656250
1420,93.750000
1421,97.656250
1422,93.750000
1423,93.750000
1424,93.750000
1425,93.750000
1426,93.750000
1427,93.750000
1428,89.843750
1429,89.843750
1430,89.843750
1431,89.843750
1432,89.843750
1433,89.843750
1434,89.843750
1435,85.937500
1436,85.937500
1437,85.937500
1438,85.937500
1439,85.937500
1440,85.937500
1441,82.031250
1442,82.031250
1443,82.031250
1444,82.031250
1445,82.031250
1446,82.031250
1447,78.125000
1448,78.125000
1449,78.125000
1450,78.125000
1451,78.125000
1452,78.125000
1453,78.125000
1454,74.218750
1455,74.218750
1456,74.218750
1457,74.218750
1458,74.218750
1459,70.312500
1460,70.312500
1461,70.312500
1462,70.312500
1463,70.312500
1464,70.312500
1465,66.406250
1466,66.406250
1467,66.406250
1468,66.406250
1469,66.406250
1470,62.500000
1471,62.500000
1472,62.500000
1473,62.500000
1474,62.500000
1475,62.500000
1476,58.593750
1477,58.593750
1478,58.593750
1479,58.593750
1480,58.593750
1481,54.687500
1482,54.687500
1483,54.687500
1484,54.687500
1485,54.687500
1486,50.781250
1487,50.781250
1488,50.781250
1489,50.781250
1490,50.781250
1491,46.875000
1492,46.875000
1493,46.875000
1494,46.875000
1495,46.875000
1496,42.968750
1497,42.968750
1498,42.968750
1499,39.062500
1500,42.968750
1501,39.062500
1502,39.062500
1503,39.062500
1504,39.062500
1505,39.062500
1506,35.156250
1507,35.156250
1508,35.156250
1509,31.250000
1510,31.250000
1511,31.250000
1512,31.250000
1513,31.250000
1514,31.250000
1515,27.343750
1516,27.343750
1517,23.437500
1518,23.437500
1519,23.437500
1520,23.437500
1521,23.437500
1522,23.437500
1523,19.531250
1524,19.531250
1525,19.531250
1526,19.531250
1527,15.625000
1528,15.625000
1529,15.625000
1530,15.625000
1531,11.718750
1532,11.718750
1533,11.718750
1534,11.718750
1535,11.718750
1536,7.812500
1537,7.812500
1538,7.812500
1539,7.812500
1540,3.906250
1541,3.906250
1542,3.906250
1543,3.906250
1544,0.000000
1545,0.000000
1546,0.000000
1547,0.000000
1548,-3.906250
1549,-3.906250
1550,-3.906250
1551,-3.906250
1552,-7.812500
1553,-7.812500
1554,-7.812500
1555,-7.812500
1556,-7.812500
1557,-11.718750
1558,-11.718750
1559,-11.718750
1560,-15.625000
1561,-15.625000
1562,-15.625000
1563,-15.625000
1564,-19.531250
1565,-19.531250
1566,-19.531250
1567,-19.531250
1568,-19.531250
1569,-23.437500
1570,-23.437500
1571,-23.437500
1572,-23.437500
1573,-27.343750
1574,-27.343750
1575,-27.343750
1576,-31.250000
1577,-31.250000
1578,-31.250000
1579,-31.250000
1580,-35.156250
1581,-35.156250
1582,-35.156250
1583,-35.156250
1584,-35.156250
1585,-39.062500
1586,-39.062500
1587,-39.062500
1588,-42.968750
1589,-42.968750
1590,-42.968750
1591,-42.968750
1592,-42.968750
1593,-46.875000
1594,-46.875000
1595,-46.875000
1596,-46.875000
1597,-50.781250
1598,-50.781250
1599,-50.781250
1600,-54.687500
1601,-54.687500
1602,-54.687500
1603,-54.687500
1604,-54.687500
1605,-58.593750
1606,-58.593750
1607,-58.593750
1608,-58.593750
1609,-62.500000
1610,-62.500000
1611,-62.500000
1612,-62.500000
1613,-66.406250
1614,-66.406250
1615,-66.406250
1616,-66.406250
1617,-66.406250
1618,-70.312500
1619,-70.312500
1620,-70.312500
1621,-70.312500
1622,-74.218750
1623,-74.218750
1624,-74.218750
1625,-78.125000
1626,-78.125000
1627,-78.125000
1628,-78.125000
1629,-78.125000
1630,-82.031250
1631,-82.031250
1632,-82.031250
1633,-82.031250
1634,-85.937500
1635,-85.937500
1636,-85.937500
1637,-85.937500
1638,-85.937500
1639,-89.843750
1640,-89.843750
1641,-89.843750
1642,-93.750000
1643,-93.750000
1644,-93.750000
1645,-93.750000
1646,-93.750000
1647,-93.750000
1648,-97.656250
1649,-97.656250
1650,-97.656250
1651,-97.656250
1652,-101.562500
1653,-101.562500
1654,-101.562500
1655,-101.562500
1656,-101.562500
1657,-105.468750
1658,-105.468750
1659,-105.468750
1660,-105.468750
1661,-109.375000
1662,-109.375000
1663,-109.375000
1664,-109.375000
1665,-109.375000
1666,-109.375000
1667,-113.281250
1668,-113.281250
1669,-113.281250
1670,-113.281250
1671,-117.187500
1672,-117.187500
1673,-117.187500
1674,-117.187500
1675,-117.187500
1676,-121.093750
1677,-121.093750
1678,-121.093750
1679,-121.093750
1680,-121.093750
1681,-125.000000
1682,-125.000000
1683,-125.000000
1684,-125.000000
1685,-125.000000
1686,-125.000000
1687,-125.000000
1688,-128.906250
1689,-128.906250
1690,-128.906250
1691,-128.906250
1692,-128.906250
1693,-132.812500
1694,-132.812500
1695,-132.812500
1696,-132.812500
1697,-132.812500
1698,-136.718750
1699,-136.718750
1700,-136.718750
1701,-136.718750
1702,-136.718750
1703,-136.718750
1704,-140.625000
1705,-140.625000
1706,-140.625000
1707,-140.625000
1708,-140.625000
1709,-140.625000
1710,-140.625000
1711,-140.625000
1712,-144.531250
1713,-144.531250
1714,-144.531250
1715,-144.531250
1716,-144.531250
1717,-144.531250
1718,-148.437500
1719,-144.531250
1720,-148.437500
1721,-148.437500
1722,-148.437500
1723,-148.437500
1724,-148.437500
1725,-148.437500
1726,-148.437500
1727,-152.343750
1728,-152.343750
1729,-152.343750
1730,-152.343750
1731,-152.343750
1732,-152.343750
1733,-152.343750
1734,-156.250000
1735,-156.250000
1736,-152.343750
1737,-156.250000
1738,-156.250000
1739,-156.250000
1740,-156.250000
1741,-156.250000
1742,-156.250000
1743,-156.250000
1744,-156.250000
1745,-160.156250
1746,-160.156250
1747,-160.156250
1748,-160.156250
1749,-160.156250
1750,-160.156250
1751,-160.156250
1752,-160.156250
1753,-160.156250
1754,-160.156250
1755,-160.156250
1756,-164.062500
1757,-164.062500
1758,-164.062500
1759,-164.062500
1760,-164.062500
1761,-164.062500
1762,-164.062500
1763,-164.062500
1764,-164.062500
1765,-164.062500
1766,-164.062500
1767,-164.062500
1768,-164.062500
1769,-164.062500
1770,-164.062500
1771,-164.062500
1772,-164.062500
1773,-167.968750
1774,-167.968750
1775,-167.968750
1776,-167.968750
1777,-167.968750
1778,-167.968750
1779,-167.968750
1780,-167.968750
1781,-167.968750
1782,-167.968750
1783,-167.968750
1784,-167.968750
1785,-167.968750
1786,-167.968750
1787,-167.968750
1788,-167.968750
1789,-167.968750
1790,-167.968750
1791,-167.968750
1792,-167.968750
1793,-167.968750
1794,-167.968750
1795,-167.968750
1796,-167.968750
1797,-167.968750
1798,-167.968750
1799,-167.968750
1800,-167.968750
1801,-167.968750
1802,-167.968750
1803,-167.968750
1804,-167.968750
1805,-167.968750
1806,-167.968750
1807,-167.968750
1808,-167.968750
1809,-167.968750
1810,-167.968750
1811,-167.968750
1812,-167.968750
1813,-167.968750
1814,-167.968750
1815,-167.968750
1816,-167.968750
1817,-167.968750
1818,-167.968750
1819,-167.968750
1820,-167.968750
1821,-167.968750
1822,-167.968750
1823,-167.968750
1824,-167.968750
1825,-167.968750
1826,-167.968750
1827,-167.968750
1828,-167.968750
1829,-164.062500
1830,-164.062500
1831,-164.062500
1832,-164.062500
1833,-164.062500
1834,-164.062500
1835,-164.062500
1836,-164.062500
1837,-164.062500
1838,-164.062500
1839,-164.062500
1840,-164.062500
1841,-164.062500
1842,-164.062500
1843,-164.062500
1844,-164.062500
1845,-160.156250
1846,-160.156250
1847,-160.156250
1848,-160.156250
1849,-160.156250
1850,-160.156250
1851,-160.156250
1852,-160.156250
1853,-160.156250
1854,-160.156250
1855,-160.156250
1856,-156.250000
1857,-156.250000
1858,-156.250000
1859,-156.250000
1860,-156.250000
1861,-156.250000
1862,-156.250000
1863,-156.250000
1864,-156.250000
1865,-152.343750
1866,-152.343750
1867,-152.343750
1868,-152.343750
1869,-152.343750
1870,-152.343750
1871,-152.343750
1872,-152.343750
1873,-152.343750
1874,-152.343750
1875,-148.437500
1876,-148.437500
1877,-148.437500
1878,-148.437500
1879,-148.437500
1880,-148.437500
1881,-148.437500
1882,-148.437500
1883,-144.531250
1884,-144.531250
1885,-144.531250
1886,-144.531250
1887,-144.531250
1888,-144.531250
1889,-140.625000
1890,-140.625000
1891,-140.625000
1892,-140.625000
1893,-140.625000
1894,-140.625000
1895,-136.718750
1896,-136.718750
1897,-136.718750
1898,-136.718750
1899,-136.718750
1900,-136.718750
1901,-136.718750
1902,-132.812500
1903,-132.812500
1904,-132.812500
1905,-132.812500
1906,-132.812500
1907,-132.812500
1908,-128.906250
1909,-128.906250
1910,-128.906250
1911,-128.906250
1912,-128.906250
1913,-125.000000
1914,-128.906250
1915,-125.000000
1916,-125.000000
1917,-125.000000
1918,-121.093750
1919,-125.000000
1920,-121.093750
1921,-121.093750
1922,-121.093750
1923,-121.093750
1924,-121.093750
1925,-117.187500
1926,-117.187500
1927,-117.187500
1928,-117.187500
1929,-113.281250
1930,-113.281250
1931,-113.281250
1932,-113.281250
1933,-113.281250
1934,-113.281250
1935,-109.375000
1936,-109.375000
1937,-109.375000
1938,-109.375000
1939,-105.468750
1940,-105.468750
1941,-105.468750
1942,-105.468750
1943,-105.468750
1944,-105.468750
1945,-101.562500
1946,-101.562500
1947,-101.562500
1948,-101.562500
1949,-97.656250
1950,-97.656250
1951,-97.656250
1952,-97.656250
1953,-97.656250
1954,-93.750000
1955,-93.750000
1956,-93.750000
1957,-93.750000
1958,-89.843750
1959,-89.843750
1960,-89.843750
1961,-89.843750
1962,-89.843750
1963,-85.937500
1964,-85.937500
1965,-85.937500
1966,-85.937500
1967,-82.031250
1968,-82.031250
1969,-82.031250
1970,-82.031250
1971,-82.031250
1972,-78.125000
1973,-78.125000
1974,-78.125000
1975,-78.125000
1976,-74.218750
1977,-74.218750
1978,-74.218750
1979,-74.218750
1980,-70.312500
1981,-70.312500
1982,-70.312500
1983,-70.312500
1984,-66.406250
1985,-66.406250
1986,-66.406250
1987,-66.406250
1988,-66.406250
1989,-62.500000
1990,-62.500000
1991,-62.500000
1992,-62.500000
1993,-58.593750
1994,-58.593750
1995,-58.593750
1996,-58.593750
1997,-54.687500
1998,-54.687500
1999,-54.687500
2000,-54.687500
2001,-50.781250
2002,-50.781250
2003,-50.781250
2004,-50.781250
2005,-46.875000
2006,-46.875000
2007,-46.875000
2008,-46.875000
2009,-42.968750
2010,-42.968750
2011,-42.968750
2012,-42.968750
2013,-39.062500
2014,-39.062500
2015,-39.062500
2016,-39.062500
2017,-35.156250
2018,-35.156250
2019,-35.156250
2020,-35.156250
2021,-35.156250
2022,-31.250000
2023,-31.250000
2024,-31.250000
2025,-27.343750
2026,-27.343750
2027,-27.343750
2028,-27.343750
2029,-27.343750
2030,-23.437500
2031,-23.437500
2032,-23.437500
2033,-23.437500
2034,-19.531250
2035,-19.531250
2036,-19.531250
2037,-15.625000
2038,-15.625000
2039,-15.625000
2040,-15.625000
2041,-15.625000
2042,-15.625000
2043,-11.718750
2044,-11.718750
2045,-11.718750
2046,-11.718750
2047,-7.812500
2048,-7.812500
2049,-7.812500
2050,-7.812500
2051,-3.906250
2052,-3.906250
2053,-3.906250
2054,-3.906250
2055,0.000000
2056,0.000000
2057,0.000000
2058,0.000000
2059,3.906250
2060,3.906250
2061,3.906250
2062,3.906250
2063,7.812500
2064,7.812500
2065,7.812500
2066,7.812500
2067,11.718750
2068,11.718750
2069,11.718750
2070,11.718750
2071,11.718750
2072,15.625000
2073,15.625000
2074,15.625000
2075,15.625000
2076,19.531250
2077,19.531250
2078,19.531250
2079,19.531250
2080,19.531250
2081,23.437500
2082,23.437500
2083,23.437500
2084,27.343750
2085,27.343750
2086,27.343750
2087,27.343750
2088,27.343750
2089,31.250000
2090,31.250000
2091,31.250000
2092,31.250000
2093,31.250000
2094,35.156250
2095,35.156250
2096,35.156250
2097,35.156250
2098,35.156250
2099,39.062500
2100,39.062500
2101,39.062500
2102,39.062500
2103,42.968750
2104,42.968750
2105,42.968750
2106,42.968750
2107,42.968750
2108,46.875000
2109,46.875000
2110,46.875000
2111,46.875000
2112,46.875000
2113,50.781250
2114,50.781250
2115,50.781250
2116,50.781250
2117,54.687500
2118,54.687500
2119,54.687500
2120,54.687500
2121,54.687500
2122,54.687500
2123,54.687500
2124,58.593750
2125,58.593750
2126,58.593750
2127,58.593750
2128,58.593750
2129,62.500000
2130,62.500000
2131,62.500000
2132,62.500000
2133,62.500000
2134,66.406250
2135,66.406250
2136,66.406250
2137,66.406250
2138,66.406250
2139,66.406250
2140,70.312500
2141,70.312500
2142,70.312500
2143,70.312500
2144,70.312500
2145,74.218750
2146,74.218750
2147,74.218750
2148,74.218750
2149,74.218750
2150,78.125000
2151,78.125000
2152,78.125000
2153,78.125000
2154,78.125000
2155,78.125000
2156,78.125000
2157,78.125000
2158,82.031250
2159,82.031250
2160,82.031250
2161,82.031250
2162,82.031250
2163,85.937500
2164,85.937500
2165,85.937500
2166,85.937500
2167,85.937500
2168,85.937500
2169,85.937500
2170,85.937500
2171,89.843750
2172,89.843750
2173,89.843750
2174,89.843750
2175,89.843750
2176,89.843750
2177,89.843750
2178,93.750000
2179,93.750000
2180,93.750000
2181,93.750000
2182,93.750000
2183,93.750000
2184,93.750000
2185,97.656250
2186,97.656250
2187,97.656250
2188,97.656250
2189,97.656250
2190,97.656250
2191,97.656250
2192,97.656250
2193,101.562500
2194,101.562500
2195,101.562500
2196,101.562500
2197,101.562500
2198,101.562500
2199,101.562500
2200,101.562500
2201,105.468750
2202,101.562500
2203,105.468750
2204,105.468750
2205,105.468750
2206,105.468750
2207,105.468750
2208,105.468750
2209,105.468750
2210,105.468750
2211,109.375000
2212,109.375000
2213,109.375000
2214,109.375000
2215,109.375000
2216,109.375000
2217,109.375000
2218,109.375000
2219,109.375000
2220,109.375000
2221,109.375000
2222,113.281250
2223,113.281250
2224,113.281250
2225,113.281250
2226,113.281250
2227,113.281250
2228,113.281250
2229,113.281250
2230,113.281250
2231,113.281250
2232,113.281250
2233,117.187500
2234,117.187500
2235,117.187500
2236,117.187500
2237,117.187500
2238,117.187500
2239,117.187500
2240,117.187500
2241,117.187500
2242,117.187500
2243,117.187500
2244,117.187500
2245,117.187500
2246,117.187500
2247,117.187500
2248,117.187500
2249,117.187500
2250,121.093750
2251,121.093750
2252,121.093750
2253,121.093750
2254,121.093750
2255,121.093750
2256,121.093750
2257,121.093750
2258,121.093750
2259,121.093750
2260,121.093750
2261,121.093750
2262,121.093750
2263,121.093750
2264,121.093750
2265,121.093750
2266,121.093750
2267,121.093750
2268,125.000000
2269,125.000000
2270,125.000000
2271,121.093750
2272,121.093750
2273,125.000000
2274,125.000000
2275,125.000000
2276,125.000000
2277,121.093750
2278,125.000000
2279,125.000000
2280,125.000000
2281,125.000000
2282,125.000000
2283,125.000000
2284,125.000000
2285,125.000000
2286,125.000000
2287,125.000000
2288,125.000000
2289,125.000000
2290,125.000000
2291,125.000000
2292,125.000000
2293,125.000000
2294,125.000000
2295,125.000000
2296,125.000000
2297,125.000000
2298,125.000000
2299,125.000000
2300,125.000000
2301,125.000000
2302,125.000000
2303,125.000000
2304,125.000000
2305,125.000000
2306,125.000000
2307,125.000000
2308,125.000000
2309,125.000000
2310,125.000000
2311,125.000000
2312,125.000000
2313,125.000000
2314,125.000000
2315,125.000000
2316,125.000000
2317,125.000000
2318,125.000000
2319,125.000000
2320,125.000000
2321,125.000000
2322,121.093750
2323,121.093750
2324,121.093750
2325,121.093750
2326,121.093750
2327,121.093750
2328,121.093750
2329,121.093750
2330,121.093750
2331,121.093750
2332,121.093750
2333,121.093750
2334,121.093750
2335,121.093750
2336,121.093750
2337,121.093750
2338,121.093750
2339,121.093750
2340,121.093750
2341,121.093750
2342,121.093750
2343,121.093750
2344,121.093750
2345,121.093750
2346,121.093750
2347,117.187500
2348,117.187500
2349,117.187500
2350,117.187500
2351,117.187500
2352,117.187500
2353,117.187500
2354,117.187500
2355,121.093750
2356,117.187500
2357,117.187500
2358,117.187500
2359,117.187500
2360,113.281250
2361,117.187500
2362,117.187500
2363,113.281250
2364,113.281250
2365,113.281250
2366,113.281250
2367,113.281250
2368,113.281250
2369,113.281250
2370,113.281250
2371,113.281250
2372,113.281250
2373,113.281250
2374,109.375000
2375,109.375000
2376,109.375000
2377,109.375000
2378,109.375000
2379,109.375000
2380,109.375000
2381,109.375000
2382,109.375000
2383,109.375000
2384,109.375000
2385,105.468750
2386,105.468750
2387,105.468750
2388,105.468750
2389,105.468750
2390,105.468750
2391,105.468750
2392,101.562500
2393,101.562500
2394,101.562500
2395,101.562500
2396,101.562500
2397,101.562500
2398,101.562500
2399,101.562500
2400,101.562500
2401,101.562500
2402,97.656250
2403,97.656250
2404,97.656250
2405,97.656250
2406,97.656250
2407,97.656250
2408,97.656250
2409,97.656250
2410,93.750000
2411,93.750000
2412,93.750000
2413,93.750000
2414,93.750000
2415,93.750000
2416,89.843750
2417,93.750000
2418,89.843750
2419,89.843750
2420,89.843750
2421,89.843750
2422,89.843750
2423,89.843750
2424,89.843750
2425,85.937500
2426,85.937500
2427,85.937500
2428,85.937500
2429,85.937500
2430,85.937500
2431,82.031250
2432,82.031250
2433,82.031250
2434,82.031250
2435,82.031250
2436,82.031250
2437,78.125000
2438,78.125000
2439,78.125000
2440,78.125000
2441,78.125000
2442,74.218750
2443,74.218750
2444,74.218750
2445,74.218750
2446,74.218750
2447,74.218750
2448,74.218750
2449,70.312500
2450,70.312500
2451,70.312500
2452,70.312500
2453,70.312500
2454,70.312500
2455,66.406250
2456,66.406250
2457,66.406250
2458,66.406250
2459,66.406250
2460,62.500000
2461,62.500000
2462,62.500000
2463,62.500000
2464,62.500000
2465,58.593750
2466,58.593750
2467,58.593750
2468,58.593750
2469,58.593750
2470,54.687500
2471,54.687500
2472,54.687500
2473,54.687500
2474,54.687500
2475,54.687500
2476,50.781250
2477,50.781250
2478,50.781250
2479,50.781250
2480,46.875000
2481,46.875000
2482,46.875000
2483,46.875000
2484,46.875000
2485,42.968750
2486,42.968750
2487,42.968750
2488,42.968750
2489,42.968750
2490,39.062500
2491,39.062500
2492,39.062500
2493,39.062500
2494,35.156250
2495,35.156250
2496,35.156250
2497,35.156250
2498,35.156250
2499,31.250000
2500,31.250000
2501,31.250000
2502,31.250000
2503,27.343750
2504,27.343750
2505,27.343750
2506,27.343750
2507,23.437500
2508,23.437500
2509,23.437500
2510,23.437500
2511,23.437500
2512,23.437500
2513,19.531250
2514,19.531250
2515,19.531250
2516,19.531250
2517,15.625000
2518,15.625000
2519,15.625000
2520,15.625000
2521,11.718750
2522,11.718750
2523,11.718750
2524,11.718750
2525,7.812500
2526,7.812500
2527,7.812500
2528,7.812500
2529,7.812500
2530,3.906250
2531,3.906250
2532,3.906250
2533,3.906250
2534,0.000000
2535,0.000000
2536,0.000000
2537,-3.906250
2538,-3.906250
2539,-3.906250
2540,-3.906250
2541,-3.906250
2542,-7.812500
2543,-7.812500
2544,-7.812500
2545,-7.812500
2546,-11.718750
2547,-11.718750
2548,-11.718750
2549,-11.718750
2550,-15.625000
2551,-15.625000
2552,-15.625000
2553,-15.625000
2554,-19.531250
2555,-19.531250
2556,-19.531250
2557,-19.531250
2558,-23.437500
2559,-23.437500
2560,-23.437500
2561,-23.437500
2562,-27.343750
2563,-27.343750
2564,-27.343750
2565,-27.343750
2566,-31.250000
2567,-31.250000
2568,-31.250000
2569,-31.250000
2570,-35.156250
2571,-35.156250
2572,-35.156250
2573,-35.156250
2574,-39.062500
2575,-39.062500
2576,-39.062500
2577,-39.062500
2578,-42.968750
2579,-42.968750
2580,-42.968750
2581,-42.968750
2582,-42.968750
2583,-46.875000
2584,-46.875000
2585,-46.875000
2586,-50.781250
2587,-50.781250
2588,-50.781250
2589,-50.781250
2590,-50.781250
2591,-54.687500
2592,-54.687500
2593,-54.687500
2594,-54.687500
2595,-58.593750
2596,-58.593750
2597,-58.593750
2598,-62.500000
2599,-62.500000
2600,-62.500000
2601,-62.500000
2602,-62.500000
2603,-66.406250
2604,-66.406250
2605,-66.406250
2606,-66.406250
2607,-66.406250
2608,-70.312500
2609,-70.312500
2610,-70.312500
2611,-74.218750
2612,-74.218750
2613,-74.218750
2614,-74.218750
2615,-74.218750
2616,-78.125000
2617,-78.125000
2618,-78.125000
2619,-78.125000
2620,-82.031250
2621,-82.031250
2622,-82.031250
2623,-82.031250
2624,-85.937500
2625,-85.937500
2626,-85.937500
2627,-85.937500
2628,-89.843750
2629,-89.843750
2630,-89.843750
2631,-89.843750
2632,-89.843750
2633,-89.843750
2634,-93.750000
2635,-93.750000
2636,-93.750000
2637,-97.656250
2638,-97.656250
2639,-97.656250
2640,-97.656250
2641,-97.656250
2642,-97.656250
2643,-97.656250
2644,-101.562500
2645,-101.562500
2646,-101.562500
2647,-105.468750
2648,-105.468750
2649,-105.468750
2650,-105.468750
2651,-105.468750
2652,-109.375000
2653,-109.375000
2654,-109.375000
2655,-109.375000
2656,-109.375000
2657,-109.375000
2658,-113.281250
2659,-113.281250
2660,-113.281250
2661,-113.281250
2662,-117.187500
2663,-117.187500
2664,-117.187500
2665,-117.187500
2666,-117.187500
2667,-121.093750
2668,-121.093750
2669,-121.093750
2670,-121.093750
2671,-121.093750
2672,-125.000000
2673,-125.000000
2674,-125.000000
2675,-125.000000
2676,-125.000000
2677,-125.000000
2678,-128.906250
2679,-128.906250
2680,-128.906250
2681,-128.906250
2682,-128.906250
2683,-132.812500
2684,-132.812500
2685,-132.812500
2686,-132.812500
2687,-132.812500
2688,-132.812500
2689,-136.718750
2690,-136.718750
2691,-136.718750
2692,-136.718750
2693,-136.718750
2694,-136.718750
2695,-136.718750
2696,-136.718750
2697,-140.625000
2698,-140.625000
2699,-140.625000
2700,-140.625000
2701,-140.625000
2702,-140.625000
2703,-144.531250
2704,-144.531250
2705,-144.531250
2706,-144.531250
2707,-144.531250
2708,-144.531250
2709,-144.531250
2710,-148.437500
2711,-148.437500
2712,-148.437500
2713,-148.437500
2714,-148.437500
2715,-148.437500
2716,-148.437500
2717,-148.437500
2718,-152.343750
2719,-152.343750
2720,-152.343750
2721,-152.343750
2722,-152.343750
2723,-152.343750
2724,-152.343750
2725,-152.343750
2726,-152.343750
2727,-152.343750
2728,-156.250000
2729,-156.250000
2730,-156.250000
2731,-156.250000
2732,-156.250000
2733,-156.250000
2734,-156.250000
2735,-156.250000
2736,-156.250000
2737,-156.250000
2738,-160.156250
2739,-160.156250
2740,-160.156250
2741,-160.156250
2742,-160.156250
2743,-160.156250
2744,-160.156250
2745,-160.156250
2746,-160.156250
2747,-160.156250
2748,-160.156250
2749,-164.062500
2750,-164.062500
2751,-164.062500
2752,-164.062500
2753,-164.062500
2754,-164.062500
2755,-164.062500
2756,-164.062500
2757,-164.062500
2758,-164.062500
2759,-164.062500
2760,-164.062500
2761,-164.062500
2762,-164.062500
2763,-164.062500
2764,-164.062500
2765,-164.062500
2766,-167.968750
2767,-164.062500
2768,-164.062500
2769,-167.968750
2770,-167.968750
2771,-167.968750
2772,-167.968750
2773,-167.968750
2774,-167.968750
2775,-167.968750
2776,-167.968750
2777,-167.968750
2778,-167.968750
2779,-167.968750
2780,-167.968750
2781,-167.968750
2782,-167.968750
2783,-167.968750
2784,-167.968750
2785,-167.968750
2786,-167.968750
2787,-167.968750
2788,-167.968750
2789,-167.968750
2790,-167.968750
2791,-167.968750
2792,-167.968750
2793,-167.968750
2794,-167.968750
2795,-167.968750
2796,-167.968750
2797,-167.968750
2798,-167.968750
2799,-167.968750
2800,-167.968750
2801,-167.968750
2802,-167.968750
2803,-167.968750
2804,-167.968750
2805,-167.968750
2806,-167.968750
2807,-167.968750
2808,-164.062500
2809,-167.968750
2810,-164.062500
2811,-167.968750
2812,-164.062500
2813,-164.062500
2814,-164.062500
2815,-164.062500
2816,-164.062500
2817,-164.062500
2818,-164.062500
2819,-164.062500
2820,-164.062500
2821,-164.062500
2822,-164.062500
2823,-164.062500
2824,-164.062500
2825,-164.062500
2826,-164.062500
2827,-164.062500
2828,-164.062500
2829,-160.156250
2830,-164.062500
2831,-160.156250
2832,-160.156250
2833,-160.156250
2834,-160.156250
2835,-160.156250
2836,-160.156250
2837,-160.156250
2838,-160.156250
2839,-160.156250
2840,-160.156250
2841,-160.156250
2842,-156.250000
2843,-160.156250
2844,-156.250000
2845,-156.250000
2846,-156.250000
2847,-156.250000
2848,-156.250000
2849,-156.250000
2850,-156.250000
2851,-156.250000
2852,-152.343750
2853,-152.343750
2854,-156.250000
2855,-156.250000
2856,-152.343750
2857,-152.343750
2858,-152.343750
2859,-152.343750
2860,-152.343750
2861,-148.437500
2862,-152.343750
2863,-148.437500
2864,-148.437500
2865,-148.437500
2866,-148.437500
2867,-148.437500
2868,-148.437500
2869,-148.437500
2870,-144.531250
2871,-144.531250
2872,-144.531250
2873,-144.531250
2874,-144.531250
2875,-144.531250
2876,-144.531250
2877,-144.531250
2878,-140.625000
2879,-140.625000
2880,-140.625000
2881,-140.625000
2882,-140.625000
2883,-140.625000
2884,-136.718750
2885,-136.718750
2886,-136.718750
2887,-136.718750
2888,-136.718750
2889,-136.718750
2890,-132.812500
2891,-132.812500
2892,-132.812500
2893,-132.812500
2894,-132.812500
2895,-132.812500
2896,-132.812500
2897,-128.906250
2898,-128.906250
2899,-128.906250
2900,-128.906250
2901,-128.906250
2902,-128.906250
2903,-125.000000
2904,-125.000000
2905,-125.000000
2906,-125.000000
2907,-125.000000
2908,-121.093750
2909,-121.093750
2910,-121.093750
2911,-121.093750
2912,-121.093750
2913,-117.187500
2914,-117.187500
2915,-117.187500
2916,-117.187500
2917,-117.187500
2918,-117.187500
2919,-113.281250
2920,-113.281250
2921,-113.281250
2922,-113.281250
2923,-109.375000
2924,-109.375000
2925,-109.375000
2926,-109.375000
2927,-109.375000
2928,-109.375000
2929,-105.468750
2930,-105.468750
2931,-105.468750
2932,-105.468750
2933,-105.468750
2934,-101.562500
2935,-101.562500
2936,-101.562500
2937,-101.562500
2938,-97.656250
2939,-97.656250
2940,-97.656250
2941,-97.656250
2942,-97.656250
2943,-93.750000
2944,-93.750000
2945,-93.750000
2946,-93.750000
2947,-93.750000
2948,-93.750000
2949,-89.843750
2950,-89.843750
2951,-89.843750
2952,-85.937500
2953,-85.937500
2954,-85.937500
2955,-85.937500
2956,-85.937500
2957,-82.031250
2958,-82.031250
2959,-82.031250
2960,-82.031250
2961,-78.125000
2962,-78.125000
2963,-78.125000
2964,-78.125000
2965,-78.125000
2966,-74.218750
2967,-74.218750
2968,-74.218750
2969,-70.312500
2970,-70.312500
2971,-70.312500
2972,-70.312500
2973,-70.312500
2974,-70.312500
2975,-66.406250
2976,-66.406250
2977,-66.406250
2978,-66.406250
2979,-62.500000
2980,-62.500000
2981,-62.500000
2982,-62.500000
2983,-58.593750
2984,-58.593750
2985,-58.593750
2986,-58.593750
2987,-54.687500
2988,-54.687500
2989,-54.687500
2990,-54.687500
2991,-50.781250
2992,-50.781250
2993,-50.781250
2994,-50.781250
2995,-46.875000
2996,-46.875000
2997,-46.875000
2998,-46.875000
2999,-42.968750
3000,-42.968750
3001,-42.968750
3002,-42.968750
3003,-39.062500
3004,-39.062500
3005,-39.062500
3006,-39.062500
3007,-39.062500
3008,-35.156250
3009,-35.156250
3010,-35.156250
3011,-35.156250
3012,-31.250000
3013,-31.250000
3014,-31.250000
3015,-27.343750
3016,-27.343750
3017,-27.343750
3018,-27.343750
3019,-23.437500
3020,-23.437500
3021,-23.437500
3022,-23.437500
3023,-19.531250
3024,-19.531250
3025,-19.531250
3026,-19.531250
3027,-15.625000
3028,-15.625000
3029,-15.625000
3030,-15.625000
3031,-15.625000
3032,-11.718750
3033,-11.718750
3034,-11.718750
3035,-7.812500
3036,-7.812500
3037,-7.812500
3038,-7.812500
3039,-7.812500
3040,-7.812500
3041,-3.906250
3042,-3.906250
3043,-3.906250
3044,0.000000
3045,0.000000
3046,0.000000
3047,0.000000
3048,0.000000
3049,3.906250
3050,3.906250
3051,3.906250
3052,3.906250
3053,7.812500
3054,7.812500
3055,7.812500
3056,7.812500
3057,11.718750
3058,11.718750
3059,11.718750
3060,11.718750
3061,15.625000
3062,15.625000
3063,15.625000
3064,15.625000
3065,15.625000
3066,19.531250
3067,19.531250
3068,19.531250
3069,19.531250
3070,23.437500
3071,23.437500
3072,23.437500
3073,23.437500
3074,27.343750
3075,27.343750
3076,27.343750
3077,27.343750
3078,27.343750
3079,27.343750
3080,31.250000
3081,31.250000
3082,31.250000
3083,31.250000
3084,35.156250
3085,35.156250
3086,35.156250
3087,35.156250
3088,39.062500
3089,39.062500
3090,39.062500
3091,39.062500
3092,39.062500
3093,39.062500
3094,42.968750
3095,42.968750
3096,42.968750
3097,42.968750
3098,42.968750
3099,46.875000
3100,46.875000
3101,46.875000
3102,46.875000
3103,50.781250
3104,50.781250
3105,50.781250
3106,50.781250
3107,50.781250
3108,54.687500
3109,54.687500
3110,54.687500
3111,54.687500
3112,54.687500
3113,54.687500
3114,54.687500
3115,58.593750
3116,58.593750
3117,58.593750
3118,62.500000
3119,62.500000
3120,62.500000
3121,62.500000
3122,62.500000
3123,62.500000
3124,66.406250
3125,66.406250
3126,66.406250
3127,66.406250
3128,66.406250
3129,70.312500
3130,66.406250
3131,70.312500
3132,70.312500
3133,70.312500
3134,70.312500
3135,74.218750
3136,74.218750
3137,74.218750
3138,74.218750
3139,74.218750
3140,74.218750
3141,78.125000
3142,78.125000
3143,78.125000
3144,78.125000
3145,78.125000
3146,78.125000
3147,82.031250
3148,82.031250
3149,82.031250
3150,82.031250
3151,82.031250
3152,82.031250
3153,85.937500
3154,82.031250
3155,85.937500
3156,85.937500
3157,85.937500
3158,85.937500
3159,85.937500
3160,89.843750
3161,89.843750
3162,89.843750
3163,89.843750
3164,89.843750
3165,89.843750
3166,89.843750
3167,93.750000
3168,89.843750
3169,93.750000
3170,93.750000
3171,93.750000
3172,93.750000
3173,93.750000
3174,93.750000
3175,97.656250
3176,97.656250
3177,97.656250
3178,97.656250
3179,97.656250
3180,97.656250
3181,97.656250
3182,97.656250
3183,97.656250
3184,101.562500
3185,101.562500
3186,101.562500
3187,101.562500
3188,101.562500
3189,101.562500
3190,101.562500
3191,101.562500
3192,105.468750
3193,105.468750
3194,105.468750
3195,105.468750
3196,105.468750
3197,105.468750
3198,105.468750
3199,105.468750
3200,105.468750
3201,109.375000
3202,109.375000
3203,109.375000
3204,109.375000
3205,109.375000
3206,109.375000
3207,109.375000
3208,109.375000
3209,109.375000
3210,109.375000
3211,109.375000
3212,113.281250
3213,113.281250
3214,113.281250
3215,113.281250
3216,113.281250
3217,113.281250
3218,113.281250
3219,113.281250
3220,113.281250
3221,113.281250
3222,113.281250
3223,113.281250
3224,113.281250
3225,117.187500
3226,117.187500
3227,117.187500
3228,117.187500
3229,117.187500
3230,117.187500
3231,117.187500
3232,113.281250
3233,117.187500
3234,117.187500
3235,117.187500
3236,117.187500
3237,117.187500
3238,117.187500
3239,117.187500
3240,117.187500
3241,117.187500
3242,121.093750
3243,121.093750
3244,121.093750
3245,121.093750
3246,121.093750
3247,121.093750
3248,121.093750
3249,121.093750
3250,121.093750
3251,121.093750
3252,121.093750
3253,121.093750
3254,121.093750
3255,121.093750
3256,121.093750
3257,121.093750
3258,121.093750
3259,121.093750
3260,121.093750
3261,121.093750
3262,121.093750
3263,121.093750
3264,125.000000
3265,121.093750
3266,125.000000
3267,125.000000
3268,125.000000
3269,125.000000
3270,125.000000
3271,125.000000
3272,125.000000
3273,125.000000
3274,125.000000
3275,125.000000
3276,125.000000
3277,125.000000
3278,125.000000
3279,125.000000
3280,125.000000
3281,125.000000
3282,125.000000
3283,125.000000
3284,125.000000
3285,125.000000
3286,125.000000
3287,125.000000
3288,125.000000
3289,125.000000
3290,125.000000
3291,125.000000
3292,125.000000
3293,125.000000
3294,125.000000
3295,125.000000
3296,125.000000
3297,125.000000
3298,125.000000
3299,125.000000
3300,125.000000
3301,125.000000
3302,125.000000
3303,125.000000
3304,125.000000
3305,125.000000
3306,125.000000
3307,125.000000
3308,125.000000
3309,125.000000
3310,125.000000
3311,125.000000
3312,125.000000
3313,125.000000
3314,121.093750
3315,125.000000
3316,121.093750
3317,121.093750
3318,121.093750
3319,121.093750
3320,121.093750
3321,121.093750
3322,121.093750
3323,121.093750
3324,121.093750
3325,121.093750
3326,121.093750
3327,121.093750
3328,121.093750
3329,121.093750
3330,121.093750
3331,117.187500
3332,121.093750
3333,121.093750
3334,117.187500
3335,121.093750
3336,117.187500
3337,117.187500
3338,117.187500
3339,117.187500
3340,117.187500
3341,117.187500
3342,117.187500
3343,117.187500
3344,117.187500
3345,117.187500
3346,117.187500
3347,117.187500
3348,117.187500
3349,117.187500
3350,117.187500
3351,117.187500
3352,117.187500
3353,113.281250
3354,113.281250
3355,113.281250
3356,113.281250
3357,113.281250
3358,113.281250
3359,113.281250
3360,113.281250
3361,113.281250
3362,113.281250
3363,113.281250
3364,109.375000
3365,113.281250
3366,109.375000
3367,109.375000
3368,109.375000
3369,109.375000
3370,109.375000
3371,109.375000
3372,109.375000
3373,105.468750
3374,105.468750
3375,105.468750
3376,105.468750
3377,105.468750
3378,105.468750
3379,105.468750
3380,105.468750
3381,105.468750
3382,105.468750
3383,105.468750
3384,101.562500
3385,101.562500
3386,101.562500
3387,101.562500
3388,101.562500
3389,101.562500
3390,101.562500
3391,101.562500
3392,97.656250
3393,97.656250
3394,97.656250
3395,97.656250
3396,97.656250
3397,97.656250
3398,97.656250
3399,97.656250
3400,93.750000
3401,93.750000
3402,93.750000
3403,93.750000
3404,93.750000
3405,93.750000
3406,93.750000
3407,93.750000
3408,89.843750
3409,89.843750
3410,89.843750
3411,89.843750
3412,89.843750
3413,89.843750
3414,85.937500
3415,85.937500
3416,85.937500
3417,85.937500
3418,85.937500
3419,85.937500
3420,85.937500
3421,85.937500
3422,82.031250
3423,82.031250
3424,82.031250
3425,82.031250
3426,82.031250
3427,82.031250
3428,78.125000
3429,78.125000
3430,78.125000
3431,78.125000
3432,78.125000
3433,74.218750
3434,74.218750
3435,74.218750
3436,74.218750
3437,74.218750
3438,74.218750
3439,70.312500
3440,70.312500
3441,70.312500
3442,70.312500
3443,70.312500
3444,66.406250
3445,66.406250
3446,66.406250
3447,66.406250
3448,66.406250
3449,66.406250
3450,66.406250
3451,62.500000
3452,62.500000
3453,62.500000
3454,62.500000
3455,62.500000
3456,58.593750
3457,58.593750
3458,58.593750
3459,58.593750
3460,58.593750
3461,54.687500
3462,54.687500
3463,54.687500
3464,54.687500
3465,50.781250
3466,50.781250
3467,50.781250
3468,50.781250
3469,50.781250
3470,46.875000
3471,46.875000
3472,46.875000
3473,46.875000
3474,46.875000
3475,42.968750
3476,42.968750
3477,42.968750
3478,42.968750
3479,42.968750
3480,39.062500
3481,39.062500
3482,39.062500
3483,35.156250
3484,35.156250
3485,39.062500
3486,35.156250
3487,35.156250
3488,35.156250
3489,35.156250
3490,31.250000
3491,31.250000
3492,31.250000
3493,31.250000
3494,27.343750
3495,27.343750
3496,27.343750
3497,27.343750
3498,23.437500
3499,23.437500
3500,23.437500
3501,23.437500
3502,23.437500
3503,19.531250
3504,19.531250
3505,19.531250
3506,19.531250
3507,15.625000
3508,15.625000
3509,15.625000
3510,15.625000
3511,11.718750
3512,11.718750
3513,11.718750
3514,11.718750
3515,7.812500
3516,7.812500
3517,7.812500
3518,7.812500
3519,7.812500
3520,3.906250
3521,3.906250
3522,3.906250
3523,3.906250
3524,0.000000
3525,0.000000
3526,0.000000
3527,-3.906250
3528,-3.906250
3529,-3.906250
3530,-3.906250
3531,-3.906250
3532,-7.812500
3533,-7.812500
3534,-7.812500
3535,-3.906250
3536,-7.812500
3537,-11.718750
3538,-11.718750
3539,-11.718750
3540,-11.718750
3541,-15.625000
3542,-15.625000
3543,-15.625000
3544,-19.531250
3545,-19.531250
3546,-19.531250
3547,-19.531250
3548,-19.531250
3549,-23.437500
3550,-23.437500
3551,-23.437500
3552,-27.343750
3553,-27.343750
3554,-27.343750
3555,-27.343750
3556,-27.343750
3557,-31.250000
3558,-31.250000
3559,-31.250000
3560,-35.156250
3561,-35.156250
3562,-35.156250
3563,-35.156250
3564,-39.062500
3565,-39.062500
3566,-39.062500
3567,-39.062500
3568,-39.062500
3569,-42.968750
3570,-42.968750
3571,-42.968750
3572,-42.968750
3573,-46.875000
3574,-46.875000
3575,-46.875000
3576,-46.875000
3577,-50.781250
3578,-50.781250
3579,-50.781250
3580,-50.781250
3581,-50.781250
3582,-54.687500
3583,-54.687500
3584,-58.593750
3585,-58.593750
3586,-58.593750
3587,-58.593750
3588,-58.593750
3589,-62.500000
3590,-62.500000
3591,-62.500000
3592,-62.500000
3593,-66.406250
3594,-66.406250
3595,-66.406250
3596,-70.312500
3597,-70.312500
3598,-70.312500
3599,-70.312500
3600,-70.312500
3601,-70.312500
3602,-74.218750
3603,-74.218750
3604,-74.218750
3605,-78.125000
3606,-78.125000
3607,-78.125000
3608,-78.125000
3609,-78.125000
3610,-82.031250
3611,-82.031250
3612,-82.031250
3613,-82.031250
3614,-85.937500
3615,-85.937500
3616,-85.937500
3617,-85.937500
3618,-89.843750
3619,-89.843750
3620,-89.843750
3621,-89.843750
3622,-89.843750
3623,-93.750000
3624,-93.750000
3625,-93.750000
3626,-93.750000
3627,-93.750000
3628,-97.656250
3629,-97.656250
3630,-97.656250
3631,-97.656250
3632,-101.562500
3633,-101.562500
3634,-101.562500
3635,-101.562500
3636,-101.562500
3637,-105.468750
3638,-105.468750
3639,-105.468750
3640,-105.468750
3641,-105.468750
3642,-109.375000
3643,-109.375000
3644,-109.375000
3645,-109.375000
3646,-113.281250
3647,-113.281250
3648,-113.281250
3649,-113.281250
3650,-113.281250
3651,-113.281250
3652,-117.187500
3653,-117.187500
3654,-117.187500
3655,-117.187500
3656,-117.187500
3657,-121.093750
3658,-121.093750
3659,-121.093750
3660,-121.093750
3661,-121.093750
3662,-125.000000
3663,-125.000000
3664,-125.000000
3665,-125.000000
3666,-125.000000
3667,-125.000000
3668,-128.906250
3669,-128.906250
3670,-128.906250
3671,-128.906250
3672,-128.906250
3673,-132.812500
3674,-132.812500
3675,-132.812500
3676,-132.812500
3677,-132.812500
3678,-132.812500
3679,-132.812500
3680,-136.718750
3681,-136.718750
3682,-136.718750
3683,-136.718750
3684,-136.718750
3685,-136.718750
3686,-136.718750
3687,-140.625000
3688,-140.625000
3689,-140.625000
3690,-140.625000
3691,-140.625000
3692,-144.531250
3693,-144.531250
3694,-144.531250
3695,-144.531250
3696,-144.531250
3697,-144.531250
3698,-144.531250
3699,-144.531250
3700,-148.437500
3701,-148.437500
3702,-148.437500
3703,-148.437500
3704,-148.437500
3705,-148.437500
3706,-148.437500
3707,-152.343750
3708,-152.343750
3709,-152.343750
3710,-152.343750
3711,-152.343750
3712,-152.343750
3713,-152.343750
3714,-152.343750
3715,-152.343750
3716,-152.343750
3717,-152.343750
3718,-156.250000
3719,-156.250000
3720,-156.250000
3721,-156.250000
3722,-156.250000
3723,-156.250000
3724,-156.250000
3725,-156.250000
3726,-156.250000
3727,-160.156250
3728,-160.156250
3729,-160.156250
3730,-160.156250
3731,-160.156250
3732,-160.156250
3733,-160.156250
3734,-160.156250
3735,-160.156250
3736,-160.156250
3737,-160.156250
3738,-164.062500
3739,-160.156250
3740,-164.062500
3741,-164.062500
3742,-164.062500
3743,-164.062500
3744,-164.062500
3745,-164.062500
3746,-164.062500
3747,-164.062500
3748,-164.062500
3749,-164.062500
3750,-164.062500
3751,-164.062500
3752,-164.062500
3753,-164.062500
3754,-167.968750
3755,-167.968750
3756,-167.968750
3757,-167.968750
3758,-167.968750
3759,-167.968750
3760,-167.968750
3761,-167.968750
3762,-167.968750
3763,-167.968750
3764,-167.968750
3765,-167.968750
3766,-167.968750
3767,-167.968750
3768,-167.968750
3769,-167.968750
3770,-167.968750
3771,-167.968750
3772,-167.968750
3773,-167.968750
3774,-167.968750
3775,-167.968750
3776,-167.968750
3777,-167.968750
3778,-167.968750
3779,-167.968750
3780,-167.968750
3781,-167.968750
3782,-167.968750
3783,-167.968750
3784,-167.968750
3785,-167.968750
3786,-167.968750
3787,-167.968750
3788,-167.968750
3789,-167.968750
3790,-167.968750
3791,-167.968750
3792,-167.968750
3793,-167.968750
3794,-167.968750
3795,-167.968750
3796,-167.968750
3797,-167.968750
3798,-167.968750
3799,-167.968750
3800,-164.062500
3801,-164.062500
3802,-167.968750
3803,-167.968750
3804,-164.062500
3805,-164.062500
3806,-164.062500
3807,-164.062500
3808,-164.062500
3809,-164.062500
3810,-164.062500
3811,-164.062500
3812,-164.062500
3813,-164.062500
3814,-164.062500
3815,-164.062500
3816,-164.062500
3817,-164.062500
3818,-164.062500
3819,-164.062500
3820,-164.062500
3821,-164.062500
3822,-164.062500
3823,-160.156250
3824,-160.156250
3825,-160.156250
3826,-160.156250
3827,-160.156250
3828,-160.156250
3829,-160.156250
3830,-160.156250
3831,-160.156250
3832,-156.250000
3833,-160.156250
3834,-160.156250
3835,-156.250000
3836,-156.250000
3837,-156.250000
3838,-156.250000
3839,-156.250000
3840,-156.250000
3841,-156.250000
3842,-156.250000
3843,-152.343750
3844,-152.343750
3845,-152.343750
3846,-152.343750
3847,-152.343750
3848,-152.343750
3849,-152.343750
3850,-152.343750
3851,-152.343750
3852,-148.437500
3853,-148.437500
3854,-148.437500
3855,-148.437500
3856,-148.437500
3857,-148.437500
3858,-148.437500
3859,-148.437500
3860,-148.437500
3861,-144.531250
3862,-148.437500
3863,-144.531250
3864,-144.531250
3865,-144.531250
3866,-144.531250
3867,-144.531250
3868,-144.531250
3869,-140.625000
3870,-140.625000
3871,-140.625000
3872,-140.625000
3873,-140.625000
3874,-140.625000
3875,-136.718750
3876,-136.718750
3877,-136.718750
3878,-136.718750
3879,-136.718750
3880,-132.812500
3881,-136.718750
3882,-132.812500
3883,-132.812500
3884,-132.812500
3885,-132.812500
3886,-132.812500
3887,-128.906250
3888,-128.906250
3889,-128.906250
3890,-128.906250
3891,-128.906250
3892,-125.000000
3893,-125.000000
3894,-125.000000
3895,-125.000000
3896,-125.000000
3897,-125.000000
3898,-125.000000
3899,-121.093750
3900,-121.093750
3901,-121.093750
3902,-121.093750
3903,-121.093750
3904,-117.187500
3905,-117.187500
3906,-117.187500
3907,-117.187500
3908,-117.187500
3909,-113.281250
3910,-113.281250
3911,-113.281250
3912,-113.281250
3913,-113.281250
3914,-109.375000
3915,-109.375000
3916,-109.375000
3917,-109.375000
3918,-109.375000
3919,-105.468750
3920,-105.468750
3921,-105.468750
3922,-105.468750
3923,-105.468750
3924,-101.562500
3925,-101.562500
3926,-101.562500
3927,-101.562500
3928,-97.656250
3929,-97.656250
3930,-97.656250
3931,-97.656250
3932,-97.656250
3933,-93.750000
3934,-93.750000
3935,-93.750000
3936,-93.750000
3937,-93.750000
3938,-89.843750
3939,-89.843750
3940,-89.843750
3941,-89.843750
3942,-89.843750
3943,-85.937500
3944,-85.937500
3945,-85.937500
3946,-82.031250
3947,-82.031250
3948,-82.031250
3949,-82.031250
3950,-82.031250
3951,-78.125000
3952,-78.125000
3953,-78.125000
3954,-78.125000
3955,-74.218750
3956,-74.218750
3957,-74.218750
3958,-74.218750
3959,-74.218750
3960,-70.312500
3961,-70.312500
3962,-70.312500
3963,-66.406250
3964,-66.406250
3965,-66.406250
3966,-66.406250
3967,-66.406250
3968,-62.500000
3969,-62.500000
3970,-62.500000
3971,-62.500000
3972,-62.500000
3973,-58.593750
3974,-58.593750
3975,-58.593750
3976,-58.593750
3977,-54.687500
3978,-54.687500
3979,-54.687500
3980,-54.687500
3981,-50.781250
3982,-50.781250
3983,-50.781250
3984,-50.781250
3985,-46.875000
3986,-46.875000
3987,-46.875000
3988,-46.875000
3989,-46.875000
3990,-42.968750
3991,-42.968750
3992,-42.968750
3993,-39.062500
3994,-39.062500
3995,-39.062500
3996,-39.062500
3997,-39.062500
3998,-35.156250
3999,-35.156250
4000,-35.156250
4001,-35.156250
4002,-31.250000
4003,-31.250000
4004,-31.250000
4005,-31.250000
4006,-27.343750
4007,-27.343750
4008,-27.343750
4009,-27.343750
4010,-23.437500
4011,-23.437500
4012,-23.437500
4013,-23.437500
4014,-19.531250
4015,-19.531250
4016,-19.531250
4017,-19.531250
4018,-15.625000
4019,-15.625000
4020,-15.625000
4021,-15.625000
4022,-15.625000
4023,-11.718750
4024,-11.718750
4025,-11.718750
4026,-11.718750
4027,-7.812500
4028,-7.812500
4029,-7.812500
4030,-7.812500
4031,-3.906250
4032,-3.906250
4033,-3.906250
4034,-3.906250
4035,0.000000
4036,0.000000
4037,0.000000
4038,0.000000
4039,3.906250
4040,3.906250
4041,3.906250
4042,3.906250
4043,7.812500
4044,7.812500
4045,7.812500
4046,7.812500
4047,11.718750
4048,11.718750
4049,11.718750
4050,11.718750
4051,15.625000
4052,15.625000
4053,15.625000
4054,15.625000
4055,15.625000
4056,19.531250
4057,19.531250
4058,19.531250
4059,19.531250
4060,19.531250
4061,23.437500
4062,23.437500
4063,23.437500
4064,23.437500
4065,27.343750
4066,27.343750
4067,27.343750
4068,27.343750
4069,31.250000
4070,31.250000
4071,31.250000
4072,31.250000
4073,31.250000
4074,35.156250
4075,35.156250
4076,35.156250
4077,35.156250
4078,39.062500
4079,39.062500
4080,39.062500
4081,39.062500
4082,39.062500
4083,42.968750
4084,42.968750
4085,42.968750
4086,42.968750
4087,46.875000
4088,42.968750
4089,46.875000
4090,46.875000
4091,46.875000
4092,46.875000
4093,46.875000
4094,50.781250
4095,50.781250
4096,50.781250
4097,50.781250
4098,50.781250
4099,54.687500
4100,54.687500
4101,54.687500
4102,54.687500
4103,58.593750
4104,58.593750
4105,58.593750
4106,58.593750
4107,58.593750
4108,58.593750
4109,62.500000
4110,62.500000
4111,62.500000
4112,62.500000
4113,66.406250
4114,62.500000
4115,66.406250
4116,66.406250
4117,66.406250
4118,66.406250
4119,66.406250
4120,70.312500
4121,70.312500
4122,70.312500
4123,70.312500
4124,70.312500
4125,74.218750
4126,74.218750
4127,74.218750
4128,74.218750
4129,74.218750
4130,74.218750
4131,78.125000
4132,78.125000
4133,78.125000
4134,78.125000
4135,78.125000
4136,78.125000
4137,82.031250
4138,78.125000
4139,82.031250
4140,82.031250
4141,82.031250
4142,82.031250
4143,82.031250
4144,85.937500
4145,85.937500
4146,85.937500
4147,85.937500
4148,85.937500
4149,85.937500
4150,85.937500
4151,89.843750
4152,89.843750
4153,89.843750
4154,89.843750
4155,89.843750
4156,89.843750
4157,89.843750
4158,89.843750
4159,93.750000
4160,93.750000
4161,93.750000
4162,93.750000
4163,93.750000
4164,93.750000
4165,97.656250
4166,97.656250
4167,97.656250
4168,97.656250
4169,97.656250
4170,97.656250
4171,97.656250
4172,97.656250
4173,101.562500
4174,101.562500
4175,101.562500
4176,101.562500
4177,101.562500
4178,101.562500
4179,101.562500
4180,101.562500
4181,105.468750
4182,105.468750
4183,105.468750
4184,105.468750
4185,105.468750
4186,105.468750
4187,105.468750
4188,105.468750
4189,105.468750
4190,105.468750
4191,109.375000
4192,109.375000
4193,109.375000
4194,109.375000
4195,109.375000
4196,109.375000
4197,109.375000
4198,109.375000
4199,109.375000
4200,109.375000
4201,109.375000
4202,109.375000
4203,109.375000
4204,113.281250
4205,113.281250
4206,113.281250
4207,113.281250
4208,113.281250
4209,113.281250
4210,113.281250
4211,113.281250
4212,113.281250
4213,117.187500
4214,113.281250
4215,117.187500
4216,117.187500
4217,117.187500
4218,117.187500
4219,117.187500
4220,117.187500
4221,117.187500
4222,117.187500
4223,117.187500
4224,121.093750
4225,117.187500
4226,117.187500
4227,117.187500
4228,117.187500
4229,121.093750
4230,117.187500
4231,121.093750
4232,117.187500
4233,121.093750
4234,121.093750
4235,121.093750
4236,121.093750
4237,121.093750
4238,121.093750
4239,121.093750
4240,121.093750
4241,121.093750
4242,121.093750
4243,121.093750
4244,121.093750
4245,121.093750
4246,121.093750
4247,121.093750
4248,121.093750
4249,121.093750
4250,121.093750
4251,121.093750
4252,125.000000
4253,125.000000
4254,125.000000
4255,125.000000
4256,121.093750
4257,121.093750
4258,121.093750
4259,121.093750
4260,125.000000
4261,125.000000
4262,125.000000
4263,125.000000
4264,125.000000
4265,125.000000
4266,121.093750
4267,121.093750
4268,125.000000
4269,125.000000
4270,125.000000
4271,125.000000
4272,125.000000
4273,125.000000
4274,125.000000
4275,125.000000
4276,125.000000
4277,125.000000
4278,125.000000
4279,125.000000
4280,125.000000
4281,125.000000
4282,125.000000
4283,125.000000
4284,125.000000
4285,125.000000
4286,125.000000
4287,125.000000
4288,125.000000
4289,125.000000
4290,125.000000
4291,121.093750
4292,125.000000
4293,125.000000
4294,121.093750
4295,125.000000
4296,121.093750
4297,125.000000
4298,125.000000
4299,125.000000
4300,125.000000
4301,121.093750
4302,121.093750
4303,121.093750
4304,121.093750
4305,121.093750
4306,121.093750
4307,121.093750
4308,125.000000
4309,121.093750
4310,121.093750
4311,121.093750
4312,121.093750
4313,121.093750
4314,121.093750
4315,121.093750
4316,121.093750
4317,121.093750
4318,121.093750
4319,121.093750
4320,121.093750
4321,121.093750
4322,121.093750
4323,121.093750
4324,117.187500
4325,121.093750
4326,117.187500
4327,117.187500
4328,117.187500
4329,117.187500
4330,117.187500
4331,117.187500
4332,117.187500
4333,117.187500
4334,117.187500
4335,117.187500
4336,117.187500
4337,117.187500
4338,117.187500
4339,117.187500
4340,117.187500
4341,117.187500
4342,113.281250
4343,113.281250
4344,113.281250
4345,113.281250
4346,113.281250
4347,113.281250
4348,113.281250
4349,113.281250
4350,113.281250
4351,113.281250
4352,109.375000
4353,109.375000
4354,109.375000
4355,109.375000
4356,109.375000
4357,109.375000
4358,109.375000
4359,109.375000
4360,109.375000
4361,109.375000
4362,105.468750
4363,105.468750
4364,105.468750
4365,105.468750
4366,105.468750
4367,105.468750
4368,105.468750
4369,105.468750
4370,105.468750
4371,105.468750
4372,105.468750
4373,101.562500
4374,101.562500
4375,101.562500
4376,101.562500
4377,101.562500
4378,101.562500
4379,101.562500
4380,101.562500
4381,97.656250
4382,97.656250
4383,97.656250
4384,97.656250
4385,97.656250
4386,97.656250
4387,97.656250
4388,97.656250
4389,93.750000
4390,93.750000
4391,93.750000
4392,93.750000
4393,93.750000
4394,93.750000
4395,93.750000
4396,89.843750
4397,89.843750
4398,89.843750
4399,89.843750
4400,89.843750
4401,89.843750
4402,89.843750
4403,89.843750
4404,85.937500
4405,85.937500
4406,85.937500
4407,85.937500
4408,85.937500
4409,82.031250
4410,82.031250
4411,82.031250
4412,82.031250
4413,82.031250
4414,82.031250
4415,82.031250
4416,78.125000
4417,78.125000
4418,78.125000
4419,78.125000
4420,78.125000
4421,78.125000
4422,74.218750
4423,74.218750
4424,74.218750
4425,74.218750
4426,74.218750
4427,74.218750
4428,74.218750
4429,70.312500
4430,70.312500
4431,70.312500
4432,70.312500
4433,70.312500
4434,66.406250
4435,66.406250
4436,66.406250
4437,66.406250
4438,66.406250
4439,62.500000
4440,62.500000
4441,62.500000
4442,62.500000
4443,62.500000
4444,62.500000
4445,58.593750
4446,58.593750
4447,58.593750
4448,58.593750
4449,54.687500
4450,54.687500
4451,54.687500
4452,54.687500
4453,54.687500
4454,54.687500
4455,50.781250
4456,50.781250
4457,50.781250
4458,50.781250
4459,50.781250
4460,46.875000
4461,46.875000
4462,46.875000
4463,46.875000
4464,46.875000
4465,46.875000
4466,42.968750
4467,42.968750
4468,42.968750
4469,39.062500
4470,39.062500
4471,39.062500
4472,39.062500
4473,39.062500
4474,35.156250
4475,35.156250
4476,35.156250
4477,35.156250
4478,35.156250
4479,31.250000
4480,31.250000
4481,31.250000
4482,31.250000
4483,27.343750
4484,27.343750
4485,27.343750
4486,27.343750
4487,27.343750
4488,23.437500
4489,23.437500
4490,23.437500
4491,19.531250
4492,19.531250
4493,19.531250
4494,19.531250
4495,19.531250
4496,15.625000
4497,15.625000
4498,15.625000
4499,15.625000
4500,15.625000
4501,11.718750
4502,11.718750
4503,11.718750
4504,11.718750
4505,7.812500
4506,7.812500
4507,7.812500
4508,7.812500
4509,3.906250
4510,3.906250
4511,3.906250
4512,3.906250
4513,0.000000
4514,0.000000
4515,0.000000
4516,0.000000
4517,0.000000
4518,-3.906250
4519,-3.906250
4520,-3.906250
4521,-7.812500
4522,-7.812500
4523,-7.812500
4524,-7.812500
4525,-11.718750
4526,-11.718750
4527,-11.718750
4528,-11.718750
4529,-15.625000
4530,-15.625000
4531,-15.625000
4532,-15.625000
4533,-15.625000
4534,-19.531250
4535,-19.531250
4536,-19.531250
4537,-23.437500
4538,-23.437500
4539,-23.437500
4540,-23.437500
4541,-23.437500
4542,-27.343750
4543,-27.343750
4544,-27.343750
4545,-27.343750
4546,-31.250000
4547,-31.250000
4548,-31.250000
4549,-31.250000
4550,-35.156250
4551,-35.156250
4552,-35.156250
4553,-35.156250
4554,-39.062500
4555,-39.062500
4556,-39.062500
4557,-39.062500
4558,-42.968750
4559,-42.968750
4560,-42.968750
4561,-42.968750
4562,-46.875000
4563,-46.875000
4564,-46.875000
4565,-46.875000
4566,-50.781250
4567,-50.781250
4568,-50.781250
4569,-50.781250
4570,-54.687500
4571,-54.687500
4572,-54.687500
4573,-54.687500
4574,-58.593750
4575,-58.593750
4576,-58.593750
4577,-58.593750
4578,-62.500000
4579,-62.500000
4580,-62.500000
4581,-62.500000
4582,-66.406250
4583,-66.406250
4584,-66.406250
4585,-66.406250
4586,-66.406250
4587,-70.312500
4588,-70.312500
4589,-70.312500
4590,-70.312500
4591,-70.312500
4592,-74.218750
4593,-74.218750
4594,-74.218750
4595,-78.125000
4596,-78.125000
4597,-78.125000
4598,-78.125000
4599,-78.125000
4600,-82.031250
4601,-82.031250
4602,-82.031250
4603,-82.031250
4604,-85.937500
4605,-85.937500
4606,-85.937500
4607,-85.937500
4608,-89.843750
4609,-89.843750
4610,-89.843750
4611,-89.843750
4612,-89.843750
4613,-93.750000
4614,-93.750000
4615,-93.750000
4616,-97.656250
4617,-97.656250
4618,-97.656250
4619,-97.656250
4620,-97.656250
4621,-97.656250
4622,-101.562500
4623,-101.562500
4624,-101.562500
4625,-101.562500
4626,-105.468750
4627,-105.468750
4628,-105.468750
4629,-105.468750
4630,-105.468750
4631,-109.375000
4632,-109.375000
4633,-109.375000
4634,-109.375000
4635,-109.375000
4636,-113.281250
4637,-113.281250
4638,-113.281250
4639,-113.281250
4640,-113.281250
4641,-117.187500
4642,-117.187500
4643,-117.187500
4644,-117.187500
4645,-117.187500
4646,-121.093750
4647,-121.093750
4648,-121.093750
4649,-121.093750
4650,-121.093750
4651,-121.093750
4652,-125.000000
4653,-125.000000
4654,-125.000000
4655,-125.000000
4656,-125.000000
4657,-128.906250
4658,-128.906250
4659,-128.906250
4660,-128.906250
4661,-128.906250
4662,-128.906250
4663,-132.812500
4664,-132.812500
4665,-132.812500
4666,-132.812500
4667,-132.812500
4668,-136.718750
4669,-132.812500
4670,-136.718750
4671,-136.718750
4672,-136.718750
4673,-136.718750
4674,-136.718750
4675,-140.625000
4676,-140.625000
4677,-140.625000
4678,-140.625000
4679,-140.625000
4680,-140.625000
4681,-144.531250
4682,-144.531250
4683,-144.531250
4684,-144.531250
4685,-144.531250
4686,-144.531250
4687,-144.531250
4688,-144.531250
4689,-148.437500
4690,-148.437500
4691,-148.437500
4692,-148.437500
4693,-148.437500
4694,-148.437500
4695,-148.437500
4696,-152.343750
4697,-152.343750
4698,-152.343750
4699,-152.343750
4700,-152.343750
4701,-152.343750
4702,-152.343750
4703,-152.343750
4704,-152.343750
4705,-156.250000
4706,-156.250000
4707,-156.250000
4708,-156.250000
4709,-156.250000
4710,-156.250000
4711,-156.250000
4712,-156.250000
4713,-156.250000
4714,-156.250000
4715,-156.250000
4716,-160.156250
4717,-160.156250
4718,-160.156250
4719,-160.156250
4720,-160.156250
4721,-160.156250
4722,-160.156250
4723,-160.156250
4724,-160.156250
4725,-160.156250
4726,-160.156250
4727,-164.062500
4728,-164.062500
4729,-164.062500
4730,-164.062500
4731,-164.062500
4732,-164.062500
4733,-164.062500
4734,-164.062500
4735,-164.062500
4736,-164.062500
4737,-164.062500
4738,-164.062500
4739,-164.062500
4740,-164.062500
4741,-164.062500
4742,-164.062500
4743,-164.062500
4744,-164.062500
4745,-164.062500
4746,-164.062500
4747,-167.968750
4748,-167.968750
4749,-164.062500
4750,-167.968750
4751,-167.968750
4752,-167.968750
4753,-167.968750
4754,-167.968750
4755,-167.968750
4756,-167.968750
4757,-167.968750
4758,-167.968750
4759,-167.968750
4760,-167.968750
4761,-167.968750
4762,-167.968750
4763,-167.968750
4764,-167.968750
4765,-167.968750
4766,-167.968750
4767,-167.968750
4768,-167.968750
4769,-167.968750
4770,-167.968750
4771,-167.968750
4772,-167.968750
4773,-167.968750
4774,-167.968750
4775,-167.968750
4776,-164.062500
4777,-167.968750
4778,-167.968750
4779,-167.968750
4780,-167.968750
4781,-164.062500
4782,-167.968750
4783,-167.968750
4784,-167.968750
4785,-167.968750
4786,-167.968750
4787,-167.968750
4788,-167.968750
4789,-167.968750
4790,-167.968750
4791,-167.968750
4792,-164.062500
4793,-167.968750
4794,-164.062500
4795,-167.968750
4796,-164.062500
4797,-164.062500
4798,-164.062500
4799,-164.062500
4800,-164.062500
4801,-164.062500
4802,-164.062500
4803,-164.062500
4804,-164.062500
4805,-164.062500
4806,-164.062500
4807,-164.062500
4808,-164.062500
4809,-164.062500
4810,-164.062500
4811,-164.062500
4812,-160.156250
4813,-160.156250
4814,-160.156250
4815,-160.156250
4816,-160.156250
4817,-160.156250
4818,-160.156250
4819,-160.156250
4820,-160.156250
4821,-160.156250
4822,-160.156250
4823,-156.250000
4824,-160.156250
4825,-160.156250
4826,-156.250000
4827,-156.250000
4828,-156.250000
4829,-156.250000
4830,-156.250000
4831,-156.250000
4832,-156.250000
4833,-156.250000
4834,-152.343750
4835,-152.343750
4836,-152.343750
4837,-152.343750
4838,-152.343750
4839,-152.343750
4840,-152.343750
4841,-152.343750
4842,-152.343750
4843,-148.437500
4844,-148.437500
4845,-148.437500
4846,-148.437500
4847,-148.437500
4848,-148.437500
4849,-148.437500
4850,-144.531250
4851,-144.531250
4852,-144.531250
4853,-144.531250
4854,-144.531250
4855,-144.531250
4856,-144.531250
4857,-144.531250
4858,-144.531250
4859,-140.625000
4860,-140.625000
4861,-140.625000
4862,-140.625000
4863,-140.625000
4864,-140.625000
4865,-136.718750
4866,-136.718750
4867,-136.718750
4868,-136.718750
4869,-136.718750
4870,-132.812500
4871,-132.812500
4872,-132.812500
4873,-132.812500
4874,-132.812500
4875,-132.812500
4876,-132.812500
4877,-128.906250
4878,-128.906250
4879,-128.906250
4880,-128.906250
4881,-128.906250
4882,-128.906250
4883,-125.000000
4884,-125.000000
4885,-125.000000
4886,-125.000000
4887,-125.000000
4888,-121.093750
4889,-121.093750
4890,-121.093750
4891,-121.093750
4892,-121.093750
4893,-117.187500
4894,-117.187500
4895,-117.187500
4896,-117.187500
4897,-117.187500
4898,-113.281250
4899,-113.281250
4900,-113.281250
4901,-113.281250
4902,-113.281250
4903,-113.281250
4904,-109.375000
4905,-109.375000
4906,-109.375000
4907,-109.375000
4908,-105.468750
4909,-105.468750
4910,-105.468750
4911,-105.468750
4912,-105.468750
4913,-101.562500
4914,-101.562500
4915,-101.562500
4916,-101.562500
4917,-101.562500
4918,-101.562500
4919,-97.656250
4920,-97.656250
4921,-97.656250
4922,-93.750000
4923,-93.750000
4924,-93.750000
4925,-93.750000
4926,-93.750000
4927,-89.843750
4928,-89.843750
4929,-89.843750
4930,-89.843750
4931,-89.843750
4932,-85.937500
4933,-85.937500
4934,-85.937500
4935,-85.937500
4936,-85.937500
4937,-82.031250
4938,-82.031250
4939,-82.031250
4940,-78.125000
4941,-78.125000
4942,-78.125000
4943,-78.125000
4944,-78.125000
4945,-74.218750
4946,-74.218750
4947,-74.218750
4948,-74.218750
4949,-70.312500
4950,-70.312500
4951,-70.312500
4952,-70.312500
4953,-70.312500
4954,-66.406250
4955,-66.406250
4956,-66.406250
4957,-62.500000
4958,-62.500000
4959,-62.500000
4960,-62.500000
4961,-62.500000
4962,-58.593750
4963,-58.593750
4964,-58.593750
4965,-58.593750
4966,-54.687500
4967,-54.687500
4968,-54.687500
4969,-54.687500
4970,-50.781250
4971,-50.781250
4972,-50.781250
4973,-50.781250
4974,-50.781250
4975,-46.875000
4976,-46.875000
4977,-46.875000
4978,-42.968750
4979,-42.968750
4980,-42.968750
4981,-42.968750
4982,-42.968750
4983,-39.062500
4984,-39.062500
4985,-39.062500
4986,-35.156250
4987,-35.156250
4988,-35.156250
4989,-35.156250
4990,-31.250000
4991,-35.156250
4992,-31.250000
4993,-27.343750
4994,-31.250000
4995,-27.343750
4996,-27.343750
4997,-27.343750
4998,-23.437500
4999,-23.437500
5000,-23.437500
5001,-23.437500
5002,-23.437500
5003,-19.531250
5004,-19.531250
5005,-19.531250
5006,-19.531250
5007,-19.531250
5008,-15.625000
5009,-15.625000
5010,-15.625000
5011,-15.625000
5012,-11.718750
5013,-11.718750
5014,-11.718750
5015,-11.718750
5016,-7.812500
5017,-7.812500
5018,-7.812500
5019,-7.812500
5020,-3.906250
5021,-3.906250
5022,-3.906250
5023,-3.906250
5024,0.000000
5025,0.000000
5026,0.000000
5027,0.000000
5028,3.906250
5029,3.906250
5030,3.906250
5031,3.906250
5032,7.812500
5033,7.812500
5034,7.812500
5035,7.812500
5036,7.812500
5037,11.718750
5038,11.718750
5039,11.718750
5040,11.718750
5041,15.625000
5042,15.625000
5043,15.625000
5044,15.625000
5045,19.531250
5046,19.531250
5047,19.531250
5048,19.531250
5049,23.437500
5050,23.437500
5051,23.437500
5052,23.437500
5053,23.437500
5054,23.437500
5055,27.343750
5056,27.343750
5057,27.343750
5058,27.343750
5059,31.250000
5060,31.250000
5061,31.250000
5062,31.250000
5063,35.156250
5064,35.156250
5065,35.156250
5066,35.156250
5067,35.156250
5068,39.062500
5069,39.062500
5070,39.062500
5071,39.062500
5072,39.062500
5073,42.968750
5074,42.968750
5075,42.968750
5076,42.968750
5077,42.968750
5078,46.875000
5079,46.875000
5080,46.875000
5081,46.875000
5082,50.781250
5083,50.781250
5084,50.781250
5085,50.781250
5086,50.781250
5087,54.687500
5088,54.687500
5089,54.687500
5090,54.687500
5091,54.687500
5092,58.593750
5093,58.593750
5094,58.593750
5095,58.593750
5096,58.593750
5097,58.593750
5098,62.500000
5099,62.500000
5100,62.500000
5101,62.500000
5102,62.500000
5103,66.406250
5104,66.406250
5105,66.406250
5106,66.406250
5107,66.406250
5108,66.406250
5109,70.312500
5110,70.312500
5111,70.312500
5112,70.312500
5113,70.312500
5114,70.312500
5115,74.218750
5116,74.218750
5117,74.218750
5118,74.218750
5119,78.125000
5120,78.125000
5121,78.125000
5122,78.125000
5123,78.125000
5124,78.125000
5125,78.125000
5126,78.125000
5127,82.031250
5128,82.031250
5129,82.031250
5130,82.031250
5131,82.031250
5132,82.031250
5133,85.937500
5134,85.937500
5135,85.937500
5136,85.937500
5137,85.937500
5138,85.937500
5139,85.937500
5140,85.937500
5141,89.843750
5142,89.843750
5143,89.843750
5144,89.843750
5145,89.843750
5146,89.843750
5147,89.843750
5148,93.750000
5149,93.750000
5150,93.750000
5151,93.750000
5152,93.750000
5153,93.750000
5154,93.750000
5155,97.656250
5156,97.656250
5157,97.656250
5158,97.656250
5159,97.656250
5160,97.656250
5161,97.656250
5162,101.562500
5163,101.562500
5164,101.562500
5165,101.562500
5166,101.562500
5167,101.562500
5168,101.562500
5169,101.562500
5170,101.562500
5171,101.562500
5172,105.468750
5173,105.468750
5174,105.468750
5175,105.468750
5176,105.468750
5177,105.468750
5178,105.468750
5179,105.468750
5180,105.468750
5181,105.468750
5182,105.468750
5183,109.375000
5184,109.375000
5185,109.375000
5186,109.375000
5187,109.375000
5188,109.375000
5189,109.375000
5190,109.375000
5191,109.375000
5192,113.281250
5193,109.375000
5194,113.281250
5195,113.281250
5196,113.281250
5197,113.281250
5198,113.281250
5199,113.281250
5200,113.281250
5201,113.281250
5202,113.281250
5203,117.187500
5204,113.281250
5205,113.281250
5206,117.187500
5207,117.187500
5208,117.187500
5209,117.187500
5210,117.187500
5211,117.187500
5212,117.187500
5213,117.187500
5214,117.187500
5215,117.187500
5216,117.187500
5217,117.187500
5218,117.187500
5219,117.187500
5220,117.187500
5221,117.187500
5222,121.093750
5223,121.093750
5224,121.093750
5225,121.093750
5226,121.093750
5227,121.093750
5228,121.093750
5229,121.093750
5230,121.093750
5231,121.093750
5232,121.093750
5233,121.093750
5234,121.093750
5235,121.093750
5236,121.093750
5237,121.093750
5238,121.093750
5239,121.093750
5240,121.093750
5241,121.093750
5242,125.000000
5243,121.093750
5244,125.000000
5245,125.000000
5246,125.000000
5247,125.000000
5248,125.000000
5249,121.093750
5250,125.000000
5251,121.093750
5252,125.000000
5253,125.000000
5254,125.000000
5255,125.000000
5256,125.000000
5257,125.000000
5258,125.000000
5259,125.000000
5260,125.000000
5261,125.000000
5262,125.000000
5263,125.000000
5264,125.000000
5265,125.000000
5266,125.000000
5267,125.000000
5268,125.000000
5269,125.000000
5270,125.000000
5271,125.000000
5272,125.000000
5273,125.000000
5274,125.000000
5275,125.000000
5276,125.000000
5277,121.093750
5278,125.000000
5279,125.000000
5280,125.000000
5281,125.000000
5282,125.000000
5283,125.000000
5284,125.000000
5285,125.000000
5286,121.093750
5287,121.093750
5288,121.093750
5289,121.093750
5290,121.093750
5291,121.093750
5292,121.093750
5293,121.093750
5294,121.093750
5295,121.093750
5296,121.093750
5297,121.093750
5298,121.093750
5299,121.093750
5300,121.093750
5301,121.093750
5302,121.093750
5303,121.093750
5304,121.093750
5305,121.093750
5306,121.093750
5307,121.093750
5308,121.093750
5309,121.093750
5310,117.187500
5311,117.187500
5312,117.187500
5313,121.093750
5314,117.187500
5315,117.187500
5316,117.187500
5317,117.187500
5318,117.187500
5319,117.187500
5320,117.187500
5321,117.187500
5322,117.187500
5323,117.187500
5324,117.187500
5325,117.187500
5326,117.187500
5327,117.187500
5328,113.281250
5329,117.187500
5330,113.281250
5331,113.281250
5332,113.281250
5333,113.281250
5334,113.281250
5335,113.281250
5336,113.281250
5337,113.281250
5338,113.281250
5339,113.281250
5340,113.281250
5341,113.281250
5342,113.281250
5343,109.375000
5344,109.375000
5345,109.375000
5346,109.375000
5347,109.375000
5348,109.375000
5349,109.375000
5350,109.375000
5351,109.375000
5352,109.375000
5353,105.468750
5354,105.468750
5355,105.468750
5356,105.468750
5357,105.468750
5358,105.468750
5359,105.468750
5360,105.468750
5361,105.468750
5362,101.562500
5363,101.562500
5364,101.562500
5365,101.562500
5366,101.562500
5367,101.562500
5368,101.562500
5369,101.562500
5370,97.656250
5371,97.656250
5372,97.656250
5373,97.656250
5374,97.656250
5375,97.656250
5376,97.656250
5377,97.656250
5378,97.656250
5379,93.750000
5380,93.750000
5381,93.750000
5382,93.750000
5383,93.750000
5384,93.750000
5385,93.750000
5386,89.843750
5387,89.843750
5388,89.843750
5389,89.843750
5390,89.843750
5391,89.843750
5392,85.937500
5393,85.937500
5394,85.937500
5395,85.937500
5396,85.937500
5397,85.937500
5398,85.937500
5399,85.937500
5400,82.031250
5401,82.031250
5402,82.031250
5403,82.031250
5404,82.031250
5405,78.125000
5406,78.125000
5407,78.125000
5408,78.125000
5409,78.125000
5410,78.125000
5411,78.125000
5412,74.218750
5413,74.218750
5414,74.218750
5415,74.218750
5416,74.218750
5417,74.218750
5418,70.312500
5419,70.312500
5420,70.312500
5421,70.312500
5422,70.312500
5423,66.406250
5424,66.406250
5425,66.406250
5426,66.406250
5427,66.406250
5428,66.406250
5429,62.500000
5430,62.500000
5431,62.500000
5432,62.500000
5433,62.500000
5434,58.593750
5435,58.593750
5436,58.593750
5437,58.593750
5438,58.593750
5439,58.593750
5440,54.687500
5441,54.687500
5442,54.687500
5443,54.687500
5444,50.781250
5445,50.781250
5446,50.781250
5447,50.781250
5448,50.781250
5449,46.875000
5450,46.875000
5451,46.875000
5452,46.875000
5453,46.875000
5454,42.968750
5455,42.968750
5456,42.968750
5457,42.968750
5458,42.968750
5459,39.062500
5460,39.062500
5461,39.062500
5462,39.062500
5463,35.156250
5464,35.156250
5465,35.156250
5466,35.156250
5467,31.250000
5468,35.156250
5469,31.250000
5470,31.250000
5471,31.250000
5472,31.250000
5473,27.343750
5474,27.343750
5475,27.343750
5476,27.343750
5477,23.437500
5478,23.437500
5479,23.437500
5480,23.437500
5481,23.437500
5482,19.531250
5483,19.531250
5484,19.531250
5485,19.531250
5486,15.625000
5487,15.625000
5488,15.625000
5489,15.625000
5490,11.718750
5491,11.718750
5492,11.718750
5493,11.718750
5494,11.718750
5495,7.812500
5496,7.812500
5497,7.812500
5498,3.906250
5499,3.906250
5500,3.906250
5501,3.906250
5502,3.906250
5503,0.000000
5504,0.000000
5505,0.000000
5506,0.000000
5507,-3.906250
5508,-3.906250
5509,-3.906250
5510,-3.906250
5511,-7.812500
5512,-7.812500
5513,-7.812500
5514,-7.812500
5515,-11.718750
5516,-11.718750
5517,-11.718750
5518,-11.718750
5519,-11.718750
5520,-15.625000
5521,-15.625000
5522,-15.625000
5523,-15.625000
5524,-19.531250
5525,-19.531250
5526,-19.531250
5527,-19.531250
5528,-23.437500
5529,-23.437500
5530,-23.437500
5531,-23.437500
5532,-23.437500
5533,-27.343750
5534,-27.343750
5535,-27.343750
5536,-31.250000
5537,-31.250000
5538,-31.250000
5539,-31.250000
5540,-35.156250
5541,-35.156250
5542,-35.156250
5543,-35.156250
5544,-39.062500
5545,-39.062500
5546,-39.062500
5547,-39.062500
5548,-42.968750
5549,-42.968750
5550,-42.968750
5551,-42.968750
5552,-46.875000
5553,-46.875000
5554,-46.875000
5555,-46.875000
5556,-50.781250
5557,-50.781250
5558,-50.781250
5559,-50.781250
5560,-54.687500
5561,-54.687500
5562,-54.687500
5563,-54.687500
5564,-58.593750
5565,-58.593750
5566,-58.593750
5567,-58.593750
5568,-62.500000
5569,-58.593750
5570,-62.500000
5571,-62.500000
5572,-62.500000
5573,-66.406250
5574,-66.406250
5575,-66.406250
5576,-66.406250
5577,-70.312500
5578,-70.312500
5579,-70.312500
5580,-70.312500
5581,-70.312500
5582,-74.218750
5583,-74.218750
5584,-74.218750
5585,-78.125000
5586,-78.125000
5587,-78.125000
5588,-78.125000
5589,-82.031250
5590,-82.031250
5591,-82.031250
5592,-82.031250
5593,-82.031250
5594,-85.937500
5595,-85.937500
5596,-85.937500
5597,-85.937500
5598,-85.937500
5599,-89.843750
5600,-89.843750
5601,-89.843750
5602,-89.843750
5603,-93.750000
5604,-93.750000
5605,-93.750000
5606,-93.750000
5607,-97.656250
5608,-97.656250
5609,-97.656250
5610,-97.656250
5611,-101.562500
5612,-101.562500
5613,-101.562500
5614,-101.562500
5615,-101.562500
5616,-105.468750
5617,-105.468750
5618,-105.468750
5619,-105.468750
5620,-105.468750
5621,-109.375000
5622,-109.375000
5623,-109.375000
5624,-109.375000
5625,-109.375000
5626,-113.281250
5627,-113.281250
5628,-113.281250
5629,-113.281250
5630,-113.281250
5631,-117.187500
5632,-117.187500
5633,-117.187500
5634,-117.187500
5635,-117.187500
5636,-117.187500
5637,-121.093750
5638,-121.093750
5639,-121.093750
5640,-121.093750
5641,-121.093750
5642,-125.000000
5643,-125.000000
5644,-125.000000
5645,-125.000000
5646,-125.000000
5647,-125.000000
5648,-128.906250
5649,-128.906250
5650,-128.906250
5651,-128.906250
5652,-128.906250
5653,-132.812500
5654,-132.812500
5655,-132.812500
5656,-132.812500
5657,-132.812500
5658,-132.812500
5659,-136.718750
5660,-136.718750
5661,-136.718750
5662,-136.718750
5663,-136.718750
5664,-136.718750
5665,-136.718750
5666,-140.625000
5667,-140.625000
5668,-140.625000
5669,-140.625000
5670,-140.625000
5671,-144.531250
5672,-144.531250
5673,-144.531250
5674,-144.531250
5675,-144.531250
5676,-144.531250
5677,-144.531250
5678,-144.531250
5679,-148.437500
5680,-148.437500
5681,-148.437500
5682,-148.437500
5683,-148.437500
5684,-148.437500
5685,-148.437500
5686,-152.343750
5687,-148.437500
5688,-152.343750
5689,-152.343750
5690,-152.343750
5691,-152.343750
5692,-152.343750
5693,-152.343750
5694,-152.343750
5695,-152.343750
5696,-156.250000
5697,-156.250000
5698,-156.250000
5699,-156.250000
5700,-156.250000
5701,-156.250000
5702,-156.250000
5703,-156.250000
5704,-156.250000
5705,-156.250000
5706,-160.156250
5707,-160.156250
5708,-160.156250
5709,-160.156250
5710,-160.156250
5711,-160.156250
5712,-160.156250
5713,-160.156250
5714,-160.156250
5715,-160.156250
5716,-160.156250
5717,-160.156250
5718,-164.062500
5719,-164.062500
5720,-164.062500
5721,-164.062500
5722,-164.062500
5723,-164.062500
5724,-164.062500
5725,-164.062500
5726,-164.062500
5727,-164.062500
5728,-164.062500
5729,-164.062500
5730,-164.062500
5731,-164.062500
5732,-164.062500
5733,-164.062500
5734,-164.062500
5735,-164.062500
5736,-167.968750
5737,-167.968750
5738,-167.968750
5739,-167.968750
5740,-167.968750
5741,-167.968750
5742,-167.968750
5743,-167.968750
5744,-167.968750
5745,-167.968750
5746,-167.968750
5747,-167.968750
5748,-167.968750
5749,-167.968750
5750,-167.968750
5751,-167.968750
5752,-167.968750
5753,-167.968750
5754,-167.968750
5755,-167.968750
5756,-167.968750
5757,-167.968750
5758,-167.968750
5759,-167.968750
5760,-167.968750
5761,-167.968750
5762,-167.968750
5763,-167.968750
5764,-167.968750
5765,-167.968750
5766,-167.968750
5767,-167.968750
5768,-167.968750
5769,-167.968750
5770,-167.968750
5771,-167.968750
5772,-167.968750
5773,-167.968750
5774,-167.968750
5775,-167.968750
5776,-167.968750
5777,-167.968750
5778,-167.968750
5779,-164.062500
5780,-167.968750
5781,-167.968750
5782,-167.968750
5783,-167.968750
5784,-167.968750
5785,-164.062500
5786,-164.062500
5787,-164.062500
5788,-164.062500
5789,-164.062500
5790,-164.062500
5791,-164.062500
5792,-164.062500
5793,-164.062500
5794,-164.062500
5795,-164.062500
5796,-164.062500
5797,-164.062500
5798,-164.062500
5799,-164.062500
5800,-164.062500
5801,-160.156250
5802,-160.156250
5803,-160.156250
5804,-160.156250
5805,-160.156250
5806,-160.156250
5807,-160.156250
5808,-160.156250
5809,-160.156250
5810,-160.156250
5811,-160.156250
5812,-160.156250
5813,-160.156250
5814,-156.250000
5815,-156.250000
5816,-156.250000
5817,-156.250000
5818,-156.250000
5819,-156.250000
5820,-156.250000
5821,-156.250000
5822,-156.250000
5823,-156.250000
5824,-152.343750
5825,-152.343750
5826,-152.343750
5827,-152.343750
5828,-152.343750
5829,-152.343750
5830,-152.343750
5831,-152.343750
5832,-152.343750
5833,-148.437500
5834,-148.437500
5835,-148.437500
5836,-148.437500
5837,-148.437500
5838,-148.437500
5839,-148.437500
5840,-144.531250
5841,-144.531250
5842,-144.531250
5843,-144.531250
5844,-144.531250
5845,-144.531250
5846,-144.531250
5847,-140.625000
5848,-140.625000
5849,-140.625000
5850,-140.625000
5851,-140.625000
5852,-140.625000
5853,-140.625000
5854,-136.718750
5855,-136.718750
5856,-136.718750
5857,-136.718750
5858,-136.718750
5859,-136.718750
5860,-132.812500
5861,-132.812500
5862,-132.812500
5863,-132.812500
5864,-132.812500
5865,-132.812500
5866,-132.812500
5867,-128.906250
5868,-128.906250
5869,-128.906250
5870,-128.906250
5871,-128.906250
5872,-125.000000
5873,-125.000000
5874,-125.000000
5875,-125.000000
5876,-125.000000
5877,-125.000000
5878,-121.093750
5879,-121.093750
5880,-121.093750
5881,-121.093750
5882,-121.093750
5883,-121.093750
5884,-117.187500
5885,-117.187500
5886,-117.187500
5887,-117.187500
5888,-113.281250
5889,-113.281250
5890,-113.281250
5891,-113.281250
5892,-113.281250
5893,-109.375000
5894,-109.375000
5895,-109.375000
5896,-109.375000
5897,-109.375000
5898,-105.468750
5899,-105.468750
5900,-105.468750
5901,-105.468750
5902,-105.468750
5903,-101.562500
5904,-101.562500
5905,-101.562500
5906,-101.562500
5907,-101.562500
5908,-101.562500
5909,-97.656250
5910,-97.656250
5911,-97.656250
5912,-97.656250
5913,-93.750000
5914,-93.750000
5915,-93.750000
5916,-93.750000
5917,-93.750000
5918,-89.843750
5919,-89.843750
5920,-89.843750
5921,-89.843750
5922,-85.937500
5923,-85.937500
5924,-85.937500
5925,-85.937500
5926,-85.937500
5927,-82.031250
5928,-82.031250
5929,-82.031250
5930,-82.031250
5931,-78.125000
5932,-78.125000
5933,-78.125000
5934,-78.125000
5935,-74.218750
5936,-74.218750
5937,-74.218750
5938,-74.218750
5939,-70.312500
5940,-70.312500
5941,-70.312500
5942,-70.312500
5943,-66.406250
5944,-70.312500
5945,-66.406250
5946,-66.406250
5947,-66.406250
5948,-66.406250
5949,-62.500000
5950,-62.500000
5951,-62.500000
5952,-62.500000
5953,-58.593750
5954,-58.593750
5955,-58.593750
5956,-58.593750
5957,-54.687500
5958,-54.687500
5959,-54.687500
5960,-54.687500
5961,-50.781250
5962,-50.781250
5963,-50.781250
5964,-50.781250
5965,-46.875000
5966,-46.875000
5967,-46.875000
5968,-46.875000
5969,-42.968750
5970,-42.968750
5971,-42.968750
5972,-42.968750
5973,-39.062500
5974,-39.062500
5975,-39.062500
5976,-39.062500
5977,-35.156250
5978,-35.156250
5979,-35.156250
5980,-35.156250
5981,-31.250000
5982,-31.250000
5983,-31.250000
5984,-31.250000
5985,-27.343750
5986,-27.343750
5987,-27.343750
5988,-27.343750
5989,-23.437500
5990,-23.437500
5991,-23.437500
5992,-23.437500
5993,-23.437500
5994,-19.531250
5995,-19.531250
5996,-19.531250
5997,-19.531250
5998,-15.625000
5999,-15.625000
6000,-15.625000
6001,-15.625000
6002,-11.718750
6003,-11.718750
6004,-11.718750
6005,-7.812500
6006,-7.812500
6007,-7.812500
6008,-7.812500
6009,-7.812500
6010,-3.906250
6011,-3.906250
6012,-3.906250
6013,-3.906250
6014,0.000000
6015,0.000000
6016,0.000000
6017,0.000000
6018,0.000000
6019,3.906250
6020,3.906250
6021,3.906250
6022,7.812500
6023,7.812500
6024,7.812500
6025,7.812500
6026,7.812500
6027,11.718750
6028,11.718750
6029,11.718750
6030,11.718750
6031,15.625000
6032,15.625000
6033,15.625000
6034,15.625000
6035,15.625000
6036,19.531250
6037,19.531250
6038,19.531250
6039,19.531250
6040,19.531250
6041,23.437500
6042,23.437500
6043,23.437500
6044,23.437500
6045,27.343750
6046,27.343750
6047,27.343750
6048,27.343750
6049,31.250000
6050,31.250000
6051,31.250000
6052,31.250000
6053,31.250000
6054,35.156250
6055,35.156250
6056,35.156250
6057,35.156250
6058,39.062500
6059,39.062500
6060,39.062500
6061,39.062500
6062,39.062500
6063,39.062500
6064,42.968750
6065,42.968750
6066,42.968750
6067,42.968750
6068,46.875000
6069,46.875000
6070,46.875000
6071,46.875000
6072,46.875000
6073,50.781250
6074,50.781250
6075,50.781250
6076,50.781250
6077,50.781250
6078,54.687500
6079,54.687500
6080,54.687500
6081,54.687500
6082,54.687500
6083,54.687500
6084,58.593750
6085,58.593750
6086,58.593750
6087,58.593750
6088,58.593750
6089,62.500000
6090,62.500000
6091,62.500000
6092,62.500000
6093,62.500000
6094,66.406250
6095,66.406250
6096,66.406250
6097,66.406250
6098,66.406250
6099,70.312500
6100,70.312500
6101,70.312500
6102,70.312500
6103,70.312500
6104,70.312500
6105,70.312500
6106,74.218750
6107,74.218750
6108,74.218750
6109,74.218750
6110,74.218750
6111,78.125000
6112,78.125000
6113,78.125000
6114,78.125000
6115,78.125000
6116,78.125000
6117,78.125000
6118,82.031250
6119,82.031250
6120,82.031250
6121,82.031250
6122,82.031250
6123,85.937500
6124,85.937500
6125,85.937500
6126,85.937500
6127,85.937500
6128,85.937500
6129,85.937500
6130,89.843750
6131,89.843750
6132,89.843750
6133,89.843750
6134,89.843750
6135,89.843750
6136,89.843750
6137,93.750000
6138,93.750000
6139,93.750000
6140,93.750000
6141,93.750000
6142,93.750000
6143,93.750000
6144,93.750000
6145,97.656250
6146,97.656250
6147,97.656250
6148,97.656250
6149,97.656250
6150,97.656250
6151,97.656250
6152,97.656250
6153,97.656250
6154,101.562500
6155,101.562500
6156,101.562500
6157,101.562500
6158,101.562500
6159,101.562500
6160,105.468750
6161,101.562500
6162,105.468750
6163,105.468750
6164,105.468750
6165,105.468750
6166,105.468750
6167,105.468750
6168,105.468750
6169,105.468750
6170,105.468750
6171,109.375000
6172,105.468750
6173,109.375000
6174,109.375000
6175,109.375000
6176,109.375000
6177,109.375000
6178,109.375000
6179,109.375000
6180,109.375000
6181,109.375000
6182,109.375000
6183,113.281250
6184,113.281250
6185,113.281250
6186,113.281250
6187,113.281250
6188,113.281250
6189,113.281250
6190,113.281250
6191,113.281250
6192,113.281250
6193,113.281250
6194,117.187500
6195,117.187500
6196,113.281250
6197,117.187500
6198,113.281250
6199,117.187500
6200,117.187500
6201,117.187500
6202,117.187500
6203,117.187500
6204,117.187500
6205,117.187500
6206,117.187500
6207,117.187500
6208,117.187500
6209,121.093750
6210,117.187500
6211,121.093750
6212,117.187500
6213,121.093750
6214,121.093750
6215,121.093750
6216,121.093750
6217,121.093750
6218,121.093750
6219,121.093750
6220,121.093750
6221,121.093750
6222,121.093750
6223,121.093750
6224,121.093750
6225,121.093750
6226,121.093750
6227,121.093750
6228,121.093750
6229,121.093750
6230,121.093750
6231,121.093750
6232,121.093750
6233,125.000000
6234,121.093750
6235,125.000000
6236,121.093750
6237,125.000000
6238,121.093750
6239,128.906250
6240,121.093750
6241,125.000000
6242,125.000000
6243,125.000000
6244,125.000000
6245,125.000000
6246,125.000000
6247,125.000000
6248,125.000000
6249,125.000000
6250,125.000000
6251,125.000000
6252,125.000000
6253,125.000000
6254,125.000000
6255,125.000000
6256,125.000000
6257,125.000000
6258,125.000000
6259,125.000000
6260,125.000000
6261,125.000000
6262,125.000000
6263,125.000000
6264,125.000000
6265,125.000000
6266,125.000000
6267,125.000000
6268,125.000000
6269,125.000000
6270,125.000000
6271,125.000000
6272,125.000000
6273,125.000000
6274,125.000000
6275,125.000000
6276,121.093750
6277,121.093750
6278,125.000000
6279,125.000000
6280,121.093750
6281,125.000000
6282,125.000000
6283,121.093750
6284,125.000000
6285,121.093750
6286,121.093750
6287,121.093750
6288,121.093750
6289,121.093750
6290,121.093750
6291,121.093750
6292,121.093750
6293,121.093750
6294,121.093750
6295,121.093750
6296,121.093750
6297,121.093750
6298,121.093750
6299,121.093750
6300,121.093750
6301,121.093750
6302,121.093750
6303,121.093750
6304,121.093750
6305,121.093750
6306,117.187500
6307,117.187500
6308,117.187500
6309,117.187500
6310,117.187500
6311,117.187500
6312,117.187500
6313,117.187500
6314,117.187500
6315,117.187500
6316,117.187500
6317,117.187500
6318,117.187500
6319,117.187500
6320,113.281250
6321,113.281250
6322,113.281250
6323,113.281250
6324,113.281250
6325,113.281250
6326,113.281250
6327,113.281250
6328,113.281250
6329,113.281250
6330,113.281250
6331,113.281250
6332,109.375000
6333,109.375000
6334,109.375000
6335,113.281250
6336,109.375000
6337,109.375000
6338,109.375000
6339,109.375000
6340,109.375000
6341,109.375000
6342,109.375000
6343,105.468750
6344,105.468750
6345,105.468750
6346,105.468750
6347,105.468750
6348,105.468750
6349,105.468750
6350,105.468750
6351,105.468750
6352,105.468750
6353,101.562500
6354,101.562500
6355,101.562500
6356,101.562500
6357,101.562500
6358,101.562500
6359,101.562500
6360,97.656250
6361,97.656250
6362,97.656250
6363,97.656250
6364,97.656250
6365,97.656250
6366,97.656250
6367,97.656250
6368,97.656250
6369,93.750000
6370,93.750000
6371,93.750000
6372,93.750000
6373,93.750000
6374,93.750000
6375,89.843750
6376,89.843750
6377,89.843750
6378,89.843750
6379,89.843750
6380,89.843750
6381,89.843750
6382,85.937500
6383,89.843750
6384,85.937500
6385,85.937500
6386,85.937500
6387,85.937500
6388,85.937500
6389,85.937500
6390,82.031250
6391,82.031250
6392,82.031250
6393,82.031250
6394,82.031250
6395,82.031250
6396,82.031250
6397,82.031250
6398,78.125000
6399,78.125000
6400,78.125000
6401,78.125000
6402,74.218750
6403,74.218750
6404,74.218750
6405,74.218750
6406,74.218750
6407,74.218750
6408,70.312500
6409,70.312500
6410,70.312500
6411,70.312500
6412,70.312500
6413,66.406250
6414,66.406250
6415,66.406250
6416,66.406250
6417,66.406250
6418,66.406250
6419,62.500000
6420,62.500000
6421,62.500000
6422,62.500000
6423,62.500000
6424,58.593750
6425,62.500000
6426,58.593750
6427,58.593750
6428,58.593750
6429,54.687500
6430,54.687500
6431,54.687500
6432,54.687500
6433,54.687500
6434,54.687500
6435,50.781250
6436,50.781250
6437,50.781250
6438,50.781250
6439,46.875000
6440,46.875000
6441,46.875000
6442,46.875000
6443,46.875000
6444,42.968750
6445,42.968750
6446,42.968750
6447,42.968750
6448,39.062500
6449,39.062500
6450,39.062500
6451,39.062500
6452,39.062500
6453,35.156250
6454,35.156250
6455,35.156250
6456,35.156250
6457,35.156250
6458,31.250000
6459,31.250000
6460,31.250000
6461,31.250000
6462,31.250000
6463,27.343750
6464,27.343750
6465,27.343750
6466,27.343750
6467,23.437500
6468,23.437500
6469,23.437500
6470,23.437500
6471,23.437500
6472,19.531250
6473,19.531250
6474,19.531250
6475,19.531250
6476,15.625000
6477,15.625000
6478,15.625000
6479,15.625000
6480,11.718750
6481,11.718750
6482,11.718750
6483,11.718750
6484,7.812500
6485,7.812500
6486,7.812500
6487,7.812500
6488,7.812500
6489,3.906250
6490,3.906250
6491,3.906250
6492,3.906250
6493,0.000000
6494,0.000000
6495,0.000000
6496,0.000000
6497,-3.906250
6498,-3.906250
6499,-3.906250
6500,-3.906250
6501,-7.812500
6502,-7.812500
6503,-7.812500
6504,-7.812500
6505,-11.718750
6506,-11.718750
6507,-11.718750
6508,-11.718750
6509,-11.718750
6510,-15.625000
6511,-15.625000
6512,-15.625000
6513,-19.531250
6514,-19.531250
6515,-19.531250
6516,-19.531250
6517,-23.437500
6518,-23.437500
6519,-23.437500
6520,-23.437500
6521,-23.437500
6522,-27.343750
6523,-27.343750
6524,-27.343750
6525,-27.343750
6526,-31.250000
6527,-31.250000
6528,-31.250000
6529,-31.250000
6530,-35.156250
6531,-35.156250
6532,-35.156250
6533,-39.062500
6534,-39.062500
6535,-39.062500
6536,-39.062500
6537,-39.062500
6538,-42.968750
6539,-42.968750
6540,-42.968750
6541,-42.968750
6542,-42.968750
6543,-46.875000
6544,-46.875000
6545,-46.875000
6546,-50.781250
6547,-50.781250
6548,-50.781250
6549,-54.687500
6550,-54.687500
6551,-54.687500
6552,-54.687500
6553,-54.687500
6554,-58.593750
6555,-58.593750
6556,-58.593750
6557,-58.593750
6558,-62.500000
6559,-62.500000
6560,-62.500000
6561,-62.500000
6562,-66.406250
6563,-62.500000
6564,-66.406250
6565,-66.406250
6566,-70.312500
6567,-70.312500
6568,-70.312500
6569,-70.312500
6570,-74.218750
6571,-74.218750
6572,-74.218750
6573,-74.218750
6574,-78.125000
6575,-78.125000
6576,-78.125000
6577,-78.125000
6578,-78.125000
6579,-82.031250
6580,-82.031250
6581,-82.031250
6582,-82.031250
6583,-85.937500
6584,-85.937500
6585,-85.937500
6586,-85.937500
6587,-89.843750
6588,-89.843750
6589,-89.843750
6590,-89.843750
6591,-89.843750
6592,-93.750000
6593,-93.750000
6594,-93.750000
6595,-93.750000
6596,-97.656250
6597,-97.656250
6598,-97.656250
6599,-97.656250
6600,-97.656250
6601,-97.656250
6602,-101.562500
6603,-101.562500
6604,-105.468750
6605,-101.562500
6606,-101.562500
6607,-105.468750
6608,-105.468750
6609,-105.468750
6610,-109.375000
6611,-109.375000
6612,-109.375000
6613,-109.375000
6614,-109.375000
6615,-109.375000
6616,-113.281250
6617,-113.281250
6618,-113.281250
6619,-113.281250
6620,-117.187500
6621,-117.187500
6622,-117.187500
6623,-117.187500
6624,-117.187500
6625,-121.093750
6626,-121.093750
6627,-121.093750
6628,-121.093750
6629,-121.093750
6630,-125.000000
6631,-125.000000
6632,-125.000000
6633,-125.000000
6634,-125.000000
6635,-125.000000
6636,-125.000000
6637,-128.906250
6638,-128.906250
6639,-132.812500
6640,-128.906250
6641,-128.906250
6642,-132.812500
6643,-132.812500
6644,-132.812500
6645,-128.906250
6646,-128.906250
6647,-132.812500
6648,-136.718750
6649,-136.718750
6650,-136.718750
6651,-136.718750
6652,-136.718750
6653,-136.718750
6654,-136.718750
6655,-140.625000
6656,-140.625000
6657,-140.625000
6658,-140.625000
6659,-140.625000
6660,-140.625000
6661,-140.625000
6662,-144.531250
6663,-144.531250
6664,-144.531250
6665,-144.531250
6666,-144.531250
6667,-144.531250
6668,-148.437500
6669,-144.531250
6670,-148.437500
6671,-148.437500
6672,-148.437500
6673,-148.437500
6674,-148.437500
6675,-148.437500
6676,-148.437500
6677,-152.343750
6678,-152.343750
6679,-152.343750
6680,-152.343750
6681,-152.343750
6682,-152.343750
6683,-152.343750
6684,-152.343750
6685,-152.343750
6686,-156.250000
6687,-156.250000
6688,-156.250000
6689,-156.250000
6690,-156.250000
6691,-156.250000
6692,-156.250000
6693,-160.156250
6694,-156.250000
6695,-160.156250
6696,-160.156250
6697,-160.156250
6698,-160.156250
6699,-160.156250
6700,-160.156250
6701,-160.156250
6702,-160.156250
6703,-160.156250
6704,-160.156250
6705,-160.156250
6706,-164.062500
6707,-160.156250
6708,-160.156250
6709,-164.062500
6710,-164.062500
6711,-164.062500
6712,-164.062500
6713,-164.062500
6714,-164.062500
6715,-164.062500
6716,-164.062500
6717,-164.062500
6718,-164.062500
6719,-164.062500
6720,-164.062500
6721,-164.062500
6722,-164.062500
6723,-167.968750
6724,-164.062500
6725,-164.062500
6726,-167.968750
6727,-164.062500
6728,-167.968750
6729,-167.968750
6730,-167.968750
6731,-167.968750
6732,-167.968750
6733,-167.968750
6734,-167.968750
6735,-167.968750
6736,-167.968750
6737,-167.968750
6738,-167.968750
6739,-167.968750
6740,-167.968750
6741,-167.968750
6742,-167.968750
6743,-167.968750
6744,-167.968750
6745,-167.968750
6746,-167.968750
6747,-167.968750
6748,-167.968750
6749,-167.968750
6750,-167.968750
6751,-167.968750
6752,-167.968750
6753,-167.968750
6754,-167.968750
6755,-167.968750
6756,-167.968750
6757,-167.968750
6758,-167.968750
6759,-167.968750
6760,-167.968750
6761,-167.968750
6762,-167.968750
6763,-167.968750
6764,-167.968750
6765,-167.968750
6766,-167.968750
6767,-167.968750
6768,-167.968750
6769,-167.968750
6770,-167.968750
6771,-167.968750
6772,-164.062500
6773,-167.968750
6774,-164.062500
6775,-164.062500
6776,-164.062500
6777,-164.062500
6778,-164.062500
6779,-164.062500
6780,-164.062500
6781,-164.062500
6782,-164.062500
6783,-164.062500
6784,-164.062500
6785,-164.062500
6786,-164.062500
6787,-164.062500
6788,-164.062500
6789,-164.062500
6790,-160.156250
6791,-164.062500
6792,-160.156250
6793,-160.156250
6794,-160.156250
6795,-160.156250
6796,-160.156250
6797,-160.156250
6798,-160.156250
6799,-160.156250
6800,-160.156250
6801,-160.156250
6802,-160.156250
6803,-156.250000
6804,-156.250000
6805,-156.250000
6806,-156.250000
6807,-156.250000
6808,-156.250000
6809,-156.250000
6810,-156.250000
6811,-156.250000
6812,-156.250000
6813,-152.343750
6814,-152.343750
6815,-152.343750
6816,-152.343750
6817,-152.343750
6818,-152.343750
6819,-152.343750
6820,-152.343750
6821,-152.343750
6822,-152.343750
6823,-152.343750
6824,-148.437500
6825,-148.437500
6826,-148.437500
6827,-148.437500
6828,-148.437500
6829,-148.437500
6830,-144.531250
6831,-144.531250
6832,-144.531250
6833,-144.531250
6834,-144.531250
6835,-144.531250
6836,-144.531250
6837,-140.625000
6838,-140.625000
6839,-140.625000
6840,-140.625000
6841,-140.625000
6842,-140.625000
6843,-140.625000
6844,-136.718750
6845,-136.718750
6846,-136.718750
6847,-136.718750
6848,-136.718750
6849,-136.718750
6850,-136.718750
6851,-132.812500
6852,-132.812500
6853,-132.812500
6854,-132.812500
6855,-132.812500
6856,-128.906250
6857,-128.906250
6858,-128.906250
6859,-128.906250
6860,-128.906250
6861,-128.906250
6862,-128.906250
6863,-125.000000
6864,-125.000000
6865,-125.000000
6866,-125.000000
6867,-125.000000
6868,-121.093750
6869,-121.093750
6870,-121.093750
6871,-121.093750
6872,-121.093750
6873,-117.187500
6874,-117.187500
6875,-117.187500
6876,-117.187500
6877,-117.187500
6878,-113.281250
6879,-113.281250
6880,-113.281250
6881,-113.281250
6882,-113.281250
6883,-113.281250
6884,-109.375000
6885,-109.375000
6886,-109.375000
6887,-109.375000
6888,-109.375000
6889,-105.468750
6890,-105.468750
6891,-105.468750
6892,-105.468750
6893,-105.468750
6894,-101.562500
6895,-101.562500
6896,-101.562500
6897,-101.562500
6898,-97.656250
6899,-97.656250
6900,-97.656250
6901,-97.656250
6902,-93.750000
6903,-93.750000
6904,-93.750000
6905,-93.750000
6906,-93.750000
6907,-89.843750
6908,-89.843750
6909,-89.843750
6910,-89.843750
6911,-85.937500
6912,-85.937500
6913,-85.937500
6914,-85.937500
6915,-85.937500
6916,-82.031250
6917,-82.031250
6918,-82.031250
6919,-82.031250
6920,-78.125000
6921,-78.125000
6922,-78.125000
6923,-78.125000
6924,-74.218750
6925,-74.218750
6926,-74.218750
6927,-74.218750
6928,-70.312500
6929,-70.312500
6930,-70.312500
6931,-70.312500
6932,-70.312500
6933,-66.406250
6934,-66.406250
6935,-66.406250
6936,-66.406250
6937,-62.500000
6938,-62.500000
6939,-62.500000
6940,-62.500000
6941,-58.593750
6942,-58.593750
6943,-58.593750
6944,-58.593750
6945,-58.593750
6946,-54.687500
6947,-54.687500
6948,-54.687500
6949,-50.781250
6950,-50.781250
6951,-50.781250
6952,-50.781250
6953,-50.781250
6954,-46.875000
6955,-46.875000
6956,-46.875000
6957,-46.875000
6958,-42.968750
6959,-42.968750
6960,-42.968750
6961,-42.968750
6962,-39.062500
6963,-39.062500
6964,-39.062500
6965,-39.062500
6966,-35.156250
6967,-35.156250
6968,-35.156250
6969,-35.156250
6970,-35.156250
6971,-31.250000
6972,-31.250000
6973,-31.250000
6974,-31.250000
6975,-27.343750
6976,-27.343750
6977,-27.343750
6978,-27.343750
6979,-23.437500
6980,-23.437500
6981,-23.437500
6982,-23.437500
6983,-19.531250
6984,-19.531250
6985,-19.531250
6986,-19.531250
6987,-15.625000
6988,-15.625000
6989,-15.625000
6990,-15.625000
6991,-15.625000
6992,-11.718750
6993,-11.718750
6994,-11.718750
6995,-7.812500
6996,-7.812500
6997,-7.812500
6998,-7.812500
6999,-3.906250
7000,-3.906250
7001,-3.906250
7002,-3.906250
7003,0.000000
7004,0.000000
7005,0.000000
7006,0.000000
7007,0.000000
7008,3.906250
7009,3.906250
7010,3.906250
7011,3.906250
7012,7.812500
7013,7.812500
7014,7.812500
7015,7.812500
7016,11.718750
7017,11.718750
7018,11.718750
7019,11.718750
7020,15.625000
7021,15.625000
7022,15.625000
7023,15.625000
7024,19.531250
7025,19.531250
7026,19.531250
7027,19.531250
7028,19.531250
7029,23.437500
7030,23.437500
7031,23.437500
7032,23.437500
7033,27.343750
7034,27.343750
7035,27.343750
7036,27.343750
7037,27.343750
7038,31.250000
7039,31.250000
7040,31.250000
7041,31.250000
7042,35.156250
7043,35.156250
7044,35.156250
7045,35.156250
7046,35.156250
7047,35.156250
7048,39.062500
7049,39.062500
7050,39.062500
7051,39.062500
7052,42.968750
7053,42.968750
7054,42.968750
7055,42.968750
7056,42.968750
7057,42.968750
7058,46.875000
7059,46.875000
7060,46.875000
7061,46.875000
7062,50.781250
7063,50.781250
7064,50.781250
7065,50.781250
7066,50.781250
7067,50.781250
7068,54.687500
7069,54.687500
7070,54.687500
7071,54.687500
7072,58.593750
7073,58.593750
7074,58.593750
7075,58.593750
7076,58.593750
7077,58.593750
7078,62.500000
7079,62.500000
7080,62.500000
7081,62.500000
7082,62.500000
7083,66.406250
7084,66.406250
7085,66.406250
7086,66.406250
7087,66.406250
7088,66.406250
7089,70.312500
7090,70.312500
7091,70.312500
7092,70.312500
7093,70.312500
7094,70.312500
7095,74.218750
7096,74.218750
7097,70.312500
7098,74.218750
7099,74.218750
7100,78.125000
7101,78.125000
7102,78.125000
7103,78.125000
7104,78.125000
7105,78.125000
7106,78.125000
7107,82.031250
7108,82.031250
7109,82.031250
7110,82.031250
7111,82.031250
7112,82.031250
7113,82.031250
7114,82.031250
7115,85.937500
7116,85.937500
7117,85.937500
7118,85.937500
7119,85.937500
7120,89.843750
7121,89.843750
7122,89.843750
7123,89.843750
7124,89.843750
7125,89.843750
7126,89.843750
7127,93.750000
7128,89.843750
7129,93.750000
7130,93.750000
7131,93.750000
7132,93.750000
7133,93.750000
7134,97.656250
7135,97.656250
7136,97.656250
7137,97.656250
7138,97.656250
7139,97.656250
7140,97.656250
7141,97.656250
7142,97.656250
7143,101.562500
7144,101.562500
7145,101.562500
7146,101.562500
7147,101.562500
7148,101.562500
7149,101.562500
7150,101.562500
7151,105.468750
7152,105.468750
7153,105.468750
7154,105.468750
7155,105.468750
7156,105.468750
7157,105.468750
7158,105.468750
7159,105.468750
7160,105.468750
7161,109.375000
7162,105.468750
7163,109.375000
7164,109.375000
7165,109.375000
7166,109.375000
7167,109.375000
7168,109.375000
7169,109.375000
7170,109.375000
7171,113.281250
7172,109.375000
7173,113.281250
7174,113.281250
7175,113.281250
7176,113.281250
7177,113.281250
7178,113.281250
7179,113.281250
7180,113.281250
7181,113.281250
7182,113.281250
7183,117.187500
7184,117.187500
7185,117.187500
7186,117.187500
7187,117.187500
7188,117.187500
7189,117.187500
7190,117.187500
7191,117.187500
7192,117.187500
7193,117.187500
7194,117.187500
7195,117.187500
7196,117.187500
7197,121.093750
7198,121.093750
7199,121.093750
7200,121.093750
7201,121.093750
7202,121.093750
7203,121.093750
7204,121.093750
7205,121.093750
7206,121.093750
7207,121.093750
7208,121.093750
7209,121.093750
7210,121.093750
7211,121.093750
7212,121.093750
7213,121.093750
7214,121.093750
7215,121.093750
7216,121.093750
7217,121.093750
7218,121.093750
7219,121.093750
7220,121.093750
7221,121.093750
7222,121.093750
7223,125.000000
7224,125.000000
7225,121.093750
7226,121.093750
7227,121.093750
7228,121.093750
7229,125.000000
7230,125.000000
7231,125.000000
7232,125.000000
7233,125.000000
7234,125.000000
7235,125.000000
7236,125.000000
7237,125.000000
7238,125.000000
7239,125.000000
7240,125.000000
7241,125.000000
7242,125.000000
7243,125.000000
7244,125.000000
7245,125.000000
7246,125.000000
7247,125.000000
7248,125.000000
7249,125.000000
7250,125.000000
7251,125.000000
7252,125.000000
7253,125.000000
7254,125.000000
7255,125.000000
7256,125.000000
7257,125.000000
7258,125.000000
7259,125.000000
7260,125.000000
7261,125.000000
7262,125.000000
7263,125.000000
7264,121.093750
7265,121.093750
7266,125.000000
7267,125.000000
7268,121.093750
7269,125.000000
7270,121.093750
7271,125.000000
7272,125.000000
7273,121.093750
7274,121.093750
7275,121.093750
7276,121.093750
7277,121.093750
7278,121.093750
7279,121.093750
7280,121.093750
7281,121.093750
7282,121.093750
7283,121.093750
7284,121.093750
7285,121.093750
7286,121.093750
7287,121.093750
7288,121.093750
7289,121.093750
7290,121.093750
7291,121.093750
7292,121.093750
7293,117.187500
7294,117.187500
7295,117.187500
7296,117.187500
7297,117.187500
7298,117.187500
7299,117.187500
7300,117.187500
7301,117.187500
7302,117.187500
7303,117.187500
7304,117.187500
7305,117.187500
7306,117.187500
7307,117.187500
7308,117.187500
7309,117.187500
7310,113.281250
7311,113.281250
7312,113.281250
7313,113.281250
7314,113.281250
7315,113.281250
7316,113.281250
7317,113.281250
7318,113.281250
7319,113.281250
7320,113.281250
7321,113.281250
7322,113.281250
7323,109.375000
7324,109.375000
7325,109.375000
7326,109.375000
7327,109.375000
7328,109.375000
7329,109.375000
7330,109.375000
7331,109.375000
7332,105.468750
7333,105.468750
7334,105.468750
7335,105.468750
7336,105.468750
7337,105.468750
7338,105.468750
7339,105.468750
7340,105.468750
7341,105.468750
7342,101.562500
7343,101.562500
7344,101.562500
7345,101.562500
7346,101.562500
7347,101.562500
7348,101.562500
7349,101.562500
7350,97.656250
7351,101.562500
7352,97.656250
7353,97.656250
7354,97.656250
7355,97.656250
7356,97.656250
7357,97.656250
7358,93.750000
7359,93.750000
7360,93.750000
7361,93.750000
7362,93.750000
7363,93.750000
7364,93.750000
7365,93.750000
7366,89.843750
7367,89.843750
7368,89.843750
7369,89.843750
7370,89.843750
7371,89.843750
7372,85.937500
7373,85.937500
7374,85.937500
7375,85.937500
7376,85.937500
7377,85.937500
7378,85.937500
7379,85.937500
7380,82.031250
7381,82.031250
7382,82.031250
7383,82.031250
7384,82.031250
7385,82.031250
7386,78.125000
7387,78.125000
7388,78.125000
7389,78.125000
7390,78.125000
7391,78.125000
7392,74.218750
7393,74.218750
7394,74.218750
7395,74.218750
7396,74.218750
7397,74.218750
7398,70.312500
7399,70.312500
7400,70.312500
7401,70.312500
7402,66.406250
7403,66.406250
7404,66.406250
7405,66.406250
7406,66.406250
7407,66.406250
7408,66.406250
7409,62.500000
7410,62.500000
7411,62.500000
7412,58.593750
7413,62.500000
7414,58.593750
7415,58.593750
7416,58.593750
7417,58.593750
7418,58.593750
7419,54.687500
7420,54.687500
7421,54.687500
7422,54.687500
7423,54.687500
7424,54.687500
7425,50.781250
7426,50.781250
7427,50.781250
7428,50.781250
7429,46.875000
7430,46.875000
7431,46.875000
7432,46.875000
7433,42.968750
7434,42.968750
7435,42.968750
7436,42.968750
7437,42.968750
7438,42.968750
7439,39.062500
7440,39.062500
7441,39.062500
7442,35.156250
7443,39.062500
7444,35.156250
7445,35.156250
7446,35.156250
7447,31.250000
7448,31.250000
7449,31.250000
7450,31.250000
7451,31.250000
7452,27.343750
7453,27.343750
7454,27.343750
7455,27.343750
7456,27.343750
7457,23.437500
7458,23.437500
7459,23.437500
7460,19.531250
7461,19.531250
7462,19.531250
7463,19.531250
7464,19.531250
7465,19.531250
7466,15.625000
7467,15.625000
7468,15.625000
7469,11.718750
7470,11.718750
7471,11.718750
7472,11.718750
7473,11.718750
7474,11.718750
7475,7.812500
7476,7.812500
7477,3.906250
7478,3.906250
7479,3.906250
7480,3.906250
7481,3.906250
7482,0.000000
7483,0.000000
7484,0.000000
7485,-3.906250
7486,-3.906250
7487,-3.906250
7488,-3.906250
7489,-3.906250
7490,-3.906250
7491,-7.812500
7492,-7.812500
7493,-7.812500
7494,-11.718750
7495,-11.718750
7496,-11.718750
7497,-11.718750
7498,-15.625000
7499,-15.625000
7500,-15.625000
7501,-15.625000
7502,-15.625000
7503,-15.625000
7504,-19.531250
7505,-19.531250
7506,-19.531250
7507,-23.437500
7508,-23.437500
7509,-23.437500
7510,-23.437500
7511,-27.343750
7512,-27.343750
7513,-27.343750
7514,-31.250000
7515,-31.250000
7516,-31.250000
7517,-31.250000
7518,-35.156250
7519,-31.250000
7520,-35.156250
7521,-35.156250
7522,-35.156250
7523,-39.062500
7524,-39.062500
7525,-39.062500
7526,-39.062500
7527,-39.062500
7528,-42.968750
7529,-42.968750
7530,-42.968750
7531,-46.875000
7532,-46.875000
7533,-46.875000
7534,-46.875000
7535,-50.781250
7536,-50.781250
7537,-50.781250
7538,-50.781250
7539,-54.687500
7540,-54.687500
7541,-54.687500
7542,-54.687500
7543,-58.593750
7544,-58.593750
7545,-58.593750
7546,-58.593750
7547,-58.593750
7548,-62.500000
7549,-62.500000
7550,-62.500000
7551,-62.500000
7552,-66.406250
7553,-66.406250
7554,-66.406250
7555,-66.406250
7556,-66.406250
7557,-70.312500
7558,-70.312500
7559,-70.312500
7560,-74.218750
7561,-74.218750
7562,-74.218750
7563,-74.218750
7564,-78.125000
7565,-78.125000
7566,-78.125000
7567,-78.125000
7568,-78.125000
7569,-82.031250
7570,-82.031250
7571,-82.031250
7572,-82.031250
7573,-82.031250
7574,-85.937500
7575,-85.937500
7576,-85.937500
7577,-85.937500
7578,-89.843750
7579,-89.843750
7580,-89.843750
7581,-89.843750
7582,-89.843750
7583,-93.750000
7584,-93.750000
7585,-93.750000
7586,-93.750000
7587,-97.656250
7588,-97.656250
7589,-97.656250
7590,-97.656250
7591,-101.562500
7592,-101.562500
7593,-101.562500
7594,-101.562500
7595,-101.562500
7596,-105.468750
7597,-105.468750
7598,-105.468750
7599,-105.468750
7600,-109.375000
7601,-109.375000
7602,-109.375000
7603,-109.375000
7604,-109.375000
7605,-109.375000
7606,-113.281250
7607,-113.281250
7608,-113.281250
7609,-113.281250
7610,-117.187500
7611,-117.187500
7612,-117.187500
7613,-117.187500
7614,-117.187500
7615,-117.187500
7616,-121.093750
7617,-121.093750
7618,-121.093750
7619,-121.093750
7620,-125.000000
7621,-121.093750
7622,-125.000000
7623,-125.000000
7624,-125.000000
7625,-125.000000
7626,-128.906250
7627,-128.906250
7628,-128.906250
7629,-128.906250
7630,-128.906250
7631,-128.906250
7632,-132.812500
7633,-132.812500
7634,-132.812500
7635,-132.812500
7636,-132.812500
7637,-132.812500
7638,-132.812500
7639,-136.718750
7640,-136.718750
7641,-136.718750
7642,-136.718750
7643,-136.718750
7644,-136.718750
7645,-136.718750
7646,-140.625000
7647,-140.625000
7648,-140.625000
7649,-140.625000
7650,-144.531250
7651,-140.625000
7652,-144.531250
7653,-144.531250
7654,-144.531250
7655,-144.531250
7656,-144.531250
7657,-144.531250
7658,-148.437500
7659,-148.437500
7660,-148.437500
7661,-148.437500
7662,-148.437500
7663,-148.437500
7664,-148.437500
7665,-148.437500
7666,-148.437500
7667,-152.343750
7668,-152.343750
7669,-152.343750
7670,-152.343750
7671,-152.343750
7672,-152.343750
7673,-152.343750
7674,-152.343750
7675,-152.343750
7676,-156.250000
7677,-156.250000
7678,-156.250000
7679,-156.250000
7680,-156.250000
7681,-156.250000
7682,-156.250000
7683,-156.250000
7684,-156.250000
7685,-156.250000
7686,-156.250000
7687,-156.250000
7688,-160.156250
7689,-160.156250
7690,-160.156250
7691,-160.156250
7692,-160.156250
7693,-160.156250
7694,-160.156250
7695,-160.156250
7696,-160.156250
7697,-164.062500
7698,-164.062500
7699,-164.062500
7700,-164.062500
7701,-164.062500
7702,-164.062500
7703,-164.062500
7704,-164.062500
7705,-164.062500
7706,-164.062500
7707,-164.062500
7708,-164.062500
7709,-164.062500
7710,-164.062500
7711,-164.062500
7712,-164.062500
7713,-164.062500
7714,-164.062500
7715,-164.062500
7716,-164.062500
7717,-164.062500
7718,-164.062500
7719,-167.968750
7720,-167.968750
7721,-167.968750
7722,-167.968750
7723,-167.968750
7724,-167.968750
7725,-167.968750
7726,-167.968750
7727,-167.968750
7728,-167.968750
7729,-167.968750
7730,-167.968750
7731,-167.968750
7732,-167.968750
7733,-167.968750
7734,-167.968750
7735,-167.968750
7736,-167.968750
7737,-167.968750
7738,-167.968750
7739,-167.968750
7740,-167.968750
7741,-167.968750
7742,-167.968750
7743,-167.968750
7744,-167.968750
7745,-167.968750
7746,-167.968750
7747,-167.968750
7748,-167.968750
7749,-167.968750
7750,-167.968750
7751,-167.968750
7752,-167.968750
7753,-167.968750
7754,-167.968750
7755,-164.062500
7756,-164.062500
7757,-164.062500
7758,-167.968750
7759,-167.968750
7760,-167.968750
7761,-167.968750
7762,-167.968750
7763,-164.062500
7764,-164.062500
7765,-164.062500
7766,-164.062500
7767,-164.062500
7768,-164.062500
7769,-164.062500
7770,-164.062500
7771,-164.062500
7772,-164.062500
7773,-164.062500
7774,-164.062500
7775,-164.062500
7776,-164.062500
7777,-164.062500
7778,-164.062500
7779,-160.156250
7780,-160.156250
7781,-160.156250
7782,-160.156250
7783,-160.156250
7784,-160.156250
7785,-160.156250
7786,-160.156250
7787,-160.156250
7788,-160.156250
7789,-160.156250
7790,-160.156250
7791,-160.156250
7792,-156.250000
7793,-160.156250
7794,-156.250000
7795,-156.250000
7796,-156.250000
7797,-156.250000
7798,-156.250000
7799,-156.250000
7800,-156.250000
7801,-156.250000
7802,-156.250000
7803,-152.343750
7804,-152.343750
7805,-152.343750
7806,-152.343750
7807,-152.343750
7808,-152.343750
7809,-152.343750
7810,-152.343750
7811,-148.437500
7812,-148.437500
7813,-148.437500
7814,-148.437500
7815,-148.437500
7816,-148.437500
7817,-148.437500
7818,-148.437500
7819,-144.531250
7820,-144.531250
7821,-144.531250
7822,-144.531250
7823,-144.531250
7824,-144.531250
7825,-144.531250
7826,-140.625000
7827,-140.625000
7828,-140.625000
7829,-140.625000
7830,-140.625000
7831,-140.625000
7832,-140.625000
7833,-136.718750
7834,-136.718750
7835,-136.718750
7836,-136.718750
7837,-136.718750
7838,-136.718750
7839,-132.812500
7840,-132.812500
7841,-132.812500
7842,-132.812500
7843,-132.812500
7844,-132.812500
7845,-132.812500
7846,-128.906250
7847,-128.906250
7848,-128.906250
7849,-128.906250
7850,-128.906250
7851,-128.906250
7852,-125.000000
7853,-125.000000
7854,-125.000000
7855,-121.093750
7856,-121.093750
7857,-121.093750
7858,-121.093750
7859,-121.093750
7860,-121.093750
7861,-121.093750
7862,-121.093750
7863,-117.187500
7864,-117.187500
7865,-117.187500
7866,-117.187500
7867,-117.187500
7868,-113.281250
7869,-113.281250
7870,-113.281250
7871,-113.281250
7872,-113.281250
7873,-109.375000
7874,-109.375000
7875,-109.375000
7876,-109.375000
7877,-109.375000
7878,-105.468750
7879,-105.468750
7880,-105.468750
7881,-105.468750
7882,-101.562500
7883,-101.562500
7884,-101.562500
7885,-101.562500
7886,-101.562500
7887,-97.656250
7888,-97.656250
7889,-97.656250
7890,-97.656250
7891,-97.656250
7892,-97.656250
7893,-93.750000
7894,-93.750000
7895,-93.750000
7896,-89.843750
7897,-89.843750
7898,-89.843750
7899,-89.843750
7900,-89.843750
7901,-89.843750
7902,-85.937500
7903,-85.937500
7904,-85.937500
7905,-85.937500
7906,-82.031250
7907,-82.031250
7908,-82.031250
7909,-82.031250
7910,-78.125000
7911,-78.125000
7912,-78.125000
7913,-78.125000
7914,-74.218750
7915,-74.218750
7916,-74.218750
7917,-74.218750
7918,-74.218750
7919,-70.312500
7920,-70.312500
7921,-70.312500
7922,-70.312500
7923,-66.406250
7924,-66.406250
7925,-66.406250
7926,-66.406250
7927,-62.500000
7928,-62.500000
7929,-62.500000
7930,-62.500000
7931,-58.593750
7932,-58.593750
7933,-58.593750
7934,-58.593750
7935,-54.687500
7936,-54.687500
7937,-54.687500
7938,-54.687500
7939,-54.687500
7940,-50.781250
7941,-50.781250
7942,-50.781250
7943,-46.875000
7944,-46.875000
7945,-46.875000
7946,-46.875000
7947,-46.875000
7948,-42.968750
7949,-42.968750
7950,-42.968750
7951,-42.968750
7952,-42.968750
7953,-39.062500
7954,-39.062500
7955,-39.062500
7956,-35.156250
7957,-35.156250
7958,-35.156250
7959,-35.156250
7960,-31.250000
7961,-31.250000
7962,-31.250000
7963,-31.250000
7964,-31.250000
7965,-27.343750
7966,-27.343750
7967,-27.343750
7968,-27.343750
7969,-23.437500
7970,-23.437500
7971,-23.437500
7972,-19.531250
7973,-19.531250
7974,-19.531250
7975,-19.531250
7976,-15.625000
7977,-15.625000
7978,-15.625000
7979,-15.625000
7980,-15.625000
7981,-11.718750
7982,-11.718750
7983,-11.718750
7984,-11.718750
7985,-7.812500
7986,-7.812500
7987,-7.812500
7988,-7.812500
7989,-3.906250
7990,-3.906250
7991,-3.906250
7992,-3.906250
7993,-3.906250
7994,0.000000
7995,0.000000
7996,0.000000
7997,3.906250
7998,3.906250
7999,3.906250
8000,3.906250
8001,3.906250
8002,7.812500
8003,7.812500
8004,7.812500
8005,7.812500
8006,7.812500
8007,11.718750
8008,11.718750
8009,11.718750
8010,11.718750
8011,15.625000
8012,15.625000
8013,15.625000
8014,15.625000
8015,19.531250
8016,19.531250
8017,19.531250
8018,19.531250
8019,23.437500
8020,23.437500
8021,23.437500
8022,23.437500
8023,23.437500
8024,23.437500
8025,27.343750
8026,27.343750
8027,27.343750
8028,27.343750
8029,31.250000
8030,31.250000
8031,31.250000
8032,31.250000
8033,35.156250
8034,35.156250
8035,35.156250
8036,35.156250
8037,35.156250
8038,39.062500
8039,39.062500
8040,39.062500
8041,39.062500
8042,42.968750
8043,42.968750
8044,42.968750
8045,42.968750
8046,42.968750
8047,46.875000
8048,46.875000
8049,46.875000
8050,46.875000
8051,46.875000
8052,50.781250
8053,50.781250
8054,50.781250
8055,50.781250
8056,50.781250
8057,50.781250
8058,54.687500
8059,54.687500
8060,54.687500
8061,54.687500
8062,54.687500
8063,58.593750
8064,58.593750
8065,58.593750
8066,58.593750
8067,62.500000
8068,62.500000
8069,62.500000
8070,62.500000
8071,62.500000
8072,62.500000
8073,62.500000
8074,66.406250
8075,66.406250
8076,66.406250
8077,66.406250
8078,70.312500
8079,70.312500
8080,70.312500
8081,70.312500
8082,70.312500
8083,70.312500
8084,70.312500
8085,74.218750
8086,74.218750
8087,74.218750
8088,74.218750
8089,74.218750
8090,78.125000
8091,74.218750
8092,78.125000
8093,78.125000
8094,78.125000
8095,78.125000
8096,78.125000
8097,82.031250
8098,82.031250
8099,82.031250
8100,82.031250
8101,82.031250
8102,82.031250
8103,85.937500
8104,85.937500
8105,85.937500
8106,85.937500
8107,85.937500
8108,85.937500
8109,85.937500
8110,85.937500
8111,89.843750
8112,89.843750
8113,89.843750
8114,89.843750
8115,89.843750
8116,89.843750
8117,93.750000
8118,93.750000
8119,93.750000
8120,93.750000
8121,93.750000
8122,93.750000
8123,93.750000
8124,93.750000
8125,97.656250
8126,97.656250
8127,97.656250
8128,97.656250
8129,97.656250
8130,97.656250
8131,97.656250
8132,97.656250
8133,101.562500
8134,101.562500
8135,101.562500
8136,101.562500
8137,101.562500
8138,101.562500
8139,101.562500
8140,101.562500
8141,101.562500
8142,101.562500
8143,105.468750
8144,105.468750
8145,105.468750
8146,105.468750
8147,105.468750
8148,105.468750
8149,105.468750
8150,105.468750
8151,105.468750
8152,109.375000
8153,109.375000
8154,109.375000
8155,109.375000
8156,109.375000
8157,109.375000
8158,109.375000
8159,109.375000
8160,109.375000
8161,109.375000
8162,109.375000
8163,113.281250
8164,113.281250
8165,113.281250
8166,113.281250
8167,113.281250
8168,113.281250
8169,113.281250
8170,113.281250
8171,113.281250
8172,113.281250
8173,117.187500
8174,117.187500
8175,117.187500
8176,113.281250
8177,117.187500
8178,117.187500
8179,117.187500
8180,117.187500
8181,117.187500
8182,117.187500
8183,117.187500
8184,117.187500
8185,117.187500
8186,117.187500
8187,117.187500
8188,113.281250
8189,117.187500
8190,117.187500
8191,121.093750
8192,121.093750
8193,117.187500
8194,121.093750
8195,121.093750
8196,121.093750
8197,121.093750
8198,121.093750
8199,121.093750
8200,121.093750
8201,121.093750
8202,121.093750
8203,121.093750
8204,121.093750
8205,121.093750
8206,121.093750
8207,121.093750
8208,121.093750
8209,121.093750
8210,121.093750
8211,121.093750
8212,121.093750
8213,121.093750
8214,121.093750
8215,125.000000
8216,125.000000
8217,125.000000
8218,121.093750
8219,125.000000
8220,125.000000
8221,125.000000
8222,121.093750
8223,121.093750
8224,125.000000
8225,125.000000
8226,125.000000
8227,125.000000
8228,125.000000
8229,125.000000
8230,125.000000
8231,125.000000
8232,125.000000
8233,125.000000
8234,121.093750
8235,125.000000
8236,125.000000
8237,125.000000
8238,125.000000
8239,125.000000
8240,125.000000
8241,125.000000
8242,125.000000
8243,125.000000
8244,125.000000
8245,125.000000
8246,125.000000
8247,125.000000
8248,121.093750
8249,121.093750
8250,125.000000
8251,125.000000
8252,125.000000
8253,125.000000
8254,125.000000
8255,125.000000
8256,121.093750
8257,121.093750
8258,121.093750
8259,121.093750
8260,125.000000
8261,125.000000
8262,121.093750
8263,121.093750
8264,121.093750
8265,121.093750
8266,121.093750
8267,121.093750
8268,121.093750
8269,121.093750
8270,121.093750
8271,121.093750
8272,121.093750
8273,121.093750
8274,121.093750
8275,121.093750
8276,121.093750
8277,117.187500
8278,121.093750
8279,121.093750
8280,121.093750
8281,117.187500
8282,117.187500
8283,117.187500
8284,117.187500
8285,117.187500
8286,117.187500
8287,117.187500
8288,117.187500
8289,117.187500
8290,117.187500
8291,117.187500
8292,117.187500
8293,117.187500
8294,117.187500
8295,117.187500
8296,117.187500
8297,117.187500
8298,113.281250
8299,113.281250
8300,113.281250
8301,113.281250
8302,113.281250
8303,113.281250
8304,113.281250
8305,113.281250
8306,113.281250
8307,113.281250
8308,113.281250
8309,113.281250
8310,113.281250
8311,109.375000
8312,109.375000
8313,109.375000
8314,109.375000
8315,109.375000
8316,109.375000
8317,109.375000
8318,109.375000
8319,109.375000
8320,109.375000
8321,105.468750
8322,105.468750
8323,109.375000
8324,105.468750
8325,105.468750
8326,105.468750
8327,105.468750
8328,105.468750
8329,105.468750
8330,101.562500
8331,105.468750
8332,101.562500
8333,101.562500
8334,101.562500
8335,101.562500
8336,101.562500
8337,101.562500
8338,101.562500
8339,101.562500
8340,97.656250
8341,97.656250
8342,97.656250
8343,97.656250
8344,97.656250
8345,97.656250
8346,97.656250
8347,97.656250
8348,93.750000
8349,93.750000
8350,93.750000
8351,93.750000
8352,93.750000
8353,93.750000
8354,89.843750
8355,89.843750
8356,89.843750
8357,89.843750
8358,89.843750
8359,89.843750
8360,89.843750
8361,89.843750
8362,85.937500
8363,85.937500
8364,85.937500
8365,85.937500
8366,85.937500
8367,85.937500
8368,82.031250
8369,82.031250
8370,82.031250
8371,82.031250
8372,82.031250
8373,82.031250
8374,82.031250
8375,78.125000
8376,78.125000
8377,78.125000
8378,78.125000
8379,78.125000
8380,78.125000
8381,78.125000
8382,74.218750
8383,74.218750
8384,74.218750
8385,74.218750
8386,70.312500
8387,70.312500
8388,70.312500
8389,70.312500
8390,70.312500
8391,70.312500
8392,70.312500
8393,66.406250
8394,66.406250
8395,66.406250
8396,66.406250
8397,66.406250
8398,62.500000
8399,62.500000
8400,62.500000
8401,62.500000
8402,62.500000
8403,62.500000
8404,58.593750
8405,58.593750
8406,58.593750
8407,58.593750
8408,58.593750
8409,54.687500
8410,54.687500
8411,54.687500
8412,54.687500
8413,50.781250
8414,50.781250
8415,50.781250
8416,50.781250
8417,50.781250
8418,46.875000
8419,46.875000
8420,46.875000
8421,46.875000
8422,46.875000
8423,42.968750
8424,42.968750
8425,42.968750
8426,42.968750
8427,42.968750
8428,39.062500
8429,39.062500
8430,39.062500
8431,39.062500
8432,39.062500
8433,35.156250
8434,35.156250
8435,35.156250
8436,35.156250
8437,35.156250
8438,31.250000
8439,31.250000
8440,31.250000
8441,31.250000
8442,27.343750
8443,27.343750
8444,27.343750
8445,27.343750
8446,27.343750
8447,23.437500
8448,23.437500
8449,23.437500
8450,19.531250
8451,23.437500
8452,19.531250
8453,19.531250
8454,19.531250
8455,19.531250
8456,15.625000
8457,15.625000
8458,15.625000
8459,15.625000
8460,11.718750
8461,11.718750
8462,11.718750
8463,11.718750
8464,7.812500
8465,7.812500
8466,7.812500
8467,7.812500
8468,7.812500
8469,3.906250
8470,3.906250
8471,3.906250
8472,0.000000
8473,0.000000
8474,0.000000
8475,0.000000
8476,0.000000
8477,-3.906250
8478,-3.906250
8479,-3.906250
8480,-7.812500
8481,-7.812500
8482,-7.812500
8483,-7.812500
8484,-11.718750
8485,-7.812500
8486,-11.718750
8487,-11.718750
8488,-11.718750
8489,-15.625000
8490,-15.625000
8491,-15.625000
8492,-15.625000
8493,-15.625000
8494,-19.531250
8495,-19.531250
8496,-19.531250
8497,-19.531250
8498,-23.437500
8499,-23.437500
8500,-23.437500
8501,-23.437500
8502,-27.343750
8503,-27.343750
8504,-27.343750
8505,-27.343750
8506,-31.250000
8507,-31.250000
8508,-31.250000
8509,-31.250000
8510,-35.156250
8511,-35.156250
8512,-35.156250
8513,-39.062500
8514,-39.062500
8515,-39.062500
8516,-39.062500
8517,-39.062500
8518,-42.968750
8519,-42.968750
8520,-42.968750
8521,-42.968750
8522,-46.875000
8523,-46.875000
8524,-46.875000
8525,-46.875000
8526,-50.781250
8527,-50.781250
8528,-50.781250
8529,-50.781250
8530,-54.687500
8531,-54.687500
8532,-54.687500
8533,-54.687500
8534,-58.593750
8535,-58.593750
8536,-58.593750
8537,-58.593750
8538,-62.500000
8539,-62.500000
8540,-62.500000
8541,-62.500000
8542,-66.406250
8543,-66.406250
8544,-66.406250
8545,-66.406250
8546,-70.312500
8547,-70.312500
8548,-70.312500
8549,-70.312500
8550,-74.218750
8551,-74.218750
8552,-74.218750
8553,-74.218750
8554,-78.125000
8555,-78.125000
8556,-78.125000
8557,-78.125000
8558,-78.125000
8559,-82.031250
8560,-82.031250
8561,-82.031250
8562,-82.031250
8563,-82.031250
8564,-85.937500
8565,-85.937500
8566,-85.937500
8567,-85.937500
8568,-89.843750
8569,-89.843750
8570,-89.843750
8571,-89.843750
8572,-93.750000
8573,-93.750000
8574,-93.750000
8575,-93.750000
8576,-93.750000
8577,-93.750000
8578,-97.656250
8579,-97.656250
8580,-97.656250
8581,-97.656250
8582,-101.562500
8583,-101.562500
8584,-101.562500
8585,-101.562500
8586,-105.468750
8587,-105.468750
8588,-105.468750
8589,-105.468750
8590,-105.468750
8591,-105.468750
8592,-109.375000
8593,-109.375000
8594,-109.375000
8595,-109.375000
8596,-113.281250
8597,-113.281250
8598,-113.281250
8599,-113.281250
8600,-113.281250
8601,-113.281250
8602,-117.187500
8603,-117.187500
8604,-117.187500
8605,-117.187500
8606,-117.187500
8607,-121.093750
8608,-121.093750
8609,-121.093750
8610,-121.093750
8611,-121.093750
8612,-125.000000
8613,-125.000000
8614,-125.000000
8615,-125.000000
8616,-125.000000
8617,-125.000000
8618,-128.906250
8619,-128.906250
8620,-128.906250
8621,-128.906250
8622,-132.812500
8623,-128.906250
8624,-132.812500
8625,-132.812500
8626,-132.812500
8627,-132.812500
8628,-132.812500
8629,-132.812500
8630,-136.718750
8631,-136.718750
8632,-136.718750
8633,-136.718750
8634,-136.718750
8635,-140.625000
8636,-140.625000
8637,-140.625000
8638,-140.625000
8639,-140.625000
8640,-140.625000
8641,-140.625000
8642,-144.531250
8643,-144.531250
8644,-144.531250
8645,-144.531250
8646,-144.531250
8647,-144.531250
8648,-144.531250
8649,-144.531250
8650,-148.437500
8651,-148.437500
8652,-148.437500
8653,-148.437500
8654,-148.437500
8655,-148.437500
8656,-148.437500
8657,-148.437500
8658,-152.343750
8659,-152.343750
8660,-152.343750
8661,-152.343750
8662,-152.343750
8663,-152.343750
8664,-152.343750
8665,-152.343750
8666,-152.343750
8667,-156.250000
8668,-156.250000
8669,-156.250000
8670,-156.250000
8671,-156.250000
8672,-156.250000
8673,-156.250000
8674,-156.250000
8675,-156.250000
8676,-160.156250
8677,-160.156250
8678,-160.156250
8679,-160.156250
8680,-160.156250
8681,-160.156250
8682,-160.156250
8683,-160.156250
8684,-160.156250
8685,-160.156250
8686,-160.156250
8687,-160.156250
8688,-164.062500
8689,-164.062500
8690,-164.062500
8691,-164.062500
8692,-164.062500
8693,-164.062500
8694,-164.062500
8695,-164.062500
8696,-164.062500
8697,-164.062500
8698,-164.062500
8699,-164.062500
8700,-164.062500
8701,-164.062500
8702,-164.062500
8703,-164.062500
8704,-164.062500
8705,-164.062500
8706,-164.062500
8707,-164.062500
8708,-167.968750
8709,-167.968750
8710,-167.968750
8711,-167.968750
8712,-167.968750
8713,-167.968750
8714,-167.968750
8715,-167.968750
8716,-167.968750
8717,-167.968750
8718,-167.968750
8719,-167.968750
8720,-167.968750
8721,-167.968750
8722,-167.968750
8723,-167.968750
8724,-167.968750
8725,-167.968750
8726,-167.968750
8727,-167.968750
8728,-167.968750
8729,-167.968750
8730,-167.968750
8731,-167.968750
8732,-167.968750
8733,-167.968750
8734,-167.968750
8735,-167.968750
8736,-167.968750
8737,-167.968750
8738,-167.968750
8739,-167.968750
8740,-167.968750
8741,-167.968750
8742,-167.968750
8743,-167.968750
8744,-167.968750
8745,-167.968750
8746,-167.968750
8747,-167.968750
8748,-167.968750
8749,-164.062500
8750,-164.062500
8751,-164.062500
8752,-164.062500
8753,-164.062500
8754,-164.062500
8755,-164.062500
8756,-164.062500
8757,-164.062500
8758,-164.062500
8759,-164.062500
8760,-164.062500
8761,-164.062500
8762,-164.062500
8763,-164.062500
8764,-164.062500
8765,-164.062500
8766,-164.062500
8767,-164.062500
8768,-164.062500
8769,-164.062500
8770,-160.156250
8771,-160.156250
8772,-160.156250
8773,-160.156250
8774,-160.156250
8775,-160.156250
8776,-160.156250
8777,-160.156250
8778,-160.156250
8779,-160.156250
8780,-160.156250
8781,-160.156250
8782,-156.250000
8783,-156.250000
8784,-156.250000
8785,-156.250000
8786,-156.250000
8787,-156.250000
8788,-156.250000
8789,-156.250000
8790,-156.250000
8791,-156.250000
8792,-152.343750
8793,-156.250000
8794,-152.343750
8795,-152.343750
8796,-152.343750
8797,-152.343750
8798,-152.343750
8799,-152.343750
8800,-152.343750
8801,-152.343750
8802,-148.437500
8803,-148.437500
8804,-148.437500
8805,-148.437500
8806,-148.437500
8807,-148.437500
8808,-148.437500
8809,-144.531250
8810,-148.437500
8811,-144.531250
8812,-144.531250
8813,-144.531250
8814,-144.531250
8815,-140.625000
8816,-140.625000
8817,-140.625000
8818,-140.625000
8819,-140.625000
8820,-140.625000
8821,-140.625000
8822,-140.625000
8823,-136.718750
8824,-136.718750
8825,-136.718750
8826,-136.718750
8827,-136.718750
8828,-136.718750
8829,-136.718750
8830,-132.812500
8831,-132.812500
8832,-132.812500
8833,-132.812500
8834,-132.812500
8835,-128.906250
8836,-128.906250
8837,-128.906250
8838,-128.906250
8839,-128.906250
8840,-128.906250
8841,-128.906250
8842,-128.906250
8843,-125.000000
8844,-125.000000
8845,-125.000000
8846,-125.000000
8847,-121.093750
8848,-121.093750
8849,-121.093750
8850,-121.093750
8851,-121.093750
8852,-121.093750
8853,-117.187500
8854,-117.187500
8855,-117.187500
8856,-117.187500
8857,-117.187500
8858,-117.187500
8859,-113.281250
8860,-113.281250
8861,-113.281250
8862,-109.375000
8863,-109.375000
8864,-109.375000
8865,-109.375000
8866,-109.375000
8867,-109.375000
8868,-105.468750
8869,-105.468750
8870,-105.468750
8871,-105.468750
8872,-105.468750
8873,-101.562500
8874,-101.562500
8875,-101.562500
8876,-101.562500
8877,-101.562500
8878,-97.656250
8879,-97.656250
8880,-97.656250
8881,-97.656250
8882,-97.656250
8883,-93.750000
8884,-93.750000
8885,-93.750000
8886,-93.750000
8887,-89.843750
8888,-89.843750
8889,-89.843750
8890,-89.843750
8891,-89.843750
8892,-85.937500
8893,-85.937500
8894,-85.937500
8895,-85.937500
8896,-82.031250
8897,-82.031250
8898,-82.031250
8899,-82.031250
8900,-78.125000
8901,-78.125000
8902,-78.125000
8903,-78.125000
8904,-78.125000
8905,-74.218750
8906,-74.218750
8907,-74.218750
8908,-74.218750
8909,-70.312500
8910,-70.312500
8911,-70.312500
8912,-70.312500
8913,-70.312500
8914,-66.406250
8915,-66.406250
8916,-66.406250
8917,-62.500000
8918,-62.500000
8919,-62.500000
8920,-62.500000
8921,-62.500000
8922,-58.593750
8923,-58.593750
8924,-58.593750
8925,-58.593750
8926,-54.687500
8927,-54.687500
8928,-54.687500
8929,-54.687500
8930,-50.781250
8931,-50.781250
8932,-50.781250
8933,-50.781250
8934,-50.781250
8935,-46.875000
8936,-46.875000
8937,-46.875000
8938,-42.968750
8939,-42.968750
8940,-42.968750
8941,-42.968750
8942,-39.062500
8943,-39.062500
8944,-39.062500
8945,-39.062500
8946,-39.062500
8947,-35.156250
8948,-35.156250
8949,-35.156250
8950,-35.156250
8951,-31.250000
8952,-31.250000
8953,-31.250000
8954,-31.250000
8955,-27.343750
8956,-27.343750
8957,-27.343750
8958,-27.343750
8959,-23.437500
8960,-23.437500
8961,-23.437500
8962,-23.437500
8963,-19.531250
8964,-19.531250
8965,-19.531250
8966,-19.531250
8967,-15.625000
8968,-15.625000
8969,-15.625000
8970,-15.625000
8971,-11.718750
8972,-11.718750
8973,-11.718750
8974,-11.718750
8975,-7.812500
8976,-7.812500
8977,-7.812500
8978,-7.812500
8979,-7.812500
8980,-3.906250
8981,-3.906250
8982,-3.906250
8983,-3.906250
8984,0.000000
8985,0.000000
8986,0.000000
8987,0.000000
8988,3.906250
8989,3.906250
8990,3.906250
8991,3.906250
8992,3.906250
8993,7.812500
8994,7.812500
8995,7.812500
8996,11.718750
8997,11.718750
8998,11.718750
8999,11.718750
9000,11.718750
9001,15.625000
9002,15.625000
9003,15.625000
9004,15.625000
9005,19.531250
9006,19.531250
9007,19.531250
9008,19.531250
9009,19.531250
9010,23.437500
9011,23.437500
9012,23.437500
9013,23.437500
9014,23.437500
9015,27.343750
9016,27.343750
9017,27.343750
9018,27.343750
9019,31.250000
9020,31.250000
9021,31.250000
9022,31.250000
9023,35.156250
9024,35.156250
9025,35.156250
9026,35.156250
9027,35.156250
9028,39.062500
9029,39.062500
9030,39.062500
9031,39.062500
9032,42.968750
9033,42.968750
9034,42.968750
9035,42.968750
9036,42.968750
9037,42.968750
9038,46.875000
9039,46.875000
9040,46.875000
9041,46.875000
9042,46.875000
9043,46.875000
9044,50.781250
9045,50.781250
9046,50.781250
9047,50.781250
9048,54.687500
9049,54.687500
9050,54.687500
9051,54.687500
9052,54.687500
9053,54.687500
9054,54.687500
9055,58.593750
9056,58.593750
9057,58.593750
9058,58.593750
9059,62.500000
9060,62.500000
9061,62.500000
9062,62.500000
9063,62.500000
9064,66.406250
9065,66.406250
9066,66.406250
9067,66.406250
9068,66.406250
9069,70.312500
9070,70.312500
9071,70.312500
9072,70.312500
9073,70.312500
9074,70.312500
9075,74.218750
9076,74.218750
9077,74.218750
9078,74.218750
9079,74.218750
9080,74.218750
9081,78.125000
9082,78.125000
9083,78.125000
9084,78.125000
9085,78.125000
9086,78.125000
9087,78.125000
9088,82.031250
9089,82.031250
9090,82.031250
9091,82.031250
9092,82.031250
9093,82.031250
9094,82.031250
9095,85.937500
9096,85.937500
9097,85.937500
9098,85.937500
9099,85.937500
9100,85.937500
9101,89.843750
9102,89.843750
9103,89.843750
9104,89.843750
9105,89.843750
9106,89.843750
9107,89.843750
9108,93.750000
9109,93.750000
9110,93.750000
9111,93.750000
9112,93.750000
9113,93.750000
9114,93.750000
9115,93.750000
9116,93.750000
9117,97.656250
9118,97.656250
9119,97.656250
9120,97.656250
9121,97.656250
9122,101.562500
9123,101.562500
9124,101.562500
9125,101.562500
9126,101.562500
9127,101.562500
9128,101.562500
9129,101.562500
9130,101.562500
9131,101.562500
9132,105.468750
9133,105.468750
9134,105.468750
9135,105.468750
9136,105.468750
9137,105.468750
9138,105.468750
9139,105.468750
9140,105.468750
9141,105.468750
9142,109.375000
9143,109.375000
9144,109.375000
9145,109.375000
9146,109.375000
9147,109.375000
9148,109.375000
9149,109.375000
9150,109.375000
9151,109.375000
9152,109.375000
9153,113.281250
9154,113.281250
9155,113.281250
9156,113.281250
9157,113.281250
9158,113.281250
9159,113.281250
9160,113.281250
9161,113.281250
9162,113.281250
9163,113.281250
9164,113.281250
9165,113.281250
9166,117.187500
9167,117.187500
9168,117.187500
9169,117.187500
9170,117.187500
9171,117.187500
9172,117.187500
9173,117.187500
9174,117.187500
9175,117.187500
9176,117.187500
9177,117.187500
9178,117.187500
9179,117.187500
9180,117.187500
9181,121.093750
9182,117.187500
9183,121.093750
9184,121.093750
9185,121.093750
9186,121.093750
9187,121.093750
9188,121.093750
9189,121.093750
9190,121.093750
9191,121.093750
9192,121.093750
9193,121.093750
9194,121.093750
9195,121.093750
9196,121.093750
9197,121.093750
9198,121.093750
9199,121.093750
9200,121.093750
9201,121.093750
9202,121.093750
9203,125.000000
9204,121.093750
9205,121.093750
9206,121.093750
9207,125.000000
9208,121.093750
9209,125.000000
9210,121.093750
9211,125.000000
9212,121.093750
9213,125.000000
9214,125.000000
9215,125.000000
9216,125.000000
9217,125.000000
9218,125.000000
9219,125.000000
9220,125.000000
9221,125.000000
9222,125.000000
9223,125.000000
9224,125.000000
9225,125.000000
9226,125.000000
9227,125.000000
9228,125.000000
9229,125.000000
9230,125.000000
9231,125.000000
9232,125.000000
9233,125.000000
9234,125.000000
9235,125.000000
9236,125.000000
9237,125.000000
9238,125.000000
9239,125.000000
9240,125.000000
9241,125.000000
9242,121.093750
9243,125.000000
9244,125.000000
9245,121.093750
9246,121.093750
9247,125.000000
9248,125.000000
9249,121.093750
9250,121.093750
9251,121.093750
9252,121.093750
9253,121.093750
9254,121.093750
9255,121.093750
9256,121.093750
9257,121.093750
9258,121.093750
9259,121.093750
9260,121.093750
9261,121.093750
9262,121.093750
9263,121.093750
9264,121.093750
9265,121.093750
9266,121.093750
9267,121.093750
9268,121.093750
9269,121.093750
9270,121.093750
9271,121.093750
9272,121.093750
9273,117.187500
9274,117.187500
9275,117.187500
9276,117.187500
9277,117.187500
9278,117.187500
9279,117.187500
9280,117.187500
9281,117.187500
9282,117.187500
9283,117.187500
9284,117.187500
9285,117.187500
9286,117.187500
9287,117.187500
9288,113.281250
9289,113.281250
9290,113.281250
9291,113.281250
9292,113.281250
9293,113.281250
9294,113.281250
9295,113.281250
9296,113.281250
9297,113.281250
9298,113.281250
9299,113.281250
9300,109.375000
9301,109.375000
9302,109.375000
9303,109.375000
9304,109.375000
9305,109.375000
9306,109.375000
9307,109.375000
9308,109.375000
9309,109.375000
9310,109.375000
9311,109.375000
9312,105.468750
9313,105.468750
9314,105.468750
9315,105.468750
9316,105.468750
9317,105.468750
9318,105.468750
9319,105.468750
9320,105.468750
9321,101.562500
9322,101.562500
9323,101.562500
9324,101.562500
9325,101.562500
9326,101.562500
9327,101.562500
9328,101.562500
9329,101.562500
9330,97.656250
9331,97.656250
9332,97.656250
9333,97.656250
9334,97.656250
9335,97.656250
9336,97.656250
9337,97.656250
9338,93.750000
9339,93.750000
9340,93.750000
9341,93.750000
9342,93.750000
9343,93.750000
9344,93.750000
9345,89.843750
9346,89.843750
9347,89.843750
9348,89.843750
9349,89.843750
9350,89.843750
9351,89.843750
9352,89.843750
9353,85.937500
9354,85.937500
9355,85.937500
9356,85.937500
9357,85.937500
9358,85.937500
9359,82.031250
9360,82.031250
9361,82.031250
9362,82.031250
9363,82.031250
9364,82.031250
9365,78.125000
9366,78.125000
9367,78.125000
9368,78.125000
9369,78.125000
9370,78.125000
9371,78.125000
9372,74.218750
9373,74.218750
9374,74.218750
9375,74.218750
9376,74.218750
9377,70.312500
9378,70.312500
9379,70.312500
9380,70.312500
9381,70.312500
9382,70.312500
9383,70.312500
9384,66.406250
9385,66.406250
9386,66.406250
9387,66.406250
9388,66.406250
9389,66.406250
9390,62.500000
9391,62.500000
9392,62.500000
9393,62.500000
9394,58.593750
9395,58.593750
9396,58.593750
9397,58.593750
9398,58.593750
9399,58.593750
9400,54.687500
9401,54.687500
9402,54.687500
9403,54.687500
9404,50.781250
9405,50.781250
9406,50.781250
9407,50.781250
9408,50.781250
9409,50.781250
9410,46.875000
9411,46.875000
9412,46.875000
9413,46.875000
9414,42.968750
9415,42.968750
9416,42.968750
9417,42.968750
9418,39.062500
9419,39.062500
9420,39.062500
9421,39.062500
9422,35.156250
9423,35.156250
9424,35.156250
9425,35.156250
9426,35.156250
9427,35.156250
9428,31.250000
9429,31.250000
9430,31.250000
9431,27.343750
9432,27.343750
9433,27.343750
9434,27.343750
9435,27.343750
9436,23.437500
9437,23.437500
9438,23.437500
9439,23.437500
9440,23.437500
9441,19.531250
9442,19.531250
9443,19.531250
9444,19.531250
9445,15.625000
9446,15.625000
9447,15.625000
9448,15.625000
9449,11.718750
9450,11.718750
9451,11.718750
9452,11.718750
9453,11.718750
9454,7.812500
9455,7.812500
9456,7.812500
9457,7.812500
9458,3.906250
9459,3.906250
9460,3.906250
9461,3.906250
9462,0.000000
9463,0.000000
9464,0.000000
9465,0.000000
9466,-3.906250
9467,-3.906250
9468,-3.906250
9469,-3.906250
9470,-7.812500
9471,-7.812500
9472,-7.812500
9473,-7.812500
9474,-11.718750
9475,-11.718750
9476,-11.718750
9477,-11.718750
9478,-11.718750
9479,-15.625000
9480,-15.625000
9481,-15.625000
9482,-15.625000
9483,-19.531250
9484,-19.531250
9485,-19.531250
9486,-19.531250
9487,-23.437500
9488,-23.437500
9489,-23.437500
9490,-23.437500
9491,-27.343750
9492,-27.343750
9493,-27.343750
9494,-27.343750
9495,-31.250000
9496,-31.250000
9497,-31.250000
9498,-31.250000
9499,-35.156250
9500,-35.156250
9501,-35.156250
9502,-39.062500
9503,-35.156250
9504,-39.062500
9505,-39.062500
9506,-39.062500
9507,-39.062500
9508,-42.968750
9509,-42.968750
9510,-42.968750
9511,-46.875000
9512,-46.875000
9513,-46.875000
9514,-46.875000
9515,-46.875000
9516,-50.781250
9517,-50.781250
9518,-50.781250
9519,-50.781250
9520,-54.687500
9521,-54.687500
9522,-54.687500
9523,-54.687500
9524,-58.593750
9525,-58.593750
9526,-58.593750
9527,-58.593750
9528,-62.500000
9529,-62.500000
9530,-62.500000
9531,-62.500000
9532,-66.406250
9533,-66.406250
9534,-66.406250
9535,-66.406250
9536,-70.312500
9537,-70.312500
9538,-70.312500
9539,-74.218750
9540,-74.218750
9541,-74.218750
9542,-74.218750
9543,-74.218750
9544,-78.125000
9545,-78.125000
9546,-78.125000
9547,-78.125000
9548,-82.031250
9549,-82.031250
9550,-82.031250
9551,-82.031250
9552,-85.937500
9553,-85.937500
9554,-85.937500
9555,-85.937500
9556,-85.937500
9557,-85.937500
9558,-89.843750
9559,-89.843750
9560,-89.843750
9561,-89.843750
9562,-93.750000
9563,-93.750000
9564,-93.750000
9565,-97.656250
9566,-97.656250
9567,-97.656250
9568,-97.656250
9569,-97.656250
9570,-97.656250
9571,-101.562500
9572,-101.562500
9573,-101.562500
9574,-101.562500
9575,-101.562500
9576,-105.468750
9577,-105.468750
9578,-105.468750
9579,-109.375000
9580,-109.375000
9581,-109.375000
9582,-109.375000
9583,-109.375000
9584,-109.375000
9585,-109.375000
9586,-113.281250
9587,-113.281250
9588,-113.281250
9589,-113.281250
9590,-117.187500
9591,-117.187500
9592,-117.187500
9593,-117.187500
9594,-117.187500
9595,-121.093750
9596,-121.093750
9597,-121.093750
9598,-121.093750
9599,-121.093750
9600,-121.093750
9601,-125.000000
9602,-125.000000
9603,-125.000000
9604,-125.000000
9605,-125.000000
9606,-125.000000
9607,-128.906250
9608,-128.906250
9609,-128.906250
9610,-128.906250
9611,-128.906250
9612,-132.812500
9613,-132.812500
9614,-132.812500
9615,-132.812500
9616,-132.812500
9617,-132.812500
9618,-132.812500
9619,-136.718750
9620,-136.718750
9621,-136.718750
9622,-136.718750
9623,-136.718750
9624,-140.625000
9625,-140.625000
9626,-140.625000
9627,-140.625000
9628,-140.625000
9629,-140.625000
9630,-140.625000
9631,-140.625000
9632,-144.531250
9633,-144.531250
9634,-144.531250
9635,-144.531250
9636,-144.531250
9637,-144.531250
9638,-148.437500
9639,-144.531250
9640,-148.437500
9641,-148.437500
9642,-148.437500
9643,-148.437500
9644,-148.437500
9645,-148.437500
9646,-152.343750
9647,-152.343750
9648,-152.343750
9649,-152.343750
9650,-152.343750
9651,-152.343750
9652,-152.343750
9653,-152.343750
9654,-152.343750
9655,-152.343750
9656,-156.250000
9657,-156.250000
9658,-156.250000
9659,-156.250000
9660,-156.250000
9661,-156.250000
9662,-156.250000
9663,-156.250000
9664,-160.156250
9665,-160.156250
9666,-156.250000
9667,-160.156250
9668,-160.156250
9669,-160.156250
9670,-160.156250
9671,-160.156250
9672,-160.156250
9673,-160.156250
9674,-160.156250
9675,-160.156250
9676,-160.156250
9677,-164.062500
9678,-160.156250
9679,-164.062500
9680,-164.062500
9681,-164.062500
9682,-164.062500
9683,-164.062500
9684,-164.062500
9685,-164.062500
9686,-164.062500
9687,-164.062500
9688,-164.062500
9689,-164.062500
9690,-164.062500
9691,-167.968750
9692,-164.062500
9693,-164.062500
9694,-164.062500
9695,-167.968750
9696,-167.968750
9697,-167.968750
9698,-167.968750
9699,-167.968750
9700,-167.968750
9701,-167.968750
9702,-167.968750
9703,-167.968750
9704,-167.968750
9705,-167.968750
9706,-167.968750
9707,-167.968750
9708,-167.968750
9709,-167.968750
9710,-167.968750
9711,-167.968750
9712,-167.968750
9713,-167.968750
9714,-167.968750
9715,-167.968750
9716,-167.968750
9717,-167.968750
9718,-167.968750
9719,-167.968750
9720,-167.968750
9721,-167.968750
9722,-167.968750
9723,-167.968750
9724,-167.968750
9725,-171.875000
9726,-167.968750
9727,-167.968750
9728,-171.875000
9729,-167.968750
9730,-167.968750
9731,-171.875000
9732,-167.968750
9733,-167.968750
9734,-167.968750
9735,-167.968750
9736,-167.968750
9737,-167.968750
9738,-164.062500
9739,-164.062500
9740,-167.968750
9741,-164.062500
9742,-167.968750
9743,-164.062500
9744,-164.062500
9745,-164.062500
9746,-164.062500
9747,-164.062500
9748,-164.062500
9749,-164.062500
9750,-164.062500
9751,-164.062500
9752,-164.062500
9753,-164.062500
9754,-164.062500
9755,-164.062500
9756,-164.062500
9757,-160.156250
9758,-160.156250
9759,-160.156250
9760,-160.156250
9761,-160.156250
9762,-160.156250
9763,-156.250000
9764,-160.156250
9765,-160.156250
9766,-164.062500
9767,-160.156250
9768,-160.156250
9769,-160.156250
9770,-156.250000
9771,-156.250000
9772,-156.250000
9773,-156.250000
9774,-156.250000
9775,-156.250000
9776,-156.250000
9777,-156.250000
9778,-156.250000
9779,-156.250000
9780,-156.250000
9781,-156.250000
9782,-152.343750
9783,-152.343750
9784,-152.343750
9785,-152.343750
9786,-152.343750
9787,-152.343750
9788,-152.343750
9789,-152.343750
9790,-148.437500
9791,-148.437500
9792,-148.437500
9793,-148.437500
9794,-148.437500
9795,-148.437500
9796,-148.437500
9797,-148.437500
9798,-148.437500
9799,-144.531250
9800,-144.531250
9801,-144.531250
9802,-144.531250
9803,-144.531250
9804,-144.531250
9805,-144.531250
9806,-140.625000
9807,-140.625000
9808,-140.625000
9809,-140.625000
9810,-140.625000
9811,-140.625000
9812,-140.625000
9813,-140.625000
9814,-136.718750
9815,-136.718750
9816,-136.718750
9817,-136.718750
9818,-136.718750
9819,-136.718750
9820,-132.812500
9821,-132.812500
9822,-132.812500
9823,-132.812500
9824,-132.812500
9825,-132.812500
9826,-132.812500
9827,-128.906250
9828,-128.906250
9829,-128.906250
9830,-128.906250
9831,-125.000000
9832,-125.000000
9833,-125.000000
9834,-125.000000
9835,-121.093750
9836,-125.000000
9837,-121.093750
9838,-121.093750
9839,-121.093750
9840,-121.093750
9841,-121.093750
9842,-117.187500
9843,-117.187500
9844,-117.187500
9845,-117.187500
9846,-117.187500
9847,-113.281250
9848,-113.281250
9849,-113.281250
9850,-113.281250
9851,-113.281250
9852,-113.281250
9853,-109.375000
9854,-109.375000
9855,-109.375000
9856,-109.375000
9857,-109.375000
9858,-105.468750
9859,-105.468750
9860,-105.468750
9861,-105.468750
9862,-101.562500
9863,-101.562500
9864,-101.562500
9865,-101.562500
9866,-97.656250
9867,-97.656250
9868,-97.656250
9869,-97.656250
9870,-97.656250
9871,-93.750000
9872,-93.750000
9873,-93.750000
9874,-93.750000
9875,-93.750000
9876,-93.750000
9877,-89.843750
9878,-89.843750
9879,-89.843750
9880,-89.843750
9881,-85.937500
9882,-85.937500
9883,-85.937500
9884,-85.937500
9885,-85.937500
9886,-82.031250
9887,-82.031250
9888,-82.031250
9889,-78.125000
9890,-78.125000
9891,-78.125000
9892,-78.125000
9893,-78.125000
9894,-74.218750
9895,-74.218750
9896,-74.218750
9897,-74.218750
9898,-74.218750
9899,-70.312500
9900,-70.312500
9901,-70.312500
9902,-70.312500
9903,-66.406250
9904,-66.406250
9905,-66.406250
9906,-66.406250
9907,-62.500000
9908,-62.500000
9909,-62.500000
9910,-62.500000
9911,-58.593750
9912,-58.593750
9913,-58.593750
9914,-58.593750
9915,-54.687500
9916,-54.687500
9917,-54.687500
9918,-54.687500
9919,-50.781250
9920,-50.781250
9921,-50.781250
9922,-50.781250
9923,-50.781250
9924,-46.875000
9925,-46.875000
9926,-46.875000
9927,-46.875000
9928,-42.968750
9929,-42.968750
9930,-42.968750
9931,-39.062500
9932,-39.062500
9933,-39.062500
9934,-39.062500
9935,-39.062500
9936,-39.062500
9937,-35.156250
9938,-35.156250
9939,-35.156250
9940,-31.250000
9941,-31.250000
9942,-31.250000
9943,-31.250000
9944,-27.343750
9945,-27.343750
9946,-27.343750
9947,-27.343750
9948,-23.437500
9949,-23.437500
9950,-23.437500
9951,-23.437500
9952,-23.437500
9953,-19.531250
9954,-19.531250
9955,-19.531250
9956,-19.531250
9957,-15.625000
9958,-15.625000
9959,-15.625000
9960,-15.625000
9961,-11.718750
9962,-11.718750
9963,-11.718750
9964,-11.718750
9965,-7.812500
9966,-7.812500
9967,-7.812500
9968,-3.906250
9969,-3.906250
9970,-3.906250
9971,-3.906250
9972,-3.906250
9973,-3.906250
9974,0.000000
9975,0.000000
9976,0.000000
9977,0.000000
9978,3.906250
9979,3.906250
9980,3.906250
9981,3.906250
9982,7.812500
9983,7.812500
9984,7.812500
9985,7.812500
9986,7.812500
9987,11.718750
9988,11.718750
9989,11.718750
9990,15.625000
9991,15.625000
9992,15.625000
9993,15.625000
9994,15.625000
9995,19.531250
9996,19.531250
9997,19.531250
9998,19.531250
9999,23.437500
10000,23.437500
