Channel              :,CH1
Frequency            :,1.010kHz
Period               :,0.990ms
PK-PK                :,312.5mV
Probe attenuation    :,1X
Voltage per ADC value:,0.244141mV
Time interval        :,1.00000us

index,CH1_Voltage(mV)
1,-74.218750
2,-74.218750
3,-74.218750
4,-74.218750
5,-70.312500
6,-70.312500
7,-70.312500
8,-70.312500
9,-66.406250
10,-66.406250
11,-66.406250
12,-62.500000
13,-62.500000
14,-62.500000
15,-62.500000
16,-62.500000
17,-58.593750
18,-58.593750
19,-58.593750
20,-58.593750
21,-54.687500
22,-54.687500
23,-54.687500
24,-54.687500
25,-50.781250
26,-50.781250
27,-50.781250
28,-46.875000
29,-46.875000
30,-46.875000
31,-46.875000
32,-46.875000
33,-42.968750
34,-42.968750
35,-42.968750
36,-39.062500
37,-39.062500
38,-39.062500
39,-35.156250
40,-35.156250
41,-35.156250
42,-35.156250
43,-35.156250
44,-35.156250
45,-31.250000
46,-31.250000
47,-27.343750
48,-27.343750
49,-27.343750
50,-27.343750
51,-27.343750
52,-23.437500
53,-23.437500
54,-23.437500
55,-19.531250
56,-19.531250
57,-19.531250
58,-19.531250
59,-15.625000
60,-15.625000
61,-15.625000
62,-15.625000
63,-11.718750
64,-11.718750
65,-11.718750
66,-11.718750
67,-7.812500
68,-7.812500
69,-7.812500
70,-7.812500
71,-3.906250
72,-3.906250
73,-3.906250
74,0.000000
75,0.000000
76,0.000000
77,0.000000
78,0.000000
79,3.906250
80,3.906250
81,3.906250
82,3.906250
83,7.812500
84,7.812500
85,7.812500
86,11.718750
87,11.718750
88,11.718750
89,11.718750
90,11.718750
91,15.625000
92,15.625000
93,15.625000
94,15.625000
95,19.531250
96,19.531250
97,19.531250
98,23.437500
99,23.437500
100,23.437500
101,23.437500
102,23.437500
103,27.343750
104,27.343750
105,27.343750
106,27.343750
107,31.250000
108,31.250000
109,31.250000
110,31.250000
111,35.156250
112,35.156250
113,35.156250
114,35.156250
115,39.062500
116,39.062500
117,39.062500
118,39.062500
119,39.062500
120,42.968750
121,42.968750
122,42.968750
123,42.968750
124,46.875000
125,46.875000
126,46.875000
127,46.875000
128,46.875000
129,50.781250
130,50.781250
131,50.781250
132,50.781250
133,50.781250
134,54.687500
135,54.687500
136,54.687500
137,54.687500
138,58.593750
139,58.593750
140,58.593750
141,58.593750
142,58.593750
143,62.500000
144,62.500000
145,62.500000
146,62.500000
147,62.500000
148,62.500000
149,66.406250
150,66.406250
151,66.406250
152,66.406250
153,66.406250
154,70.312500
155,70.312500
156,70.312500
157,70.312500
158,74.218750
159,74.218750
160,74.218750
161,74.218750
162,74.218750
163,74.218750
164,74.218750
165,78.125000
166,78.125000
167,78.125000
168,78.125000
169,82.031250
170,82.031250
171,82.031250
172,82.031250
173,82.031250
174,82.031250
175,82.031250
176,85.937500
177,85.937500
178,85.937500
179,85.937500
180,85.937500
181,89.843750
182,89.843750
183,89.843750
184,89.843750
185,89.843750
186,89.843750
187,93.750000
188,93.750000
189,93.750000
190,93.750000
191,93.750000
192,93.750000
193,93.750000
194,93.750000
195,97.656250
196,97.656250
197,97.656250
198,97.656250
199,97.656250
200,101.562500
201,101.562500
202,101.562500
203,101.562500
204,101.562500
205,101.562500
206,101.562500
207,101.562500
208,101.562500
209,105.468750
210,105.468750
211,105.468750
212,105.468750
213,105.468750
214,105.468750
215,109.375000
216,105.468750
217,109.375000
218,109.375000
219,109.375000
220,109.375000
221,109.375000
222,109.375000
223,109.375000
224,109.375000
225,113.281250
226,113.281250
227,113.281250
228,113.281250
229,113.281250
230,113.281250
231,113.281250
232,113.281250
233,113.281250
234,117.187500
235,117.187500
236,117.187500
237,117.187500
238,117.187500
239,117.187500
240,117.187500
241,117.187500
242,117.187500
243,117.187500
244,121.093750
245,121.093750
246,121.093750
247,121.093750
248,121.093750
249,121.093750
250,121.093750
251,121.093750
252,121.093750
253,121.093750
254,121.093750
255,121.093750
256,125.000000
257,125.000000
258,121.093750
259,125.000000
260,125.000000
261,125.000000
262,125.000000
263,125.000000
264,125.000000
265,125.000000
266,125.000000
267,125.000000
268,125.000000
269,125.000000
270,128.906250
271,128.906250
272,128.906250
273,128.906250
274,128.906250
275,128.906250
276,128.906250
277,128.906250
278,128.906250
279,128.906250
280,128.906250
281,128.906250
282,128.906250
283,128.906250
284,128.906250
285,128.906250
286,128.906250
287,128.906250
288,128.906250
289,128.906250
290,128.906250
291,128.906250
292,128.906250
293,128.906250
294,128.906250
295,128.906250
296,128.906250
297,132.812500
298,132.812500
299,132.812500
300,128.906250
301,132.812500
302,128.906250
303,132.812500
304,128.906250
305,132.812500
306,132.812500
307,132.812500
308,132.812500
309,132.812500
310,132.812500
311,132.812500
312,132.812500
313,132.812500
314,132.812500
315,132.812500
316,132.812500
317,132.812500
318,132.812500
319,132.812500
320,132.812500
321,132.812500
322,132.812500
323,132.812500
324,132.812500
325,132.812500
326,132.812500
327,132.812500
328,132.812500
329,132.812500
330,132.812500
331,132.812500
332,132.812500
333,132.812500
334,128.906250
335,132.812500
336,132.812500
337,132.812500
338,128.906250
339,128.906250
340,128.906250
341,128.906250
342,128.906250
343,128.906250
344,128.906250
345,128.906250
346,128.906250
347,128.906250
348,128.906250
349,128.906250
350,128.906250
351,128.906250
352,128.906250
353,128.906250
354,128.906250
355,128.906250
356,128.906250
357,128.906250
358,128.906250
359,128.906250
360,128.906250
361,128.906250
362,125.000000
363,128.906250
364,125.000000
365,125.000000
366,125.000000
367,125.000000
368,125.000000
369,125.000000
370,125.000000
371,125.000000
372,125.000000
373,125.000000
374,125.000000
375,125.000000
376,125.000000
377,125.000000
378,125.000000
379,125.000000
380,121.093750
381,121.093750
382,121.093750
383,121.093750
384,121.093750
385,121.093750
386,121.093750
387,121.093750
388,121.093750
389,121.093750
390,121.093750
391,117.187500
392,117.187500
393,117.187500
394,117.187500
395,117.187500
396,117.187500
397,117.187500
398,117.187500
399,117.187500
400,117.187500
401,117.187500
402,113.281250
403,113.281250
404,113.281250
405,113.281250
406,113.281250
407,113.281250
408,113.281250
409,113.281250
410,113.281250
411,109.375000
412,109.375000
413,109.375000
414,109.375000
415,109.375000
416,109.375000
417,109.375000
418,109.375000
419,105.468750
420,105.468750
421,105.468750
422,105.468750
423,105.468750
424,105.468750
425,105.468750
426,101.562500
427,101.562500
428,101.562500
429,101.562500
430,101.562500
431,101.562500
432,101.562500
433,97.656250
434,97.656250
435,97.656250
436,97.656250
437,97.656250
438,97.656250
439,97.656250
440,93.750000
441,93.750000
442,93.750000
443,93.750000
444,93.750000
445,93.750000
446,89.843750
447,89.843750
448,89.843750
449,89.843750
450,89.843750
451,89.843750
452,89.843750
453,85.937500
454,85.937500
455,85.937500
456,85.937500
457,85.937500
458,85.937500
459,82.031250
460,82.031250
461,82.031250
462,82.031250
463,82.031250
464,78.125000
465,78.125000
466,78.125000
467,78.125000
468,78.125000
469,78.125000
470,74.218750
471,74.218750
472,74.218750
473,74.218750
474,70.312500
475,70.312500
476,70.312500
477,70.312500
478,70.312500
479,70.312500
480,66.406250
481,66.406250
482,66.406250
483,66.406250
484,66.406250
485,62.500000
486,62.500000
487,62.500000
488,62.500000
489,62.500000
490,58.593750
491,58.593750
492,58.593750
493,58.593750
494,58.593750
495,54.687500
496,54.687500
497,54.687500
498,50.781250
499,50.781250
500,50.781250
501,50.781250
502,50.781250
503,50.781250
504,46.875000
505,46.875000
506,46.875000
507,46.875000
508,46.875000
509,42.968750
510,42.968750
511,42.968750
512,39.062500
513,39.062500
514,39.062500
515,39.062500
516,39.062500
517,35.156250
518,35.156250
519,35.156250
520,35.156250
521,35.156250
522,31.250000
523,31.250000
524,31.250000
525,31.250000
526,27.343750
527,27.343750
528,27.343750
529,27.343750
530,23.437500
531,23.437500
532,23.437500
533,19.531250
534,19.531250
535,19.531250
536,19.531250
537,19.531250
538,15.625000
539,15.625000
540,15.625000
541,15.625000
542,11.718750
543,11.718750
544,11.718750
545,11.718750
546,7.812500
547,7.812500
548,7.812500
549,7.812500
550,3.906250
551,3.906250
552,3.906250
553,3.906250
554,0.000000
555,0.000000
556,0.000000
557,-3.906250
558,-3.906250
559,-3.906250
560,-3.906250
561,-7.812500
562,-7.812500
563,-7.812500
564,-11.718750
565,-11.718750
566,-11.718750
567,-11.718750
568,-11.718750
569,-15.625000
570,-15.625000
571,-15.625000
572,-19.531250
573,-19.531250
574,-19.531250
575,-19.531250
576,-23.437500
577,-23.437500
578,-23.437500
579,-23.437500
580,-27.343750
581,-27.343750
582,-27.343750
583,-27.343750
584,-31.250000
585,-31.250000
586,-31.250000
587,-35.156250
588,-35.156250
589,-35.156250
590,-35.156250
591,-39.062500
592,-39.062500
593,-39.062500
594,-39.062500
595,-42.968750
596,-42.968750
597,-42.968750
598,-42.968750
599,-46.875000
600,-46.875000
601,-46.875000
602,-46.875000
603,-50.781250
604,-50.781250
605,-50.781250
606,-54.687500
607,-54.687500
608,-54.687500
609,-54.687500
610,-58.593750
611,-58.593750
612,-58.593750
613,-58.593750
614,-62.500000
615,-62.500000
616,-62.500000
617,-62.500000
618,-66.406250
619,-66.406250
620,-66.406250
621,-66.406250
622,-70.312500
623,-70.312500
624,-70.312500
625,-70.312500
626,-74.218750
627,-74.218750
628,-74.218750
629,-74.218750
630,-78.125000
631,-78.125000
632,-78.125000
633,-78.125000
634,-82.031250
635,-82.031250
636,-82.031250
637,-82.031250
638,-85.937500
639,-85.937500
640,-85.937500
641,-89.843750
642,-89.843750
643,-89.843750
644,-89.843750
645,-89.843750
646,-93.750000
647,-93.750000
648,-93.750000
649,-93.750000
650,-97.656250
651,-97.656250
652,-97.656250
653,-97.656250
654,-101.562500
655,-101.562500
656,-101.562500
657,-101.562500
658,-101.562500
659,-105.468750
660,-105.468750
661,-105.468750
662,-109.375000
663,-109.375000
664,-109.375000
665,-109.375000
666,-109.375000
667,-113.281250
668,-113.281250
669,-113.281250
670,-113.281250
671,-113.281250
672,-117.187500
673,-117.187500
674,-117.187500
675,-117.187500
676,-121.093750
677,-121.093750
678,-121.093750
679,-121.093750
680,-121.093750
681,-125.000000
682,-125.000000
683,-125.000000
684,-125.000000
685,-128.906250
686,-128.906250
687,-128.906250
688,-128.906250
689,-128.906250
690,-132.812500
691,-132.812500
692,-132.812500
693,-132.812500
694,-132.812500
695,-136.718750
696,-136.718750
697,-136.718750
698,-136.718750
699,-136.718750
700,-136.718750
701,-140.625000
702,-140.625000
703,-140.625000
704,-140.625000
705,-144.531250
706,-144.531250
707,-144.531250
708,-144.531250
709,-144.531250
710,-144.531250
711,-144.531250
712,-148.437500
713,-148.437500
714,-148.437500
715,-148.437500
716,-148.437500
717,-148.437500
718,-152.343750
719,-152.343750
720,-152.343750
721,-152.343750
722,-152.343750
723,-152.343750
724,-152.343750
725,-156.250000
726,-156.250000
727,-156.250000
728,-156.250000
729,-156.250000
730,-160.156250
731,-156.250000
732,-160.156250
733,-160.156250
734,-160.156250
735,-160.156250
736,-160.156250
737,-160.156250
738,-164.062500
739,-164.062500
740,-164.062500
741,-164.062500
742,-164.062500
743,-164.062500
744,-164.062500
745,-164.062500
746,-164.062500
747,-167.968750
748,-167.968750
749,-167.968750
750,-167.968750
751,-167.968750
752,-167.968750
753,-167.968750
754,-167.968750
755,-167.968750
756,-171.875000
757,-171.875000
758,-171.875000
759,-171.875000
760,-171.875000
761,-171.875000
762,-171.875000
763,-171.875000
764,-171.875000
765,-171.875000
766,-171.875000
767,-175.781250
768,-175.781250
769,-175.781250
770,-175.781250
771,-175.781250
772,-175.781250
773,-175.781250
774,-175.781250
775,-175.781250
776,-175.781250
777,-175.781250
778,-175.781250
779,-175.781250
780,-175.781250
781,-175.781250
782,-179.687500
783,-179.687500
784,-175.781250
785,-179.687500
786,-179.687500
787,-179.687500
788,-179.687500
789,-179.687500
790,-179.687500
791,-179.687500
792,-179.687500
793,-179.687500
794,-179.687500
795,-179.687500
796,-179.687500
797,-179.687500
798,-179.687500
799,-179.687500
800,-179.687500
801,-179.687500
802,-179.687500
803,-179.687500
804,-179.687500
805,-179.687500
806,-179.687500
807,-179.687500
808,-179.687500
809,-179.687500
810,-179.687500
811,-179.687500
812,-179.687500
813,-179.687500
814,-179.687500
815,-179.687500
816,-179.687500
817,-179.687500
818,-179.687500
819,-179.687500
820,-179.687500
821,-179.687500
822,-179.687500
823,-179.687500
824,-179.687500
825,-179.687500
826,-179.687500
827,-179.687500
828,-179.687500
829,-179.687500
830,-179.687500
831,-179.687500
832,-179.687500
833,-179.687500
834,-179.687500
835,-179.687500
836,-179.687500
837,-175.781250
838,-175.781250
839,-175.781250
840,-175.781250
841,-175.781250
842,-175.781250
843,-175.781250
844,-175.781250
845,-175.781250
846,-175.781250
847,-175.781250
848,-175.781250
849,-175.781250
850,-175.781250
851,-175.781250
852,-171.875000
853,-171.875000
854,-171.875000
855,-171.875000
856,-171.875000
857,-171.875000
858,-171.875000
859,-171.875000
860,-171.875000
861,-171.875000
862,-171.875000
863,-167.968750
864,-171.875000
865,-167.968750
866,-167.968750
867,-167.968750
868,-167.968750
869,-167.968750
870,-167.968750
871,-167.968750
872,-164.062500
873,-167.968750
874,-164.062500
875,-164.062500
876,-164.062500
877,-164.062500
878,-164.062500
879,-164.062500
880,-164.062500
881,-160.156250
882,-160.156250
883,-160.156250
884,-160.156250
885,-160.156250
886,-160.156250
887,-160.156250
888,-160.156250
889,-156.250000
890,-156.250000
891,-156.250000
892,-156.250000
893,-156.250000
894,-156.250000
895,-156.250000
896,-152.343750
897,-152.343750
898,-152.343750
899,-152.343750
900,-152.343750
901,-148.437500
902,-148.437500
903,-148.437500
904,-148.437500
905,-148.437500
906,-148.437500
907,-144.531250
908,-144.531250
909,-144.531250
910,-144.531250
911,-144.531250
912,-144.531250
913,-144.531250
914,-140.625000
915,-140.625000
916,-140.625000
917,-140.625000
918,-140.625000
919,-136.718750
920,-136.718750
921,-136.718750
922,-136.718750
923,-136.718750
924,-136.718750
925,-132.812500
926,-132.812500
927,-132.812500
928,-132.812500
929,-132.812500
930,-128.906250
931,-128.906250
932,-128.906250
933,-128.906250
934,-128.906250
935,-125.000000
936,-125.000000
937,-125.000000
938,-125.000000
939,-121.093750
940,-121.093750
941,-121.093750
942,-121.093750
943,-121.093750
944,-121.093750
945,-117.187500
946,-117.187500
947,-117.187500
948,-117.187500
949,-113.281250
950,-113.281250
951,-113.281250
952,-113.281250
953,-109.375000
954,-109.375000
955,-109.375000
956,-109.375000
957,-109.375000
958,-105.468750
959,-105.468750
960,-105.468750
961,-105.468750
962,-101.562500
963,-101.562500
964,-101.562500
965,-101.562500
966,-97.656250
967,-97.656250
968,-97.656250
969,-97.656250
970,-97.656250
971,-93.750000
972,-93.750000
973,-93.750000
974,-89.843750
975,-89.843750
976,-89.843750
977,-89.843750
978,-89.843750
979,-85.937500
980,-85.937500
981,-85.937500
982,-85.937500
983,-82.031250
984,-82.031250
985,-82.031250
986,-82.031250
987,-82.031250
988,-78.125000
989,-78.125000
990,-78.125000
991,-74.218750
992,-74.218750
993,-74.218750
994,-74.218750
995,-70.312500
996,-70.312500
997,-70.312500
998,-66.406250
999,-70.312500
1000,-66.406250
1001,-66.406250
1002,-62.500000
1003,-62.500000
1004,-62.500000
1005,-62.500000
1006,-62.500000
1007,-58.593750
1008,-58.593750
1009,-58.593750
1010,-54.687500
1011,-54.687500
1012,-54.687500
1013,-54.687500
1014,-54.687500
1015,-50.781250
1016,-50.781250
1017,-50.781250
1018,-46.875000
1019,-46.875000
1020,-46.875000
1021,-42.968750
1022,-42.968750
1023,-42.968750
1024,-42.968750
1025,-42.968750
1026,-39.062500
1027,-39.062500
1028,-39.062500
1029,-35.156250
1030,-35.156250
1031,-35.156250
1032,-35.156250
1033,-31.250000
1034,-31.250000
1035,-31.250000
1036,-31.250000
1037,-31.250000
1038,-27.343750
1039,-27.343750
1040,-27.343750
1041,-23.437500
1042,-23.437500
1043,-23.437500
1044,-23.437500
1045,-19.531250
1046,-19.531250
1047,-19.531250
1048,-19.531250
1049,-19.531250
1050,-15.625000
1051,-15.625000
1052,-11.718750
1053,-11.718750
1054,-11.718750
1055,-11.718750
1056,-11.718750
1057,-7.812500
1058,-7.812500
1059,-7.812500
1060,-3.906250
1061,-3.906250
1062,-3.906250
1063,-3.906250
1064,-3.906250
1065,0.000000
1066,0.000000
1067,0.000000
1068,3.906250
1069,3.906250
1070,3.906250
1071,3.906250
1072,7.812500
1073,7.812500
1074,7.812500
1075,7.812500
1076,7.812500
1077,11.718750
1078,11.718750
1079,11.718750
1080,11.718750
1081,15.625000
1082,15.625000
1083,15.625000
1084,15.625000
1085,19.531250
1086,19.531250
1087,19.531250
1088,23.437500
1089,23.437500
1090,23.437500
1091,23.437500
1092,23.437500
1093,27.343750
1094,27.343750
1095,27.343750
1096,27.343750
1097,31.250000
1098,31.250000
1099,31.250000
1100,31.250000
1101,35.156250
1102,35.156250
1103,35.156250
1104,35.156250
1105,39.062500
1106,39.062500
1107,39.062500
1108,39.062500
1109,39.062500
1110,39.062500
1111,42.968750
1112,42.968750
1113,42.968750
1114,42.968750
1115,42.968750
1116,46.875000
1117,46.875000
1118,46.875000
1119,46.875000
1120,50.781250
1121,50.781250
1122,50.781250
1123,50.781250
1124,54.687500
1125,54.687500
1126,54.687500
1127,54.687500
1128,54.687500
1129,58.593750
1130,58.593750
1131,58.593750
1132,58.593750
1133,62.500000
1134,62.500000
1135,62.500000
1136,62.500000
1137,62.500000
1138,66.406250
1139,66.406250
1140,66.406250
1141,66.406250
1142,66.406250
1143,70.312500
1144,70.312500
1145,70.312500
1146,70.312500
1147,70.312500
1148,70.312500
1149,74.218750
1150,74.218750
1151,74.218750
1152,74.218750
1153,78.125000
1154,78.125000
1155,78.125000
1156,78.125000
1157,78.125000
1158,78.125000
1159,78.125000
1160,82.031250
1161,82.031250
1162,82.031250
1163,82.031250
1164,82.031250
1165,85.937500
1166,85.937500
1167,85.937500
1168,85.937500
1169,85.937500
1170,85.937500
1171,85.937500
1172,89.843750
1173,89.843750
1174,89.843750
1175,89.843750
1176,89.843750
1177,93.750000
1178,93.750000
1179,93.750000
1180,93.750000
1181,93.750000
1182,93.750000
1183,93.750000
1184,97.656250
1185,97.656250
1186,97.656250
1187,97.656250
1188,97.656250
1189,97.656250
1190,101.562500
1191,101.562500
1192,101.562500
1193,101.562500
1194,101.562500
1195,101.562500
1196,101.562500
1197,101.562500
1198,105.468750
1199,101.562500
1200,105.468750
1201,105.468750
1202,105.468750
1203,105.468750
1204,105.468750
1205,105.468750
1206,105.468750
1207,109.375000
1208,109.375000
1209,109.375000
1210,109.375000
1211,109.375000
1212,109.375000
1213,109.375000
1214,109.375000
1215,109.375000
1216,113.281250
1217,113.281250
1218,113.281250
1219,113.281250
1220,113.281250
1221,113.281250
1222,113.281250
1223,113.281250
1224,117.187500
1225,117.187500
1226,117.187500
1227,117.187500
1228,117.187500
1229,117.187500
1230,117.187500
1231,117.187500
1232,117.187500
1233,117.187500
1234,117.187500
1235,121.093750
1236,121.093750
1237,121.093750
1238,121.093750
1239,121.093750
1240,121.093750
1241,121.093750
1242,121.093750
1243,121.093750
1244,121.093750
1245,121.093750
1246,125.000000
1247,125.000000
1248,125.000000
1249,125.000000
1250,125.000000
1251,125.000000
1252,125.000000
1253,125.000000
1254,125.000000
1255,125.000000
1256,125.000000
1257,125.000000
1258,125.000000
1259,125.000000
1260,125.000000
1261,125.000000
1262,125.000000
1263,128.906250
1264,128.906250
1265,128.906250
1266,128.906250
1267,128.906250
1268,128.906250
1269,128.906250
1270,128.906250
1271,128.906250
1272,128.906250
1273,128.906250
1274,128.906250
1275,128.906250
1276,128.906250
1277,128.906250
1278,128.906250
1279,132.812500
1280,128.906250
1281,128.906250
1282,128.906250
1283,128.906250
1284,128.906250
1285,128.906250
1286,128.906250
1287,132.812500
1288,128.906250
1289,132.812500
1290,128.906250
1291,132.812500
1292,128.906250
1293,132.812500
1294,132.812500
1295,132.812500
1296,132.812500
1297,132.812500
1298,132.812500
1299,132.812500
1300,132.812500
1301,132.812500
1302,132.812500
1303,132.812500
1304,132.812500
1305,132.812500
1306,132.812500
1307,132.812500
1308,132.812500
1309,132.812500
1310,132.812500
1311,132.812500
1312,132.812500
1313,132.812500
1314,132.812500
1315,132.812500
1316,132.812500
1317,132.812500
1318,132.812500
1319,132.812500
1320,132.812500
1321,132.812500
1322,128.906250
1323,132.812500
1324,132.812500
1325,132.812500
1326,128.906250
1327,132.812500
1328,132.812500
1329,132.812500
1330,128.906250
1331,128.906250
1332,128.906250
1333,128.906250
1334,128.906250
1335,128.906250
1336,128.906250
1337,128.906250
1338,128.906250
1339,128.906250
1340,128.906250
1341,128.906250
1342,128.906250
1343,128.906250
1344,128.906250
1345,128.906250
1346,128.906250
1347,128.906250
1348,128.906250
1349,128.906250
1350,128.906250
1351,128.906250
1352,125.000000
1353,125.000000
1354,125.000000
1355,125.000000
1356,125.000000
1357,125.000000
1358,125.000000
1359,125.000000
1360,125.000000
1361,125.000000
1362,125.000000
1363,125.000000
1364,125.000000
1365,125.000000
1366,125.000000
1367,125.000000
1368,121.093750
1369,121.093750
1370,121.093750
1371,121.093750
1372,121.093750
1373,121.093750
1374,121.093750
1375,121.093750
1376,121.093750
1377,121.093750
1378,121.093750
1379,121.093750
1380,121.093750
1381,117.187500
1382,117.187500
1383,117.187500
1384,117.187500
1385,117.187500
1386,117.187500
1387,117.187500
1388,117.187500
1389,117.187500
1390,113.281250
1391,113.281250
1392,113.281250
1393,113.281250
1394,113.281250
1395,113.281250
1396,113.281250
1397,113.281250
1398,113.281250
1399,113.281250
1400,109.375000
1401,109.375000
1402,109.375000
1403,109.375000
1404,109.375000
1405,109.375000
1406,109.375000
1407,109.375000
1408,109.375000
1409,109.375000
1410,105.468750
1411,105.468750
1412,105.468750
1413,105.468750
1414,105.468750
1415,101.562500
1416,101.562500
1417,101.562500
1418,101.562500
1419,101.562500
1420,101.562500
1421,101.562500
1422,101.562500
1423,101.562500
1424,97.656250
1425,97.656250
1426,97.656250
1427,97.656250
1428,97.656250
1429,97.656250
1430,93.750000
1431,93.750000
1432,93.750000
1433,93.750000
1434,93.750000
1435,93.750000
1436,93.750000
1437,89.843750
1438,89.843750
1439,89.843750
1440,89.843750
1441,89.843750
1442,89.843750
1443,85.937500
1444,85.937500
1445,85.937500
1446,85.937500
1447,85.937500
1448,82.031250
1449,82.031250
1450,82.031250
1451,82.031250
1452,82.031250
1453,82.031250
1454,82.031250
1455,78.125000
1456,78.125000
1457,78.125000
1458,78.125000
1459,74.218750
1460,74.218750
1461,74.218750
1462,74.218750
1463,74.218750
1464,74.218750
1465,70.312500
1466,70.312500
1467,70.312500
1468,70.312500
1469,70.312500
1470,70.312500
1471,66.406250
1472,66.406250
1473,66.406250
1474,66.406250
1475,62.500000
1476,62.500000
1477,62.500000
1478,62.500000
1479,58.593750
1480,58.593750
1481,58.593750
1482,58.593750
1483,58.593750
1484,54.687500
1485,54.687500
1486,54.687500
1487,54.687500
1488,54.687500
1489,50.781250
1490,50.781250
1491,50.781250
1492,50.781250
1493,46.875000
1494,46.875000
1495,46.875000
1496,46.875000
1497,42.968750
1498,42.968750
1499,42.968750
1500,42.968750
1501,42.968750
1502,42.968750
1503,39.062500
1504,39.062500
1505,39.062500
1506,35.156250
1507,35.156250
1508,35.156250
1509,35.156250
1510,35.156250
1511,31.250000
1512,31.250000
1513,31.250000
1514,31.250000
1515,27.343750
1516,27.343750
1517,27.343750
1518,27.343750
1519,23.437500
1520,23.437500
1521,23.437500
1522,23.437500
1523,23.437500
1524,19.531250
1525,19.531250
1526,15.625000
1527,19.531250
1528,15.625000
1529,15.625000
1530,15.625000
1531,11.718750
1532,11.718750
1533,11.718750
1534,11.718750
1535,7.812500
1536,7.812500
1537,7.812500
1538,7.812500
1539,7.812500
1540,3.906250
1541,3.906250
1542,3.906250
1543,0.000000
1544,0.000000
1545,0.000000
1546,0.000000
1547,0.000000
1548,-3.906250
1549,-3.906250
1550,-7.812500
1551,-7.812500
1552,-7.812500
1553,-7.812500
1554,-7.812500
1555,-7.812500
1556,-11.718750
1557,-11.718750
1558,-15.625000
1559,-15.625000
1560,-15.625000
1561,-15.625000
1562,-19.531250
1563,-19.531250
1564,-19.531250
1565,-19.531250
1566,-19.531250
1567,-23.437500
1568,-23.437500
1569,-23.437500
1570,-27.343750
1571,-27.343750
1572,-27.343750
1573,-31.250000
1574,-31.250000
1575,-31.250000
1576,-31.250000
1577,-31.250000
1578,-35.156250
1579,-35.156250
1580,-35.156250
1581,-35.156250
1582,-39.062500
1583,-39.062500
1584,-39.062500
1585,-42.968750
1586,-42.968750
1587,-42.968750
1588,-42.968750
1589,-46.875000
1590,-46.875000
1591,-46.875000
1592,-50.781250
1593,-50.781250
1594,-50.781250
1595,-50.781250
1596,-54.687500
1597,-54.687500
1598,-54.687500
1599,-54.687500
1600,-58.593750
1601,-58.593750
1602,-58.593750
1603,-58.593750
1604,-62.500000
1605,-62.500000
1606,-62.500000
1607,-62.500000
1608,-66.406250
1609,-66.406250
1610,-66.406250
1611,-70.312500
1612,-70.312500
1613,-70.312500
1614,-70.312500
1615,-70.312500
1616,-74.218750
1617,-74.218750
1618,-74.218750
1619,-78.125000
1620,-78.125000
1621,-78.125000
1622,-78.125000
1623,-82.031250
1624,-82.031250
1625,-82.031250
1626,-82.031250
1627,-82.031250
1628,-85.937500
1629,-85.937500
1630,-85.937500
1631,-89.843750
1632,-89.843750
1633,-89.843750
1634,-89.843750
1635,-89.843750
1636,-93.750000
1637,-93.750000
1638,-93.750000
1639,-93.750000
1640,-97.656250
1641,-97.656250
1642,-97.656250
1643,-97.656250
1644,-101.562500
1645,-101.562500
1646,-101.562500
1647,-101.562500
1648,-105.468750
1649,-105.468750
1650,-105.468750
1651,-105.468750
1652,-105.468750
1653,-109.375000
1654,-109.375000
1655,-109.375000
1656,-109.375000
1657,-113.281250
1658,-113.281250
1659,-113.281250
1660,-113.281250
1661,-113.281250
1662,-117.187500
1663,-117.187500
1664,-117.187500
1665,-117.187500
1666,-121.093750
1667,-121.093750
1668,-121.093750
1669,-121.093750
1670,-121.093750
1671,-125.000000
1672,-125.000000
1673,-125.000000
1674,-125.000000
1675,-125.000000
1676,-128.906250
1677,-128.906250
1678,-128.906250
1679,-128.906250
1680,-132.812500
1681,-132.812500
1682,-132.812500
1683,-132.812500
1684,-132.812500
1685,-132.812500
1686,-136.718750
1687,-136.718750
1688,-136.718750
1689,-136.718750
1690,-140.625000
1691,-140.625000
1692,-140.625000
1693,-140.625000
1694,-140.625000
1695,-140.625000
1696,-140.625000
1697,-144.531250
1698,-144.531250
1699,-144.531250
1700,-144.531250
1701,-144.531250
1702,-148.437500
1703,-148.437500
1704,-148.437500
1705,-148.437500
1706,-148.437500
1707,-148.437500
1708,-152.343750
1709,-152.343750
1710,-152.343750
1711,-152.343750
1712,-152.343750
1713,-152.343750
1714,-152.343750
1715,-156.250000
1716,-156.250000
1717,-156.250000
1718,-156.250000
1719,-156.250000
1720,-160.156250
1721,-160.156250
1722,-160.156250
1723,-160.156250
1724,-160.156250
1725,-160.156250
1726,-160.156250
1727,-160.156250
1728,-164.062500
1729,-164.062500
1730,-164.062500
1731,-164.062500
1732,-164.062500
1733,-164.062500
1734,-164.062500
1735,-164.062500
1736,-167.968750
1737,-167.968750
1738,-167.968750
1739,-167.968750
1740,-167.968750
1741,-167.968750
1742,-167.968750
1743,-167.968750
1744,-167.968750
1745,-171.875000
1746,-171.875000
1747,-171.875000
1748,-171.875000
1749,-171.875000
1750,-171.875000
1751,-171.875000
1752,-171.875000
1753,-171.875000
1754,-171.875000
1755,-171.875000
1756,-171.875000
1757,-175.781250
1758,-171.875000
1759,-175.781250
1760,-175.781250
1761,-175.781250
1762,-175.781250
1763,-175.781250
1764,-175.781250
1765,-175.781250
1766,-175.781250
1767,-175.781250
1768,-175.781250
1769,-175.781250
1770,-175.781250
1771,-179.687500
1772,-179.687500
1773,-179.687500
1774,-175.781250
1775,-179.687500
1776,-179.687500
1777,-179.687500
1778,-179.687500
1779,-179.687500
1780,-179.687500
1781,-179.687500
1782,-179.687500
1783,-179.687500
1784,-179.687500
1785,-179.687500
1786,-179.687500
1787,-179.687500
1788,-179.687500
1789,-179.687500
1790,-179.687500
1791,-179.687500
1792,-179.687500
1793,-179.687500
1794,-179.687500
1795,-179.687500
1796,-179.687500
1797,-179.687500
1798,-179.687500
1799,-179.687500
1800,-179.687500
1801,-179.687500
1802,-179.687500
1803,-179.687500
1804,-179.687500
1805,-179.687500
1806,-179.687500
1807,-179.687500
1808,-179.687500
1809,-179.687500
1810,-179.687500
1811,-179.687500
1812,-179.687500
1813,-179.687500
1814,-179.687500
1815,-179.687500
1816,-179.687500
1817,-179.687500
1818,-179.687500
1819,-179.687500
1820,-179.687500
1821,-179.687500
1822,-179.687500
1823,-175.781250
1824,-179.687500
1825,-175.781250
1826,-175.781250
1827,-175.781250
1828,-175.781250
1829,-175.781250
1830,-175.781250
1831,-175.781250
1832,-175.781250
1833,-175.781250
1834,-175.781250
1835,-175.781250
1836,-175.781250
1837,-175.781250
1838,-171.875000
1839,-175.781250
1840,-175.781250
1841,-171.875000
1842,-175.781250
1843,-171.875000
1844,-171.875000
1845,-171.875000
1846,-171.875000
1847,-171.875000
1848,-171.875000
1849,-171.875000
1850,-171.875000
1851,-171.875000
1852,-171.875000
1853,-167.968750
1854,-167.968750
1855,-167.968750
1856,-167.968750
1857,-167.968750
1858,-167.968750
1859,-167.968750
1860,-167.968750
1861,-167.968750
1862,-164.062500
1863,-164.062500
1864,-164.062500
1865,-164.062500
1866,-164.062500
1867,-164.062500
1868,-164.062500
1869,-164.062500
1870,-160.156250
1871,-160.156250
1872,-160.156250
1873,-160.156250
1874,-160.156250
1875,-160.156250
1876,-160.156250
1877,-160.156250
1878,-160.156250
1879,-160.156250
1880,-156.250000
1881,-156.250000
1882,-156.250000
1883,-156.250000
1884,-156.250000
1885,-152.343750
1886,-152.343750
1887,-152.343750
1888,-152.343750
1889,-152.343750
1890,-152.343750
1891,-148.437500
1892,-148.437500
1893,-148.437500
1894,-148.437500
1895,-148.437500
1896,-148.437500
1897,-148.437500
1898,-144.531250
1899,-144.531250
1900,-144.531250
1901,-144.531250
1902,-144.531250
1903,-140.625000
1904,-140.625000
1905,-140.625000
1906,-140.625000
1907,-140.625000
1908,-136.718750
1909,-136.718750
1910,-136.718750
1911,-136.718750
1912,-136.718750
1913,-136.718750
1914,-132.812500
1915,-132.812500
1916,-132.812500
1917,-132.812500
1918,-132.812500
1919,-128.906250
1920,-128.906250
1921,-128.906250
1922,-128.906250
1923,-128.906250
1924,-125.000000
1925,-125.000000
1926,-125.000000
1927,-125.000000
1928,-125.000000
1929,-121.093750
1930,-121.093750
1931,-121.093750
1932,-121.093750
1933,-121.093750
1934,-117.187500
1935,-117.187500
1936,-117.187500
1937,-117.187500
1938,-113.281250
1939,-113.281250
1940,-113.281250
1941,-113.281250
1942,-113.281250
1943,-109.375000
1944,-109.375000
1945,-109.375000
1946,-109.375000
1947,-105.468750
1948,-105.468750
1949,-105.468750
1950,-105.468750
1951,-101.562500
1952,-101.562500
1953,-101.562500
1954,-101.562500
1955,-101.562500
1956,-97.656250
1957,-97.656250
1958,-97.656250
1959,-97.656250
1960,-93.750000
1961,-93.750000
1962,-93.750000
1963,-93.750000
1964,-93.750000
1965,-89.843750
1966,-89.843750
1967,-89.843750
1968,-89.843750
1969,-85.937500
1970,-85.937500
1971,-85.937500
1972,-82.031250
1973,-82.031250
1974,-82.031250
1975,-82.031250
1976,-82.031250
1977,-78.125000
1978,-78.125000
1979,-78.125000
1980,-78.125000
1981,-74.218750
1982,-74.218750
1983,-74.218750
1984,-70.312500
1985,-70.312500
1986,-70.312500
1987,-70.312500
1988,-70.312500
1989,-66.406250
1990,-66.406250
1991,-66.406250
1992,-66.406250
1993,-62.500000
1994,-62.500000
1995,-62.500000
1996,-62.500000
1997,-58.593750
1998,-58.593750
1999,-58.593750
2000,-58.593750
2001,-54.687500
2002,-54.687500
2003,-54.687500
2004,-54.687500
2005,-50.781250
2006,-50.781250
2007,-50.781250
2008,-50.781250
2009,-46.875000
2010,-46.875000
2011,-46.875000
2012,-42.968750
2013,-42.968750
2014,-42.968750
2015,-42.968750
2016,-39.062500
2017,-39.062500
2018,-39.062500
2019,-39.062500
2020,-35.156250
2021,-35.156250
2022,-35.156250
2023,-31.250000
2024,-31.250000
2025,-31.250000
2026,-31.250000
2027,-27.343750
2028,-27.343750
2029,-27.343750
2030,-27.343750
2031,-23.437500
2032,-23.437500
2033,-23.437500
2034,-23.437500
2035,-19.531250
2036,-19.531250
2037,-19.531250
2038,-19.531250
2039,-15.625000
2040,-15.625000
2041,-15.625000
2042,-15.625000
2043,-11.718750
2044,-11.718750
2045,-11.718750
2046,-11.718750
2047,-7.812500
2048,-7.812500
2049,-7.812500
2050,-3.906250
2051,-3.906250
2052,-3.906250
2053,-3.906250
2054,0.000000
2055,0.000000
2056,0.000000
2057,0.000000
2058,3.906250
2059,3.906250
2060,3.906250
2061,3.906250
2062,3.906250
2063,7.812500
2064,7.812500
2065,7.812500
2066,11.718750
2067,11.718750
2068,11.718750
2069,11.718750
2070,11.718750
2071,15.625000
2072,15.625000
2073,15.625000
2074,15.625000
2075,19.531250
2076,19.531250
2077,19.531250
2078,19.531250
2079,23.437500
2080,23.437500
2081,23.437500
2082,23.437500
2083,27.343750
2084,27.343750
2085,27.343750
2086,27.343750
2087,31.250000
2088,31.250000
2089,31.250000
2090,31.250000
2091,35.156250
2092,35.156250
2093,35.156250
2094,35.156250
2095,35.156250
2096,39.062500
2097,39.062500
2098,39.062500
2099,39.062500
2100,42.968750
2101,42.968750
2102,42.968750
2103,42.968750
2104,46.875000
2105,46.875000
2106,46.875000
2107,46.875000
2108,46.875000
2109,50.781250
2110,50.781250
2111,50.781250
2112,50.781250
2113,50.781250
2114,54.687500
2115,54.687500
2116,54.687500
2117,54.687500
2118,54.687500
2119,58.593750
2120,58.593750
2121,58.593750
2122,58.593750
2123,62.500000
2124,62.500000
2125,62.500000
2126,62.500000
2127,62.500000
2128,62.500000
2129,66.406250
2130,66.406250
2131,66.406250
2132,66.406250
2133,70.312500
2134,70.312500
2135,70.312500
2136,70.312500
2137,70.312500
2138,70.312500
2139,74.218750
2140,74.218750
2141,74.218750
2142,74.218750
2143,74.218750
2144,78.125000
2145,78.125000
2146,78.125000
2147,78.125000
2148,78.125000
2149,78.125000
2150,82.031250
2151,82.031250
2152,82.031250
2153,82.031250
2154,82.031250
2155,85.937500
2156,85.937500
2157,85.937500
2158,85.937500
2159,85.937500
2160,85.937500
2161,89.843750
2162,89.843750
2163,89.843750
2164,89.843750
2165,89.843750
2166,89.843750
2167,89.843750
2168,93.750000
2169,93.750000
2170,93.750000
2171,93.750000
2172,93.750000
2173,97.656250
2174,97.656250
2175,97.656250
2176,97.656250
2177,97.656250
2178,97.656250
2179,97.656250
2180,101.562500
2181,101.562500
2182,101.562500
2183,101.562500
2184,101.562500
2185,101.562500
2186,101.562500
2187,105.468750
2188,105.468750
2189,105.468750
2190,105.468750
2191,105.468750
2192,105.468750
2193,105.468750
2194,105.468750
2195,109.375000
2196,109.375000
2197,109.375000
2198,109.375000
2199,109.375000
2200,109.375000
2201,109.375000
2202,109.375000
2203,113.281250
2204,113.281250
2205,113.281250
2206,113.281250
2207,113.281250
2208,113.281250
2209,113.281250
2210,113.281250
2211,113.281250
2212,117.187500
2213,117.187500
2214,117.187500
2215,117.187500
2216,117.187500
2217,117.187500
2218,117.187500
2219,117.187500
2220,117.187500
2221,117.187500
2222,117.187500
2223,121.093750
2224,121.093750
2225,121.093750
2226,121.093750
2227,121.093750
2228,121.093750
2229,121.093750
2230,121.093750
2231,121.093750
2232,121.093750
2233,121.093750
2234,121.093750
2235,125.000000
2236,125.000000
2237,125.000000
2238,125.000000
2239,125.000000
2240,125.000000
2241,125.000000
2242,125.000000
2243,125.000000
2244,125.000000
2245,125.000000
2246,125.000000
2247,125.000000
2248,125.000000
2249,125.000000
2250,125.000000
2251,128.906250
2252,125.000000
2253,128.906250
2254,128.906250
2255,128.906250
2256,128.906250
2257,128.906250
2258,128.906250
2259,128.906250
2260,128.906250
2261,128.906250
2262,128.906250
2263,128.906250
2264,128.906250
2265,128.906250
2266,128.906250
2267,128.906250
2268,128.906250
2269,128.906250
2270,128.906250
2271,128.906250
2272,128.906250
2273,132.812500
2274,128.906250
2275,132.812500
2276,128.906250
2277,132.812500
2278,132.812500
2279,132.812500
2280,128.906250
2281,132.812500
2282,132.812500
2283,132.812500
2284,132.812500
2285,132.812500
2286,132.812500
2287,132.812500
2288,132.812500
2289,132.812500
2290,132.812500
2291,132.812500
2292,132.812500
2293,132.812500
2294,132.812500
2295,132.812500
2296,132.812500
2297,132.812500
2298,132.812500
2299,132.812500
2300,132.812500
2301,132.812500
2302,132.812500
2303,132.812500
2304,132.812500
2305,132.812500
2306,132.812500
2307,132.812500
2308,132.812500
2309,132.812500
2310,132.812500
2311,132.812500
2312,132.812500
2313,132.812500
2314,132.812500
2315,132.812500
2316,132.812500
2317,132.812500
2318,132.812500
2319,132.812500
2320,128.906250
2321,132.812500
2322,128.906250
2323,132.812500
2324,128.906250
2325,132.812500
2326,128.906250
2327,128.906250
2328,128.906250
2329,128.906250
2330,128.906250
2331,128.906250
2332,128.906250
2333,128.906250
2334,128.906250
2335,128.906250
2336,128.906250
2337,128.906250
2338,128.906250
2339,128.906250
2340,128.906250
2341,128.906250
2342,128.906250
2343,125.000000
2344,128.906250
2345,128.906250
2346,125.000000
2347,125.000000
2348,125.000000
2349,125.000000
2350,125.000000
2351,125.000000
2352,125.000000
2353,125.000000
2354,125.000000
2355,125.000000
2356,125.000000
2357,125.000000
2358,121.093750
2359,121.093750
2360,121.093750
2361,121.093750
2362,121.093750
2363,121.093750
2364,121.093750
2365,121.093750
2366,121.093750
2367,121.093750
2368,121.093750
2369,121.093750
2370,117.187500
2371,117.187500
2372,117.187500
2373,117.187500
2374,117.187500
2375,117.187500
2376,117.187500
2377,117.187500
2378,117.187500
2379,117.187500
2380,117.187500
2381,113.281250
2382,113.281250
2383,113.281250
2384,113.281250
2385,113.281250
2386,113.281250
2387,113.281250
2388,113.281250
2389,113.281250
2390,109.375000
2391,109.375000
2392,109.375000
2393,109.375000
2394,109.375000
2395,109.375000
2396,109.375000
2397,109.375000
2398,105.468750
2399,105.468750
2400,105.468750
2401,105.468750
2402,105.468750
2403,105.468750
2404,105.468750
2405,105.468750
2406,105.468750
2407,101.562500
2408,101.562500
2409,101.562500
2410,101.562500
2411,101.562500
2412,101.562500
2413,101.562500
2414,97.656250
2415,97.656250
2416,97.656250
2417,97.656250
2418,97.656250
2419,97.656250
2420,93.750000
2421,93.750000
2422,93.750000
2423,93.750000
2424,93.750000
2425,93.750000
2426,93.750000
2427,89.843750
2428,89.843750
2429,89.843750
2430,89.843750
2431,89.843750
2432,85.937500
2433,85.937500
2434,85.937500
2435,85.937500
2436,85.937500
2437,85.937500
2438,82.031250
2439,82.031250
2440,82.031250
2441,82.031250
2442,82.031250
2443,82.031250
2444,78.125000
2445,78.125000
2446,78.125000
2447,78.125000
2448,78.125000
2449,78.125000
2450,74.218750
2451,74.218750
2452,74.218750
2453,74.218750
2454,74.218750
2455,70.312500
2456,70.312500
2457,70.312500
2458,70.312500
2459,66.406250
2460,66.406250
2461,66.406250
2462,66.406250
2463,66.406250
2464,66.406250
2465,62.500000
2466,62.500000
2467,62.500000
2468,62.500000
2469,62.500000
2470,58.593750
2471,58.593750
2472,58.593750
2473,58.593750
2474,58.593750
2475,54.687500
2476,54.687500
2477,54.687500
2478,54.687500
2479,50.781250
2480,50.781250
2481,50.781250
2482,50.781250
2483,50.781250
2484,46.875000
2485,46.875000
2486,46.875000
2487,46.875000
2488,42.968750
2489,42.968750
2490,42.968750
2491,42.968750
2492,39.062500
2493,39.062500
2494,39.062500
2495,39.062500
2496,35.156250
2497,35.156250
2498,35.156250
2499,35.156250
2500,31.250000
2501,31.250000
2502,31.250000
2503,31.250000
2504,31.250000
2505,27.343750
2506,27.343750
2507,27.343750
2508,27.343750
2509,23.437500
2510,23.437500
2511,23.437500
2512,19.531250
2513,19.531250
2514,19.531250
2515,19.531250
2516,19.531250
2517,15.625000
2518,15.625000
2519,15.625000
2520,11.718750
2521,11.718750
2522,11.718750
2523,11.718750
2524,11.718750
2525,7.812500
2526,7.812500
2527,7.812500
2528,7.812500
2529,3.906250
2530,3.906250
2531,3.906250
2532,0.000000
2533,0.000000
2534,0.000000
2535,0.000000
2536,-3.906250
2537,-3.906250
2538,-3.906250
2539,-3.906250
2540,-7.812500
2541,-7.812500
2542,-7.812500
2543,-7.812500
2544,-7.812500
2545,-11.718750
2546,-11.718750
2547,-11.718750
2548,-15.625000
2549,-15.625000
2550,-15.625000
2551,-15.625000
2552,-19.531250
2553,-19.531250
2554,-19.531250
2555,-19.531250
2556,-23.437500
2557,-23.437500
2558,-23.437500
2559,-23.437500
2560,-27.343750
2561,-27.343750
2562,-27.343750
2563,-27.343750
2564,-31.250000
2565,-31.250000
2566,-31.250000
2567,-35.156250
2568,-35.156250
2569,-35.156250
2570,-35.156250
2571,-39.062500
2572,-39.062500
2573,-39.062500
2574,-42.968750
2575,-42.968750
2576,-42.968750
2577,-42.968750
2578,-46.875000
2579,-46.875000
2580,-46.875000
2581,-46.875000
2582,-50.781250
2583,-50.781250
2584,-50.781250
2585,-50.781250
2586,-54.687500
2587,-54.687500
2588,-54.687500
2589,-54.687500
2590,-58.593750
2591,-58.593750
2592,-58.593750
2593,-58.593750
2594,-62.500000
2595,-62.500000
2596,-66.406250
2597,-62.500000
2598,-66.406250
2599,-66.406250
2600,-66.406250
2601,-70.312500
2602,-70.312500
2603,-70.312500
2604,-70.312500
2605,-74.218750
2606,-74.218750
2607,-74.218750
2608,-74.218750
2609,-78.125000
2610,-78.125000
2611,-78.125000
2612,-78.125000
2613,-82.031250
2614,-82.031250
2615,-82.031250
2616,-82.031250
2617,-85.937500
2618,-85.937500
2619,-85.937500
2620,-85.937500
2621,-89.843750
2622,-89.843750
2623,-89.843750
2624,-89.843750
2625,-93.750000
2626,-93.750000
2627,-93.750000
2628,-93.750000
2629,-97.656250
2630,-97.656250
2631,-97.656250
2632,-97.656250
2633,-97.656250
2634,-101.562500
2635,-101.562500
2636,-101.562500
2637,-101.562500
2638,-105.468750
2639,-105.468750
2640,-105.468750
2641,-105.468750
2642,-109.375000
2643,-109.375000
2644,-109.375000
2645,-109.375000
2646,-113.281250
2647,-109.375000
2648,-113.281250
2649,-113.281250
2650,-113.281250
2651,-117.187500
2652,-117.187500
2653,-117.187500
2654,-117.187500
2655,-121.093750
2656,-121.093750
2657,-121.093750
2658,-121.093750
2659,-121.093750
2660,-121.093750
2661,-125.000000
2662,-125.000000
2663,-125.000000
2664,-125.000000
2665,-128.906250
2666,-128.906250
2667,-128.906250
2668,-128.906250
2669,-128.906250
2670,-132.812500
2671,-132.812500
2672,-132.812500
2673,-132.812500
2674,-136.718750
2675,-136.718750
2676,-136.718750
2677,-136.718750
2678,-136.718750
2679,-136.718750
2680,-140.625000
2681,-136.718750
2682,-140.625000
2683,-140.625000
2684,-140.625000
2685,-140.625000
2686,-144.531250
2687,-144.531250
2688,-144.531250
2689,-144.531250
2690,-144.531250
2691,-144.531250
2692,-148.437500
2693,-148.437500
2694,-148.437500
2695,-148.437500
2696,-152.343750
2697,-152.343750
2698,-156.250000
2699,-152.343750
2700,-152.343750
2701,-152.343750
2702,-152.343750
2703,-152.343750
2704,-156.250000
2705,-156.250000
2706,-156.250000
2707,-156.250000
2708,-156.250000
2709,-156.250000
2710,-156.250000
2711,-160.156250
2712,-160.156250
2713,-160.156250
2714,-160.156250
2715,-160.156250
2716,-160.156250
2717,-164.062500
2718,-160.156250
2719,-164.062500
2720,-164.062500
2721,-164.062500
2722,-164.062500
2723,-164.062500
2724,-164.062500
2725,-164.062500
2726,-164.062500
2727,-167.968750
2728,-167.968750
2729,-167.968750
2730,-167.968750
2731,-167.968750
2732,-167.968750
2733,-167.968750
2734,-167.968750
2735,-171.875000
2736,-171.875000
2737,-171.875000
2738,-171.875000
2739,-171.875000
2740,-171.875000
2741,-171.875000
2742,-171.875000
2743,-171.875000
2744,-171.875000
2745,-175.781250
2746,-175.781250
2747,-171.875000
2748,-175.781250
2749,-175.781250
2750,-175.781250
2751,-175.781250
2752,-175.781250
2753,-175.781250
2754,-175.781250
2755,-175.781250
2756,-175.781250
2757,-175.781250
2758,-175.781250
2759,-175.781250
2760,-175.781250
2761,-175.781250
2762,-175.781250
2763,-179.687500
2764,-179.687500
2765,-175.781250
2766,-179.687500
2767,-179.687500
2768,-179.687500
2769,-179.687500
2770,-179.687500
2771,-179.687500
2772,-179.687500
2773,-179.687500
2774,-179.687500
2775,-179.687500
2776,-179.687500
2777,-179.687500
2778,-179.687500
2779,-179.687500
2780,-179.687500
2781,-179.687500
2782,-179.687500
2783,-179.687500
2784,-179.687500
2785,-179.687500
2786,-179.687500
2787,-179.687500
2788,-179.687500
2789,-179.687500
2790,-179.687500
2791,-179.687500
2792,-179.687500
2793,-179.687500
2794,-179.687500
2795,-179.687500
2796,-179.687500
2797,-179.687500
2798,-179.687500
2799,-179.687500
2800,-179.687500
2801,-179.687500
2802,-179.687500
2803,-179.687500
2804,-179.687500
2805,-179.687500
2806,-179.687500
2807,-179.687500
2808,-179.687500
2809,-179.687500
2810,-179.687500
2811,-179.687500
2812,-175.781250
2813,-179.687500
2814,-179.687500
2815,-179.687500
2816,-179.687500
2817,-175.781250
2818,-175.781250
2819,-175.781250
2820,-175.781250
2821,-175.781250
2822,-175.781250
2823,-175.781250
2824,-175.781250
2825,-175.781250
2826,-175.781250
2827,-175.781250
2828,-175.781250
2829,-175.781250
2830,-175.781250
2831,-175.781250
2832,-175.781250
2833,-171.875000
2834,-171.875000
2835,-171.875000
2836,-171.875000
2837,-171.875000
2838,-171.875000
2839,-171.875000
2840,-171.875000
2841,-171.875000
2842,-167.968750
2843,-167.968750
2844,-167.968750
2845,-167.968750
2846,-167.968750
2847,-167.968750
2848,-167.968750
2849,-167.968750
2850,-167.968750
2851,-164.062500
2852,-167.968750
2853,-164.062500
2854,-164.062500
2855,-164.062500
2856,-164.062500
2857,-164.062500
2858,-164.062500
2859,-164.062500
2860,-160.156250
2861,-160.156250
2862,-160.156250
2863,-160.156250
2864,-160.156250
2865,-160.156250
2866,-160.156250
2867,-160.156250
2868,-156.250000
2869,-156.250000
2870,-156.250000
2871,-156.250000
2872,-156.250000
2873,-156.250000
2874,-156.250000
2875,-152.343750
2876,-152.343750
2877,-152.343750
2878,-152.343750
2879,-152.343750
2880,-152.343750
2881,-148.437500
2882,-148.437500
2883,-148.437500
2884,-148.437500
2885,-148.437500
2886,-148.437500
2887,-148.437500
2888,-144.531250
2889,-144.531250
2890,-144.531250
2891,-144.531250
2892,-144.531250
2893,-140.625000
2894,-140.625000
2895,-140.625000
2896,-140.625000
2897,-140.625000
2898,-140.625000
2899,-136.718750
2900,-136.718750
2901,-136.718750
2902,-136.718750
2903,-136.718750
2904,-132.812500
2905,-132.812500
2906,-132.812500
2907,-132.812500
2908,-128.906250
2909,-128.906250
2910,-128.906250
2911,-128.906250
2912,-128.906250
2913,-128.906250
2914,-125.000000
2915,-125.000000
2916,-125.000000
2917,-125.000000
2918,-125.000000
2919,-121.093750
2920,-121.093750
2921,-121.093750
2922,-121.093750
2923,-117.187500
2924,-117.187500
2925,-117.187500
2926,-117.187500
2927,-117.187500
2928,-113.281250
2929,-113.281250
2930,-113.281250
2931,-109.375000
2932,-109.375000
2933,-109.375000
2934,-109.375000
2935,-109.375000
2936,-109.375000
2937,-105.468750
2938,-105.468750
2939,-105.468750
2940,-105.468750
2941,-101.562500
2942,-101.562500
2943,-101.562500
2944,-101.562500
2945,-101.562500
2946,-97.656250
2947,-97.656250
2948,-97.656250
2949,-93.750000
2950,-93.750000
2951,-93.750000
2952,-93.750000
2953,-93.750000
2954,-93.750000
2955,-89.843750
2956,-89.843750
2957,-89.843750
2958,-85.937500
2959,-85.937500
2960,-85.937500
2961,-85.937500
2962,-82.031250
2963,-82.031250
2964,-82.031250
2965,-82.031250
2966,-82.031250
2967,-78.125000
2968,-78.125000
2969,-78.125000
2970,-74.218750
2971,-74.218750
2972,-74.218750
2973,-74.218750
2974,-70.312500
2975,-70.312500
2976,-70.312500
2977,-70.312500
2978,-66.406250
2979,-66.406250
2980,-66.406250
2981,-66.406250
2982,-62.500000
2983,-62.500000
2984,-62.500000
2985,-62.500000
2986,-58.593750
2987,-58.593750
2988,-58.593750
2989,-54.687500
2990,-54.687500
2991,-54.687500
2992,-54.687500
2993,-50.781250
2994,-50.781250
2995,-50.781250
2996,-50.781250
2997,-50.781250
2998,-46.875000
2999,-50.781250
3000,-46.875000
3001,-42.968750
3002,-42.968750
3003,-42.968750
3004,-42.968750
3005,-39.062500
3006,-39.062500
3007,-39.062500
3008,-39.062500
3009,-35.156250
3010,-35.156250
3011,-35.156250
3012,-31.250000
3013,-31.250000
3014,-31.250000
3015,-31.250000
3016,-31.250000
3017,-27.343750
3018,-27.343750
3019,-27.343750
3020,-27.343750
3021,-23.437500
3022,-23.437500
3023,-23.437500
3024,-23.437500
3025,-19.531250
3026,-19.531250
3027,-19.531250
3028,-19.531250
3029,-15.625000
3030,-15.625000
3031,-15.625000
3032,-15.625000
3033,-11.718750
3034,-11.718750
3035,-11.718750
3036,-7.812500
3037,-7.812500
3038,-7.812500
3039,-7.812500
3040,-3.906250
3041,-3.906250
3042,-3.906250
3043,-3.906250
3044,0.000000
3045,0.000000
3046,0.000000
3047,0.000000
3048,3.906250
3049,3.906250
3050,3.906250
3051,3.906250
3052,7.812500
3053,7.812500
3054,7.812500
3055,7.812500
3056,11.718750
3057,11.718750
3058,11.718750
3059,11.718750
3060,15.625000
3061,15.625000
3062,15.625000
3063,15.625000
3064,19.531250
3065,15.625000
3066,19.531250
3067,19.531250
3068,23.437500
3069,23.437500
3070,23.437500
3071,23.437500
3072,27.343750
3073,27.343750
3074,27.343750
3075,27.343750
3076,27.343750
3077,31.250000
3078,31.250000
3079,31.250000
3080,31.250000
3081,35.156250
3082,35.156250
3083,35.156250
3084,35.156250
3085,39.062500
3086,39.062500
3087,39.062500
3088,39.062500
3089,42.968750
3090,42.968750
3091,42.968750
3092,42.968750
3093,42.968750
3094,42.968750
3095,46.875000
3096,46.875000
3097,46.875000
3098,50.781250
3099,50.781250
3100,50.781250
3101,54.687500
3102,50.781250
3103,50.781250
3104,54.687500
3105,54.687500
3106,54.687500
3107,54.687500
3108,58.593750
3109,58.593750
3110,58.593750
3111,58.593750
3112,62.500000
3113,62.500000
3114,62.500000
3115,62.500000
3116,62.500000
3117,62.500000
3118,66.406250
3119,66.406250
3120,66.406250
3121,66.406250
3122,66.406250
3123,70.312500
3124,70.312500
3125,70.312500
3126,70.312500
3127,70.312500
3128,70.312500
3129,74.218750
3130,74.218750
3131,74.218750
3132,74.218750
3133,74.218750
3134,78.125000
3135,78.125000
3136,78.125000
3137,78.125000
3138,78.125000
3139,82.031250
3140,82.031250
3141,82.031250
3142,82.031250
3143,82.031250
3144,82.031250
3145,85.937500
3146,85.937500
3147,85.937500
3148,85.937500
3149,85.937500
3150,89.843750
3151,89.843750
3152,89.843750
3153,89.843750
3154,89.843750
3155,89.843750
3156,89.843750
3157,93.750000
3158,93.750000
3159,93.750000
3160,93.750000
3161,93.750000
3162,93.750000
3163,93.750000
3164,93.750000
3165,97.656250
3166,97.656250
3167,97.656250
3168,97.656250
3169,97.656250
3170,97.656250
3171,97.656250
3172,101.562500
3173,101.562500
3174,101.562500
3175,101.562500
3176,101.562500
3177,101.562500
3178,105.468750
3179,105.468750
3180,105.468750
3181,105.468750
3182,105.468750
3183,105.468750
3184,105.468750
3185,109.375000
3186,109.375000
3187,105.468750
3188,109.375000
3189,109.375000
3190,109.375000
3191,109.375000
3192,109.375000
3193,109.375000
3194,113.281250
3195,113.281250
3196,113.281250
3197,113.281250
3198,113.281250
3199,113.281250
3200,113.281250
3201,113.281250
3202,113.281250
3203,113.281250
3204,113.281250
3205,117.187500
3206,117.187500
3207,117.187500
3208,117.187500
3209,117.187500
3210,117.187500
3211,117.187500
3212,117.187500
3213,121.093750
3214,117.187500
3215,121.093750
3216,121.093750
3217,121.093750
3218,121.093750
3219,121.093750
3220,121.093750
3221,121.093750
3222,121.093750
3223,121.093750
3224,121.093750
3225,121.093750
3226,125.000000
3227,121.093750
3228,125.000000
3229,121.093750
3230,125.000000
3231,125.000000
3232,125.000000
3233,125.000000
3234,125.000000
3235,125.000000
3236,125.000000
3237,125.000000
3238,125.000000
3239,128.906250
3240,125.000000
3241,128.906250
3242,125.000000
3243,128.906250
3244,125.000000
3245,128.906250
3246,128.906250
3247,128.906250
3248,128.906250
3249,128.906250
3250,128.906250
3251,128.906250
3252,128.906250
3253,128.906250
3254,128.906250
3255,128.906250
3256,128.906250
3257,128.906250
3258,128.906250
3259,128.906250
3260,128.906250
3261,132.812500
3262,128.906250
3263,132.812500
3264,128.906250
3265,132.812500
3266,128.906250
3267,132.812500
3268,128.906250
3269,128.906250
3270,128.906250
3271,132.812500
3272,128.906250
3273,132.812500
3274,128.906250
3275,132.812500
3276,128.906250
3277,132.812500
3278,132.812500
3279,132.812500
3280,132.812500
3281,132.812500
3282,128.906250
3283,132.812500
3284,132.812500
3285,132.812500
3286,132.812500
3287,132.812500
3288,132.812500
3289,132.812500
3290,132.812500
3291,132.812500
3292,128.906250
3293,132.812500
3294,132.812500
3295,132.812500
3296,132.812500
3297,132.812500
3298,132.812500
3299,132.812500
3300,128.906250
3301,132.812500
3302,132.812500
3303,128.906250
3304,128.906250
3305,132.812500
3306,128.906250
3307,132.812500
3308,128.906250
3309,132.812500
3310,128.906250
3311,128.906250
3312,128.906250
3313,128.906250
3314,128.906250
3315,128.906250
3316,128.906250
3317,128.906250
3318,128.906250
3319,128.906250
3320,128.906250
3321,128.906250
3322,128.906250
3323,128.906250
3324,128.906250
3325,128.906250
3326,128.906250
3327,128.906250
3328,125.000000
3329,128.906250
3330,125.000000
3331,128.906250
3332,125.000000
3333,125.000000
3334,125.000000
3335,125.000000
3336,125.000000
3337,125.000000
3338,125.000000
3339,125.000000
3340,125.000000
3341,125.000000
3342,125.000000
3343,125.000000
3344,125.000000
3345,125.000000
3346,121.093750
3347,121.093750
3348,125.000000
3349,121.093750
3350,121.093750
3351,121.093750
3352,121.093750
3353,121.093750
3354,121.093750
3355,121.093750
3356,121.093750
3357,121.093750
3358,121.093750
3359,121.093750
3360,117.187500
3361,117.187500
3362,117.187500
3363,117.187500
3364,117.187500
3365,117.187500
3366,117.187500
3367,117.187500
3368,117.187500
3369,117.187500
3370,113.281250
3371,113.281250
3372,113.281250
3373,113.281250
3374,113.281250
3375,113.281250
3376,113.281250
3377,113.281250
3378,109.375000
3379,113.281250
3380,109.375000
3381,109.375000
3382,109.375000
3383,109.375000
3384,109.375000
3385,109.375000
3386,109.375000
3387,109.375000
3388,105.468750
3389,105.468750
3390,105.468750
3391,105.468750
3392,105.468750
3393,105.468750
3394,101.562500
3395,101.562500
3396,101.562500
3397,101.562500
3398,101.562500
3399,101.562500
3400,101.562500
3401,101.562500
3402,97.656250
3403,97.656250
3404,97.656250
3405,97.656250
3406,97.656250
3407,97.656250
3408,97.656250
3409,93.750000
3410,93.750000
3411,93.750000
3412,93.750000
3413,93.750000
3414,93.750000
3415,93.750000
3416,89.843750
3417,89.843750
3418,89.843750
3419,89.843750
3420,89.843750
3421,89.843750
3422,85.937500
3423,85.937500
3424,85.937500
3425,85.937500
3426,85.937500
3427,85.937500
3428,82.031250
3429,82.031250
3430,82.031250
3431,82.031250
3432,82.031250
3433,78.125000
3434,78.125000
3435,78.125000
3436,78.125000
3437,78.125000
3438,74.218750
3439,74.218750
3440,74.218750
3441,74.218750
3442,74.218750
3443,74.218750
3444,70.312500
3445,70.312500
3446,70.312500
3447,70.312500
3448,70.312500
3449,70.312500
3450,66.406250
3451,66.406250
3452,66.406250
3453,66.406250
3454,62.500000
3455,62.500000
3456,62.500000
3457,62.500000
3458,62.500000
3459,58.593750
3460,58.593750
3461,58.593750
3462,58.593750
3463,58.593750
3464,54.687500
3465,54.687500
3466,54.687500
3467,54.687500
3468,50.781250
3469,50.781250
3470,50.781250
3471,50.781250
3472,50.781250
3473,46.875000
3474,46.875000
3475,46.875000
3476,46.875000
3477,42.968750
3478,42.968750
3479,42.968750
3480,42.968750
3481,42.968750
3482,39.062500
3483,39.062500
3484,39.062500
3485,39.062500
3486,35.156250
3487,39.062500
3488,35.156250
3489,35.156250
3490,31.250000
3491,31.250000
3492,31.250000
3493,31.250000
3494,31.250000
3495,27.343750
3496,27.343750
3497,27.343750
3498,27.343750
3499,23.437500
3500,23.437500
3501,23.437500
3502,23.437500
3503,19.531250
3504,19.531250
3505,19.531250
3506,19.531250
3507,15.625000
3508,15.625000
3509,15.625000
3510,11.718750
3511,11.718750
3512,11.718750
3513,11.718750
3514,11.718750
3515,7.812500
3516,7.812500
3517,7.812500
3518,7.812500
3519,3.906250
3520,3.906250
3521,3.906250
3522,3.906250
3523,0.000000
3524,0.000000
3525,0.000000
3526,0.000000
3527,-3.906250
3528,-3.906250
3529,-3.906250
3530,-7.812500
3531,-7.812500
3532,-7.812500
3533,-7.812500
3534,-7.812500
3535,-11.718750
3536,-11.718750
3537,-11.718750
3538,-15.625000
3539,-15.625000
3540,-15.625000
3541,-15.625000
3542,-19.531250
3543,-19.531250
3544,-19.531250
3545,-23.437500
3546,-23.437500
3547,-23.437500
3548,-23.437500
3549,-23.437500
3550,-27.343750
3551,-27.343750
3552,-27.343750
3553,-31.250000
3554,-31.250000
3555,-31.250000
3556,-31.250000
3557,-35.156250
3558,-35.156250
3559,-35.156250
3560,-35.156250
3561,-39.062500
3562,-39.062500
3563,-39.062500
3564,-42.968750
3565,-42.968750
3566,-42.968750
3567,-42.968750
3568,-46.875000
3569,-46.875000
3570,-46.875000
3571,-46.875000
3572,-50.781250
3573,-50.781250
3574,-50.781250
3575,-54.687500
3576,-54.687500
3577,-54.687500
3578,-54.687500
3579,-58.593750
3580,-58.593750
3581,-58.593750
3582,-58.593750
3583,-62.500000
3584,-62.500000
3585,-62.500000
3586,-62.500000
3587,-66.406250
3588,-66.406250
3589,-66.406250
3590,-66.406250
3591,-70.312500
3592,-70.312500
3593,-70.312500
3594,-70.312500
3595,-70.312500
3596,-74.218750
3597,-74.218750
3598,-74.218750
3599,-78.125000
3600,-78.125000
3601,-78.125000
3602,-82.031250
3603,-82.031250
3604,-82.031250
3605,-82.031250
3606,-82.031250
3607,-85.937500
3608,-85.937500
3609,-85.937500
3610,-85.937500
3611,-85.937500
3612,-89.843750
3613,-89.843750
3614,-89.843750
3615,-93.750000
3616,-93.750000
3617,-93.750000
3618,-93.750000
3619,-97.656250
3620,-97.656250
3621,-97.656250
3622,-97.656250
3623,-97.656250
3624,-101.562500
3625,-101.562500
3626,-101.562500
3627,-101.562500
3628,-105.468750
3629,-105.468750
3630,-105.468750
3631,-105.468750
3632,-109.375000
3633,-109.375000
3634,-109.375000
3635,-113.281250
3636,-109.375000
3637,-113.281250
3638,-113.281250
3639,-113.281250
3640,-117.187500
3641,-117.187500
3642,-117.187500
3643,-117.187500
3644,-117.187500
3645,-117.187500
3646,-121.093750
3647,-121.093750
3648,-121.093750
3649,-121.093750
3650,-121.093750
3651,-125.000000
3652,-125.000000
3653,-125.000000
3654,-125.000000
3655,-128.906250
3656,-128.906250
3657,-128.906250
3658,-128.906250
3659,-128.906250
3660,-132.812500
3661,-132.812500
3662,-132.812500
3663,-132.812500
3664,-136.718750
3665,-136.718750
3666,-136.718750
3667,-136.718750
3668,-136.718750
3669,-136.718750
3670,-140.625000
3671,-140.625000
3672,-140.625000
3673,-140.625000
3674,-140.625000
3675,-140.625000
3676,-144.531250
3677,-144.531250
3678,-144.531250
3679,-144.531250
3680,-144.531250
3681,-144.531250
3682,-148.437500
3683,-148.437500
3684,-148.437500
3685,-148.437500
3686,-152.343750
3687,-152.343750
3688,-152.343750
3689,-152.343750
3690,-152.343750
3691,-152.343750
3692,-152.343750
3693,-152.343750
3694,-152.343750
3695,-156.250000
3696,-156.250000
3697,-156.250000
3698,-156.250000
3699,-156.250000
3700,-160.156250
3701,-160.156250
3702,-156.250000
3703,-160.156250
3704,-160.156250
3705,-160.156250
3706,-160.156250
3707,-160.156250
3708,-164.062500
3709,-164.062500
3710,-164.062500
3711,-164.062500
3712,-164.062500
3713,-164.062500
3714,-164.062500
3715,-164.062500
3716,-164.062500
3717,-167.968750
3718,-167.968750
3719,-167.968750
3720,-167.968750
3721,-167.968750
3722,-167.968750
3723,-167.968750
3724,-167.968750
3725,-167.968750
3726,-167.968750
3727,-171.875000
3728,-171.875000
3729,-171.875000
3730,-171.875000
3731,-171.875000
3732,-171.875000
3733,-171.875000
3734,-171.875000
3735,-171.875000
3736,-171.875000
3737,-171.875000
3738,-171.875000
3739,-175.781250
3740,-175.781250
3741,-175.781250
3742,-175.781250
3743,-175.781250
3744,-175.781250
3745,-175.781250
3746,-175.781250
3747,-175.781250
3748,-175.781250
3749,-175.781250
3750,-175.781250
3751,-175.781250
3752,-175.781250
3753,-175.781250
3754,-175.781250
3755,-175.781250
3756,-175.781250
3757,-179.687500
3758,-179.687500
3759,-179.687500
3760,-179.687500
3761,-179.687500
3762,-179.687500
3763,-179.687500
3764,-179.687500
3765,-179.687500
3766,-179.687500
3767,-179.687500
3768,-179.687500
3769,-179.687500
3770,-179.687500
3771,-179.687500
3772,-179.687500
3773,-179.687500
3774,-179.687500
3775,-179.687500
3776,-179.687500
3777,-179.687500
3778,-179.687500
3779,-179.687500
3780,-179.687500
3781,-179.687500
3782,-179.687500
3783,-179.687500
3784,-179.687500
3785,-179.687500
3786,-179.687500
3787,-179.687500
3788,-179.687500
3789,-179.687500
3790,-179.687500
3791,-179.687500
3792,-179.687500
3793,-179.687500
3794,-179.687500
3795,-179.687500
3796,-179.687500
3797,-179.687500
3798,-179.687500
3799,-179.687500
3800,-179.687500
3801,-179.687500
3802,-175.781250
3803,-179.687500
3804,-179.687500
3805,-175.781250
3806,-175.781250
3807,-175.781250
3808,-175.781250
3809,-175.781250
3810,-175.781250
3811,-175.781250
3812,-175.781250
3813,-175.781250
3814,-175.781250
3815,-175.781250
3816,-175.781250
3817,-175.781250
3818,-175.781250
3819,-175.781250
3820,-175.781250
3821,-171.875000
3822,-171.875000
3823,-171.875000
3824,-171.875000
3825,-171.875000
3826,-171.875000
3827,-171.875000
3828,-171.875000
3829,-171.875000
3830,-171.875000
3831,-171.875000
3832,-167.968750
3833,-167.968750
3834,-167.968750
3835,-167.968750
3836,-167.968750
3837,-167.968750
3838,-167.968750
3839,-167.968750
3840,-164.062500
3841,-167.968750
3842,-164.062500
3843,-164.062500
3844,-164.062500
3845,-164.062500
3846,-164.062500
3847,-164.062500
3848,-164.062500
3849,-164.062500
3850,-160.156250
3851,-160.156250
3852,-160.156250
3853,-160.156250
3854,-160.156250
3855,-160.156250
3856,-160.156250
3857,-156.250000
3858,-156.250000
3859,-156.250000
3860,-156.250000
3861,-156.250000
3862,-156.250000
3863,-156.250000
3864,-152.343750
3865,-152.343750
3866,-152.343750
3867,-152.343750
3868,-152.343750
3869,-152.343750
3870,-152.343750
3871,-148.437500
3872,-148.437500
3873,-148.437500
3874,-148.437500
3875,-148.437500
3876,-148.437500
3877,-144.531250
3878,-144.531250
3879,-144.531250
3880,-144.531250
3881,-144.531250
3882,-144.531250
3883,-140.625000
3884,-140.625000
3885,-140.625000
3886,-140.625000
3887,-140.625000
3888,-140.625000
3889,-136.718750
3890,-136.718750
3891,-136.718750
3892,-136.718750
3893,-132.812500
3894,-132.812500
3895,-132.812500
3896,-132.812500
3897,-132.812500
3898,-132.812500
3899,-128.906250
3900,-128.906250
3901,-128.906250
3902,-128.906250
3903,-128.906250
3904,-125.000000
3905,-125.000000
3906,-125.000000
3907,-125.000000
3908,-121.093750
3909,-121.093750
3910,-121.093750
3911,-121.093750
3912,-121.093750
3913,-117.187500
3914,-117.187500
3915,-117.187500
3916,-117.187500
3917,-117.187500
3918,-117.187500
3919,-113.281250
3920,-113.281250
3921,-113.281250
3922,-109.375000
3923,-109.375000
3924,-109.375000
3925,-109.375000
3926,-109.375000
3927,-105.468750
3928,-105.468750
3929,-105.468750
3930,-105.468750
3931,-101.562500
3932,-101.562500
3933,-101.562500
3934,-101.562500
3935,-101.562500
3936,-97.656250
3937,-97.656250
3938,-97.656250
3939,-93.750000
3940,-93.750000
3941,-93.750000
3942,-93.750000
3943,-93.750000
3944,-89.843750
3945,-89.843750
3946,-89.843750
3947,-89.843750
3948,-89.843750
3949,-85.937500
3950,-85.937500
3951,-85.937500
3952,-85.937500
3953,-82.031250
3954,-82.031250
3955,-82.031250
3956,-82.031250
3957,-78.125000
3958,-78.125000
3959,-78.125000
3960,-78.125000
3961,-74.218750
3962,-74.218750
3963,-74.218750
3964,-70.312500
3965,-70.312500
3966,-70.312500
3967,-70.312500
3968,-66.406250
3969,-66.406250
3970,-66.406250
3971,-66.406250
3972,-62.500000
3973,-62.500000
3974,-62.500000
3975,-62.500000
3976,-58.593750
3977,-58.593750
3978,-58.593750
3979,-54.687500
3980,-54.687500
3981,-54.687500
3982,-54.687500
3983,-54.687500
3984,-50.781250
3985,-50.781250
3986,-50.781250
3987,-46.875000
3988,-46.875000
3989,-46.875000
3990,-46.875000
3991,-42.968750
3992,-42.968750
3993,-42.968750
3994,-42.968750
3995,-39.062500
3996,-39.062500
3997,-39.062500
3998,-39.062500
3999,-35.156250
4000,-35.156250
4001,-35.156250
4002,-35.156250
4003,-31.250000
4004,-31.250000
4005,-31.250000
4006,-27.343750
4007,-27.343750
4008,-27.343750
4009,-27.343750
4010,-27.343750
4011,-23.437500
4012,-23.437500
4013,-23.437500
4014,-19.531250
4015,-19.531250
4016,-19.531250
4017,-19.531250
4018,-15.625000
4019,-15.625000
4020,-15.625000
4021,-15.625000
4022,-11.718750
4023,-11.718750
4024,-11.718750
4025,-7.812500
4026,-7.812500
4027,-7.812500
4028,-7.812500
4029,-7.812500
4030,-3.906250
4031,-3.906250
4032,-3.906250
4033,-3.906250
4034,0.000000
4035,0.000000
4036,0.000000
4037,3.906250
4038,3.906250
4039,3.906250
4040,3.906250
4041,3.906250
4042,7.812500
4043,7.812500
4044,7.812500
4045,7.812500
4046,11.718750
4047,11.718750
4048,11.718750
4049,15.625000
4050,15.625000
4051,15.625000
4052,15.625000
4053,15.625000
4054,19.531250
4055,19.531250
4056,19.531250
4057,19.531250
4058,23.437500
4059,23.437500
4060,23.437500
4061,23.437500
4062,27.343750
4063,27.343750
4064,27.343750
4065,27.343750
4066,27.343750
4067,31.250000
4068,31.250000
4069,31.250000
4070,31.250000
4071,35.156250
4072,35.156250
4073,35.156250
4074,35.156250
4075,39.062500
4076,39.062500
4077,39.062500
4078,39.062500
4079,39.062500
4080,42.968750
4081,42.968750
4082,42.968750
4083,42.968750
4084,46.875000
4085,46.875000
4086,46.875000
4087,46.875000
4088,46.875000
4089,50.781250
4090,50.781250
4091,50.781250
4092,50.781250
4093,54.687500
4094,54.687500
4095,54.687500
4096,54.687500
4097,54.687500
4098,58.593750
4099,58.593750
4100,58.593750
4101,58.593750
4102,58.593750
4103,62.500000
4104,62.500000
4105,62.500000
4106,62.500000
4107,62.500000
4108,66.406250
4109,66.406250
4110,66.406250
4111,66.406250
4112,66.406250
4113,66.406250
4114,70.312500
4115,70.312500
4116,70.312500
4117,70.312500
4118,74.218750
4119,74.218750
4120,74.218750
4121,74.218750
4122,74.218750
4123,74.218750
4124,78.125000
4125,78.125000
4126,78.125000
4127,78.125000
4128,78.125000
4129,82.031250
4130,82.031250
4131,82.031250
4132,82.031250
4133,82.031250
4134,82.031250
4135,85.937500
4136,85.937500
4137,85.937500
4138,85.937500
4139,85.937500
4140,89.843750
4141,89.843750
4142,89.843750
4143,89.843750
4144,89.843750
4145,89.843750
4146,89.843750
4147,93.750000
4148,93.750000
4149,93.750000
4150,93.750000
4151,93.750000
4152,93.750000
4153,97.656250
4154,97.656250
4155,97.656250
4156,97.656250
4157,97.656250
4158,97.656250
4159,97.656250
4160,101.562500
4161,97.656250
4162,101.562500
4163,101.562500
4164,101.562500
4165,101.562500
4166,101.562500
4167,101.562500
4168,105.468750
4169,105.468750
4170,105.468750
4171,105.468750
4172,105.468750
4173,105.468750
4174,105.468750
4175,105.468750
4176,109.375000
4177,109.375000
4178,109.375000
4179,109.375000
4180,109.375000
4181,109.375000
4182,109.375000
4183,109.375000
4184,109.375000
4185,113.281250
4186,113.281250
4187,113.281250
4188,113.281250
4189,113.281250
4190,113.281250
4191,113.281250
4192,113.281250
4193,117.187500
4194,117.187500
4195,117.187500
4196,117.187500
4197,117.187500
4198,117.187500
4199,117.187500
4200,117.187500
4201,117.187500
4202,117.187500
4203,117.187500
4204,117.187500
4205,121.093750
4206,121.093750
4207,121.093750
4208,121.093750
4209,121.093750
4210,121.093750
4211,121.093750
4212,121.093750
4213,121.093750
4214,121.093750
4215,121.093750
4216,121.093750
4217,125.000000
4218,125.000000
4219,125.000000
4220,125.000000
4221,125.000000
4222,125.000000
4223,125.000000
4224,125.000000
4225,125.000000
4226,125.000000
4227,125.000000
4228,125.000000
4229,125.000000
4230,125.000000
4231,128.906250
4232,128.906250
4233,128.906250
4234,125.000000
4235,128.906250
4236,128.906250
4237,128.906250
4238,128.906250
4239,128.906250
4240,128.906250
4241,128.906250
4242,128.906250
4243,128.906250
4244,125.000000
4245,132.812500
4246,128.906250
4247,125.000000
4248,128.906250
4249,128.906250
4250,125.000000
4251,132.812500
4252,128.906250
4253,128.906250
4254,132.812500
4255,132.812500
4256,132.812500
4257,132.812500
4258,132.812500
4259,132.812500
4260,132.812500
4261,132.812500
4262,128.906250
4263,132.812500
4264,132.812500
4265,132.812500
4266,132.812500
4267,132.812500
4268,132.812500
4269,132.812500
4270,132.812500
4271,132.812500
4272,132.812500
4273,132.812500
4274,132.812500
4275,132.812500
4276,132.812500
4277,132.812500
4278,132.812500
4279,132.812500
4280,132.812500
4281,132.812500
4282,132.812500
4283,132.812500
4284,128.906250
4285,132.812500
4286,132.812500
4287,132.812500
4288,132.812500
4289,132.812500
4290,132.812500
4291,132.812500
4292,128.906250
4293,132.812500
4294,128.906250
4295,132.812500
4296,128.906250
4297,132.812500
4298,132.812500
4299,132.812500
4300,128.906250
4301,128.906250
4302,128.906250
4303,128.906250
4304,128.906250
4305,128.906250
4306,128.906250
4307,128.906250
4308,128.906250
4309,128.906250
4310,128.906250
4311,128.906250
4312,128.906250
4313,128.906250
4314,128.906250
4315,128.906250
4316,125.000000
4317,128.906250
4318,128.906250
4319,128.906250
4320,128.906250
4321,128.906250
4322,125.000000
4323,125.000000
4324,125.000000
4325,128.906250
4326,125.000000
4327,125.000000
4328,125.000000
4329,125.000000
4330,125.000000
4331,125.000000
4332,125.000000
4333,125.000000
4334,121.093750
4335,125.000000
4336,125.000000
4337,125.000000
4338,121.093750
4339,121.093750
4340,121.093750
4341,121.093750
4342,121.093750
4343,121.093750
4344,121.093750
4345,121.093750
4346,121.093750
4347,121.093750
4348,117.187500
4349,117.187500
4350,117.187500
4351,117.187500
4352,117.187500
4353,117.187500
4354,117.187500
4355,117.187500
4356,117.187500
4357,117.187500
4358,117.187500
4359,113.281250
4360,113.281250
4361,113.281250
4362,113.281250
4363,113.281250
4364,113.281250
4365,113.281250
4366,113.281250
4367,113.281250
4368,109.375000
4369,109.375000
4370,109.375000
4371,109.375000
4372,109.375000
4373,109.375000
4374,109.375000
4375,109.375000
4376,105.468750
4377,109.375000
4378,105.468750
4379,105.468750
4380,105.468750
4381,105.468750
4382,105.468750
4383,105.468750
4384,101.562500
4385,101.562500
4386,101.562500
4387,101.562500
4388,101.562500
4389,101.562500
4390,101.562500
4391,101.562500
4392,97.656250
4393,97.656250
4394,97.656250
4395,97.656250
4396,97.656250
4397,97.656250
4398,97.656250
4399,93.750000
4400,93.750000
4401,93.750000
4402,93.750000
4403,93.750000
4404,93.750000
4405,93.750000
4406,89.843750
4407,89.843750
4408,89.843750
4409,89.843750
4410,89.843750
4411,85.937500
4412,85.937500
4413,85.937500
4414,85.937500
4415,85.937500
4416,85.937500
4417,85.937500
4418,82.031250
4419,82.031250
4420,82.031250
4421,82.031250
4422,82.031250
4423,78.125000
4424,78.125000
4425,78.125000
4426,78.125000
4427,78.125000
4428,74.218750
4429,74.218750
4430,74.218750
4431,74.218750
4432,74.218750
4433,74.218750
4434,70.312500
4435,70.312500
4436,70.312500
4437,70.312500
4438,70.312500
4439,66.406250
4440,66.406250
4441,66.406250
4442,66.406250
4443,62.500000
4444,62.500000
4445,62.500000
4446,62.500000
4447,62.500000
4448,58.593750
4449,58.593750
4450,58.593750
4451,58.593750
4452,58.593750
4453,54.687500
4454,54.687500
4455,54.687500
4456,54.687500
4457,54.687500
4458,50.781250
4459,50.781250
4460,50.781250
4461,50.781250
4462,46.875000
4463,46.875000
4464,46.875000
4465,46.875000
4466,46.875000
4467,46.875000
4468,42.968750
4469,42.968750
4470,42.968750
4471,39.062500
4472,39.062500
4473,39.062500
4474,39.062500
4475,39.062500
4476,35.156250
4477,35.156250
4478,35.156250
4479,35.156250
4480,31.250000
4481,31.250000
4482,31.250000
4483,31.250000
4484,31.250000
4485,27.343750
4486,27.343750
4487,27.343750
4488,23.437500
4489,23.437500
4490,23.437500
4491,23.437500
4492,19.531250
4493,19.531250
4494,19.531250
4495,19.531250
4496,15.625000
4497,15.625000
4498,15.625000
4499,15.625000
4500,15.625000
4501,11.718750
4502,11.718750
4503,11.718750
4504,7.812500
4505,7.812500
4506,7.812500
4507,7.812500
4508,7.812500
4509,3.906250
4510,3.906250
4511,3.906250
4512,3.906250
4513,0.000000
4514,0.000000
4515,-3.906250
4516,-3.906250
4517,-3.906250
4518,-3.906250
4519,-3.906250
4520,-7.812500
4521,-7.812500
4522,-7.812500
4523,-7.812500
4524,-11.718750
4525,-11.718750
4526,-11.718750
4527,-11.718750
4528,-15.625000
4529,-15.625000
4530,-15.625000
4531,-19.531250
4532,-19.531250
4533,-19.531250
4534,-19.531250
4535,-19.531250
4536,-23.437500
4537,-23.437500
4538,-23.437500
4539,-27.343750
4540,-27.343750
4541,-27.343750
4542,-27.343750
4543,-31.250000
4544,-31.250000
4545,-31.250000
4546,-31.250000
4547,-35.156250
4548,-35.156250
4549,-35.156250
4550,-39.062500
4551,-39.062500
4552,-39.062500
4553,-39.062500
4554,-42.968750
4555,-42.968750
4556,-42.968750
4557,-42.968750
4558,-46.875000
4559,-46.875000
4560,-46.875000
4561,-46.875000
4562,-50.781250
4563,-50.781250
4564,-50.781250
4565,-50.781250
4566,-54.687500
4567,-54.687500
4568,-54.687500
4569,-58.593750
4570,-58.593750
4571,-58.593750
4572,-58.593750
4573,-62.500000
4574,-62.500000
4575,-62.500000
4576,-62.500000
4577,-66.406250
4578,-66.406250
4579,-66.406250
4580,-70.312500
4581,-70.312500
4582,-70.312500
4583,-70.312500
4584,-70.312500
4585,-74.218750
4586,-74.218750
4587,-74.218750
4588,-78.125000
4589,-78.125000
4590,-78.125000
4591,-82.031250
4592,-82.031250
4593,-82.031250
4594,-82.031250
4595,-82.031250
4596,-85.937500
4597,-85.937500
4598,-85.937500
4599,-85.937500
4600,-89.843750
4601,-89.843750
4602,-89.843750
4603,-89.843750
4604,-93.750000
4605,-93.750000
4606,-93.750000
4607,-93.750000
4608,-93.750000
4609,-97.656250
4610,-97.656250
4611,-97.656250
4612,-97.656250
4613,-101.562500
4614,-101.562500
4615,-101.562500
4616,-101.562500
4617,-105.468750
4618,-105.468750
4619,-105.468750
4620,-105.468750
4621,-105.468750
4622,-109.375000
4623,-109.375000
4624,-109.375000
4625,-109.375000
4626,-113.281250
4627,-113.281250
4628,-113.281250
4629,-113.281250
4630,-117.187500
4631,-117.187500
4632,-117.187500
4633,-117.187500
4634,-117.187500
4635,-117.187500
4636,-121.093750
4637,-121.093750
4638,-121.093750
4639,-125.000000
4640,-125.000000
4641,-125.000000
4642,-125.000000
4643,-125.000000
4644,-128.906250
4645,-128.906250
4646,-128.906250
4647,-128.906250
4648,-128.906250
4649,-132.812500
4650,-132.812500
4651,-132.812500
4652,-132.812500
4653,-132.812500
4654,-132.812500
4655,-132.812500
4656,-136.718750
4657,-136.718750
4658,-136.718750
4659,-136.718750
4660,-140.625000
4661,-140.625000
4662,-140.625000
4663,-140.625000
4664,-140.625000
4665,-140.625000
4666,-144.531250
4667,-144.531250
4668,-144.531250
4669,-144.531250
4670,-144.531250
4671,-148.437500
4672,-148.437500
4673,-148.437500
4674,-148.437500
4675,-148.437500
4676,-148.437500
4677,-148.437500
4678,-152.343750
4679,-152.343750
4680,-152.343750
4681,-152.343750
4682,-152.343750
4683,-152.343750
4684,-156.250000
4685,-156.250000
4686,-156.250000
4687,-156.250000
4688,-156.250000
4689,-156.250000
4690,-160.156250
4691,-160.156250
4692,-160.156250
4693,-160.156250
4694,-160.156250
4695,-160.156250
4696,-160.156250
4697,-160.156250
4698,-164.062500
4699,-160.156250
4700,-164.062500
4701,-164.062500
4702,-164.062500
4703,-164.062500
4704,-164.062500
4705,-164.062500
4706,-164.062500
4707,-167.968750
4708,-167.968750
4709,-167.968750
4710,-167.968750
4711,-167.968750
4712,-167.968750
4713,-167.968750
4714,-167.968750
4715,-171.875000
4716,-171.875000
4717,-167.968750
4718,-171.875000
4719,-171.875000
4720,-171.875000
4721,-171.875000
4722,-171.875000
4723,-171.875000
4724,-171.875000
4725,-171.875000
4726,-171.875000
4727,-171.875000
4728,-175.781250
4729,-175.781250
4730,-175.781250
4731,-175.781250
4732,-175.781250
4733,-175.781250
4734,-175.781250
4735,-175.781250
4736,-175.781250
4737,-175.781250
4738,-175.781250
4739,-175.781250
4740,-179.687500
4741,-179.687500
4742,-175.781250
4743,-179.687500
4744,-179.687500
4745,-179.687500
4746,-179.687500
4747,-179.687500
4748,-179.687500
4749,-179.687500
4750,-179.687500
4751,-179.687500
4752,-179.687500
4753,-179.687500
4754,-179.687500
4755,-179.687500
4756,-179.687500
4757,-179.687500
4758,-179.687500
4759,-179.687500
4760,-179.687500
4761,-179.687500
4762,-179.687500
4763,-179.687500
4764,-179.687500
4765,-179.687500
4766,-179.687500
4767,-179.687500
4768,-179.687500
4769,-179.687500
4770,-179.687500
4771,-179.687500
4772,-179.687500
4773,-179.687500
4774,-179.687500
4775,-179.687500
4776,-179.687500
4777,-179.687500
4778,-179.687500
4779,-179.687500
4780,-179.687500
4781,-179.687500
4782,-179.687500
4783,-179.687500
4784,-179.687500
4785,-179.687500
4786,-179.687500
4787,-179.687500
4788,-179.687500
4789,-179.687500
4790,-179.687500
4791,-179.687500
4792,-179.687500
4793,-179.687500
4794,-175.781250
4795,-175.781250
4796,-179.687500
4797,-175.781250
4798,-175.781250
4799,-175.781250
4800,-175.781250
4801,-175.781250
4802,-175.781250
4803,-175.781250
4804,-175.781250
4805,-175.781250
4806,-175.781250
4807,-175.781250
4808,-175.781250
4809,-175.781250
4810,-171.875000
4811,-171.875000
4812,-171.875000
4813,-171.875000
4814,-171.875000
4815,-171.875000
4816,-171.875000
4817,-171.875000
4818,-171.875000
4819,-171.875000
4820,-171.875000
4821,-171.875000
4822,-167.968750
4823,-167.968750
4824,-167.968750
4825,-167.968750
4826,-167.968750
4827,-167.968750
4828,-167.968750
4829,-167.968750
4830,-167.968750
4831,-164.062500
4832,-164.062500
4833,-164.062500
4834,-164.062500
4835,-164.062500
4836,-164.062500
4837,-164.062500
4838,-164.062500
4839,-164.062500
4840,-164.062500
4841,-160.156250
4842,-160.156250
4843,-160.156250
4844,-160.156250
4845,-160.156250
4846,-160.156250
4847,-160.156250
4848,-156.250000
4849,-156.250000
4850,-156.250000
4851,-156.250000
4852,-156.250000
4853,-156.250000
4854,-152.343750
4855,-152.343750
4856,-152.343750
4857,-152.343750
4858,-152.343750
4859,-152.343750
4860,-152.343750
4861,-148.437500
4862,-148.437500
4863,-148.437500
4864,-148.437500
4865,-148.437500
4866,-144.531250
4867,-144.531250
4868,-144.531250
4869,-144.531250
4870,-144.531250
4871,-144.531250
4872,-144.531250
4873,-140.625000
4874,-140.625000
4875,-140.625000
4876,-140.625000
4877,-140.625000
4878,-136.718750
4879,-136.718750
4880,-136.718750
4881,-136.718750
4882,-136.718750
4883,-132.812500
4884,-132.812500
4885,-132.812500
4886,-132.812500
4887,-132.812500
4888,-132.812500
4889,-128.906250
4890,-128.906250
4891,-128.906250
4892,-128.906250
4893,-125.000000
4894,-125.000000
4895,-125.000000
4896,-125.000000
4897,-125.000000
4898,-121.093750
4899,-121.093750
4900,-121.093750
4901,-121.093750
4902,-121.093750
4903,-117.187500
4904,-117.187500
4905,-117.187500
4906,-117.187500
4907,-113.281250
4908,-113.281250
4909,-113.281250
4910,-113.281250
4911,-113.281250
4912,-109.375000
4913,-109.375000
4914,-109.375000
4915,-109.375000
4916,-105.468750
4917,-105.468750
4918,-105.468750
4919,-105.468750
4920,-105.468750
4921,-101.562500
4922,-101.562500
4923,-101.562500
4924,-101.562500
4925,-97.656250
4926,-97.656250
4927,-97.656250
4928,-97.656250
4929,-93.750000
4930,-93.750000
4931,-93.750000
4932,-93.750000
4933,-89.843750
4934,-89.843750
4935,-89.843750
4936,-89.843750
4937,-85.937500
4938,-85.937500
4939,-85.937500
4940,-85.937500
4941,-85.937500
4942,-82.031250
4943,-82.031250
4944,-82.031250
4945,-78.125000
4946,-78.125000
4947,-78.125000
4948,-78.125000
4949,-74.218750
4950,-74.218750
4951,-74.218750
4952,-74.218750
4953,-74.218750
4954,-70.312500
4955,-70.312500
4956,-70.312500
4957,-66.406250
4958,-66.406250
4959,-66.406250
4960,-66.406250
4961,-62.500000
4962,-62.500000
4963,-62.500000
4964,-62.500000
4965,-58.593750
4966,-58.593750
4967,-58.593750
4968,-58.593750
4969,-54.687500
4970,-54.687500
4971,-54.687500
4972,-54.687500
4973,-50.781250
4974,-50.781250
4975,-50.781250
4976,-50.781250
4977,-46.875000
4978,-50.781250
4979,-46.875000
4980,-46.875000
4981,-42.968750
4982,-42.968750
4983,-42.968750
4984,-42.968750
4985,-39.062500
4986,-39.062500
4987,-39.062500
4988,-39.062500
4989,-35.156250
4990,-35.156250
4991,-35.156250
4992,-35.156250
4993,-31.250000
4994,-31.250000
4995,-31.250000
4996,-31.250000
4997,-27.343750
4998,-27.343750
4999,-27.343750
5000,-23.437500
5001,-23.437500
5002,-23.437500
5003,-23.437500
5004,-19.531250
5005,-19.531250
5006,-19.531250
5007,-19.531250
5008,-15.625000
5009,-15.625000
5010,-15.625000
5011,-15.625000
5012,-11.718750
5013,-11.718750
5014,-11.718750
5015,-7.812500
5016,-7.812500
5017,-7.812500
5018,-7.812500
5019,-7.812500
5020,-3.906250
5021,-3.906250
5022,-3.906250
5023,0.000000
5024,0.000000
5025,0.000000
5026,0.000000
5027,3.906250
5028,3.906250
5029,3.906250
5030,3.906250
5031,7.812500
5032,7.812500
5033,7.812500
5034,7.812500
5035,11.718750
5036,11.718750
5037,11.718750
5038,11.718750
5039,15.625000
5040,15.625000
5041,15.625000
5042,15.625000
5043,15.625000
5044,19.531250
5045,19.531250
5046,19.531250
5047,23.437500
5048,23.437500
5049,23.437500
5050,23.437500
5051,27.343750
5052,27.343750
5053,27.343750
5054,27.343750
5055,27.343750
5056,31.250000
5057,31.250000
5058,31.250000
5059,31.250000
5060,35.156250
5061,35.156250
5062,35.156250
5063,35.156250
5064,35.156250
5065,39.062500
5066,39.062500
5067,39.062500
5068,39.062500
5069,42.968750
5070,42.968750
5071,42.968750
5072,42.968750
5073,42.968750
5074,46.875000
5075,46.875000
5076,46.875000
5077,46.875000
5078,50.781250
5079,50.781250
5080,50.781250
5081,50.781250
5082,50.781250
5083,54.687500
5084,54.687500
5085,54.687500
5086,54.687500
5087,58.593750
5088,58.593750
5089,58.593750
5090,58.593750
5091,58.593750
5092,58.593750
5093,62.500000
5094,62.500000
5095,62.500000
5096,62.500000
5097,62.500000
5098,66.406250
5099,66.406250
5100,66.406250
5101,66.406250
5102,66.406250
5103,70.312500
5104,70.312500
5105,70.312500
5106,70.312500
5107,70.312500
5108,74.218750
5109,74.218750
5110,74.218750
5111,74.218750
5112,74.218750
5113,78.125000
5114,74.218750
5115,78.125000
5116,78.125000
5117,78.125000
5118,78.125000
5119,82.031250
5120,82.031250
5121,82.031250
5122,82.031250
5123,82.031250
5124,82.031250
5125,82.031250
5126,85.937500
5127,85.937500
5128,85.937500
5129,85.937500
5130,85.937500
5131,85.937500
5132,89.843750
5133,89.843750
5134,89.843750
5135,89.843750
5136,89.843750
5137,89.843750
5138,93.750000
5139,93.750000
5140,93.750000
5141,93.750000
5142,93.750000
5143,93.750000
5144,93.750000
5145,97.656250
5146,97.656250
5147,97.656250
5148,97.656250
5149,97.656250
5150,97.656250
5151,101.562500
5152,101.562500
5153,101.562500
5154,101.562500
5155,101.562500
5156,101.562500
5157,101.562500
5158,101.562500
5159,105.468750
5160,105.468750
5161,105.468750
5162,105.468750
5163,105.468750
5164,105.468750
5165,105.468750
5166,105.468750
5167,109.375000
5168,109.375000
5169,109.375000
5170,109.375000
5171,109.375000
5172,109.375000
5173,109.375000
5174,109.375000
5175,113.281250
5176,113.281250
5177,113.281250
5178,113.281250
5179,113.281250
5180,113.281250
5181,113.281250
5182,113.281250
5183,117.187500
5184,117.187500
5185,117.187500
5186,117.187500
5187,117.187500
5188,117.187500
5189,117.187500
5190,117.187500
5191,117.187500
5192,117.187500
5193,117.187500
5194,121.093750
5195,121.093750
5196,121.093750
5197,121.093750
5198,121.093750
5199,121.093750
5200,121.093750
5201,121.093750
5202,121.093750
5203,121.093750
5204,121.093750
5205,121.093750
5206,121.093750
5207,125.000000
5208,125.000000
5209,125.000000
5210,125.000000
5211,125.000000
5212,125.000000
5213,125.000000
5214,125.000000
5215,125.000000
5216,125.000000
5217,125.000000
5218,125.000000
5219,125.000000
5220,125.000000
5221,125.000000
5222,125.000000
5223,128.906250
5224,128.906250
5225,128.906250
5226,128.906250
5227,128.906250
5228,128.906250
5229,128.906250
5230,128.906250
5231,128.906250
5232,128.906250
5233,128.906250
5234,128.906250
5235,128.906250
5236,128.906250
5237,128.906250
5238,128.906250
5239,128.906250
5240,128.906250
5241,128.906250
5242,128.906250
5243,128.906250
5244,128.906250
5245,128.906250
5246,128.906250
5247,132.812500
5248,128.906250
5249,128.906250
5250,128.906250
5251,132.812500
5252,128.906250
5253,132.812500
5254,128.906250
5255,132.812500
5256,132.812500
5257,128.906250
5258,128.906250
5259,132.812500
5260,132.812500
5261,132.812500
5262,132.812500
5263,132.812500
5264,132.812500
5265,132.812500
5266,128.906250
5267,132.812500
5268,132.812500
5269,132.812500
5270,132.812500
5271,132.812500
5272,132.812500
5273,132.812500
5274,132.812500
5275,132.812500
5276,132.812500
5277,132.812500
5278,132.812500
5279,132.812500
5280,128.906250
5281,128.906250
5282,128.906250
5283,132.812500
5284,128.906250
5285,132.812500
5286,128.906250
5287,128.906250
5288,128.906250
5289,132.812500
5290,128.906250
5291,128.906250
5292,128.906250
5293,128.906250
5294,128.906250
5295,128.906250
5296,128.906250
5297,128.906250
5298,128.906250
5299,128.906250
5300,128.906250
5301,128.906250
5302,128.906250
5303,128.906250
5304,128.906250
5305,128.906250
5306,128.906250
5307,128.906250
5308,128.906250
5309,128.906250
5310,125.000000
5311,128.906250
5312,125.000000
5313,125.000000
5314,125.000000
5315,128.906250
5316,125.000000
5317,125.000000
5318,125.000000
5319,125.000000
5320,125.000000
5321,125.000000
5322,125.000000
5323,125.000000
5324,125.000000
5325,125.000000
5326,121.093750
5327,125.000000
5328,121.093750
5329,121.093750
5330,121.093750
5331,121.093750
5332,121.093750
5333,121.093750
5334,121.093750
5335,121.093750
5336,121.093750
5337,121.093750
5338,121.093750
5339,121.093750
5340,117.187500
5341,117.187500
5342,117.187500
5343,117.187500
5344,117.187500
5345,117.187500
5346,117.187500
5347,117.187500
5348,117.187500
5349,117.187500
5350,113.281250
5351,113.281250
5352,113.281250
5353,113.281250
5354,113.281250
5355,113.281250
5356,113.281250
5357,113.281250
5358,109.375000
5359,109.375000
5360,109.375000
5361,109.375000
5362,109.375000
5363,109.375000
5364,109.375000
5365,109.375000
5366,109.375000
5367,105.468750
5368,105.468750
5369,105.468750
5370,105.468750
5371,105.468750
5372,105.468750
5373,105.468750
5374,101.562500
5375,101.562500
5376,101.562500
5377,101.562500
5378,101.562500
5379,101.562500
5380,101.562500
5381,101.562500
5382,97.656250
5383,97.656250
5384,97.656250
5385,97.656250
5386,97.656250
5387,97.656250
5388,93.750000
5389,93.750000
5390,93.750000
5391,93.750000
5392,93.750000
5393,93.750000
5394,93.750000
5395,89.843750
5396,89.843750
5397,89.843750
5398,89.843750
5399,89.843750
5400,85.937500
5401,85.937500
5402,85.937500
5403,85.937500
5404,85.937500
5405,85.937500
5406,85.937500
5407,82.031250
5408,82.031250
5409,82.031250
5410,82.031250
5411,82.031250
5412,82.031250
5413,82.031250
5414,78.125000
5415,78.125000
5416,78.125000
5417,78.125000
5418,78.125000
5419,74.218750
5420,74.218750
5421,74.218750
5422,74.218750
5423,74.218750
5424,70.312500
5425,70.312500
5426,70.312500
5427,70.312500
5428,70.312500
5429,66.406250
5430,66.406250
5431,66.406250
5432,66.406250
5433,62.500000
5434,62.500000
5435,62.500000
5436,62.500000
5437,62.500000
5438,62.500000
5439,58.593750
5440,58.593750
5441,58.593750
5442,58.593750
5443,58.593750
5444,54.687500
5445,54.687500
5446,54.687500
5447,54.687500
5448,50.781250
5449,50.781250
5450,50.781250
5451,50.781250
5452,50.781250
5453,46.875000
5454,46.875000
5455,46.875000
5456,46.875000
5457,46.875000
5458,42.968750
5459,42.968750
5460,39.062500
5461,39.062500
5462,39.062500
5463,39.062500
5464,39.062500
5465,35.156250
5466,35.156250
5467,35.156250
5468,35.156250
5469,35.156250
5470,31.250000
5471,31.250000
5472,31.250000
5473,31.250000
5474,27.343750
5475,27.343750
5476,27.343750
5477,27.343750
5478,23.437500
5479,23.437500
5480,23.437500
5481,23.437500
5482,19.531250
5483,19.531250
5484,19.531250
5485,15.625000
5486,15.625000
5487,15.625000
5488,15.625000
5489,15.625000
5490,11.718750
5491,11.718750
5492,11.718750
5493,7.812500
5494,7.812500
5495,7.812500
5496,7.812500
5497,7.812500
5498,3.906250
5499,3.906250
5500,3.906250
5501,3.906250
5502,0.000000
5503,0.000000
5504,0.000000
5505,0.000000
5506,-3.906250
5507,-3.906250
5508,-3.906250
5509,-7.812500
5510,-7.812500
5511,-7.812500
5512,-7.812500
5513,-11.718750
5514,-11.718750
5515,-11.718750
5516,-11.718750
5517,-15.625000
5518,-15.625000
5519,-15.625000
5520,-15.625000
5521,-19.531250
5522,-19.531250
5523,-19.531250
5524,-19.531250
5525,-23.437500
5526,-23.437500
5527,-23.437500
5528,-23.437500
5529,-27.343750
5530,-27.343750
5531,-27.343750
5532,-31.250000
5533,-31.250000
5534,-31.250000
5535,-31.250000
5536,-31.250000
5537,-35.156250
5538,-35.156250
5539,-35.156250
5540,-39.062500
5541,-39.062500
5542,-39.062500
5543,-39.062500
5544,-42.968750
5545,-42.968750
5546,-42.968750
5547,-42.968750
5548,-46.875000
5549,-46.875000
5550,-46.875000
5551,-50.781250
5552,-50.781250
5553,-50.781250
5554,-50.781250
5555,-54.687500
5556,-54.687500
5557,-54.687500
5558,-54.687500
5559,-54.687500
5560,-58.593750
5561,-58.593750
5562,-58.593750
5563,-58.593750
5564,-62.500000
5565,-62.500000
5566,-66.406250
5567,-66.406250
5568,-66.406250
5569,-66.406250
5570,-66.406250
5571,-70.312500
5572,-70.312500
5573,-70.312500
5574,-70.312500
5575,-74.218750
5576,-74.218750
5577,-74.218750
5578,-78.125000
5579,-78.125000
5580,-78.125000
5581,-78.125000
5582,-82.031250
5583,-82.031250
5584,-82.031250
5585,-82.031250
5586,-85.937500
5587,-85.937500
5588,-85.937500
5589,-85.937500
5590,-89.843750
5591,-89.843750
5592,-89.843750
5593,-89.843750
5594,-93.750000
5595,-93.750000
5596,-93.750000
5597,-93.750000
5598,-93.750000
5599,-97.656250
5600,-97.656250
5601,-97.656250
5602,-97.656250
5603,-101.562500
5604,-101.562500
5605,-101.562500
5606,-101.562500
5607,-105.468750
5608,-105.468750
5609,-105.468750
5610,-105.468750
5611,-105.468750
5612,-109.375000
5613,-109.375000
5614,-109.375000
5615,-113.281250
5616,-113.281250
5617,-113.281250
5618,-113.281250
5619,-113.281250
5620,-117.187500
5621,-117.187500
5622,-117.187500
5623,-117.187500
5624,-121.093750
5625,-121.093750
5626,-121.093750
5627,-121.093750
5628,-121.093750
5629,-125.000000
5630,-125.000000
5631,-125.000000
5632,-125.000000
5633,-125.000000
5634,-125.000000
5635,-128.906250
5636,-128.906250
5637,-128.906250
5638,-132.812500
5639,-132.812500
5640,-132.812500
5641,-132.812500
5642,-132.812500
5643,-132.812500
5644,-136.718750
5645,-136.718750
5646,-136.718750
5647,-136.718750
5648,-136.718750
5649,-140.625000
5650,-140.625000
5651,-140.625000
5652,-140.625000
5653,-140.625000
5654,-140.625000
5655,-144.531250
5656,-144.531250
5657,-144.531250
5658,-144.531250
5659,-144.531250
5660,-148.437500
5661,-148.437500
5662,-148.437500
5663,-148.437500
5664,-148.437500
5665,-148.437500
5666,-148.437500
5667,-152.343750
5668,-152.343750
5669,-152.343750
5670,-152.343750
5671,-152.343750
5672,-152.343750
5673,-156.250000
5674,-152.343750
5675,-156.250000
5676,-156.250000
5677,-156.250000
5678,-156.250000
5679,-156.250000
5680,-156.250000
5681,-160.156250
5682,-160.156250
5683,-160.156250
5684,-160.156250
5685,-160.156250
5686,-160.156250
5687,-160.156250
5688,-160.156250
5689,-160.156250
5690,-164.062500
5691,-164.062500
5692,-164.062500
5693,-164.062500
5694,-164.062500
5695,-164.062500
5696,-164.062500
5697,-164.062500
5698,-167.968750
5699,-167.968750
5700,-167.968750
5701,-167.968750
5702,-167.968750
5703,-167.968750
5704,-171.875000
5705,-167.968750
5706,-171.875000
5707,-171.875000
5708,-167.968750
5709,-171.875000
5710,-171.875000
5711,-171.875000
5712,-171.875000
5713,-171.875000
5714,-171.875000
5715,-175.781250
5716,-175.781250
5717,-171.875000
5718,-171.875000
5719,-175.781250
5720,-175.781250
5721,-175.781250
5722,-175.781250
5723,-175.781250
5724,-175.781250
5725,-175.781250
5726,-175.781250
5727,-175.781250
5728,-175.781250
5729,-175.781250
5730,-175.781250
5731,-175.781250
5732,-179.687500
5733,-179.687500
5734,-179.687500
5735,-179.687500
5736,-179.687500
5737,-179.687500
5738,-179.687500
5739,-179.687500
5740,-179.687500
5741,-179.687500
5742,-179.687500
5743,-179.687500
5744,-179.687500
5745,-179.687500
5746,-179.687500
5747,-179.687500
5748,-179.687500
5749,-179.687500
5750,-179.687500
5751,-179.687500
5752,-179.687500
5753,-179.687500
5754,-179.687500
5755,-179.687500
5756,-179.687500
5757,-179.687500
5758,-179.687500
5759,-179.687500
5760,-179.687500
5761,-179.687500
5762,-179.687500
5763,-179.687500
5764,-179.687500
5765,-179.687500
5766,-179.687500
5767,-179.687500
5768,-179.687500
5769,-179.687500
5770,-179.687500
5771,-179.687500
5772,-179.687500
5773,-179.687500
5774,-179.687500
5775,-179.687500
5776,-179.687500
5777,-179.687500
5778,-179.687500
5779,-179.687500
5780,-179.687500
5781,-179.687500
5782,-175.781250
5783,-179.687500
5784,-179.687500
5785,-175.781250
5786,-175.781250
5787,-175.781250
5788,-175.781250
5789,-175.781250
5790,-175.781250
5791,-175.781250
5792,-175.781250
5793,-175.781250
5794,-175.781250
5795,-175.781250
5796,-175.781250
5797,-175.781250
5798,-175.781250
5799,-175.781250
5800,-171.875000
5801,-175.781250
5802,-171.875000
5803,-171.875000
5804,-171.875000
5805,-171.875000
5806,-171.875000
5807,-171.875000
5808,-171.875000
5809,-171.875000
5810,-171.875000
5811,-171.875000
5812,-167.968750
5813,-167.968750
5814,-167.968750
5815,-167.968750
5816,-167.968750
5817,-167.968750
5818,-167.968750
5819,-167.968750
5820,-167.968750
5821,-164.062500
5822,-164.062500
5823,-164.062500
5824,-164.062500
5825,-164.062500
5826,-164.062500
5827,-164.062500
5828,-164.062500
5829,-160.156250
5830,-160.156250
5831,-160.156250
5832,-160.156250
5833,-160.156250
5834,-160.156250
5835,-160.156250
5836,-156.250000
5837,-156.250000
5838,-156.250000
5839,-156.250000
5840,-156.250000
5841,-156.250000
5842,-156.250000
5843,-156.250000
5844,-152.343750
5845,-152.343750
5846,-152.343750
5847,-152.343750
5848,-152.343750
5849,-152.343750
5850,-152.343750
5851,-148.437500
5852,-148.437500
5853,-148.437500
5854,-148.437500
5855,-148.437500
5856,-148.437500
5857,-144.531250
5858,-144.531250
5859,-144.531250
5860,-144.531250
5861,-144.531250
5862,-144.531250
5863,-140.625000
5864,-140.625000
5865,-140.625000
5866,-140.625000
5867,-140.625000
5868,-136.718750
5869,-136.718750
5870,-136.718750
5871,-136.718750
5872,-136.718750
5873,-132.812500
5874,-136.718750
5875,-132.812500
5876,-132.812500
5877,-132.812500
5878,-132.812500
5879,-128.906250
5880,-128.906250
5881,-128.906250
5882,-128.906250
5883,-125.000000
5884,-125.000000
5885,-125.000000
5886,-125.000000
5887,-125.000000
5888,-125.000000
5889,-121.093750
5890,-121.093750
5891,-121.093750
5892,-121.093750
5893,-117.187500
5894,-117.187500
5895,-117.187500
5896,-117.187500
5897,-117.187500
5898,-113.281250
5899,-113.281250
5900,-113.281250
5901,-113.281250
5902,-109.375000
5903,-109.375000
5904,-109.375000
5905,-109.375000
5906,-109.375000
5907,-105.468750
5908,-105.468750
5909,-105.468750
5910,-105.468750
5911,-101.562500
5912,-101.562500
5913,-101.562500
5914,-101.562500
5915,-97.656250
5916,-97.656250
5917,-97.656250
5918,-97.656250
5919,-93.750000
5920,-93.750000
5921,-93.750000
5922,-93.750000
5923,-93.750000
5924,-89.843750
5925,-89.843750
5926,-89.843750
5927,-89.843750
5928,-85.937500
5929,-85.937500
5930,-85.937500
5931,-82.031250
5932,-82.031250
5933,-82.031250
5934,-82.031250
5935,-82.031250
5936,-78.125000
5937,-78.125000
5938,-78.125000
5939,-74.218750
5940,-74.218750
5941,-74.218750
5942,-74.218750
5943,-70.312500
5944,-70.312500
5945,-70.312500
5946,-70.312500
5947,-66.406250
5948,-66.406250
5949,-66.406250
5950,-66.406250
5951,-62.500000
5952,-62.500000
5953,-62.500000
5954,-62.500000
5955,-58.593750
5956,-58.593750
5957,-58.593750
5958,-58.593750
5959,-54.687500
5960,-54.687500
5961,-54.687500
5962,-54.687500
5963,-50.781250
5964,-50.781250
5965,-50.781250
5966,-50.781250
5967,-46.875000
5968,-46.875000
5969,-46.875000
5970,-46.875000
5971,-42.968750
5972,-42.968750
5973,-42.968750
5974,-42.968750
5975,-39.062500
5976,-39.062500
5977,-39.062500
5978,-35.156250
5979,-35.156250
5980,-35.156250
5981,-35.156250
5982,-31.250000
5983,-31.250000
5984,-31.250000
5985,-31.250000
5986,-27.343750
5987,-27.343750
5988,-27.343750
5989,-27.343750
5990,-23.437500
5991,-23.437500
5992,-23.437500
5993,-19.531250
5994,-19.531250
5995,-19.531250
5996,-19.531250
5997,-19.531250
5998,-15.625000
5999,-15.625000
6000,-15.625000
6001,-15.625000
6002,-11.718750
6003,-11.718750
6004,-11.718750
6005,-11.718750
6006,-7.812500
6007,-7.812500
6008,-7.812500
6009,-7.812500
6010,-3.906250
6011,-3.906250
6012,-3.906250
6013,0.000000
6014,0.000000
6015,0.000000
6016,0.000000
6017,3.906250
6018,3.906250
6019,3.906250
6020,3.906250
6021,7.812500
6022,7.812500
6023,7.812500
6024,7.812500
6025,11.718750
6026,11.718750
6027,11.718750
6028,11.718750
6029,11.718750
6030,15.625000
6031,15.625000
6032,15.625000
6033,19.531250
6034,19.531250
6035,19.531250
6036,19.531250
6037,23.437500
6038,23.437500
6039,23.437500
6040,23.437500
6041,23.437500
6042,27.343750
6043,27.343750
6044,27.343750
6045,27.343750
6046,31.250000
6047,31.250000
6048,31.250000
6049,31.250000
6050,35.156250
6051,35.156250
6052,35.156250
6053,35.156250
6054,35.156250
6055,39.062500
6056,39.062500
6057,39.062500
6058,39.062500
6059,42.968750
6060,42.968750
6061,42.968750
6062,42.968750
6063,46.875000
6064,46.875000
6065,46.875000
6066,46.875000
6067,46.875000
6068,50.781250
6069,50.781250
6070,50.781250
6071,50.781250
6072,54.687500
6073,54.687500
6074,54.687500
6075,54.687500
6076,54.687500
6077,54.687500
6078,58.593750
6079,58.593750
6080,58.593750
6081,58.593750
6082,62.500000
6083,62.500000
6084,62.500000
6085,62.500000
6086,62.500000
6087,66.406250
6088,66.406250
6089,66.406250
6090,66.406250
6091,70.312500
6092,66.406250
6093,70.312500
6094,70.312500
6095,70.312500
6096,70.312500
6097,74.218750
6098,70.312500
6099,74.218750
6100,74.218750
6101,74.218750
6102,74.218750
6103,78.125000
6104,74.218750
6105,78.125000
6106,78.125000
6107,78.125000
6108,82.031250
6109,82.031250
6110,82.031250
6111,82.031250
6112,82.031250
6113,82.031250
6114,82.031250
6115,85.937500
6116,85.937500
6117,85.937500
6118,85.937500
6119,85.937500
6120,89.843750
6121,89.843750
6122,89.843750
6123,89.843750
6124,89.843750
6125,89.843750
6126,89.843750
6127,93.750000
6128,93.750000
6129,93.750000
6130,93.750000
6131,93.750000
6132,93.750000
6133,93.750000
6134,97.656250
6135,97.656250
6136,97.656250
6137,97.656250
6138,97.656250
6139,97.656250
6140,101.562500
6141,101.562500
6142,101.562500
6143,101.562500
6144,101.562500
6145,101.562500
6146,101.562500
6147,101.562500
6148,105.468750
6149,105.468750
6150,105.468750
6151,105.468750
6152,105.468750
6153,105.468750
6154,105.468750
6155,105.468750
6156,109.375000
6157,109.375000
6158,109.375000
6159,109.375000
6160,109.375000
6161,109.375000
6162,109.375000
6163,109.375000
6164,113.281250
6165,109.375000
6166,113.281250
6167,113.281250
6168,113.281250
6169,113.281250
6170,113.281250
6171,113.281250
6172,113.281250
6173,113.281250
6174,117.187500
6175,117.187500
6176,117.187500
6177,117.187500
6178,117.187500
6179,117.187500
6180,117.187500
6181,117.187500
6182,117.187500
6183,117.187500
6184,117.187500
6185,121.093750
6186,121.093750
6187,121.093750
6188,121.093750
6189,121.093750
6190,121.093750
6191,121.093750
6192,121.093750
6193,121.093750
6194,121.093750
6195,125.000000
6196,121.093750
6197,125.000000
6198,125.000000
6199,125.000000
6200,125.000000
6201,125.000000
6202,125.000000
6203,125.000000
6204,125.000000
6205,125.000000
6206,125.000000
6207,125.000000
6208,125.000000
6209,125.000000
6210,125.000000
6211,128.906250
6212,125.000000
6213,128.906250
6214,128.906250
6215,128.906250
6216,128.906250
6217,128.906250
6218,128.906250
6219,128.906250
6220,128.906250
6221,128.906250
6222,128.906250
6223,128.906250
6224,128.906250
6225,128.906250
6226,128.906250
6227,128.906250
6228,128.906250
6229,128.906250
6230,128.906250
6231,128.906250
6232,128.906250
6233,132.812500
6234,128.906250
6235,128.906250
6236,128.906250
6237,128.906250
6238,128.906250
6239,132.812500
6240,128.906250
6241,132.812500
6242,128.906250
6243,132.812500
6244,128.906250
6245,132.812500
6246,132.812500
6247,132.812500
6248,132.812500
6249,132.812500
6250,132.812500
6251,132.812500
6252,132.812500
6253,132.812500
6254,132.812500
6255,132.812500
6256,132.812500
6257,132.812500
6258,128.906250
6259,132.812500
6260,128.906250
6261,128.906250
6262,128.906250
6263,128.906250
6264,132.812500
6265,132.812500
6266,132.812500
6267,132.812500
6268,128.906250
6269,128.906250
6270,132.812500
6271,132.812500
6272,128.906250
6273,132.812500
6274,128.906250
6275,132.812500
6276,128.906250
6277,128.906250
6278,128.906250
6279,128.906250
6280,128.906250
6281,132.812500
6282,128.906250
6283,128.906250
6284,128.906250
6285,128.906250
6286,128.906250
6287,128.906250
6288,128.906250
6289,128.906250
6290,128.906250
6291,128.906250
6292,128.906250
6293,128.906250
6294,128.906250
6295,128.906250
6296,128.906250
6297,128.906250
6298,128.906250
6299,128.906250
6300,125.000000
6301,125.000000
6302,125.000000
6303,125.000000
6304,125.000000
6305,125.000000
6306,125.000000
6307,125.000000
6308,125.000000
6309,125.000000
6310,125.000000
6311,125.000000
6312,125.000000
6313,125.000000
6314,121.093750
6315,125.000000
6316,121.093750
6317,125.000000
6318,121.093750
6319,121.093750
6320,121.093750
6321,121.093750
6322,121.093750
6323,121.093750
6324,121.093750
6325,121.093750
6326,121.093750
6327,121.093750
6328,117.187500
6329,117.187500
6330,117.187500
6331,117.187500
6332,117.187500
6333,117.187500
6334,117.187500
6335,117.187500
6336,117.187500
6337,117.187500
6338,117.187500
6339,117.187500
6340,113.281250
6341,113.281250
6342,113.281250
6343,113.281250
6344,113.281250
6345,113.281250
6346,113.281250
6347,113.281250
6348,113.281250
6349,109.375000
6350,109.375000
6351,109.375000
6352,109.375000
6353,109.375000
6354,109.375000
6355,109.375000
6356,109.375000
6357,105.468750
6358,109.375000
6359,105.468750
6360,105.468750
6361,105.468750
6362,105.468750
6363,105.468750
6364,101.562500
6365,101.562500
6366,101.562500
6367,101.562500
6368,101.562500
6369,101.562500
6370,101.562500
6371,101.562500
6372,97.656250
6373,97.656250
6374,97.656250
6375,97.656250
6376,97.656250
6377,97.656250
6378,97.656250
6379,93.750000
6380,93.750000
6381,93.750000
6382,93.750000
6383,93.750000
6384,93.750000
6385,89.843750
6386,89.843750
6387,89.843750
6388,89.843750
6389,89.843750
6390,89.843750
6391,89.843750
6392,85.937500
6393,85.937500
6394,85.937500
6395,85.937500
6396,82.031250
6397,82.031250
6398,82.031250
6399,82.031250
6400,82.031250
6401,82.031250
6402,78.125000
6403,78.125000
6404,78.125000
6405,78.125000
6406,78.125000
6407,78.125000
6408,74.218750
6409,74.218750
6410,74.218750
6411,74.218750
6412,70.312500
6413,70.312500
6414,70.312500
6415,70.312500
6416,70.312500
6417,70.312500
6418,66.406250
6419,66.406250
6420,66.406250
6421,66.406250
6422,66.406250
6423,62.500000
6424,62.500000
6425,62.500000
6426,62.500000
6427,62.500000
6428,58.593750
6429,58.593750
6430,58.593750
6431,58.593750
6432,58.593750
6433,54.687500
6434,54.687500
6435,54.687500
6436,54.687500
6437,50.781250
6438,50.781250
6439,50.781250
6440,50.781250
6441,50.781250
6442,46.875000
6443,46.875000
6444,46.875000
6445,46.875000
6446,46.875000
6447,42.968750
6448,42.968750
6449,42.968750
6450,42.968750
6451,39.062500
6452,39.062500
6453,39.062500
6454,39.062500
6455,39.062500
6456,35.156250
6457,35.156250
6458,35.156250
6459,35.156250
6460,31.250000
6461,31.250000
6462,31.250000
6463,31.250000
6464,27.343750
6465,27.343750
6466,27.343750
6467,27.343750
6468,23.437500
6469,23.437500
6470,23.437500
6471,23.437500
6472,19.531250
6473,19.531250
6474,19.531250
6475,19.531250
6476,15.625000
6477,15.625000
6478,15.625000
6479,15.625000
6480,11.718750
6481,11.718750
6482,11.718750
6483,11.718750
6484,7.812500
6485,7.812500
6486,7.812500
6487,7.812500
6488,3.906250
6489,3.906250
6490,3.906250
6491,3.906250
6492,0.000000
6493,0.000000
6494,0.000000
6495,0.000000
6496,-3.906250
6497,-3.906250
6498,-3.906250
6499,-3.906250
6500,-7.812500
6501,-7.812500
6502,-7.812500
6503,-11.718750
6504,-11.718750
6505,-11.718750
6506,-11.718750
6507,-15.625000
6508,-15.625000
6509,-15.625000
6510,-15.625000
6511,-19.531250
6512,-19.531250
6513,-19.531250
6514,-19.531250
6515,-23.437500
6516,-23.437500
6517,-23.437500
6518,-27.343750
6519,-27.343750
6520,-27.343750
6521,-31.250000
6522,-27.343750
6523,-31.250000
6524,-31.250000
6525,-31.250000
6526,-35.156250
6527,-35.156250
6528,-35.156250
6529,-35.156250
6530,-39.062500
6531,-39.062500
6532,-39.062500
6533,-39.062500
6534,-42.968750
6535,-42.968750
6536,-42.968750
6537,-46.875000
6538,-46.875000
6539,-46.875000
6540,-46.875000
6541,-50.781250
6542,-50.781250
6543,-50.781250
6544,-50.781250
6545,-54.687500
6546,-54.687500
6547,-54.687500
6548,-54.687500
6549,-58.593750
6550,-58.593750
6551,-58.593750
6552,-62.500000
6553,-62.500000
6554,-62.500000
6555,-62.500000
6556,-66.406250
6557,-66.406250
6558,-66.406250
6559,-70.312500
6560,-70.312500
6561,-70.312500
6562,-70.312500
6563,-70.312500
6564,-70.312500
6565,-74.218750
6566,-74.218750
6567,-74.218750
6568,-78.125000
6569,-78.125000
6570,-78.125000
6571,-78.125000
6572,-78.125000
6573,-82.031250
6574,-82.031250
6575,-82.031250
6576,-85.937500
6577,-85.937500
6578,-85.937500
6579,-89.843750
6580,-85.937500
6581,-89.843750
6582,-89.843750
6583,-89.843750
6584,-89.843750
6585,-93.750000
6586,-93.750000
6587,-93.750000
6588,-93.750000
6589,-97.656250
6590,-97.656250
6591,-97.656250
6592,-97.656250
6593,-101.562500
6594,-101.562500
6595,-101.562500
6596,-101.562500
6597,-105.468750
6598,-105.468750
6599,-105.468750
6600,-105.468750
6601,-105.468750
6602,-109.375000
6603,-109.375000
6604,-109.375000
6605,-109.375000
6606,-113.281250
6607,-113.281250
6608,-113.281250
6609,-113.281250
6610,-117.187500
6611,-117.187500
6612,-117.187500
6613,-117.187500
6614,-117.187500
6615,-121.093750
6616,-121.093750
6617,-121.093750
6618,-121.093750
6619,-125.000000
6620,-125.000000
6621,-125.000000
6622,-125.000000
6623,-125.000000
6624,-125.000000
6625,-128.906250
6626,-128.906250
6627,-128.906250
6628,-128.906250
6629,-132.812500
6630,-132.812500
6631,-132.812500
6632,-132.812500
6633,-132.812500
6634,-132.812500
6635,-136.718750
6636,-136.718750
6637,-136.718750
6638,-136.718750
6639,-140.625000
6640,-140.625000
6641,-140.625000
6642,-140.625000
6643,-140.625000
6644,-140.625000
6645,-140.625000
6646,-144.531250
6647,-144.531250
6648,-144.531250
6649,-144.531250
6650,-148.437500
6651,-148.437500
6652,-148.437500
6653,-148.437500
6654,-148.437500
6655,-148.437500
6656,-148.437500
6657,-152.343750
6658,-152.343750
6659,-152.343750
6660,-152.343750
6661,-152.343750
6662,-152.343750
6663,-156.250000
6664,-156.250000
6665,-156.250000
6666,-156.250000
6667,-156.250000
6668,-156.250000
6669,-156.250000
6670,-160.156250
6671,-160.156250
6672,-160.156250
6673,-160.156250
6674,-160.156250
6675,-160.156250
6676,-164.062500
6677,-164.062500
6678,-164.062500
6679,-164.062500
6680,-164.062500
6681,-164.062500
6682,-164.062500
6683,-164.062500
6684,-164.062500
6685,-164.062500
6686,-167.968750
6687,-167.968750
6688,-167.968750
6689,-167.968750
6690,-167.968750
6691,-167.968750
6692,-167.968750
6693,-167.968750
6694,-167.968750
6695,-171.875000
6696,-171.875000
6697,-171.875000
6698,-171.875000
6699,-171.875000
6700,-171.875000
6701,-171.875000
6702,-171.875000
6703,-171.875000
6704,-171.875000
6705,-171.875000
6706,-171.875000
6707,-171.875000
6708,-175.781250
6709,-175.781250
6710,-175.781250
6711,-175.781250
6712,-175.781250
6713,-175.781250
6714,-175.781250
6715,-175.781250
6716,-175.781250
6717,-175.781250
6718,-175.781250
6719,-175.781250
6720,-175.781250
6721,-175.781250
6722,-179.687500
6723,-175.781250
6724,-179.687500
6725,-175.781250
6726,-175.781250
6727,-179.687500
6728,-179.687500
6729,-179.687500
6730,-179.687500
6731,-179.687500
6732,-179.687500
6733,-179.687500
6734,-179.687500
6735,-179.687500
6736,-179.687500
6737,-179.687500
6738,-179.687500
6739,-179.687500
6740,-179.687500
6741,-179.687500
6742,-179.687500
6743,-179.687500
6744,-179.687500
6745,-179.687500
6746,-179.687500
6747,-179.687500
6748,-179.687500
6749,-179.687500
6750,-179.687500
6751,-179.687500
6752,-179.687500
6753,-179.687500
6754,-179.687500
6755,-179.687500
6756,-179.687500
6757,-179.687500
6758,-179.687500
6759,-179.687500
6760,-179.687500
6761,-179.687500
6762,-179.687500
6763,-179.687500
6764,-179.687500
6765,-179.687500
6766,-179.687500
6767,-179.687500
6768,-179.687500
6769,-179.687500
6770,-179.687500
6771,-179.687500
6772,-175.781250
6773,-175.781250
6774,-179.687500
6775,-175.781250
6776,-175.781250
6777,-175.781250
6778,-175.781250
6779,-175.781250
6780,-175.781250
6781,-175.781250
6782,-175.781250
6783,-175.781250
6784,-175.781250
6785,-175.781250
6786,-175.781250
6787,-175.781250
6788,-171.875000
6789,-171.875000
6790,-171.875000
6791,-171.875000
6792,-171.875000
6793,-171.875000
6794,-171.875000
6795,-171.875000
6796,-171.875000
6797,-171.875000
6798,-171.875000
6799,-171.875000
6800,-171.875000
6801,-167.968750
6802,-167.968750
6803,-167.968750
6804,-167.968750
6805,-167.968750
6806,-167.968750
6807,-167.968750
6808,-167.968750
6809,-167.968750
6810,-167.968750
6811,-164.062500
6812,-164.062500
6813,-164.062500
6814,-164.062500
6815,-164.062500
6816,-164.062500
6817,-160.156250
6818,-164.062500
6819,-160.156250
6820,-160.156250
6821,-160.156250
6822,-160.156250
6823,-160.156250
6824,-160.156250
6825,-160.156250
6826,-156.250000
6827,-156.250000
6828,-156.250000
6829,-156.250000
6830,-156.250000
6831,-156.250000
6832,-156.250000
6833,-156.250000
6834,-152.343750
6835,-152.343750
6836,-152.343750
6837,-152.343750
6838,-152.343750
6839,-152.343750
6840,-152.343750
6841,-148.437500
6842,-148.437500
6843,-148.437500
6844,-148.437500
6845,-148.437500
6846,-144.531250
6847,-144.531250
6848,-144.531250
6849,-144.531250
6850,-144.531250
6851,-144.531250
6852,-140.625000
6853,-140.625000
6854,-140.625000
6855,-140.625000
6856,-136.718750
6857,-136.718750
6858,-136.718750
6859,-136.718750
6860,-136.718750
6861,-136.718750
6862,-136.718750
6863,-132.812500
6864,-132.812500
6865,-132.812500
6866,-132.812500
6867,-132.812500
6868,-128.906250
6869,-128.906250
6870,-128.906250
6871,-128.906250
6872,-125.000000
6873,-125.000000
6874,-125.000000
6875,-125.000000
6876,-125.000000
6877,-121.093750
6878,-121.093750
6879,-121.093750
6880,-121.093750
6881,-121.093750
6882,-117.187500
6883,-117.187500
6884,-117.187500
6885,-117.187500
6886,-117.187500
6887,-113.281250
6888,-113.281250
6889,-113.281250
6890,-113.281250
6891,-109.375000
6892,-109.375000
6893,-109.375000
6894,-109.375000
6895,-109.375000
6896,-105.468750
6897,-105.468750
6898,-105.468750
6899,-105.468750
6900,-105.468750
6901,-101.562500
6902,-101.562500
6903,-101.562500
6904,-101.562500
6905,-97.656250
6906,-97.656250
6907,-97.656250
6908,-97.656250
6909,-93.750000
6910,-93.750000
6911,-93.750000
6912,-93.750000
6913,-89.843750
6914,-89.843750
6915,-89.843750
6916,-89.843750
6917,-85.937500
6918,-85.937500
6919,-85.937500
6920,-85.937500
6921,-82.031250
6922,-82.031250
6923,-82.031250
6924,-82.031250
6925,-78.125000
6926,-78.125000
6927,-78.125000
6928,-78.125000
6929,-78.125000
6930,-74.218750
6931,-74.218750
6932,-74.218750
6933,-74.218750
6934,-70.312500
6935,-70.312500
6936,-70.312500
6937,-66.406250
6938,-66.406250
6939,-66.406250
6940,-66.406250
6941,-62.500000
6942,-62.500000
6943,-62.500000
6944,-62.500000
6945,-58.593750
6946,-58.593750
6947,-58.593750
6948,-58.593750
6949,-54.687500
6950,-54.687500
6951,-54.687500
6952,-50.781250
6953,-54.687500
6954,-50.781250
6955,-50.781250
6956,-46.875000
6957,-46.875000
6958,-46.875000
6959,-46.875000
6960,-46.875000
6961,-42.968750
6962,-42.968750
6963,-42.968750
6964,-42.968750
6965,-39.062500
6966,-39.062500
6967,-39.062500
6968,-35.156250
6969,-35.156250
6970,-35.156250
6971,-35.156250
6972,-31.250000
6973,-31.250000
6974,-31.250000
6975,-31.250000
6976,-27.343750
6977,-27.343750
6978,-27.343750
6979,-23.437500
6980,-23.437500
6981,-23.437500
6982,-23.437500
6983,-23.437500
6984,-19.531250
6985,-19.531250
6986,-19.531250
6987,-15.625000
6988,-15.625000
6989,-15.625000
6990,-15.625000
6991,-11.718750
6992,-11.718750
6993,-11.718750
6994,-11.718750
6995,-11.718750
6996,-7.812500
6997,-7.812500
6998,-7.812500
6999,-3.906250
7000,-3.906250
7001,-3.906250
7002,0.000000
7003,0.000000
7004,0.000000
7005,0.000000
7006,0.000000
7007,0.000000
7008,3.906250
7009,3.906250
7010,3.906250
7011,7.812500
7012,7.812500
7013,7.812500
7014,7.812500
7015,11.718750
7016,11.718750
7017,11.718750
7018,11.718750
7019,15.625000
7020,15.625000
7021,15.625000
7022,15.625000
7023,19.531250
7024,19.531250
7025,19.531250
7026,19.531250
7027,23.437500
7028,23.437500
7029,23.437500
7030,23.437500
7031,23.437500
7032,27.343750
7033,27.343750
7034,27.343750
7035,27.343750
7036,31.250000
7037,31.250000
7038,31.250000
7039,31.250000
7040,35.156250
7041,35.156250
7042,35.156250
7043,35.156250
7044,35.156250
7045,39.062500
7046,39.062500
7047,39.062500
7048,39.062500
7049,42.968750
7050,42.968750
7051,42.968750
7052,42.968750
7053,46.875000
7054,46.875000
7055,46.875000
7056,46.875000
7057,46.875000
7058,50.781250
7059,50.781250
7060,50.781250
7061,50.781250
7062,50.781250
7063,54.687500
7064,54.687500
7065,54.687500
7066,54.687500
7067,58.593750
7068,58.593750
7069,58.593750
7070,58.593750
7071,58.593750
7072,62.500000
7073,62.500000
7074,62.500000
7075,62.500000
7076,62.500000
7077,62.500000
7078,66.406250
7079,66.406250
7080,66.406250
7081,66.406250
7082,66.406250
7083,70.312500
7084,70.312500
7085,70.312500
7086,70.312500
7087,70.312500
7088,74.218750
7089,74.218750
7090,74.218750
7091,74.218750
7092,74.218750
7093,78.125000
7094,78.125000
7095,78.125000
7096,78.125000
7097,78.125000
7098,78.125000
7099,82.031250
7100,82.031250
7101,82.031250
7102,82.031250
7103,82.031250
7104,85.937500
7105,85.937500
7106,85.937500
7107,85.937500
7108,85.937500
7109,85.937500
7110,85.937500
7111,89.843750
7112,89.843750
7113,89.843750
7114,89.843750
7115,89.843750
7116,89.843750
7117,93.750000
7118,93.750000
7119,93.750000
7120,93.750000
7121,93.750000
7122,93.750000
7123,97.656250
7124,97.656250
7125,97.656250
7126,97.656250
7127,97.656250
7128,97.656250
7129,101.562500
7130,101.562500
7131,101.562500
7132,101.562500
7133,101.562500
7134,101.562500
7135,101.562500
7136,101.562500
7137,101.562500
7138,101.562500
7139,105.468750
7140,105.468750
7141,105.468750
7142,105.468750
7143,105.468750
7144,105.468750
7145,109.375000
7146,109.375000
7147,109.375000
7148,109.375000
7149,109.375000
7150,109.375000
7151,109.375000
7152,109.375000
7153,109.375000
7154,109.375000
7155,113.281250
7156,113.281250
7157,113.281250
7158,113.281250
7159,113.281250
7160,113.281250
7161,113.281250
7162,113.281250
7163,113.281250
7164,113.281250
7165,117.187500
7166,117.187500
7167,117.187500
7168,117.187500
7169,117.187500
7170,117.187500
7171,117.187500
7172,117.187500
7173,117.187500
7174,117.187500
7175,121.093750
7176,121.093750
7177,121.093750
7178,121.093750
7179,121.093750
7180,121.093750
7181,121.093750
7182,121.093750
7183,121.093750
7184,121.093750
7185,121.093750
7186,121.093750
7187,125.000000
7188,121.093750
7189,125.000000
7190,125.000000
7191,125.000000
7192,125.000000
7193,125.000000
7194,125.000000
7195,125.000000
7196,125.000000
7197,125.000000
7198,125.000000
7199,125.000000
7200,125.000000
7201,125.000000
7202,125.000000
7203,125.000000
7204,125.000000
7205,125.000000
7206,125.000000
7207,128.906250
7208,128.906250
7209,128.906250
7210,128.906250
7211,128.906250
7212,128.906250
7213,128.906250
7214,128.906250
7215,128.906250
7216,128.906250
7217,128.906250
7218,128.906250
7219,128.906250
7220,128.906250
7221,128.906250
7222,128.906250
7223,128.906250
7224,128.906250
7225,128.906250
7226,128.906250
7227,128.906250
7228,128.906250
7229,132.812500
7230,128.906250
7231,132.812500
7232,128.906250
7233,132.812500
7234,128.906250
7235,132.812500
7236,128.906250
7237,132.812500
7238,132.812500
7239,132.812500
7240,132.812500
7241,132.812500
7242,132.812500
7243,132.812500
7244,132.812500
7245,132.812500
7246,132.812500
7247,132.812500
7248,128.906250
7249,132.812500
7250,132.812500
7251,132.812500
7252,132.812500
7253,132.812500
7254,132.812500
7255,132.812500
7256,132.812500
7257,132.812500
7258,128.906250
7259,132.812500
7260,132.812500
7261,132.812500
7262,132.812500
7263,132.812500
7264,128.906250
7265,128.906250
7266,128.906250
7267,132.812500
7268,128.906250
7269,128.906250
7270,128.906250
7271,128.906250
7272,128.906250
7273,128.906250
7274,128.906250
7275,128.906250
7276,128.906250
7277,128.906250
7278,128.906250
7279,128.906250
7280,128.906250
7281,128.906250
7282,128.906250
7283,128.906250
7284,128.906250
7285,128.906250
7286,128.906250
7287,128.906250
7288,128.906250
7289,125.000000
7290,125.000000
7291,125.000000
7292,125.000000
7293,125.000000
7294,125.000000
7295,125.000000
7296,125.000000
7297,125.000000
7298,125.000000
7299,125.000000
7300,125.000000
7301,125.000000
7302,125.000000
7303,125.000000
7304,121.093750
7305,125.000000
7306,121.093750
7307,121.093750
7308,121.093750
7309,121.093750
7310,121.093750
7311,121.093750
7312,121.093750
7313,121.093750
7314,121.093750
7315,121.093750
7316,121.093750
7317,117.187500
7318,117.187500
7319,117.187500
7320,117.187500
7321,117.187500
7322,117.187500
7323,117.187500
7324,117.187500
7325,117.187500
7326,117.187500
7327,117.187500
7328,113.281250
7329,113.281250
7330,113.281250
7331,113.281250
7332,113.281250
7333,113.281250
7334,113.281250
7335,113.281250
7336,113.281250
7337,113.281250
7338,109.375000
7339,113.281250
7340,109.375000
7341,109.375000
7342,109.375000
7343,109.375000
7344,109.375000
7345,109.375000
7346,109.375000
7347,105.468750
7348,109.375000
7349,105.468750
7350,105.468750
7351,101.562500
7352,105.468750
7353,101.562500
7354,101.562500
7355,101.562500
7356,101.562500
7357,101.562500
7358,101.562500
7359,101.562500
7360,101.562500
7361,101.562500
7362,97.656250
7363,97.656250
7364,97.656250
7365,97.656250
7366,97.656250
7367,97.656250
7368,97.656250
7369,93.750000
7370,93.750000
7371,93.750000
7372,93.750000
7373,93.750000
7374,89.843750
7375,93.750000
7376,89.843750
7377,89.843750
7378,89.843750
7379,89.843750
7380,89.843750
7381,89.843750
7382,85.937500
7383,85.937500
7384,85.937500
7385,85.937500
7386,85.937500
7387,85.937500
7388,82.031250
7389,82.031250
7390,82.031250
7391,82.031250
7392,78.125000
7393,78.125000
7394,78.125000
7395,78.125000
7396,78.125000
7397,78.125000
7398,74.218750
7399,74.218750
7400,74.218750
7401,74.218750
7402,74.218750
7403,70.312500
7404,70.312500
7405,70.312500
7406,70.312500
7407,70.312500
7408,66.406250
7409,66.406250
7410,66.406250
7411,66.406250
7412,66.406250
7413,62.500000
7414,62.500000
7415,62.500000
7416,62.500000
7417,62.500000
7418,62.500000
7419,58.593750
7420,58.593750
7421,58.593750
7422,58.593750
7423,54.687500
7424,54.687500
7425,54.687500
7426,54.687500
7427,54.687500
7428,50.781250
7429,50.781250
7430,50.781250
7431,50.781250
7432,46.875000
7433,46.875000
7434,46.875000
7435,46.875000
7436,42.968750
7437,42.968750
7438,42.968750
7439,42.968750
7440,42.968750
7441,39.062500
7442,39.062500
7443,39.062500
7444,39.062500
7445,35.156250
7446,35.156250
7447,35.156250
7448,35.156250
7449,35.156250
7450,31.250000
7451,31.250000
7452,31.250000
7453,31.250000
7454,27.343750
7455,27.343750
7456,27.343750
7457,27.343750
7458,23.437500
7459,23.437500
7460,23.437500
7461,23.437500
7462,19.531250
7463,19.531250
7464,19.531250
7465,19.531250
7466,15.625000
7467,15.625000
7468,15.625000
7469,15.625000
7470,11.718750
7471,11.718750
7472,11.718750
7473,7.812500
7474,7.812500
7475,7.812500
7476,7.812500
7477,7.812500
7478,3.906250
7479,3.906250
7480,3.906250
7481,3.906250
7482,0.000000
7483,0.000000
7484,0.000000
7485,0.000000
7486,-3.906250
7487,-3.906250
7488,-3.906250
7489,-7.812500
7490,-7.812500
7491,-7.812500
7492,-7.812500
7493,-7.812500
7494,-11.718750
7495,-11.718750
7496,-11.718750
7497,-11.718750
7498,-15.625000
7499,-15.625000
7500,-15.625000
7501,-19.531250
7502,-19.531250
7503,-19.531250
7504,-19.531250
7505,-19.531250
7506,-23.437500
7507,-23.437500
7508,-23.437500
7509,-27.343750
7510,-27.343750
7511,-27.343750
7512,-31.250000
7513,-31.250000
7514,-31.250000
7515,-31.250000
7516,-35.156250
7517,-35.156250
7518,-35.156250
7519,-39.062500
7520,-39.062500
7521,-39.062500
7522,-39.062500
7523,-39.062500
7524,-42.968750
7525,-42.968750
7526,-42.968750
7527,-46.875000
7528,-46.875000
7529,-46.875000
7530,-46.875000
7531,-50.781250
7532,-50.781250
7533,-50.781250
7534,-50.781250
7535,-54.687500
7536,-54.687500
7537,-54.687500
7538,-54.687500
7539,-58.593750
7540,-58.593750
7541,-58.593750
7542,-62.500000
7543,-62.500000
7544,-62.500000
7545,-62.500000
7546,-66.406250
7547,-66.406250
7548,-66.406250
7549,-66.406250
7550,-70.312500
7551,-70.312500
7552,-70.312500
7553,-70.312500
7554,-74.218750
7555,-74.218750
7556,-74.218750
7557,-74.218750
7558,-74.218750
7559,-78.125000
7560,-78.125000
7561,-78.125000
7562,-82.031250
7563,-82.031250
7564,-82.031250
7565,-82.031250
7566,-85.937500
7567,-85.937500
7568,-85.937500
7569,-85.937500
7570,-89.843750
7571,-89.843750
7572,-89.843750
7573,-89.843750
7574,-93.750000
7575,-93.750000
7576,-93.750000
7577,-93.750000
7578,-97.656250
7579,-97.656250
7580,-97.656250
7581,-97.656250
7582,-101.562500
7583,-101.562500
7584,-101.562500
7585,-101.562500
7586,-105.468750
7587,-105.468750
7588,-105.468750
7589,-105.468750
7590,-105.468750
7591,-109.375000
7592,-109.375000
7593,-109.375000
7594,-109.375000
7595,-109.375000
7596,-113.281250
7597,-113.281250
7598,-113.281250
7599,-113.281250
7600,-117.187500
7601,-117.187500
7602,-117.187500
7603,-117.187500
7604,-117.187500
7605,-121.093750
7606,-121.093750
7607,-121.093750
7608,-121.093750
7609,-121.093750
7610,-125.000000
7611,-125.000000
7612,-125.000000
7613,-128.906250
7614,-125.000000
7615,-128.906250
7616,-128.906250
7617,-128.906250
7618,-132.812500
7619,-132.812500
7620,-132.812500
7621,-132.812500
7622,-132.812500
7623,-132.812500
7624,-136.718750
7625,-136.718750
7626,-136.718750
7627,-136.718750
7628,-136.718750
7629,-136.718750
7630,-140.625000
7631,-140.625000
7632,-140.625000
7633,-140.625000
7634,-140.625000
7635,-140.625000
7636,-144.531250
7637,-144.531250
7638,-144.531250
7639,-144.531250
7640,-144.531250
7641,-148.437500
7642,-148.437500
7643,-148.437500
7644,-148.437500
7645,-148.437500
7646,-148.437500
7647,-152.343750
7648,-152.343750
7649,-152.343750
7650,-152.343750
7651,-152.343750
7652,-152.343750
7653,-156.250000
7654,-156.250000
7655,-156.250000
7656,-156.250000
7657,-156.250000
7658,-156.250000
7659,-156.250000
7660,-160.156250
7661,-160.156250
7662,-160.156250
7663,-160.156250
7664,-160.156250
7665,-160.156250
7666,-160.156250
7667,-160.156250
7668,-164.062500
7669,-164.062500
7670,-164.062500
7671,-164.062500
7672,-164.062500
7673,-164.062500
7674,-164.062500
7675,-164.062500
7676,-167.968750
7677,-167.968750
7678,-167.968750
7679,-167.968750
7680,-167.968750
7681,-167.968750
7682,-167.968750
7683,-167.968750
7684,-167.968750
7685,-167.968750
7686,-167.968750
7687,-171.875000
7688,-171.875000
7689,-171.875000
7690,-171.875000
7691,-171.875000
7692,-171.875000
7693,-171.875000
7694,-171.875000
7695,-171.875000
7696,-171.875000
7697,-171.875000
7698,-171.875000
7699,-175.781250
7700,-175.781250
7701,-175.781250
7702,-175.781250
7703,-175.781250
7704,-175.781250
7705,-175.781250
7706,-175.781250
7707,-175.781250
7708,-175.781250
7709,-175.781250
7710,-175.781250
7711,-175.781250
7712,-175.781250
7713,-179.687500
7714,-179.687500
7715,-179.687500
7716,-179.687500
7717,-179.687500
7718,-179.687500
7719,-179.687500
7720,-179.687500
7721,-179.687500
7722,-179.687500
7723,-179.687500
7724,-179.687500
7725,-179.687500
7726,-179.687500
7727,-179.687500
7728,-179.687500
7729,-179.687500
7730,-179.687500
7731,-179.687500
7732,-179.687500
7733,-179.687500
7734,-179.687500
7735,-179.687500
7736,-179.687500
7737,-179.687500
7738,-179.687500
7739,-179.687500
7740,-179.687500
7741,-179.687500
7742,-179.687500
7743,-179.687500
7744,-179.687500
7745,-179.687500
7746,-179.687500
7747,-179.687500
7748,-179.687500
7749,-179.687500
7750,-179.687500
7751,-179.687500
7752,-179.687500
7753,-179.687500
7754,-179.687500
7755,-179.687500
7756,-179.687500
7757,-179.687500
7758,-179.687500
7759,-179.687500
7760,-179.687500
7761,-179.687500
7762,-179.687500
7763,-179.687500
7764,-175.781250
7765,-175.781250
7766,-175.781250
7767,-175.781250
7768,-175.781250
7769,-175.781250
7770,-175.781250
7771,-175.781250
7772,-171.875000
7773,-175.781250
7774,-175.781250
7775,-175.781250
7776,-175.781250
7777,-175.781250
7778,-171.875000
7779,-171.875000
7780,-171.875000
7781,-171.875000
7782,-171.875000
7783,-171.875000
7784,-171.875000
7785,-171.875000
7786,-171.875000
7787,-171.875000
7788,-171.875000
7789,-171.875000
7790,-171.875000
7791,-167.968750
7792,-167.968750
7793,-167.968750
7794,-167.968750
7795,-167.968750
7796,-167.968750
7797,-167.968750
7798,-167.968750
7799,-167.968750
7800,-167.968750
7801,-164.062500
7802,-164.062500
7803,-164.062500
7804,-164.062500
7805,-164.062500
7806,-164.062500
7807,-164.062500
7808,-160.156250
7809,-164.062500
7810,-160.156250
7811,-160.156250
7812,-160.156250
7813,-160.156250
7814,-156.250000
7815,-160.156250
7816,-156.250000
7817,-156.250000
7818,-156.250000
7819,-156.250000
7820,-156.250000
7821,-156.250000
7822,-156.250000
7823,-152.343750
7824,-152.343750
7825,-152.343750
7826,-152.343750
7827,-152.343750
7828,-152.343750
7829,-152.343750
7830,-148.437500
7831,-148.437500
7832,-148.437500
7833,-148.437500
7834,-148.437500
7835,-148.437500
7836,-144.531250
7837,-144.531250
7838,-144.531250
7839,-144.531250
7840,-144.531250
7841,-140.625000
7842,-144.531250
7843,-140.625000
7844,-140.625000
7845,-140.625000
7846,-140.625000
7847,-136.718750
7848,-136.718750
7849,-136.718750
7850,-136.718750
7851,-136.718750
7852,-136.718750
7853,-136.718750
7854,-132.812500
7855,-132.812500
7856,-132.812500
7857,-132.812500
7858,-128.906250
7859,-128.906250
7860,-128.906250
7861,-128.906250
7862,-128.906250
7863,-125.000000
7864,-125.000000
7865,-125.000000
7866,-125.000000
7867,-125.000000
7868,-121.093750
7869,-121.093750
7870,-121.093750
7871,-121.093750
7872,-121.093750
7873,-117.187500
7874,-117.187500
7875,-117.187500
7876,-117.187500
7877,-113.281250
7878,-113.281250
7879,-113.281250
7880,-113.281250
7881,-113.281250
7882,-109.375000
7883,-109.375000
7884,-109.375000
7885,-105.468750
7886,-105.468750
7887,-105.468750
7888,-105.468750
7889,-105.468750
7890,-105.468750
7891,-101.562500
7892,-101.562500
7893,-101.562500
7894,-97.656250
7895,-97.656250
7896,-97.656250
7897,-97.656250
7898,-97.656250
7899,-93.750000
7900,-93.750000
7901,-93.750000
7902,-93.750000
7903,-89.843750
7904,-89.843750
7905,-89.843750
7906,-89.843750
7907,-85.937500
7908,-85.937500
7909,-85.937500
7910,-85.937500
7911,-82.031250
7912,-82.031250
7913,-82.031250
7914,-82.031250
7915,-82.031250
7916,-78.125000
7917,-78.125000
7918,-78.125000
7919,-74.218750
7920,-74.218750
7921,-74.218750
7922,-74.218750
7923,-70.312500
7924,-70.312500
7925,-70.312500
7926,-70.312500
7927,-66.406250
7928,-66.406250
7929,-66.406250
7930,-66.406250
7931,-62.500000
7932,-62.500000
7933,-62.500000
7934,-62.500000
7935,-58.593750
7936,-58.593750
7937,-58.593750
7938,-58.593750
7939,-54.687500
7940,-54.687500
7941,-54.687500
7942,-54.687500
7943,-50.781250
7944,-50.781250
7945,-50.781250
7946,-50.781250
7947,-46.875000
7948,-46.875000
7949,-46.875000
7950,-42.968750
7951,-42.968750
7952,-42.968750
7953,-42.968750
7954,-42.968750
7955,-39.062500
7956,-39.062500
7957,-39.062500
7958,-35.156250
7959,-35.156250
7960,-35.156250
7961,-35.156250
7962,-31.250000
7963,-31.250000
7964,-31.250000
7965,-31.250000
7966,-27.343750
7967,-27.343750
7968,-27.343750
7969,-27.343750
7970,-23.437500
7971,-23.437500
7972,-23.437500
7973,-23.437500
7974,-19.531250
7975,-19.531250
7976,-19.531250
7977,-15.625000
7978,-15.625000
7979,-15.625000
7980,-15.625000
7981,-11.718750
7982,-11.718750
7983,-11.718750
7984,-11.718750
7985,-11.718750
7986,-7.812500
7987,-7.812500
7988,-7.812500
7989,-3.906250
7990,-3.906250
7991,-3.906250
7992,-3.906250
7993,0.000000
7994,0.000000
7995,0.000000
7996,0.000000
7997,3.906250
7998,3.906250
7999,3.906250
8000,3.906250
8001,7.812500
8002,7.812500
8003,7.812500
8004,7.812500
8005,11.718750
8006,11.718750
8007,11.718750
8008,11.718750
8009,15.625000
8010,15.625000
8011,15.625000
8012,15.625000
8013,19.531250
8014,19.531250
8015,19.531250
8016,19.531250
8017,19.531250
8018,23.437500
8019,23.437500
8020,23.437500
8021,23.437500
8022,27.343750
8023,27.343750
8024,27.343750
8025,31.250000
8026,31.250000
8027,31.250000
8028,31.250000
8029,31.250000
8030,35.156250
8031,35.156250
8032,35.156250
8033,35.156250
8034,39.062500
8035,39.062500
8036,39.062500
8037,39.062500
8038,39.062500
8039,42.968750
8040,42.968750
8041,42.968750
8042,42.968750
8043,46.875000
8044,46.875000
8045,46.875000
8046,46.875000
8047,46.875000
8048,50.781250
8049,50.781250
8050,50.781250
8051,54.687500
8052,50.781250
8053,54.687500
8054,54.687500
8055,54.687500
8056,54.687500
8057,58.593750
8058,58.593750
8059,58.593750
8060,58.593750
8061,58.593750
8062,62.500000
8063,62.500000
8064,62.500000
8065,62.500000
8066,62.500000
8067,66.406250
8068,66.406250
8069,66.406250
8070,66.406250
8071,66.406250
8072,70.312500
8073,70.312500
8074,70.312500
8075,70.312500
8076,70.312500
8077,70.312500
8078,74.218750
8079,74.218750
8080,74.218750
8081,74.218750
8082,74.218750
8083,74.218750
8084,78.125000
8085,78.125000
8086,78.125000
8087,78.125000
8088,82.031250
8089,82.031250
8090,82.031250
8091,82.031250
8092,82.031250
8093,82.031250
8094,85.937500
8095,85.937500
8096,85.937500
8097,85.937500
8098,85.937500
8099,85.937500
8100,85.937500
8101,85.937500
8102,89.843750
8103,89.843750
8104,89.843750
8105,89.843750
8106,89.843750
8107,93.750000
8108,93.750000
8109,93.750000
8110,93.750000
8111,93.750000
8112,93.750000
8113,97.656250
8114,97.656250
8115,97.656250
8116,97.656250
8117,97.656250
8118,97.656250
8119,97.656250
8120,97.656250
8121,101.562500
8122,101.562500
8123,101.562500
8124,101.562500
8125,101.562500
8126,101.562500
8127,101.562500
8128,105.468750
8129,105.468750
8130,105.468750
8131,105.468750
8132,105.468750
8133,105.468750
8134,105.468750
8135,105.468750
8136,105.468750
8137,109.375000
8138,109.375000
8139,109.375000
8140,109.375000
8141,109.375000
8142,109.375000
8143,109.375000
8144,113.281250
8145,113.281250
8146,113.281250
8147,113.281250
8148,113.281250
8149,113.281250
8150,113.281250
8151,113.281250
8152,113.281250
8153,113.281250
8154,113.281250
8155,117.187500
8156,117.187500
8157,117.187500
8158,117.187500
8159,117.187500
8160,117.187500
8161,117.187500
8162,117.187500
8163,121.093750
8164,117.187500
8165,121.093750
8166,121.093750
8167,121.093750
8168,121.093750
8169,121.093750
8170,121.093750
8171,121.093750
8172,121.093750
8173,121.093750
8174,125.000000
8175,121.093750
8176,121.093750
8177,121.093750
8178,125.000000
8179,125.000000
8180,125.000000
8181,125.000000
8182,125.000000
8183,125.000000
8184,125.000000
8185,125.000000
8186,125.000000
8187,125.000000
8188,125.000000
8189,125.000000
8190,125.000000
8191,125.000000
8192,125.000000
8193,128.906250
8194,128.906250
8195,128.906250
8196,128.906250
8197,128.906250
8198,128.906250
8199,128.906250
8200,128.906250
8201,128.906250
8202,128.906250
8203,128.906250
8204,128.906250
8205,128.906250
8206,128.906250
8207,128.906250
8208,128.906250
8209,128.906250
8210,128.906250
8211,128.906250
8212,128.906250
8213,128.906250
8214,128.906250
8215,128.906250
8216,128.906250
8217,128.906250
8218,132.812500
8219,128.906250
8220,128.906250
8221,128.906250
8222,128.906250
8223,132.812500
8224,128.906250
8225,132.812500
8226,128.906250
8227,132.812500
8228,128.906250
8229,132.812500
8230,132.812500
8231,132.812500
8232,132.812500
8233,132.812500
8234,132.812500
8235,128.906250
8236,132.812500
8237,132.812500
8238,132.812500
8239,132.812500
8240,132.812500
8241,132.812500
8242,128.906250
8243,128.906250
8244,132.812500
8245,128.906250
8246,128.906250
8247,132.812500
8248,128.906250
8249,132.812500
8250,128.906250
8251,132.812500
8252,128.906250
8253,128.906250
8254,128.906250
8255,128.906250
8256,128.906250
8257,128.906250
8258,128.906250
8259,128.906250
8260,128.906250
8261,128.906250
8262,128.906250
8263,128.906250
8264,128.906250
8265,128.906250
8266,128.906250
8267,128.906250
8268,128.906250
8269,128.906250
8270,128.906250
8271,128.906250
8272,128.906250
8273,128.906250
8274,128.906250
8275,128.906250
8276,128.906250
8277,128.906250
8278,128.906250
8279,128.906250
8280,125.000000
8281,125.000000
8282,125.000000
8283,125.000000
8284,125.000000
8285,125.000000
8286,125.000000
8287,125.000000
8288,125.000000
8289,125.000000
8290,125.000000
8291,125.000000
8292,125.000000
8293,125.000000
8294,125.000000
8295,125.000000
8296,121.093750
8297,121.093750
8298,121.093750
8299,121.093750
8300,121.093750
8301,121.093750
8302,121.093750
8303,121.093750
8304,121.093750
8305,121.093750
8306,121.093750
8307,121.093750
8308,117.187500
8309,117.187500
8310,117.187500
8311,117.187500
8312,117.187500
8313,117.187500
8314,117.187500
8315,117.187500
8316,117.187500
8317,117.187500
8318,117.187500
8319,113.281250
8320,113.281250
8321,113.281250
8322,113.281250
8323,113.281250
8324,113.281250
8325,113.281250
8326,109.375000
8327,109.375000
8328,109.375000
8329,109.375000
8330,109.375000
8331,109.375000
8332,109.375000
8333,109.375000
8334,109.375000
8335,109.375000
8336,105.468750
8337,105.468750
8338,105.468750
8339,105.468750
8340,105.468750
8341,105.468750
8342,105.468750
8343,101.562500
8344,101.562500
8345,101.562500
8346,101.562500
8347,101.562500
8348,101.562500
8349,101.562500
8350,101.562500
8351,97.656250
8352,97.656250
8353,97.656250
8354,97.656250
8355,97.656250
8356,97.656250
8357,97.656250
8358,93.750000
8359,93.750000
8360,93.750000
8361,93.750000
8362,93.750000
8363,93.750000
8364,89.843750
8365,89.843750
8366,89.843750
8367,89.843750
8368,89.843750
8369,89.843750
8370,85.937500
8371,85.937500
8372,85.937500
8373,85.937500
8374,85.937500
8375,85.937500
8376,82.031250
8377,82.031250
8378,82.031250
8379,82.031250
8380,82.031250
8381,82.031250
8382,78.125000
8383,78.125000
8384,78.125000
8385,78.125000
8386,78.125000
8387,78.125000
8388,74.218750
8389,74.218750
8390,74.218750
8391,74.218750
8392,74.218750
8393,70.312500
8394,70.312500
8395,70.312500
8396,70.312500
8397,70.312500
8398,66.406250
8399,66.406250
8400,66.406250
8401,66.406250
8402,66.406250
8403,62.500000
8404,62.500000
8405,62.500000
8406,62.500000
8407,62.500000
8408,58.593750
8409,58.593750
8410,58.593750
8411,58.593750
8412,54.687500
8413,54.687500
8414,54.687500
8415,54.687500
8416,54.687500
8417,54.687500
8418,50.781250
8419,50.781250
8420,50.781250
8421,50.781250
8422,46.875000
8423,46.875000
8424,46.875000
8425,46.875000
8426,46.875000
8427,42.968750
8428,42.968750
8429,42.968750
8430,42.968750
8431,39.062500
8432,39.062500
8433,39.062500
8434,39.062500
8435,39.062500
8436,35.156250
8437,35.156250
8438,35.156250
8439,31.250000
8440,31.250000
8441,31.250000
8442,31.250000
8443,31.250000
8444,27.343750
8445,27.343750
8446,27.343750
8447,27.343750
8448,23.437500
8449,23.437500
8450,23.437500
8451,23.437500
8452,23.437500
8453,19.531250
8454,19.531250
8455,19.531250
8456,15.625000
8457,15.625000
8458,15.625000
8459,15.625000
8460,11.718750
8461,11.718750
8462,11.718750
8463,11.718750
8464,7.812500
8465,7.812500
8466,7.812500
8467,3.906250
8468,3.906250
8469,3.906250
8470,3.906250
8471,3.906250
8472,0.000000
8473,0.000000
8474,0.000000
8475,-3.906250
8476,-3.906250
8477,-3.906250
8478,-3.906250
8479,-7.812500
8480,-7.812500
8481,-7.812500
8482,-7.812500
8483,-11.718750
8484,-11.718750
8485,-11.718750
8486,-11.718750
8487,-15.625000
8488,-15.625000
8489,-15.625000
8490,-15.625000
8491,-19.531250
8492,-19.531250
8493,-19.531250
8494,-19.531250
8495,-23.437500
8496,-23.437500
8497,-23.437500
8498,-27.343750
8499,-27.343750
8500,-27.343750
8501,-27.343750
8502,-31.250000
8503,-31.250000
8504,-31.250000
8505,-31.250000
8506,-35.156250
8507,-35.156250
8508,-35.156250
8509,-39.062500
8510,-39.062500
8511,-39.062500
8512,-39.062500
8513,-39.062500
8514,-42.968750
8515,-42.968750
8516,-42.968750
8517,-46.875000
8518,-46.875000
8519,-46.875000
8520,-46.875000
8521,-50.781250
8522,-50.781250
8523,-50.781250
8524,-50.781250
8525,-54.687500
8526,-54.687500
8527,-54.687500
8528,-58.593750
8529,-58.593750
8530,-58.593750
8531,-58.593750
8532,-62.500000
8533,-62.500000
8534,-62.500000
8535,-62.500000
8536,-66.406250
8537,-66.406250
8538,-66.406250
8539,-66.406250
8540,-66.406250
8541,-70.312500
8542,-70.312500
8543,-70.312500
8544,-74.218750
8545,-74.218750
8546,-74.218750
8547,-74.218750
8548,-78.125000
8549,-78.125000
8550,-78.125000
8551,-78.125000
8552,-82.031250
8553,-82.031250
8554,-82.031250
8555,-82.031250
8556,-85.937500
8557,-85.937500
8558,-85.937500
8559,-85.937500
8560,-89.843750
8561,-89.843750
8562,-89.843750
8563,-89.843750
8564,-93.750000
8565,-93.750000
8566,-93.750000
8567,-93.750000
8568,-97.656250
8569,-97.656250
8570,-97.656250
8571,-97.656250
8572,-101.562500
8573,-101.562500
8574,-101.562500
8575,-101.562500
8576,-105.468750
8577,-105.468750
8578,-105.468750
8579,-105.468750
8580,-105.468750
8581,-109.375000
8582,-109.375000
8583,-109.375000
8584,-109.375000
8585,-113.281250
8586,-113.281250
8587,-113.281250
8588,-113.281250
8589,-117.187500
8590,-117.187500
8591,-117.187500
8592,-117.187500
8593,-117.187500
8594,-121.093750
8595,-121.093750
8596,-121.093750
8597,-121.093750
8598,-125.000000
8599,-125.000000
8600,-125.000000
8601,-125.000000
8602,-125.000000
8603,-128.906250
8604,-128.906250
8605,-128.906250
8606,-128.906250
8607,-132.812500
8608,-132.812500
8609,-132.812500
8610,-132.812500
8611,-132.812500
8612,-132.812500
8613,-136.718750
8614,-136.718750
8615,-136.718750
8616,-136.718750
8617,-136.718750
8618,-140.625000
8619,-140.625000
8620,-140.625000
8621,-140.625000
8622,-140.625000
8623,-140.625000
8624,-144.531250
8625,-144.531250
8626,-144.531250
8627,-144.531250
8628,-144.531250
8629,-144.531250
8630,-148.437500
8631,-148.437500
8632,-148.437500
8633,-148.437500
8634,-148.437500
8635,-148.437500
8636,-152.343750
8637,-152.343750
8638,-152.343750
8639,-152.343750
8640,-152.343750
8641,-152.343750
8642,-156.250000
8643,-156.250000
8644,-156.250000
8645,-156.250000
8646,-156.250000
8647,-156.250000
8648,-156.250000
8649,-156.250000
8650,-160.156250
8651,-160.156250
8652,-160.156250
8653,-160.156250
8654,-160.156250
8655,-160.156250
8656,-160.156250
8657,-164.062500
8658,-164.062500
8659,-164.062500
8660,-164.062500
8661,-164.062500
8662,-164.062500
8663,-164.062500
8664,-164.062500
8665,-167.968750
8666,-167.968750
8667,-167.968750
8668,-167.968750
8669,-167.968750
8670,-167.968750
8671,-167.968750
8672,-167.968750
8673,-167.968750
8674,-167.968750
8675,-171.875000
8676,-171.875000
8677,-171.875000
8678,-171.875000
8679,-171.875000
8680,-171.875000
8681,-171.875000
8682,-171.875000
8683,-171.875000
8684,-171.875000
8685,-171.875000
8686,-175.781250
8687,-171.875000
8688,-175.781250
8689,-175.781250
8690,-175.781250
8691,-175.781250
8692,-175.781250
8693,-175.781250
8694,-175.781250
8695,-175.781250
8696,-175.781250
8697,-175.781250
8698,-175.781250
8699,-175.781250
8700,-175.781250
8701,-179.687500
8702,-179.687500
8703,-179.687500
8704,-179.687500
8705,-179.687500
8706,-179.687500
8707,-179.687500
8708,-179.687500
8709,-179.687500
8710,-179.687500
8711,-179.687500
8712,-179.687500
8713,-179.687500
8714,-179.687500
8715,-179.687500
8716,-179.687500
8717,-179.687500
8718,-179.687500
8719,-179.687500
8720,-179.687500
8721,-179.687500
8722,-179.687500
8723,-179.687500
8724,-179.687500
8725,-179.687500
8726,-179.687500
8727,-179.687500
8728,-179.687500
8729,-179.687500
8730,-179.687500
8731,-179.687500
8732,-179.687500
8733,-179.687500
8734,-179.687500
8735,-179.687500
8736,-179.687500
8737,-179.687500
8738,-179.687500
8739,-179.687500
8740,-179.687500
8741,-179.687500
8742,-179.687500
8743,-179.687500
8744,-179.687500
8745,-179.687500
8746,-179.687500
8747,-179.687500
8748,-179.687500
8749,-179.687500
8750,-179.687500
8751,-175.781250
8752,-179.687500
8753,-179.687500
8754,-175.781250
8755,-175.781250
8756,-175.781250
8757,-175.781250
8758,-175.781250
8759,-175.781250
8760,-175.781250
8761,-175.781250
8762,-175.781250
8763,-175.781250
8764,-175.781250
8765,-175.781250
8766,-175.781250
8767,-175.781250
8768,-175.781250
8769,-175.781250
8770,-171.875000
8771,-171.875000
8772,-171.875000
8773,-171.875000
8774,-171.875000
8775,-171.875000
8776,-171.875000
8777,-171.875000
8778,-171.875000
8779,-171.875000
8780,-167.968750
8781,-167.968750
8782,-167.968750
8783,-167.968750
8784,-167.968750
8785,-167.968750
8786,-167.968750
8787,-167.968750
8788,-167.968750
8789,-167.968750
8790,-164.062500
8791,-164.062500
8792,-164.062500
8793,-164.062500
8794,-164.062500
8795,-164.062500
8796,-164.062500
8797,-164.062500
8798,-160.156250
8799,-160.156250
8800,-160.156250
8801,-160.156250
8802,-160.156250
8803,-160.156250
8804,-160.156250
8805,-160.156250
8806,-156.250000
8807,-156.250000
8808,-156.250000
8809,-156.250000
8810,-156.250000
8811,-156.250000
8812,-156.250000
8813,-152.343750
8814,-152.343750
8815,-152.343750
8816,-152.343750
8817,-152.343750
8818,-152.343750
8819,-148.437500
8820,-148.437500
8821,-148.437500
8822,-148.437500
8823,-148.437500
8824,-148.437500
8825,-144.531250
8826,-144.531250
8827,-144.531250
8828,-144.531250
8829,-144.531250
8830,-140.625000
8831,-144.531250
8832,-140.625000
8833,-140.625000
8834,-140.625000
8835,-140.625000
8836,-136.718750
8837,-136.718750
8838,-136.718750
8839,-136.718750
8840,-136.718750
8841,-136.718750
8842,-132.812500
8843,-132.812500
8844,-132.812500
8845,-132.812500
8846,-132.812500
8847,-128.906250
8848,-128.906250
8849,-128.906250
8850,-128.906250
8851,-128.906250
8852,-125.000000
8853,-125.000000
8854,-125.000000
8855,-125.000000
8856,-125.000000
8857,-121.093750
8858,-121.093750
8859,-121.093750
8860,-121.093750
8861,-117.187500
8862,-117.187500
8863,-117.187500
8864,-117.187500
8865,-117.187500
8866,-117.187500
8867,-113.281250
8868,-113.281250
8869,-113.281250
8870,-113.281250
8871,-109.375000
8872,-109.375000
8873,-109.375000
8874,-109.375000
8875,-109.375000
8876,-105.468750
8877,-105.468750
8878,-105.468750
8879,-105.468750
8880,-101.562500
8881,-101.562500
8882,-101.562500
8883,-101.562500
8884,-101.562500
8885,-97.656250
8886,-97.656250
8887,-97.656250
8888,-97.656250
8889,-93.750000
8890,-93.750000
8891,-93.750000
8892,-93.750000
8893,-89.843750
8894,-89.843750
8895,-89.843750
8896,-85.937500
8897,-85.937500
8898,-85.937500
8899,-85.937500
8900,-85.937500
8901,-82.031250
8902,-82.031250
8903,-82.031250
8904,-82.031250
8905,-78.125000
8906,-78.125000
8907,-78.125000
8908,-78.125000
8909,-74.218750
8910,-74.218750
8911,-74.218750
8912,-74.218750
8913,-70.312500
8914,-74.218750
8915,-70.312500
8916,-70.312500
8917,-66.406250
8918,-66.406250
8919,-66.406250
8920,-62.500000
8921,-62.500000
8922,-62.500000
8923,-58.593750
8924,-62.500000
8925,-58.593750
8926,-58.593750
8927,-58.593750
8928,-58.593750
8929,-54.687500
8930,-54.687500
8931,-54.687500
8932,-50.781250
8933,-50.781250
8934,-50.781250
8935,-50.781250
8936,-46.875000
8937,-46.875000
8938,-46.875000
8939,-46.875000
8940,-42.968750
8941,-42.968750
8942,-42.968750
8943,-42.968750
8944,-39.062500
8945,-39.062500
8946,-39.062500
8947,-39.062500
8948,-35.156250
8949,-35.156250
8950,-35.156250
8951,-31.250000
8952,-31.250000
8953,-31.250000
8954,-31.250000
8955,-27.343750
8956,-27.343750
8957,-27.343750
8958,-27.343750
8959,-23.437500
8960,-23.437500
8961,-23.437500
8962,-23.437500
8963,-19.531250
8964,-19.531250
8965,-19.531250
8966,-19.531250
8967,-15.625000
8968,-15.625000
8969,-15.625000
8970,-11.718750
8971,-11.718750
8972,-11.718750
8973,-11.718750
8974,-11.718750
8975,-7.812500
8976,-7.812500
8977,-7.812500
8978,-7.812500
8979,-3.906250
8980,-3.906250
8981,-3.906250
8982,-3.906250
8983,-3.906250
8984,0.000000
8985,0.000000
8986,0.000000
8987,3.906250
8988,3.906250
8989,3.906250
8990,7.812500
8991,7.812500
8992,7.812500
8993,7.812500
8994,7.812500
8995,11.718750
8996,11.718750
8997,11.718750
8998,11.718750
8999,15.625000
9000,15.625000
9001,15.625000
9002,15.625000
9003,19.531250
9004,19.531250
9005,19.531250
9006,19.531250
9007,23.437500
9008,23.437500
9009,23.437500
9010,23.437500
9011,27.343750
9012,27.343750
9013,27.343750
9014,27.343750
9015,27.343750
9016,31.250000
9017,31.250000
9018,31.250000
9019,35.156250
9020,35.156250
9021,35.156250
9022,35.156250
9023,35.156250
9024,35.156250
9025,39.062500
9026,39.062500
9027,39.062500
9028,39.062500
9029,42.968750
9030,42.968750
9031,42.968750
9032,42.968750
9033,46.875000
9034,46.875000
9035,46.875000
9036,46.875000
9037,46.875000
9038,50.781250
9039,50.781250
9040,50.781250
9041,50.781250
9042,54.687500
9043,54.687500
9044,54.687500
9045,54.687500
9046,54.687500
9047,54.687500
9048,58.593750
9049,58.593750
9050,58.593750
9051,58.593750
9052,62.500000
9053,62.500000
9054,62.500000
9055,62.500000
9056,62.500000
9057,66.406250
9058,66.406250
9059,66.406250
9060,66.406250
9061,66.406250
9062,70.312500
9063,70.312500
9064,70.312500
9065,70.312500
9066,70.312500
9067,70.312500
9068,74.218750
9069,74.218750
9070,74.218750
9071,74.218750
9072,78.125000
9073,78.125000
9074,78.125000
9075,78.125000
9076,78.125000
9077,78.125000
9078,82.031250
9079,82.031250
9080,82.031250
9081,82.031250
9082,82.031250
9083,82.031250
9084,85.937500
9085,85.937500
9086,85.937500
9087,85.937500
9088,85.937500
9089,85.937500
9090,89.843750
9091,89.843750
9092,89.843750
9093,89.843750
9094,89.843750
9095,89.843750
9096,89.843750
9097,93.750000
9098,93.750000
9099,93.750000
9100,93.750000
9101,93.750000
9102,93.750000
9103,93.750000
9104,97.656250
9105,97.656250
9106,97.656250
9107,97.656250
9108,97.656250
9109,97.656250
9110,101.562500
9111,101.562500
9112,101.562500
9113,101.562500
9114,101.562500
9115,101.562500
9116,101.562500
9117,101.562500
9118,105.468750
9119,105.468750
9120,105.468750
9121,105.468750
9122,105.468750
9123,105.468750
9124,105.468750
9125,105.468750
9126,109.375000
9127,109.375000
9128,109.375000
9129,109.375000
9130,109.375000
9131,109.375000
9132,109.375000
9133,109.375000
9134,109.375000
9135,113.281250
9136,113.281250
9137,113.281250
9138,113.281250
9139,113.281250
9140,113.281250
9141,113.281250
9142,113.281250
9143,113.281250
9144,113.281250
9145,117.187500
9146,117.187500
9147,117.187500
9148,117.187500
9149,117.187500
9150,117.187500
9151,117.187500
9152,117.187500
9153,117.187500
9154,121.093750
9155,121.093750
9156,121.093750
9157,121.093750
9158,121.093750
9159,121.093750
9160,121.093750
9161,121.093750
9162,121.093750
9163,121.093750
9164,121.093750
9165,121.093750
9166,121.093750
9167,125.000000
9168,121.093750
9169,125.000000
9170,125.000000
9171,125.000000
9172,125.000000
9173,125.000000
9174,125.000000
9175,125.000000
9176,125.000000
9177,125.000000
9178,125.000000
9179,125.000000
9180,125.000000
9181,125.000000
9182,125.000000
9183,128.906250
9184,128.906250
9185,128.906250
9186,128.906250
9187,128.906250
9188,128.906250
9189,128.906250
9190,128.906250
9191,128.906250
9192,128.906250
9193,128.906250
9194,128.906250
9195,128.906250
9196,128.906250
9197,128.906250
9198,128.906250
9199,128.906250
9200,128.906250
9201,128.906250
9202,128.906250
9203,128.906250
9204,128.906250
9205,128.906250
9206,128.906250
9207,128.906250
9208,128.906250
9209,128.906250
9210,128.906250
9211,132.812500
9212,128.906250
9213,132.812500
9214,132.812500
9215,132.812500
9216,128.906250
9217,132.812500
9218,132.812500
9219,132.812500
9220,132.812500
9221,132.812500
9222,132.812500
9223,132.812500
9224,132.812500
9225,132.812500
9226,128.906250
9227,132.812500
9228,132.812500
9229,132.812500
9230,128.906250
9231,132.812500
9232,128.906250
9233,132.812500
9234,132.812500
9235,132.812500
9236,128.906250
9237,128.906250
9238,128.906250
9239,132.812500
9240,128.906250
9241,128.906250
9242,128.906250
9243,132.812500
9244,128.906250
9245,128.906250
9246,128.906250
9247,128.906250
9248,128.906250
9249,128.906250
9250,128.906250
9251,128.906250
9252,128.906250
9253,128.906250
9254,128.906250
9255,128.906250
9256,128.906250
9257,128.906250
9258,128.906250
9259,128.906250
9260,128.906250
9261,128.906250
9262,125.000000
9263,128.906250
9264,128.906250
9265,128.906250
9266,128.906250
9267,128.906250
9268,125.000000
9269,128.906250
9270,125.000000
9271,125.000000
9272,125.000000
9273,125.000000
9274,125.000000
9275,125.000000
9276,125.000000
9277,125.000000
9278,125.000000
9279,125.000000
9280,125.000000
9281,125.000000
9282,125.000000
9283,125.000000
9284,121.093750
9285,125.000000
9286,121.093750
9287,121.093750
9288,121.093750
9289,121.093750
9290,121.093750
9291,121.093750
9292,121.093750
9293,121.093750
9294,121.093750
9295,121.093750
9296,121.093750
9297,117.187500
9298,117.187500
9299,121.093750
9300,117.187500
9301,117.187500
9302,117.187500
9303,117.187500
9304,117.187500
9305,117.187500
9306,117.187500
9307,117.187500
9308,113.281250
9309,113.281250
9310,113.281250
9311,113.281250
9312,113.281250
9313,113.281250
9314,113.281250
9315,113.281250
9316,113.281250
9317,109.375000
9318,109.375000
9319,109.375000
9320,109.375000
9321,109.375000
9322,109.375000
9323,109.375000
9324,109.375000
9325,105.468750
9326,105.468750
9327,105.468750
9328,105.468750
9329,105.468750
9330,105.468750
9331,105.468750
9332,105.468750
9333,101.562500
9334,101.562500
9335,101.562500
9336,101.562500
9337,101.562500
9338,101.562500
9339,101.562500
9340,101.562500
9341,97.656250
9342,97.656250
9343,97.656250
9344,97.656250
9345,97.656250
9346,97.656250
9347,93.750000
9348,93.750000
9349,93.750000
9350,93.750000
9351,93.750000
9352,93.750000
9353,89.843750
9354,89.843750
9355,89.843750
9356,89.843750
9357,89.843750
9358,89.843750
9359,89.843750
9360,85.937500
9361,85.937500
9362,85.937500
9363,85.937500
9364,85.937500
9365,82.031250
9366,82.031250
9367,82.031250
9368,82.031250
9369,82.031250
9370,82.031250
9371,82.031250
9372,78.125000
9373,78.125000
9374,78.125000
9375,78.125000
9376,78.125000
9377,78.125000
9378,74.218750
9379,74.218750
9380,74.218750
9381,74.218750
9382,70.312500
9383,70.312500
9384,70.312500
9385,70.312500
9386,70.312500
9387,70.312500
9388,66.406250
9389,66.406250
9390,66.406250
9391,66.406250
9392,66.406250
9393,62.500000
9394,62.500000
9395,62.500000
9396,58.593750
9397,58.593750
9398,58.593750
9399,58.593750
9400,58.593750
9401,54.687500
9402,54.687500
9403,54.687500
9404,54.687500
9405,54.687500
9406,50.781250
9407,50.781250
9408,50.781250
9409,50.781250
9410,50.781250
9411,46.875000
9412,46.875000
9413,46.875000
9414,46.875000
9415,42.968750
9416,42.968750
9417,42.968750
9418,42.968750
9419,39.062500
9420,39.062500
9421,39.062500
9422,39.062500
9423,39.062500
9424,35.156250
9425,35.156250
9426,35.156250
9427,35.156250
9428,35.156250
9429,31.250000
9430,31.250000
9431,31.250000
9432,27.343750
9433,27.343750
9434,27.343750
9435,27.343750
9436,27.343750
9437,23.437500
9438,23.437500
9439,23.437500
9440,23.437500
9441,19.531250
9442,19.531250
9443,19.531250
9444,19.531250
9445,15.625000
9446,15.625000
9447,15.625000
9448,15.625000
9449,15.625000
9450,11.718750
9451,11.718750
9452,11.718750
9453,11.718750
9454,7.812500
9455,7.812500
9456,7.812500
9457,3.906250
9458,3.906250
9459,3.906250
9460,3.906250
9461,0.000000
9462,0.000000
9463,0.000000
9464,0.000000
9465,-3.906250
9466,-3.906250
9467,-3.906250
9468,-3.906250
9469,-7.812500
9470,-7.812500
9471,-7.812500
9472,-11.718750
9473,-11.718750
9474,-11.718750
9475,-11.718750
9476,-15.625000
9477,-15.625000
9478,-15.625000
9479,-15.625000
9480,-15.625000
9481,-19.531250
9482,-19.531250
9483,-19.531250
9484,-23.437500
9485,-23.437500
9486,-23.437500
9487,-23.437500
9488,-27.343750
9489,-27.343750
9490,-27.343750
9491,-31.250000
9492,-31.250000
9493,-31.250000
9494,-31.250000
9495,-35.156250
9496,-35.156250
9497,-35.156250
9498,-35.156250
9499,-39.062500
9500,-39.062500
9501,-39.062500
9502,-42.968750
9503,-42.968750
9504,-42.968750
9505,-42.968750
9506,-42.968750
9507,-46.875000
9508,-46.875000
9509,-46.875000
9510,-50.781250
9511,-50.781250
9512,-50.781250
9513,-50.781250
9514,-54.687500
9515,-54.687500
9516,-54.687500
9517,-54.687500
9518,-58.593750
9519,-58.593750
9520,-58.593750
9521,-58.593750
9522,-62.500000
9523,-62.500000
9524,-62.500000
9525,-66.406250
9526,-66.406250
9527,-66.406250
9528,-70.312500
9529,-70.312500
9530,-70.312500
9531,-70.312500
9532,-70.312500
9533,-74.218750
9534,-74.218750
9535,-74.218750
9536,-74.218750
9537,-74.218750
9538,-78.125000
9539,-78.125000
9540,-78.125000
9541,-82.031250
9542,-82.031250
9543,-82.031250
9544,-85.937500
9545,-85.937500
9546,-85.937500
9547,-85.937500
9548,-85.937500
9549,-89.843750
9550,-89.843750
9551,-89.843750
9552,-89.843750
9553,-89.843750
9554,-93.750000
9555,-93.750000
9556,-93.750000
9557,-93.750000
9558,-97.656250
9559,-97.656250
9560,-97.656250
9561,-97.656250
9562,-101.562500
9563,-101.562500
9564,-101.562500
9565,-101.562500
9566,-105.468750
9567,-105.468750
9568,-105.468750
9569,-105.468750
9570,-109.375000
9571,-109.375000
9572,-109.375000
9573,-109.375000
9574,-109.375000
9575,-109.375000
9576,-113.281250
9577,-113.281250
9578,-113.281250
9579,-117.187500
9580,-117.187500
9581,-117.187500
9582,-117.187500
9583,-117.187500
9584,-121.093750
9585,-121.093750
9586,-121.093750
9587,-121.093750
9588,-125.000000
9589,-125.000000
9590,-125.000000
9591,-125.000000
9592,-125.000000
9593,-125.000000
9594,-128.906250
9595,-128.906250
9596,-128.906250
9597,-128.906250
9598,-132.812500
9599,-132.812500
9600,-132.812500
9601,-132.812500
9602,-132.812500
9603,-136.718750
9604,-136.718750
9605,-136.718750
9606,-136.718750
9607,-136.718750
9608,-136.718750
9609,-140.625000
9610,-140.625000
9611,-140.625000
9612,-140.625000
9613,-140.625000
9614,-144.531250
9615,-144.531250
9616,-144.531250
9617,-144.531250
9618,-144.531250
9619,-148.437500
9620,-148.437500
9621,-148.437500
9622,-148.437500
9623,-148.437500
9624,-148.437500
9625,-148.437500
9626,-152.343750
9627,-152.343750
9628,-152.343750
9629,-152.343750
9630,-152.343750
9631,-152.343750
9632,-156.250000
9633,-156.250000
9634,-156.250000
9635,-156.250000
9636,-156.250000
9637,-156.250000
9638,-156.250000
9639,-160.156250
9640,-160.156250
9641,-160.156250
9642,-160.156250
9643,-160.156250
9644,-160.156250
9645,-160.156250
9646,-160.156250
9647,-164.062500
9648,-164.062500
9649,-164.062500
9650,-164.062500
9651,-164.062500
9652,-164.062500
9653,-164.062500
9654,-164.062500
9655,-164.062500
9656,-167.968750
9657,-167.968750
9658,-167.968750
9659,-167.968750
9660,-167.968750
9661,-167.968750
9662,-167.968750
9663,-167.968750
9664,-167.968750
9665,-171.875000
9666,-171.875000
9667,-171.875000
9668,-171.875000
9669,-171.875000
9670,-171.875000
9671,-171.875000
9672,-171.875000
9673,-171.875000
9674,-171.875000
9675,-171.875000
9676,-171.875000
9677,-175.781250
9678,-171.875000
9679,-175.781250
9680,-175.781250
9681,-175.781250
9682,-175.781250
9683,-175.781250
9684,-175.781250
9685,-175.781250
9686,-175.781250
9687,-175.781250
9688,-175.781250
9689,-175.781250
9690,-175.781250
9691,-175.781250
9692,-175.781250
9693,-175.781250
9694,-175.781250
9695,-179.687500
9696,-179.687500
9697,-179.687500
9698,-175.781250
9699,-179.687500
9700,-179.687500
9701,-179.687500
9702,-179.687500
9703,-179.687500
9704,-179.687500
9705,-179.687500
9706,-179.687500
9707,-179.687500
9708,-179.687500
9709,-179.687500
9710,-179.687500
9711,-179.687500
9712,-179.687500
9713,-179.687500
9714,-179.687500
9715,-179.687500
9716,-179.687500
9717,-179.687500
9718,-179.687500
9719,-179.687500
9720,-179.687500
9721,-179.687500
9722,-179.687500
9723,-179.687500
9724,-179.687500
9725,-179.687500
9726,-179.687500
9727,-179.687500
9728,-179.687500
9729,-179.687500
9730,-179.687500
9731,-179.687500
9732,-179.687500
9733,-179.687500
9734,-179.687500
9735,-179.687500
9736,-179.687500
9737,-175.781250
9738,-175.781250
9739,-175.781250
9740,-179.687500
9741,-175.781250
9742,-175.781250
9743,-175.781250
9744,-175.781250
9745,-175.781250
9746,-175.781250
9747,-175.781250
9748,-175.781250
9749,-175.781250
9750,-175.781250
9751,-175.781250
9752,-175.781250
9753,-175.781250
9754,-171.875000
9755,-175.781250
9756,-175.781250
9757,-175.781250
9758,-171.875000
9759,-171.875000
9760,-171.875000
9761,-171.875000
9762,-171.875000
9763,-171.875000
9764,-171.875000
9765,-171.875000
9766,-171.875000
9767,-171.875000
9768,-171.875000
9769,-171.875000
9770,-167.968750
9771,-167.968750
9772,-167.968750
9773,-167.968750
9774,-167.968750
9775,-167.968750
9776,-167.968750
9777,-167.968750
9778,-167.968750
9779,-164.062500
9780,-164.062500
9781,-164.062500
9782,-164.062500
9783,-164.062500
9784,-164.062500
9785,-164.062500
9786,-164.062500
9787,-164.062500
9788,-160.156250
9789,-160.156250
9790,-160.156250
9791,-160.156250
9792,-160.156250
9793,-160.156250
9794,-156.250000
9795,-160.156250
9796,-156.250000
9797,-156.250000
9798,-156.250000
9799,-156.250000
9800,-156.250000
9801,-156.250000
9802,-152.343750
9803,-152.343750
9804,-152.343750
9805,-152.343750
9806,-152.343750
9807,-152.343750
9808,-152.343750
9809,-152.343750
9810,-148.437500
9811,-148.437500
9812,-148.437500
9813,-148.437500
9814,-144.531250
9815,-144.531250
9816,-144.531250
9817,-144.531250
9818,-144.531250
9819,-144.531250
9820,-144.531250
9821,-140.625000
9822,-140.625000
9823,-140.625000
9824,-140.625000
9825,-140.625000
9826,-136.718750
9827,-136.718750
9828,-136.718750
9829,-136.718750
9830,-136.718750
9831,-136.718750
9832,-132.812500
9833,-132.812500
9834,-132.812500
9835,-132.812500
9836,-132.812500
9837,-128.906250
9838,-128.906250
9839,-128.906250
9840,-128.906250
9841,-125.000000
9842,-125.000000
9843,-125.000000
9844,-125.000000
9845,-125.000000
9846,-125.000000
9847,-121.093750
9848,-121.093750
9849,-121.093750
9850,-121.093750
9851,-117.187500
9852,-117.187500
9853,-117.187500
9854,-117.187500
9855,-117.187500
9856,-113.281250
9857,-113.281250
9858,-113.281250
9859,-113.281250
9860,-109.375000
9861,-109.375000
9862,-109.375000
9863,-109.375000
9864,-109.375000
9865,-105.468750
9866,-105.468750
9867,-105.468750
9868,-105.468750
9869,-101.562500
9870,-101.562500
9871,-101.562500
9872,-101.562500
9873,-97.656250
9874,-97.656250
9875,-97.656250
9876,-97.656250
9877,-97.656250
9878,-93.750000
9879,-93.750000
9880,-93.750000
9881,-89.843750
9882,-89.843750
9883,-89.843750
9884,-89.843750
9885,-89.843750
9886,-85.937500
9887,-85.937500
9888,-85.937500
9889,-85.937500
9890,-85.937500
9891,-82.031250
9892,-82.031250
9893,-82.031250
9894,-78.125000
9895,-78.125000
9896,-78.125000
9897,-78.125000
9898,-78.125000
9899,-74.218750
9900,-74.218750
9901,-74.218750
9902,-74.218750
9903,-70.312500
9904,-70.312500
9905,-70.312500
9906,-66.406250
9907,-66.406250
9908,-66.406250
9909,-66.406250
9910,-66.406250
9911,-62.500000
9912,-62.500000
9913,-62.500000
9914,-58.593750
9915,-58.593750
9916,-58.593750
9917,-58.593750
9918,-54.687500
9919,-54.687500
9920,-54.687500
9921,-54.687500
9922,-50.781250
9923,-50.781250
9924,-50.781250
9925,-50.781250
9926,-46.875000
9927,-46.875000
9928,-46.875000
9929,-46.875000
9930,-42.968750
9931,-42.968750
9932,-42.968750
9933,-42.968750
9934,-39.062500
9935,-39.062500
9936,-39.062500
9937,-39.062500
9938,-35.156250
9939,-35.156250
9940,-35.156250
9941,-31.250000
9942,-31.250000
9943,-31.250000
9944,-31.250000
9945,-27.343750
9946,-27.343750
9947,-27.343750
9948,-27.343750
9949,-23.437500
9950,-23.437500
9951,-23.437500
9952,-19.531250
9953,-19.531250
9954,-19.531250
9955,-19.531250
9956,-19.531250
9957,-15.625000
9958,-15.625000
9959,-15.625000
9960,-11.718750
9961,-11.718750
9962,-11.718750
9963,-11.718750
9964,-7.812500
9965,-7.812500
9966,-7.812500
9967,-7.812500
9968,-3.906250
9969,-3.906250
9970,-3.906250
9971,-3.906250
9972,0.000000
9973,0.000000
9974,0.000000
9975,0.000000
9976,3.906250
9977,3.906250
9978,3.906250
9979,3.906250
9980,7.812500
9981,7.812500
9982,7.812500
9983,7.812500
9984,7.812500
9985,11.718750
9986,11.718750
9987,11.718750
9988,15.625000
9989,15.625000
9990,15.625000
9991,15.625000
9992,19.531250
9993,19.531250
9994,19.531250
9995,19.531250
9996,19.531250
9997,23.437500
9998,23.437500
9999,23.437500
10000,23.437500
