Channel              :,CH1
Frequency            :,1.010kHz
Period               :,0.990ms
PK-PK                :,50.78mV
Probe attenuation    :,1X
Voltage per ADC value:,0.244141mV
Time interval        :,1.00000us

index,CH1_Voltage(mV)
1,-31.250000
2,-31.250000
3,-27.343750
4,-27.343750
5,-27.343750
6,-27.343750
7,-27.343750
8,-27.343750
9,-27.343750
10,-27.343750
11,-27.343750
12,-27.343750
13,-27.343750
14,-27.343750
15,-27.343750
16,-27.343750
17,-27.343750
18,-27.343750
19,-27.343750
20,-27.343750
21,-27.343750
22,-27.343750
23,-27.343750
24,-27.343750
25,-27.343750
26,-27.343750
27,-27.343750
28,-23.437500
29,-27.343750
30,-27.343750
31,-27.343750
32,-23.437500
33,-23.437500
34,-23.437500
35,-23.437500
36,-23.437500
37,-23.437500
38,-23.437500
39,-23.437500
40,-23.437500
41,-23.437500
42,-23.437500
43,-23.437500
44,-23.437500
45,-23.437500
46,-23.437500
47,-23.437500
48,-23.437500
49,-23.437500
50,-23.437500
51,-23.437500
52,-23.437500
53,-23.437500
54,-19.531250
55,-19.531250
56,-23.437500
57,-23.437500
58,-23.437500
59,-19.531250
60,-19.531250
61,-19.531250
62,-19.531250
63,-19.531250
64,-19.531250
65,-19.531250
66,-19.531250
67,-19.531250
68,-19.531250
69,-19.531250
70,-19.531250
71,-19.531250
72,-19.531250
73,-19.531250
74,-19.531250
75,-19.531250
76,-19.531250
77,-19.531250
78,-19.531250
79,-15.625000
80,-15.625000
81,-15.625000
82,-15.625000
83,-15.625000
84,-15.625000
85,-15.625000
86,-15.625000
87,-15.625000
88,-15.625000
89,-15.625000
90,-15.625000
91,-15.625000
92,-15.625000
93,-15.625000
94,-15.625000
95,-15.625000
96,-15.625000
97,-15.625000
98,-15.625000
99,-15.625000
100,-15.625000
101,-15.625000
102,-15.625000
103,-15.625000
104,-11.718750
105,-11.718750
106,-11.718750
107,-11.718750
108,-11.718750
109,-11.718750
110,-11.718750
111,-11.718750
112,-11.718750
113,-11.718750
114,-11.718750
115,-11.718750
116,-11.718750
117,-11.718750
118,-11.718750
119,-11.718750
120,-11.718750
121,-11.718750
122,-11.718750
123,-11.718750
124,-11.718750
125,-7.812500
126,-11.718750
127,-7.812500
128,-7.812500
129,-7.812500
130,-7.812500
131,-7.812500
132,-7.812500
133,-7.812500
134,-7.812500
135,-7.812500
136,-7.812500
137,-7.812500
138,-7.812500
139,-7.812500
140,-7.812500
141,-7.812500
142,-7.812500
143,-7.812500
144,-7.812500
145,-7.812500
146,-7.812500
147,-7.812500
148,-7.812500
149,-7.812500
150,-7.812500
151,-7.812500
152,-3.906250
153,-3.906250
154,-3.906250
155,-3.906250
156,-3.906250
157,-3.906250
158,-3.906250
159,-3.906250
160,-3.906250
161,-3.906250
162,-3.906250
163,-3.906250
164,-3.906250
165,-3.906250
166,-3.906250
167,-3.906250
168,-3.906250
169,-3.906250
170,0.000000
171,-3.906250
172,-3.906250
173,-3.906250
174,-3.906250
175,-3.906250
176,-3.906250
177,-3.906250
178,-3.906250
179,-3.906250
180,-3.906250
181,0.000000
182,-3.906250
183,0.000000
184,-3.906250
185,0.000000
186,0.000000
187,0.000000
188,0.000000
189,0.000000
190,0.000000
191,0.000000
192,0.000000
193,0.000000
194,0.000000
195,0.000000
196,0.000000
197,0.000000
198,0.000000
199,0.000000
200,0.000000
201,0.000000
202,0.000000
203,0.000000
204,0.000000
205,0.000000
206,0.000000
207,0.000000
208,0.000000
209,0.000000
210,0.000000
211,3.906250
212,3.906250
213,3.906250
214,3.906250
215,3.906250
216,3.906250
217,3.906250
218,3.906250
219,3.906250
220,3.906250
221,3.906250
222,3.906250
223,3.906250
224,3.906250
225,3.906250
226,3.906250
227,3.906250
228,3.906250
229,3.906250
230,3.906250
231,3.906250
232,3.906250
233,3.906250
234,3.906250
235,3.906250
236,3.906250
237,3.906250
238,3.906250
239,3.906250
240,3.906250
241,3.906250
242,3.906250
243,3.906250
244,3.906250
245,3.906250
246,3.906250
247,7.812500
248,7.812500
249,7.812500
250,7.812500
251,3.906250
252,7.812500
253,7.812500
254,7.812500
255,7.812500
256,7.812500
257,7.812500
258,7.812500
259,7.812500
260,7.812500
261,7.812500
262,7.812500
263,7.812500
264,7.812500
265,7.812500
266,7.812500
267,7.812500
268,7.812500
269,7.812500
270,7.812500
271,7.812500
272,7.812500
273,7.812500
274,7.812500
275,7.812500
276,7.812500
277,7.812500
278,7.812500
279,7.812500
280,7.812500
281,7.812500
282,7.812500
283,7.812500
284,7.812500
285,7.812500
286,7.812500
287,7.812500
288,7.812500
289,7.812500
290,7.812500
291,7.812500
292,7.812500
293,7.812500
294,7.812500
295,7.812500
296,7.812500
297,7.812500
298,7.812500
299,7.812500
300,11.718750
301,11.718750
302,7.812500
303,7.812500
304,7.812500
305,7.812500
306,11.718750
307,7.812500
308,11.718750
309,11.718750
310,7.812500
311,7.812500
312,7.812500
313,11.718750
314,11.718750
315,11.718750
316,11.718750
317,11.718750
318,7.812500
319,11.718750
320,11.718750
321,11.718750
322,11.718750
323,11.718750
324,11.718750
325,11.718750
326,11.718750
327,11.718750
328,11.718750
329,11.718750
330,11.718750
331,11.718750
332,11.718750
333,11.718750
334,11.718750
335,11.718750
336,11.718750
337,11.718750
338,11.718750
339,11.718750
340,11.718750
341,11.718750
342,11.718750
343,11.718750
344,11.718750
345,11.718750
346,11.718750
347,11.718750
348,11.718750
349,11.718750
350,11.718750
351,11.718750
352,11.718750
353,11.718750
354,11.718750
355,11.718750
356,11.718750
357,11.718750
358,11.718750
359,11.718750
360,11.718750
361,11.718750
362,11.718750
363,11.718750
364,11.718750
365,11.718750
366,11.718750
367,11.718750
368,11.718750
369,11.718750
370,11.718750
371,11.718750
372,11.718750
373,11.718750
374,11.718750
375,11.718750
376,11.718750
377,11.718750
378,11.718750
379,11.718750
380,11.718750
381,11.718750
382,11.718750
383,11.718750
384,11.718750
385,11.718750
386,11.718750
387,11.718750
388,11.718750
389,11.718750
390,11.718750
391,11.718750
392,11.718750
393,11.718750
394,11.718750
395,11.718750
396,11.718750
397,11.718750
398,11.718750
399,11.718750
400,11.718750
401,11.718750
402,11.718750
403,11.718750
404,11.718750
405,11.718750
406,11.718750
407,11.718750
408,11.718750
409,11.718750
410,11.718750
411,11.718750
412,11.718750
413,11.718750
414,11.718750
415,11.718750
416,11.718750
417,11.718750
418,11.718750
419,7.812500
420,11.718750
421,11.718750
422,7.812500
423,11.718750
424,11.718750
425,11.718750
426,7.812500
427,7.812500
428,7.812500
429,11.718750
430,7.812500
431,11.718750
432,7.812500
433,7.812500
434,7.812500
435,7.812500
436,7.812500
437,7.812500
438,7.812500
439,7.812500
440,7.812500
441,7.812500
442,7.812500
443,7.812500
444,7.812500
445,7.812500
446,7.812500
447,7.812500
448,7.812500
449,7.812500
450,7.812500
451,7.812500
452,7.812500
453,7.812500
454,7.812500
455,7.812500
456,7.812500
457,7.812500
458,7.812500
459,7.812500
460,7.812500
461,7.812500
462,7.812500
463,7.812500
464,7.812500
465,7.812500
466,7.812500
467,7.812500
468,7.812500
469,7.812500
470,7.812500
471,7.812500
472,7.812500
473,7.812500
474,7.812500
475,3.906250
476,7.812500
477,7.812500
478,7.812500
479,7.812500
480,7.812500
481,3.906250
482,3.906250
483,7.812500
484,3.906250
485,3.906250
486,3.906250
487,3.906250
488,3.906250
489,3.906250
490,3.906250
491,3.906250
492,3.906250
493,3.906250
494,3.906250
495,3.906250
496,3.906250
497,3.906250
498,3.906250
499,3.906250
500,3.906250
501,3.906250
502,3.906250
503,3.906250
504,3.906250
505,3.906250
506,3.906250
507,3.906250
508,3.906250
509,3.906250
510,3.906250
511,3.906250
512,0.000000
513,3.906250
514,3.906250
515,3.906250
516,0.000000
517,0.000000
518,0.000000
519,0.000000
520,0.000000
521,0.000000
522,0.000000
523,0.000000
524,0.000000
525,0.000000
526,0.000000
527,0.000000
528,0.000000
529,0.000000
530,0.000000
531,0.000000
532,0.000000
533,0.000000
534,0.000000
535,0.000000
536,0.000000
537,0.000000
538,0.000000
539,0.000000
540,0.000000
541,0.000000
542,-3.906250
543,-3.906250
544,-3.906250
545,0.000000
546,-3.906250
547,-3.906250
548,-3.906250
549,-3.906250
550,-3.906250
551,-3.906250
552,-3.906250
553,-3.906250
554,-3.906250
555,-3.906250
556,-3.906250
557,-3.906250
558,-3.906250
559,-3.906250
560,-3.906250
561,-3.906250
562,-3.906250
563,-3.906250
564,-3.906250
565,-3.906250
566,-3.906250
567,-7.812500
568,-7.812500
569,-3.906250
570,-3.906250
571,-7.812500
572,-7.812500
573,-7.812500
574,-7.812500
575,-7.812500
576,-7.812500
577,-7.812500
578,-7.812500
579,-7.812500
580,-7.812500
581,-7.812500
582,-7.812500
583,-7.812500
584,-7.812500
585,-7.812500
586,-7.812500
587,-7.812500
588,-7.812500
589,-7.812500
590,-7.812500
591,-7.812500
592,-7.812500
593,-7.812500
594,-7.812500
595,-7.812500
596,-7.812500
597,-11.718750
598,-7.812500
599,-11.718750
600,-11.718750
601,-11.718750
602,-11.718750
603,-11.718750
604,-11.718750
605,-11.718750
606,-11.718750
607,-11.718750
608,-11.718750
609,-11.718750
610,-11.718750
611,-11.718750
612,-11.718750
613,-11.718750
614,-11.718750
615,-11.718750
616,-11.718750
617,-11.718750
618,-11.718750
619,-15.625000
620,-15.625000
621,-15.625000
622,-15.625000
623,-11.718750
624,-11.718750
625,-15.625000
626,-15.625000
627,-15.625000
628,-15.625000
629,-15.625000
630,-15.625000
631,-15.625000
632,-15.625000
633,-15.625000
634,-15.625000
635,-15.625000
636,-15.625000
637,-15.625000
638,-15.625000
639,-15.625000
640,-15.625000
641,-15.625000
642,-15.625000
643,-15.625000
644,-15.625000
645,-15.625000
646,-19.531250
647,-15.625000
648,-15.625000
649,-15.625000
650,-19.531250
651,-19.531250
652,-19.531250
653,-19.531250
654,-19.531250
655,-19.531250
656,-19.531250
657,-19.531250
658,-19.531250
659,-19.531250
660,-19.531250
661,-19.531250
662,-19.531250
663,-19.531250
664,-19.531250
665,-19.531250
666,-23.437500
667,-19.531250
668,-19.531250
669,-19.531250
670,-19.531250
671,-23.437500
672,-23.437500
673,-23.437500
674,-19.531250
675,-23.437500
676,-23.437500
677,-23.437500
678,-23.437500
679,-23.437500
680,-23.437500
681,-23.437500
682,-23.437500
683,-23.437500
684,-23.437500
685,-23.437500
686,-23.437500
687,-23.437500
688,-23.437500
689,-23.437500
690,-23.437500
691,-23.437500
692,-23.437500
693,-23.437500
694,-23.437500
695,-23.437500
696,-27.343750
697,-27.343750
698,-27.343750
699,-27.343750
700,-27.343750
701,-27.343750
702,-27.343750
703,-27.343750
704,-27.343750
705,-27.343750
706,-27.343750
707,-27.343750
708,-27.343750
709,-27.343750
710,-27.343750
711,-27.343750
712,-27.343750
713,-27.343750
714,-27.343750
715,-27.343750
716,-27.343750
717,-27.343750
718,-27.343750
719,-27.343750
720,-31.250000
721,-27.343750
722,-27.343750
723,-31.250000
724,-31.250000
725,-31.250000
726,-31.250000
727,-31.250000
728,-31.250000
729,-31.250000
730,-31.250000
731,-31.250000
732,-31.250000
733,-31.250000
734,-31.250000
735,-31.250000
736,-31.250000
737,-31.250000
738,-31.250000
739,-31.250000
740,-31.250000
741,-31.250000
742,-31.250000
743,-31.250000
744,-31.250000
745,-31.250000
746,-31.250000
747,-31.250000
748,-31.250000
749,-31.250000
750,-31.250000
751,-31.250000
752,-31.250000
753,-35.156250
754,-35.156250
755,-31.250000
756,-31.250000
757,-31.250000
758,-35.156250
759,-35.156250
760,-35.156250
761,-35.156250
762,-31.250000
763,-35.156250
764,-35.156250
765,-35.156250
766,-35.156250
767,-35.156250
768,-35.156250
769,-35.156250
770,-35.156250
771,-35.156250
772,-35.156250
773,-35.156250
774,-35.156250
775,-35.156250
776,-35.156250
777,-35.156250
778,-35.156250
779,-35.156250
780,-35.156250
781,-35.156250
782,-35.156250
783,-35.156250
784,-35.156250
785,-35.156250
786,-35.156250
787,-35.156250
788,-35.156250
789,-35.156250
790,-39.062500
791,-35.156250
792,-35.156250
793,-35.156250
794,-35.156250
795,-39.062500
796,-39.062500
797,-39.062500
798,-39.062500
799,-35.156250
800,-35.156250
801,-35.156250
802,-39.062500
803,-39.062500
804,-39.062500
805,-39.062500
806,-39.062500
807,-39.062500
808,-39.062500
809,-39.062500
810,-39.062500
811,-39.062500
812,-39.062500
813,-39.062500
814,-39.062500
815,-39.062500
816,-39.062500
817,-39.062500
818,-39.062500
819,-39.062500
820,-39.062500
821,-39.062500
822,-39.062500
823,-39.062500
824,-39.062500
825,-39.062500
826,-39.062500
827,-39.062500
828,-39.062500
829,-39.062500
830,-39.062500
831,-39.062500
832,-39.062500
833,-39.062500
834,-39.062500
835,-39.062500
836,-39.062500
837,-39.062500
838,-39.062500
839,-39.062500
840,-39.062500
841,-39.062500
842,-39.062500
843,-39.062500
844,-39.062500
845,-39.062500
846,-39.062500
847,-39.062500
848,-39.062500
849,-39.062500
850,-39.062500
851,-39.062500
852,-39.062500
853,-39.062500
854,-39.062500
855,-39.062500
856,-39.062500
857,-39.062500
858,-39.062500
859,-39.062500
860,-39.062500
861,-39.062500
862,-39.062500
863,-39.062500
864,-39.062500
865,-39.062500
866,-39.062500
867,-39.062500
868,-39.062500
869,-39.062500
870,-39.062500
871,-39.062500
872,-39.062500
873,-39.062500
874,-39.062500
875,-39.062500
876,-39.062500
877,-39.062500
878,-39.062500
879,-39.062500
880,-39.062500
881,-39.062500
882,-39.062500
883,-39.062500
884,-39.062500
885,-39.062500
886,-39.062500
887,-39.062500
888,-39.062500
889,-39.062500
890,-39.062500
891,-39.062500
892,-39.062500
893,-39.062500
894,-39.062500
895,-39.062500
896,-39.062500
897,-39.062500
898,-39.062500
899,-39.062500
900,-39.062500
901,-39.062500
902,-39.062500
903,-39.062500
904,-39.062500
905,-39.062500
906,-39.062500
907,-39.062500
908,-39.062500
909,-39.062500
910,-39.062500
911,-39.062500
912,-39.062500
913,-39.062500
914,-39.062500
915,-39.062500
916,-39.062500
917,-39.062500
918,-35.156250
919,-39.062500
920,-39.062500
921,-35.156250
922,-35.156250
923,-35.156250
924,-35.156250
925,-35.156250
926,-39.062500
927,-35.156250
928,-35.156250
929,-35.156250
930,-35.156250
931,-35.156250
932,-35.156250
933,-35.156250
934,-35.156250
935,-35.156250
936,-35.156250
937,-35.156250
938,-35.156250
939,-35.156250
940,-35.156250
941,-35.156250
942,-35.156250
943,-35.156250
944,-35.156250
945,-35.156250
946,-35.156250
947,-35.156250
948,-35.156250
949,-35.156250
950,-35.156250
951,-35.156250
952,-35.156250
953,-35.156250
954,-35.156250
955,-35.156250
956,-35.156250
957,-35.156250
958,-35.156250
959,-35.156250
960,-35.156250
961,-35.156250
962,-31.250000
963,-31.250000
964,-31.250000
965,-31.250000
966,-31.250000
967,-35.156250
968,-35.156250
969,-31.250000
970,-31.250000
971,-31.250000
972,-31.250000
973,-31.250000
974,-31.250000
975,-31.250000
976,-31.250000
977,-31.250000
978,-31.250000
979,-31.250000
980,-31.250000
981,-31.250000
982,-31.250000
983,-31.250000
984,-31.250000
985,-31.250000
986,-31.250000
987,-31.250000
988,-31.250000
989,-31.250000
990,-31.250000
991,-31.250000
992,-31.250000
993,-31.250000
994,-27.343750
995,-31.250000
996,-27.343750
997,-31.250000
998,-27.343750
999,-27.343750
1000,-27.343750
1001,-27.343750
1002,-27.343750
1003,-27.343750
1004,-27.343750
1005,-27.343750
1006,-27.343750
1007,-27.343750
1008,-27.343750
1009,-27.343750
1010,-27.343750
1011,-27.343750
1012,-27.343750
1013,-27.343750
1014,-27.343750
1015,-27.343750
1016,-27.343750
1017,-27.343750
1018,-27.343750
1019,-27.343750
1020,-27.343750
1021,-27.343750
1022,-23.437500
1023,-27.343750
1024,-23.437500
1025,-23.437500
1026,-23.437500
1027,-23.437500
1028,-23.437500
1029,-23.437500
1030,-23.437500
1031,-23.437500
1032,-23.437500
1033,-23.437500
1034,-23.437500
1035,-23.437500
1036,-23.437500
1037,-23.437500
1038,-23.437500
1039,-23.437500
1040,-23.437500
1041,-23.437500
1042,-23.437500
1043,-23.437500
1044,-23.437500
1045,-23.437500
1046,-19.531250
1047,-19.531250
1048,-19.531250
1049,-19.531250
1050,-19.531250
1051,-19.531250
1052,-19.531250
1053,-19.531250
1054,-19.531250
1055,-19.531250
1056,-19.531250
1057,-19.531250
1058,-19.531250
1059,-19.531250
1060,-19.531250
1061,-19.531250
1062,-19.531250
1063,-19.531250
1064,-19.531250
1065,-19.531250
1066,-19.531250
1067,-19.531250
1068,-19.531250
1069,-19.531250
1070,-19.531250
1071,-15.625000
1072,-19.531250
1073,-15.625000
1074,-15.625000
1075,-15.625000
1076,-15.625000
1077,-15.625000
1078,-15.625000
1079,-15.625000
1080,-15.625000
1081,-15.625000
1082,-15.625000
1083,-15.625000
1084,-15.625000
1085,-15.625000
1086,-15.625000
1087,-15.625000
1088,-15.625000
1089,-15.625000
1090,-15.625000
1091,-15.625000
1092,-15.625000
1093,-15.625000
1094,-15.625000
1095,-11.718750
1096,-11.718750
1097,-11.718750
1098,-11.718750
1099,-11.718750
1100,-11.718750
1101,-11.718750
1102,-11.718750
1103,-11.718750
1104,-11.718750
1105,-11.718750
1106,-11.718750
1107,-11.718750
1108,-11.718750
1109,-11.718750
1110,-11.718750
1111,-11.718750
1112,-11.718750
1113,-11.718750
1114,-11.718750
1115,-11.718750
1116,-11.718750
1117,-11.718750
1118,-11.718750
1119,-11.718750
1120,-11.718750
1121,-7.812500
1122,-7.812500
1123,-7.812500
1124,-7.812500
1125,-7.812500
1126,-7.812500
1127,-7.812500
1128,-7.812500
1129,-7.812500
1130,-7.812500
1131,-7.812500
1132,-7.812500
1133,-7.812500
1134,-7.812500
1135,-7.812500
1136,-7.812500
1137,-7.812500
1138,-7.812500
1139,-7.812500
1140,-7.812500
1141,-7.812500
1142,-7.812500
1143,-7.812500
1144,-7.812500
1145,-7.812500
1146,-7.812500
1147,-3.906250
1148,-3.906250
1149,-3.906250
1150,-7.812500
1151,-3.906250
1152,-3.906250
1153,-3.906250
1154,-3.906250
1155,-3.906250
1156,-3.906250
1157,-3.906250
1158,-3.906250
1159,-3.906250
1160,-3.906250
1161,-3.906250
1162,-3.906250
1163,-3.906250
1164,-3.906250
1165,-3.906250
1166,-3.906250
1167,-3.906250
1168,-3.906250
1169,-3.906250
1170,0.000000
1171,0.000000
1172,0.000000
1173,0.000000
1174,0.000000
1175,0.000000
1176,0.000000
1177,0.000000
1178,0.000000
1179,0.000000
1180,0.000000
1181,0.000000
1182,0.000000
1183,0.000000
1184,0.000000
1185,0.000000
1186,0.000000
1187,0.000000
1188,0.000000
1189,0.000000
1190,0.000000
1191,0.000000
1192,0.000000
1193,0.000000
1194,0.000000
1195,0.000000
1196,0.000000
1197,0.000000
1198,0.000000
1199,0.000000
1200,0.000000
1201,0.000000
1202,0.000000
1203,3.906250
1204,0.000000
1205,3.906250
1206,3.906250
1207,3.906250
1208,3.906250
1209,3.906250
1210,3.906250
1211,3.906250
1212,3.906250
1213,3.906250
1214,3.906250
1215,3.906250
1216,3.906250
1217,3.906250
1218,3.906250
1219,3.906250
1220,3.906250
1221,3.906250
1222,3.906250
1223,3.906250
1224,3.906250
1225,3.906250
1226,3.906250
1227,3.906250
1228,3.906250
1229,3.906250
1230,3.906250
1231,3.906250
1232,3.906250
1233,3.906250
1234,7.812500
1235,3.906250
1236,3.906250
1237,3.906250
1238,7.812500
1239,7.812500
1240,7.812500
1241,7.812500
1242,7.812500
1243,7.812500
1244,7.812500
1245,7.812500
1246,7.812500
1247,7.812500
1248,7.812500
1249,7.812500
1250,7.812500
1251,7.812500
1252,7.812500
1253,7.812500
1254,7.812500
1255,7.812500
1256,7.812500
1257,7.812500
1258,7.812500
1259,7.812500
1260,7.812500
1261,7.812500
1262,7.812500
1263,7.812500
1264,7.812500
1265,7.812500
1266,11.718750
1267,11.718750
1268,7.812500
1269,7.812500
1270,7.812500
1271,7.812500
1272,7.812500
1273,7.812500
1274,7.812500
1275,7.812500
1276,7.812500
1277,7.812500
1278,7.812500
1279,7.812500
1280,7.812500
1281,7.812500
1282,7.812500
1283,7.812500
1284,11.718750
1285,7.812500
1286,7.812500
1287,7.812500
1288,11.718750
1289,11.718750
1290,11.718750
1291,11.718750
1292,11.718750
1293,11.718750
1294,11.718750
1295,11.718750
1296,11.718750
1297,11.718750
1298,11.718750
1299,11.718750
1300,11.718750
1301,11.718750
1302,11.718750
1303,11.718750
1304,11.718750
1305,11.718750
1306,11.718750
1307,11.718750
1308,11.718750
1309,11.718750
1310,11.718750
1311,11.718750
1312,11.718750
1313,11.718750
1314,11.718750
1315,11.718750
1316,11.718750
1317,11.718750
1318,11.718750
1319,11.718750
1320,11.718750
1321,11.718750
1322,11.718750
1323,11.718750
1324,11.718750
1325,11.718750
1326,11.718750
1327,11.718750
1328,11.718750
1329,11.718750
1330,11.718750
1331,11.718750
1332,11.718750
1333,11.718750
1334,11.718750
1335,11.718750
1336,11.718750
1337,11.718750
1338,11.718750
1339,11.718750
1340,11.718750
1341,11.718750
1342,11.718750
1343,11.718750
1344,11.718750
1345,11.718750
1346,11.718750
1347,11.718750
1348,11.718750
1349,11.718750
1350,11.718750
1351,11.718750
1352,11.718750
1353,11.718750
1354,11.718750
1355,11.718750
1356,11.718750
1357,11.718750
1358,11.718750
1359,11.718750
1360,11.718750
1361,11.718750
1362,11.718750
1363,11.718750
1364,11.718750
1365,11.718750
1366,11.718750
1367,11.718750
1368,11.718750
1369,11.718750
1370,11.718750
1371,7.812500
1372,11.718750
1373,11.718750
1374,11.718750
1375,11.718750
1376,11.718750
1377,11.718750
1378,11.718750
1379,11.718750
1380,11.718750
1381,11.718750
1382,11.718750
1383,11.718750
1384,11.718750
1385,11.718750
1386,11.718750
1387,11.718750
1388,11.718750
1389,11.718750
1390,11.718750
1391,11.718750
1392,11.718750
1393,11.718750
1394,11.718750
1395,11.718750
1396,11.718750
1397,11.718750
1398,11.718750
1399,11.718750
1400,11.718750
1401,11.718750
1402,11.718750
1403,11.718750
1404,11.718750
1405,11.718750
1406,11.718750
1407,11.718750
1408,11.718750
1409,11.718750
1410,11.718750
1411,11.718750
1412,11.718750
1413,7.812500
1414,11.718750
1415,11.718750
1416,11.718750
1417,11.718750
1418,7.812500
1419,7.812500
1420,7.812500
1421,7.812500
1422,7.812500
1423,7.812500
1424,7.812500
1425,7.812500
1426,7.812500
1427,7.812500
1428,7.812500
1429,7.812500
1430,7.812500
1431,7.812500
1432,7.812500
1433,7.812500
1434,7.812500
1435,7.812500
1436,7.812500
1437,7.812500
1438,7.812500
1439,7.812500
1440,7.812500
1441,7.812500
1442,7.812500
1443,7.812500
1444,7.812500
1445,7.812500
1446,7.812500
1447,7.812500
1448,7.812500
1449,7.812500
1450,7.812500
1451,7.812500
1452,7.812500
1453,7.812500
1454,7.812500
1455,7.812500
1456,7.812500
1457,7.812500
1458,7.812500
1459,7.812500
1460,7.812500
1461,7.812500
1462,7.812500
1463,7.812500
1464,3.906250
1465,7.812500
1466,3.906250
1467,3.906250
1468,3.906250
1469,3.906250
1470,3.906250
1471,3.906250
1472,3.906250
1473,3.906250
1474,3.906250
1475,3.906250
1476,3.906250
1477,3.906250
1478,3.906250
1479,3.906250
1480,3.906250
1481,3.906250
1482,3.906250
1483,3.906250
1484,3.906250
1485,3.906250
1486,3.906250
1487,3.906250
1488,3.906250
1489,3.906250
1490,3.906250
1491,3.906250
1492,3.906250
1493,3.906250
1494,3.906250
1495,3.906250
1496,3.906250
1497,3.906250
1498,3.906250
1499,3.906250
1500,0.000000
1501,3.906250
1502,3.906250
1503,0.000000
1504,0.000000
1505,0.000000
1506,0.000000
1507,0.000000
1508,0.000000
1509,0.000000
1510,0.000000
1511,0.000000
1512,0.000000
1513,0.000000
1514,0.000000
1515,0.000000
1516,0.000000
1517,0.000000
1518,0.000000
1519,0.000000
1520,0.000000
1521,0.000000
1522,0.000000
1523,0.000000
1524,0.000000
1525,0.000000
1526,0.000000
1527,0.000000
1528,0.000000
1529,0.000000
1530,0.000000
1531,0.000000
1532,0.000000
1533,0.000000
1534,-3.906250
1535,-3.906250
1536,0.000000
1537,-3.906250
1538,-3.906250
1539,-3.906250
1540,-3.906250
1541,-3.906250
1542,-3.906250
1543,-3.906250
1544,-3.906250
1545,-3.906250
1546,-3.906250
1547,-3.906250
1548,-3.906250
1549,-3.906250
1550,-3.906250
1551,-3.906250
1552,-3.906250
1553,-3.906250
1554,-3.906250
1555,-3.906250
1556,-3.906250
1557,-3.906250
1558,-3.906250
1559,-3.906250
1560,-7.812500
1561,-3.906250
1562,-3.906250
1563,-3.906250
1564,-7.812500
1565,-7.812500
1566,-7.812500
1567,-7.812500
1568,-7.812500
1569,-7.812500
1570,-7.812500
1571,-7.812500
1572,-7.812500
1573,-7.812500
1574,-7.812500
1575,-7.812500
1576,-7.812500
1577,-7.812500
1578,-7.812500
1579,-7.812500
1580,-7.812500
1581,-7.812500
1582,-7.812500
1583,-7.812500
1584,-7.812500
1585,-7.812500
1586,-7.812500
1587,-7.812500
1588,-11.718750
1589,-11.718750
1590,-11.718750
1591,-11.718750
1592,-11.718750
1593,-11.718750
1594,-11.718750
1595,-11.718750
1596,-11.718750
1597,-11.718750
1598,-11.718750
1599,-11.718750
1600,-11.718750
1601,-11.718750
1602,-11.718750
1603,-11.718750
1604,-11.718750
1605,-11.718750
1606,-11.718750
1607,-11.718750
1608,-11.718750
1609,-11.718750
1610,-11.718750
1611,-11.718750
1612,-15.625000
1613,-15.625000
1614,-15.625000
1615,-15.625000
1616,-15.625000
1617,-15.625000
1618,-15.625000
1619,-15.625000
1620,-15.625000
1621,-15.625000
1622,-15.625000
1623,-15.625000
1624,-15.625000
1625,-15.625000
1626,-15.625000
1627,-15.625000
1628,-15.625000
1629,-15.625000
1630,-15.625000
1631,-15.625000
1632,-19.531250
1633,-15.625000
1634,-15.625000
1635,-15.625000
1636,-15.625000
1637,-15.625000
1638,-19.531250
1639,-19.531250
1640,-19.531250
1641,-19.531250
1642,-19.531250
1643,-19.531250
1644,-19.531250
1645,-19.531250
1646,-19.531250
1647,-19.531250
1648,-19.531250
1649,-19.531250
1650,-19.531250
1651,-19.531250
1652,-19.531250
1653,-19.531250
1654,-19.531250
1655,-19.531250
1656,-23.437500
1657,-23.437500
1658,-23.437500
1659,-23.437500
1660,-23.437500
1661,-19.531250
1662,-23.437500
1663,-23.437500
1664,-23.437500
1665,-23.437500
1666,-23.437500
1667,-23.437500
1668,-23.437500
1669,-23.437500
1670,-23.437500
1671,-23.437500
1672,-23.437500
1673,-23.437500
1674,-23.437500
1675,-23.437500
1676,-23.437500
1677,-23.437500
1678,-23.437500
1679,-23.437500
1680,-23.437500
1681,-23.437500
1682,-27.343750
1683,-27.343750
1684,-27.343750
1685,-27.343750
1686,-27.343750
1687,-27.343750
1688,-27.343750
1689,-27.343750
1690,-27.343750
1691,-27.343750
1692,-27.343750
1693,-27.343750
1694,-27.343750
1695,-27.343750
1696,-27.343750
1697,-27.343750
1698,-27.343750
1699,-27.343750
1700,-27.343750
1701,-27.343750
1702,-27.343750
1703,-27.343750
1704,-27.343750
1705,-27.343750
1706,-27.343750
1707,-31.250000
1708,-31.250000
1709,-27.343750
1710,-31.250000
1711,-31.250000
1712,-31.250000
1713,-27.343750
1714,-31.250000
1715,-31.250000
1716,-31.250000
1717,-31.250000
1718,-31.250000
1719,-31.250000
1720,-31.250000
1721,-31.250000
1722,-31.250000
1723,-31.250000
1724,-31.250000
1725,-31.250000
1726,-31.250000
1727,-31.250000
1728,-31.250000
1729,-31.250000
1730,-31.250000
1731,-31.250000
1732,-31.250000
1733,-31.250000
1734,-31.250000
1735,-31.250000
1736,-31.250000
1737,-31.250000
1738,-31.250000
1739,-31.250000
1740,-35.156250
1741,-31.250000
1742,-35.156250
1743,-35.156250
1744,-31.250000
1745,-35.156250
1746,-35.156250
1747,-35.156250
1748,-35.156250
1749,-35.156250
1750,-35.156250
1751,-35.156250
1752,-35.156250
1753,-35.156250
1754,-35.156250
1755,-35.156250
1756,-35.156250
1757,-35.156250
1758,-35.156250
1759,-35.156250
1760,-35.156250
1761,-35.156250
1762,-35.156250
1763,-35.156250
1764,-35.156250
1765,-35.156250
1766,-35.156250
1767,-35.156250
1768,-39.062500
1769,-35.156250
1770,-35.156250
1771,-39.062500
1772,-39.062500
1773,-39.062500
1774,-35.156250
1775,-35.156250
1776,-35.156250
1777,-35.156250
1778,-35.156250
1779,-39.062500
1780,-39.062500
1781,-39.062500
1782,-39.062500
1783,-39.062500
1784,-39.062500
1785,-39.062500
1786,-39.062500
1787,-39.062500
1788,-39.062500
1789,-39.062500
1790,-39.062500
1791,-39.062500
1792,-39.062500
1793,-39.062500
1794,-39.062500
1795,-39.062500
1796,-39.062500
1797,-39.062500
1798,-39.062500
1799,-39.062500
1800,-39.062500
1801,-39.062500
1802,-39.062500
1803,-39.062500
1804,-39.062500
1805,-39.062500
1806,-39.062500
1807,-39.062500
1808,-39.062500
1809,-39.062500
1810,-39.062500
1811,-39.062500
1812,-39.062500
1813,-39.062500
1814,-39.062500
1815,-39.062500
1816,-39.062500
1817,-39.062500
1818,-39.062500
1819,-39.062500
1820,-39.062500
1821,-39.062500
1822,-39.062500
1823,-39.062500
1824,-39.062500
1825,-39.062500
1826,-39.062500
1827,-39.062500
1828,-39.062500
1829,-39.062500
1830,-39.062500
1831,-39.062500
1832,-39.062500
1833,-39.062500
1834,-39.062500
1835,-39.062500
1836,-39.062500
1837,-39.062500
1838,-39.062500
1839,-39.062500
1840,-39.062500
1841,-39.062500
1842,-39.062500
1843,-39.062500
1844,-39.062500
1845,-39.062500
1846,-39.062500
1847,-39.062500
1848,-39.062500
1849,-39.062500
1850,-39.062500
1851,-39.062500
1852,-39.062500
1853,-39.062500
1854,-39.062500
1855,-39.062500
1856,-39.062500
1857,-39.062500
1858,-39.062500
1859,-39.062500
1860,-39.062500
1861,-39.062500
1862,-39.062500
1863,-39.062500
1864,-39.062500
1865,-39.062500
1866,-39.062500
1867,-39.062500
1868,-39.062500
1869,-39.062500
1870,-39.062500
1871,-39.062500
1872,-39.062500
1873,-39.062500
1874,-39.062500
1875,-39.062500
1876,-39.062500
1877,-39.062500
1878,-39.062500
1879,-39.062500
1880,-39.062500
1881,-39.062500
1882,-39.062500
1883,-39.062500
1884,-39.062500
1885,-39.062500
1886,-39.062500
1887,-39.062500
1888,-39.062500
1889,-39.062500
1890,-39.062500
1891,-39.062500
1892,-39.062500
1893,-39.062500
1894,-39.062500
1895,-39.062500
1896,-39.062500
1897,-39.062500
1898,-39.062500
1899,-39.062500
1900,-39.062500
1901,-39.062500
1902,-39.062500
1903,-39.062500
1904,-39.062500
1905,-39.062500
1906,-39.062500
1907,-39.062500
1908,-35.156250
1909,-39.062500
1910,-39.062500
1911,-39.062500
1912,-39.062500
1913,-39.062500
1914,-39.062500
1915,-35.156250
1916,-39.062500
1917,-35.156250
1918,-35.156250
1919,-35.156250
1920,-35.156250
1921,-35.156250
1922,-35.156250
1923,-35.156250
1924,-35.156250
1925,-35.156250
1926,-35.156250
1927,-35.156250
1928,-35.156250
1929,-35.156250
1930,-35.156250
1931,-35.156250
1932,-35.156250
1933,-35.156250
1934,-35.156250
1935,-35.156250
1936,-35.156250
1937,-35.156250
1938,-35.156250
1939,-35.156250
1940,-35.156250
1941,-35.156250
1942,-35.156250
1943,-35.156250
1944,-35.156250
1945,-35.156250
1946,-31.250000
1947,-35.156250
1948,-35.156250
1949,-35.156250
1950,-35.156250
1951,-35.156250
1952,-31.250000
1953,-35.156250
1954,-31.250000
1955,-31.250000
1956,-31.250000
1957,-31.250000
1958,-31.250000
1959,-31.250000
1960,-31.250000
1961,-31.250000
1962,-31.250000
1963,-31.250000
1964,-31.250000
1965,-31.250000
1966,-31.250000
1967,-31.250000
1968,-31.250000
1969,-31.250000
1970,-31.250000
1971,-31.250000
1972,-31.250000
1973,-31.250000
1974,-31.250000
1975,-31.250000
1976,-31.250000
1977,-31.250000
1978,-31.250000
1979,-31.250000
1980,-31.250000
1981,-31.250000
1982,-31.250000
1983,-31.250000
1984,-31.250000
1985,-27.343750
1986,-31.250000
1987,-27.343750
1988,-27.343750
1989,-27.343750
1990,-27.343750
1991,-27.343750
1992,-27.343750
1993,-27.343750
1994,-27.343750
1995,-27.343750
1996,-27.343750
1997,-27.343750
1998,-27.343750
1999,-27.343750
2000,-27.343750
2001,-27.343750
2002,-27.343750
2003,-27.343750
2004,-27.343750
2005,-27.343750
2006,-27.343750
2007,-27.343750
2008,-27.343750
2009,-27.343750
2010,-27.343750
2011,-27.343750
2012,-23.437500
2013,-23.437500
2014,-23.437500
2015,-23.437500
2016,-23.437500
2017,-23.437500
2018,-23.437500
2019,-23.437500
2020,-23.437500
2021,-23.437500
2022,-23.437500
2023,-23.437500
2024,-23.437500
2025,-23.437500
2026,-23.437500
2027,-23.437500
2028,-23.437500
2029,-23.437500
2030,-23.437500
2031,-23.437500
2032,-23.437500
2033,-23.437500
2034,-23.437500
2035,-23.437500
2036,-19.531250
2037,-19.531250
2038,-19.531250
2039,-19.531250
2040,-19.531250
2041,-19.531250
2042,-19.531250
2043,-19.531250
2044,-19.531250
2045,-19.531250
2046,-19.531250
2047,-19.531250
2048,-19.531250
2049,-19.531250
2050,-19.531250
2051,-19.531250
2052,-19.531250
2053,-19.531250
2054,-19.531250
2055,-19.531250
2056,-19.531250
2057,-19.531250
2058,-19.531250
2059,-15.625000
2060,-19.531250
2061,-15.625000
2062,-19.531250
2063,-15.625000
2064,-15.625000
2065,-15.625000
2066,-15.625000
2067,-15.625000
2068,-15.625000
2069,-15.625000
2070,-15.625000
2071,-15.625000
2072,-15.625000
2073,-15.625000
2074,-15.625000
2075,-15.625000
2076,-15.625000
2077,-15.625000
2078,-15.625000
2079,-15.625000
2080,-15.625000
2081,-15.625000
2082,-15.625000
2083,-11.718750
2084,-15.625000
2085,-15.625000
2086,-11.718750
2087,-11.718750
2088,-15.625000
2089,-11.718750
2090,-11.718750
2091,-11.718750
2092,-11.718750
2093,-11.718750
2094,-11.718750
2095,-11.718750
2096,-11.718750
2097,-11.718750
2098,-11.718750
2099,-11.718750
2100,-11.718750
2101,-11.718750
2102,-11.718750
2103,-11.718750
2104,-11.718750
2105,-11.718750
2106,-11.718750
2107,-7.812500
2108,-7.812500
2109,-7.812500
2110,-7.812500
2111,-7.812500
2112,-7.812500
2113,-7.812500
2114,-7.812500
2115,-7.812500
2116,-7.812500
2117,-7.812500
2118,-7.812500
2119,-7.812500
2120,-7.812500
2121,-7.812500
2122,-7.812500
2123,-7.812500
2124,-7.812500
2125,-7.812500
2126,-7.812500
2127,-7.812500
2128,-7.812500
2129,-7.812500
2130,-7.812500
2131,-7.812500
2132,-7.812500
2133,-7.812500
2134,-7.812500
2135,-3.906250
2136,-7.812500
2137,-3.906250
2138,-3.906250
2139,-3.906250
2140,-3.906250
2141,-3.906250
2142,-3.906250
2143,-3.906250
2144,-3.906250
2145,-3.906250
2146,-3.906250
2147,-3.906250
2148,-3.906250
2149,-3.906250
2150,-3.906250
2151,-3.906250
2152,-3.906250
2153,-3.906250
2154,-3.906250
2155,-3.906250
2156,-3.906250
2157,-3.906250
2158,-3.906250
2159,-3.906250
2160,0.000000
2161,-3.906250
2162,0.000000
2163,0.000000
2164,0.000000
2165,0.000000
2166,0.000000
2167,0.000000
2168,0.000000
2169,0.000000
2170,0.000000
2171,0.000000
2172,0.000000
2173,0.000000
2174,0.000000
2175,0.000000
2176,0.000000
2177,0.000000
2178,0.000000
2179,0.000000
2180,0.000000
2181,0.000000
2182,0.000000
2183,0.000000
2184,0.000000
2185,0.000000
2186,0.000000
2187,0.000000
2188,3.906250
2189,0.000000
2190,0.000000
2191,0.000000
2192,3.906250
2193,3.906250
2194,3.906250
2195,3.906250
2196,3.906250
2197,3.906250
2198,3.906250
2199,3.906250
2200,3.906250
2201,3.906250
2202,3.906250
2203,3.906250
2204,3.906250
2205,3.906250
2206,3.906250
2207,3.906250
2208,3.906250
2209,3.906250
2210,3.906250
2211,3.906250
2212,3.906250
2213,3.906250
2214,3.906250
2215,3.906250
2216,3.906250
2217,3.906250
2218,3.906250
2219,3.906250
2220,3.906250
2221,7.812500
2222,3.906250
2223,3.906250
2224,3.906250
2225,3.906250
2226,3.906250
2227,7.812500
2228,7.812500
2229,3.906250
2230,7.812500
2231,7.812500
2232,7.812500
2233,7.812500
2234,7.812500
2235,7.812500
2236,7.812500
2237,7.812500
2238,7.812500
2239,3.906250
2240,7.812500
2241,7.812500
2242,7.812500
2243,7.812500
2244,7.812500
2245,7.812500
2246,7.812500
2247,7.812500
2248,7.812500
2249,7.812500
2250,7.812500
2251,7.812500
2252,7.812500
2253,7.812500
2254,7.812500
2255,7.812500
2256,7.812500
2257,7.812500
2258,7.812500
2259,7.812500
2260,7.812500
2261,7.812500
2262,7.812500
2263,7.812500
2264,7.812500
2265,7.812500
2266,7.812500
2267,7.812500
2268,7.812500
2269,7.812500
2270,7.812500
2271,7.812500
2272,7.812500
2273,7.812500
2274,7.812500
2275,7.812500
2276,7.812500
2277,7.812500
2278,7.812500
2279,7.812500
2280,7.812500
2281,7.812500
2282,7.812500
2283,7.812500
2284,7.812500
2285,7.812500
2286,7.812500
2287,7.812500
2288,11.718750
2289,11.718750
2290,11.718750
2291,11.718750
2292,11.718750
2293,11.718750
2294,11.718750
2295,11.718750
2296,11.718750
2297,11.718750
2298,11.718750
2299,7.812500
2300,7.812500
2301,11.718750
2302,7.812500
2303,11.718750
2304,11.718750
2305,11.718750
2306,11.718750
2307,11.718750
2308,11.718750
2309,11.718750
2310,11.718750
2311,11.718750
2312,11.718750
2313,11.718750
2314,11.718750
2315,11.718750
2316,7.812500
2317,11.718750
2318,11.718750
2319,11.718750
2320,11.718750
2321,11.718750
2322,11.718750
2323,11.718750
2324,11.718750
2325,11.718750
2326,11.718750
2327,11.718750
2328,11.718750
2329,11.718750
2330,11.718750
2331,11.718750
2332,11.718750
2333,11.718750
2334,11.718750
2335,11.718750
2336,11.718750
2337,11.718750
2338,11.718750
2339,11.718750
2340,11.718750
2341,11.718750
2342,11.718750
2343,11.718750
2344,11.718750
2345,11.718750
2346,11.718750
2347,11.718750
2348,11.718750
2349,11.718750
2350,11.718750
2351,11.718750
2352,11.718750
2353,11.718750
2354,11.718750
2355,11.718750
2356,11.718750
2357,11.718750
2358,11.718750
2359,11.718750
2360,11.718750
2361,11.718750
2362,11.718750
2363,11.718750
2364,11.718750
2365,11.718750
2366,11.718750
2367,11.718750
2368,11.718750
2369,11.718750
2370,11.718750
2371,11.718750
2372,11.718750
2373,11.718750
2374,11.718750
2375,11.718750
2376,11.718750
2377,11.718750
2378,11.718750
2379,11.718750
2380,7.812500
2381,11.718750
2382,11.718750
2383,11.718750
2384,11.718750
2385,11.718750
2386,11.718750
2387,7.812500
2388,7.812500
2389,7.812500
2390,11.718750
2391,11.718750
2392,11.718750
2393,11.718750
2394,11.718750
2395,11.718750
2396,7.812500
2397,7.812500
2398,7.812500
2399,7.812500
2400,11.718750
2401,7.812500
2402,7.812500
2403,7.812500
2404,7.812500
2405,7.812500
2406,7.812500
2407,7.812500
2408,7.812500
2409,7.812500
2410,7.812500
2411,7.812500
2412,7.812500
2413,7.812500
2414,7.812500
2415,7.812500
2416,7.812500
2417,7.812500
2418,7.812500
2419,7.812500
2420,7.812500
2421,7.812500
2422,7.812500
2423,7.812500
2424,7.812500
2425,7.812500
2426,7.812500
2427,7.812500
2428,7.812500
2429,7.812500
2430,7.812500
2431,7.812500
2432,7.812500
2433,7.812500
2434,7.812500
2435,7.812500
2436,7.812500
2437,7.812500
2438,7.812500
2439,7.812500
2440,7.812500
2441,7.812500
2442,7.812500
2443,7.812500
2444,7.812500
2445,7.812500
2446,7.812500
2447,7.812500
2448,7.812500
2449,7.812500
2450,3.906250
2451,7.812500
2452,7.812500
2453,7.812500
2454,3.906250
2455,7.812500
2456,3.906250
2457,3.906250
2458,3.906250
2459,3.906250
2460,3.906250
2461,3.906250
2462,3.906250
2463,7.812500
2464,3.906250
2465,3.906250
2466,3.906250
2467,3.906250
2468,3.906250
2469,3.906250
2470,3.906250
2471,3.906250
2472,3.906250
2473,3.906250
2474,3.906250
2475,3.906250
2476,3.906250
2477,3.906250
2478,3.906250
2479,3.906250
2480,3.906250
2481,3.906250
2482,3.906250
2483,3.906250
2484,3.906250
2485,3.906250
2486,3.906250
2487,3.906250
2488,3.906250
2489,3.906250
2490,3.906250
2491,0.000000
2492,0.000000
2493,0.000000
2494,0.000000
2495,0.000000
2496,0.000000
2497,0.000000
2498,0.000000
2499,0.000000
2500,0.000000
2501,0.000000
2502,0.000000
2503,0.000000
2504,0.000000
2505,0.000000
2506,0.000000
2507,0.000000
2508,0.000000
2509,0.000000
2510,0.000000
2511,0.000000
2512,0.000000
2513,0.000000
2514,0.000000
2515,0.000000
2516,0.000000
2517,0.000000
2518,0.000000
2519,0.000000
2520,-3.906250
2521,0.000000
2522,0.000000
2523,0.000000
2524,0.000000
2525,-3.906250
2526,-3.906250
2527,-3.906250
2528,-3.906250
2529,-3.906250
2530,-3.906250
2531,-3.906250
2532,-3.906250
2533,-3.906250
2534,-3.906250
2535,-3.906250
2536,-3.906250
2537,-3.906250
2538,-3.906250
2539,-3.906250
2540,-3.906250
2541,-3.906250
2542,-3.906250
2543,-3.906250
2544,-3.906250
2545,-3.906250
2546,-7.812500
2547,-7.812500
2548,-7.812500
2549,-7.812500
2550,-3.906250
2551,-7.812500
2552,-7.812500
2553,-7.812500
2554,-7.812500
2555,-7.812500
2556,-7.812500
2557,-7.812500
2558,-7.812500
2559,-7.812500
2560,-7.812500
2561,-7.812500
2562,-7.812500
2563,-7.812500
2564,-7.812500
2565,-7.812500
2566,-7.812500
2567,-7.812500
2568,-7.812500
2569,-7.812500
2570,-11.718750
2571,-7.812500
2572,-11.718750
2573,-7.812500
2574,-7.812500
2575,-7.812500
2576,-7.812500
2577,-11.718750
2578,-11.718750
2579,-11.718750
2580,-11.718750
2581,-11.718750
2582,-11.718750
2583,-11.718750
2584,-11.718750
2585,-11.718750
2586,-11.718750
2587,-11.718750
2588,-11.718750
2589,-11.718750
2590,-11.718750
2591,-11.718750
2592,-11.718750
2593,-11.718750
2594,-11.718750
2595,-11.718750
2596,-11.718750
2597,-11.718750
2598,-11.718750
2599,-11.718750
2600,-11.718750
2601,-11.718750
2602,-15.625000
2603,-15.625000
2604,-15.625000
2605,-15.625000
2606,-15.625000
2607,-15.625000
2608,-15.625000
2609,-15.625000
2610,-15.625000
2611,-15.625000
2612,-15.625000
2613,-15.625000
2614,-15.625000
2615,-15.625000
2616,-15.625000
2617,-15.625000
2618,-15.625000
2619,-15.625000
2620,-15.625000
2621,-15.625000
2622,-15.625000
2623,-15.625000
2624,-15.625000
2625,-19.531250
2626,-19.531250
2627,-19.531250
2628,-19.531250
2629,-19.531250
2630,-19.531250
2631,-19.531250
2632,-19.531250
2633,-19.531250
2634,-19.531250
2635,-19.531250
2636,-19.531250
2637,-19.531250
2638,-19.531250
2639,-19.531250
2640,-19.531250
2641,-19.531250
2642,-19.531250
2643,-19.531250
2644,-19.531250
2645,-19.531250
2646,-19.531250
2647,-19.531250
2648,-19.531250
2649,-23.437500
2650,-23.437500
2651,-23.437500
2652,-23.437500
2653,-23.437500
2654,-23.437500
2655,-23.437500
2656,-23.437500
2657,-23.437500
2658,-23.437500
2659,-23.437500
2660,-23.437500
2661,-23.437500
2662,-23.437500
2663,-23.437500
2664,-23.437500
2665,-23.437500
2666,-23.437500
2667,-23.437500
2668,-23.437500
2669,-23.437500
2670,-23.437500
2671,-23.437500
2672,-27.343750
2673,-27.343750
2674,-27.343750
2675,-27.343750
2676,-27.343750
2677,-27.343750
2678,-27.343750
2679,-27.343750
2680,-27.343750
2681,-27.343750
2682,-27.343750
2683,-27.343750
2684,-27.343750
2685,-27.343750
2686,-27.343750
2687,-27.343750
2688,-27.343750
2689,-27.343750
2690,-27.343750
2691,-27.343750
2692,-27.343750
2693,-27.343750
2694,-27.343750
2695,-27.343750
2696,-31.250000
2697,-31.250000
2698,-27.343750
2699,-27.343750
2700,-27.343750
2701,-27.343750
2702,-27.343750
2703,-31.250000
2704,-31.250000
2705,-31.250000
2706,-31.250000
2707,-31.250000
2708,-31.250000
2709,-31.250000
2710,-31.250000
2711,-31.250000
2712,-31.250000
2713,-31.250000
2714,-31.250000
2715,-31.250000
2716,-31.250000
2717,-31.250000
2718,-31.250000
2719,-31.250000
2720,-31.250000
2721,-31.250000
2722,-31.250000
2723,-31.250000
2724,-31.250000
2725,-31.250000
2726,-31.250000
2727,-35.156250
2728,-31.250000
2729,-31.250000
2730,-35.156250
2731,-35.156250
2732,-35.156250
2733,-35.156250
2734,-31.250000
2735,-31.250000
2736,-35.156250
2737,-35.156250
2738,-35.156250
2739,-35.156250
2740,-35.156250
2741,-35.156250
2742,-35.156250
2743,-35.156250
2744,-35.156250
2745,-35.156250
2746,-35.156250
2747,-35.156250
2748,-35.156250
2749,-35.156250
2750,-35.156250
2751,-35.156250
2752,-35.156250
2753,-35.156250
2754,-35.156250
2755,-35.156250
2756,-35.156250
2757,-35.156250
2758,-35.156250
2759,-35.156250
2760,-35.156250
2761,-35.156250
2762,-35.156250
2763,-35.156250
2764,-35.156250
2765,-35.156250
2766,-39.062500
2767,-35.156250
2768,-35.156250
2769,-39.062500
2770,-39.062500
2771,-39.062500
2772,-39.062500
2773,-39.062500
2774,-39.062500
2775,-35.156250
2776,-39.062500
2777,-39.062500
2778,-39.062500
2779,-39.062500
2780,-39.062500
2781,-39.062500
2782,-39.062500
2783,-39.062500
2784,-39.062500
2785,-39.062500
2786,-39.062500
2787,-39.062500
2788,-39.062500
2789,-39.062500
2790,-39.062500
2791,-39.062500
2792,-39.062500
2793,-39.062500
2794,-39.062500
2795,-39.062500
2796,-39.062500
2797,-39.062500
2798,-39.062500
2799,-39.062500
2800,-39.062500
2801,-39.062500
2802,-39.062500
2803,-39.062500
2804,-39.062500
2805,-39.062500
2806,-39.062500
2807,-39.062500
2808,-39.062500
2809,-39.062500
2810,-39.062500
2811,-39.062500
2812,-39.062500
2813,-39.062500
2814,-39.062500
2815,-39.062500
2816,-39.062500
2817,-39.062500
2818,-39.062500
2819,-39.062500
2820,-39.062500
2821,-39.062500
2822,-39.062500
2823,-39.062500
2824,-39.062500
2825,-39.062500
2826,-39.062500
2827,-39.062500
2828,-39.062500
2829,-39.062500
2830,-39.062500
2831,-39.062500
2832,-39.062500
2833,-39.062500
2834,-39.062500
2835,-39.062500
2836,-39.062500
2837,-39.062500
2838,-39.062500
2839,-39.062500
2840,-39.062500
2841,-39.062500
2842,-39.062500
2843,-39.062500
2844,-39.062500
2845,-39.062500
2846,-39.062500
2847,-39.062500
2848,-39.062500
2849,-39.062500
2850,-39.062500
2851,-39.062500
2852,-39.062500
2853,-39.062500
2854,-39.062500
2855,-39.062500
2856,-39.062500
2857,-39.062500
2858,-39.062500
2859,-39.062500
2860,-39.062500
2861,-39.062500
2862,-39.062500
2863,-39.062500
2864,-39.062500
2865,-39.062500
2866,-39.062500
2867,-39.062500
2868,-39.062500
2869,-39.062500
2870,-39.062500
2871,-39.062500
2872,-39.062500
2873,-39.062500
2874,-39.062500
2875,-39.062500
2876,-39.062500
2877,-39.062500
2878,-39.062500
2879,-39.062500
2880,-39.062500
2881,-39.062500
2882,-39.062500
2883,-39.062500
2884,-39.062500
2885,-39.062500
2886,-39.062500
2887,-39.062500
2888,-39.062500
2889,-39.062500
2890,-39.062500
2891,-39.062500
2892,-39.062500
2893,-39.062500
2894,-39.062500
2895,-39.062500
2896,-39.062500
2897,-39.062500
2898,-39.062500
2899,-39.062500
2900,-39.062500
2901,-39.062500
2902,-35.156250
2903,-39.062500
2904,-39.062500
2905,-35.156250
2906,-39.062500
2907,-39.062500
2908,-39.062500
2909,-35.156250
2910,-35.156250
2911,-35.156250
2912,-35.156250
2913,-35.156250
2914,-35.156250
2915,-39.062500
2916,-35.156250
2917,-35.156250
2918,-35.156250
2919,-35.156250
2920,-35.156250
2921,-35.156250
2922,-35.156250
2923,-35.156250
2924,-35.156250
2925,-35.156250
2926,-35.156250
2927,-35.156250
2928,-35.156250
2929,-35.156250
2930,-35.156250
2931,-35.156250
2932,-35.156250
2933,-35.156250
2934,-35.156250
2935,-35.156250
2936,-35.156250
2937,-35.156250
2938,-35.156250
2939,-35.156250
2940,-35.156250
2941,-35.156250
2942,-35.156250
2943,-31.250000
2944,-35.156250
2945,-35.156250
2946,-35.156250
2947,-31.250000
2948,-31.250000
2949,-31.250000
2950,-31.250000
2951,-31.250000
2952,-31.250000
2953,-31.250000
2954,-31.250000
2955,-31.250000
2956,-31.250000
2957,-31.250000
2958,-31.250000
2959,-31.250000
2960,-31.250000
2961,-31.250000
2962,-31.250000
2963,-31.250000
2964,-31.250000
2965,-31.250000
2966,-31.250000
2967,-31.250000
2968,-31.250000
2969,-31.250000
2970,-27.343750
2971,-31.250000
2972,-31.250000
2973,-31.250000
2974,-31.250000
2975,-27.343750
2976,-27.343750
2977,-27.343750
2978,-27.343750
2979,-27.343750
2980,-27.343750
2981,-27.343750
2982,-27.343750
2983,-27.343750
2984,-27.343750
2985,-27.343750
2986,-27.343750
2987,-27.343750
2988,-27.343750
2989,-27.343750
2990,-27.343750
2991,-27.343750
2992,-27.343750
2993,-27.343750
2994,-27.343750
2995,-27.343750
2996,-27.343750
2997,-27.343750
2998,-27.343750
2999,-27.343750
3000,-23.437500
3001,-23.437500
3002,-27.343750
3003,-23.437500
3004,-27.343750
3005,-23.437500
3006,-23.437500
3007,-23.437500
3008,-23.437500
3009,-23.437500
3010,-23.437500
3011,-23.437500
3012,-23.437500
3013,-23.437500
3014,-23.437500
3015,-23.437500
3016,-23.437500
3017,-23.437500
3018,-23.437500
3019,-23.437500
3020,-23.437500
3021,-23.437500
3022,-23.437500
3023,-23.437500
3024,-23.437500
3025,-23.437500
3026,-23.437500
3027,-19.531250
3028,-19.531250
3029,-23.437500
3030,-19.531250
3031,-19.531250
3032,-19.531250
3033,-19.531250
3034,-19.531250
3035,-19.531250
3036,-19.531250
3037,-19.531250
3038,-19.531250
3039,-19.531250
3040,-19.531250
3041,-19.531250
3042,-19.531250
3043,-19.531250
3044,-19.531250
3045,-19.531250
3046,-19.531250
3047,-19.531250
3048,-19.531250
3049,-19.531250
3050,-19.531250
3051,-19.531250
3052,-19.531250
3053,-15.625000
3054,-15.625000
3055,-15.625000
3056,-15.625000
3057,-15.625000
3058,-15.625000
3059,-15.625000
3060,-15.625000
3061,-15.625000
3062,-15.625000
3063,-15.625000
3064,-15.625000
3065,-15.625000
3066,-15.625000
3067,-15.625000
3068,-15.625000
3069,-15.625000
3070,-15.625000
3071,-15.625000
3072,-15.625000
3073,-11.718750
3074,-15.625000
3075,-11.718750
3076,-15.625000
3077,-11.718750
3078,-11.718750
3079,-11.718750
3080,-11.718750
3081,-11.718750
3082,-11.718750
3083,-11.718750
3084,-11.718750
3085,-11.718750
3086,-11.718750
3087,-11.718750
3088,-11.718750
3089,-11.718750
3090,-11.718750
3091,-11.718750
3092,-11.718750
3093,-11.718750
3094,-11.718750
3095,-11.718750
3096,-11.718750
3097,-7.812500
3098,-7.812500
3099,-11.718750
3100,-7.812500
3101,-7.812500
3102,-7.812500
3103,-7.812500
3104,-7.812500
3105,-7.812500
3106,-7.812500
3107,-7.812500
3108,-7.812500
3109,-7.812500
3110,-7.812500
3111,-7.812500
3112,-7.812500
3113,-7.812500
3114,-7.812500
3115,-7.812500
3116,-7.812500
3117,-7.812500
3118,-7.812500
3119,-7.812500
3120,-7.812500
3121,-7.812500
3122,-3.906250
3123,-3.906250
3124,-3.906250
3125,-3.906250
3126,-3.906250
3127,-3.906250
3128,-3.906250
3129,-3.906250
3130,-3.906250
3131,-3.906250
3132,-3.906250
3133,-3.906250
3134,-3.906250
3135,-3.906250
3136,-3.906250
3137,-3.906250
3138,-3.906250
3139,-3.906250
3140,-3.906250
3141,-3.906250
3142,-3.906250
3143,-3.906250
3144,-3.906250
3145,-3.906250
3146,-3.906250
3147,-3.906250
3148,-3.906250
3149,-3.906250
3150,0.000000
3151,-3.906250
3152,0.000000
3153,-3.906250
3154,0.000000
3155,0.000000
3156,0.000000
3157,0.000000
3158,0.000000
3159,0.000000
3160,0.000000
3161,0.000000
3162,0.000000
3163,0.000000
3164,0.000000
3165,0.000000
3166,0.000000
3167,0.000000
3168,0.000000
3169,0.000000
3170,0.000000
3171,0.000000
3172,0.000000
3173,3.906250
3174,0.000000
3175,0.000000
3176,0.000000
3177,0.000000
3178,3.906250
3179,3.906250
3180,0.000000
3181,0.000000
3182,3.906250
3183,3.906250
3184,3.906250
3185,3.906250
3186,3.906250
3187,3.906250
3188,0.000000
3189,3.906250
3190,3.906250
3191,3.906250
3192,3.906250
3193,3.906250
3194,3.906250
3195,3.906250
3196,3.906250
3197,3.906250
3198,3.906250
3199,3.906250
3200,3.906250
3201,3.906250
3202,3.906250
3203,3.906250
3204,3.906250
3205,3.906250
3206,3.906250
3207,3.906250
3208,3.906250
3209,3.906250
3210,7.812500
3211,3.906250
3212,3.906250
3213,3.906250
3214,7.812500
3215,7.812500
3216,7.812500
3217,7.812500
3218,7.812500
3219,7.812500
3220,7.812500
3221,7.812500
3222,7.812500
3223,7.812500
3224,7.812500
3225,7.812500
3226,7.812500
3227,7.812500
3228,7.812500
3229,7.812500
3230,7.812500
3231,7.812500
3232,7.812500
3233,7.812500
3234,7.812500
3235,7.812500
3236,7.812500
3237,7.812500
3238,7.812500
3239,7.812500
3240,7.812500
3241,7.812500
3242,7.812500
3243,7.812500
3244,7.812500
3245,7.812500
3246,7.812500
3247,7.812500
3248,7.812500
3249,7.812500
3250,7.812500
3251,7.812500
3252,7.812500
3253,7.812500
3254,7.812500
3255,7.812500
3256,7.812500
3257,7.812500
3258,7.812500
3259,7.812500
3260,7.812500
3261,7.812500
3262,7.812500
3263,7.812500
3264,7.812500
3265,7.812500
3266,7.812500
3267,7.812500
3268,7.812500
3269,11.718750
3270,11.718750
3271,11.718750
3272,7.812500
3273,7.812500
3274,7.812500
3275,11.718750
3276,11.718750
3277,11.718750
3278,11.718750
3279,11.718750
3280,11.718750
3281,11.718750
3282,11.718750
3283,11.718750
3284,11.718750
3285,11.718750
3286,7.812500
3287,11.718750
3288,11.718750
3289,7.812500
3290,11.718750
3291,7.812500
3292,11.718750
3293,11.718750
3294,11.718750
3295,11.718750
3296,11.718750
3297,11.718750
3298,11.718750
3299,11.718750
3300,11.718750
3301,7.812500
3302,11.718750
3303,11.718750
3304,11.718750
3305,11.718750
3306,11.718750
3307,11.718750
3308,11.718750
3309,11.718750
3310,11.718750
3311,11.718750
3312,11.718750
3313,11.718750
3314,11.718750
3315,11.718750
3316,11.718750
3317,11.718750
3318,11.718750
3319,11.718750
3320,11.718750
3321,11.718750
3322,11.718750
3323,7.812500
3324,11.718750
3325,11.718750
3326,11.718750
3327,11.718750
3328,11.718750
3329,11.718750
3330,11.718750
3331,11.718750
3332,11.718750
3333,11.718750
3334,11.718750
3335,11.718750
3336,11.718750
3337,11.718750
3338,11.718750
3339,11.718750
3340,11.718750
3341,11.718750
3342,11.718750
3343,11.718750
3344,11.718750
3345,11.718750
3346,11.718750
3347,11.718750
3348,11.718750
3349,11.718750
3350,11.718750
3351,11.718750
3352,11.718750
3353,11.718750
3354,11.718750
3355,11.718750
3356,11.718750
3357,11.718750
3358,11.718750
3359,11.718750
3360,11.718750
3361,11.718750
3362,11.718750
3363,7.812500
3364,11.718750
3365,11.718750
3366,11.718750
3367,11.718750
3368,11.718750
3369,11.718750
3370,11.718750
3371,11.718750
3372,11.718750
3373,11.718750
3374,11.718750
3375,11.718750
3376,7.812500
3377,11.718750
3378,7.812500
3379,11.718750
3380,11.718750
3381,11.718750
3382,11.718750
3383,11.718750
3384,7.812500
3385,7.812500
3386,7.812500
3387,7.812500
3388,7.812500
3389,7.812500
3390,7.812500
3391,7.812500
3392,7.812500
3393,7.812500
3394,7.812500
3395,7.812500
3396,7.812500
3397,7.812500
3398,7.812500
3399,7.812500
3400,7.812500
3401,7.812500
3402,7.812500
3403,7.812500
3404,7.812500
3405,7.812500
3406,7.812500
3407,7.812500
3408,7.812500
3409,7.812500
3410,7.812500
3411,7.812500
3412,7.812500
3413,7.812500
3414,7.812500
3415,7.812500
3416,7.812500
3417,7.812500
3418,7.812500
3419,7.812500
3420,7.812500
3421,7.812500
3422,7.812500
3423,7.812500
3424,7.812500
3425,7.812500
3426,7.812500
3427,7.812500
3428,7.812500
3429,7.812500
3430,7.812500
3431,7.812500
3432,7.812500
3433,7.812500
3434,7.812500
3435,7.812500
3436,7.812500
3437,7.812500
3438,7.812500
3439,7.812500
3440,3.906250
3441,7.812500
3442,3.906250
3443,7.812500
3444,3.906250
3445,7.812500
3446,3.906250
3447,3.906250
3448,3.906250
3449,7.812500
3450,3.906250
3451,3.906250
3452,3.906250
3453,3.906250
3454,3.906250
3455,3.906250
3456,3.906250
3457,3.906250
3458,3.906250
3459,3.906250
3460,3.906250
3461,3.906250
3462,3.906250
3463,3.906250
3464,3.906250
3465,3.906250
3466,3.906250
3467,3.906250
3468,3.906250
3469,3.906250
3470,3.906250
3471,3.906250
3472,3.906250
3473,3.906250
3474,3.906250
3475,3.906250
3476,3.906250
3477,3.906250
3478,3.906250
3479,3.906250
3480,3.906250
3481,0.000000
3482,3.906250
3483,0.000000
3484,0.000000
3485,3.906250
3486,0.000000
3487,0.000000
3488,0.000000
3489,0.000000
3490,0.000000
3491,0.000000
3492,0.000000
3493,0.000000
3494,0.000000
3495,0.000000
3496,0.000000
3497,0.000000
3498,0.000000
3499,0.000000
3500,0.000000
3501,0.000000
3502,0.000000
3503,0.000000
3504,0.000000
3505,0.000000
3506,0.000000
3507,0.000000
3508,0.000000
3509,0.000000
3510,0.000000
3511,0.000000
3512,-3.906250
3513,0.000000
3514,-3.906250
3515,-3.906250
3516,-3.906250
3517,-3.906250
3518,-3.906250
3519,-3.906250
3520,-3.906250
3521,-3.906250
3522,-3.906250
3523,-3.906250
3524,0.000000
3525,-3.906250
3526,-3.906250
3527,-3.906250
3528,-3.906250
3529,-3.906250
3530,-3.906250
3531,-3.906250
3532,-3.906250
3533,-3.906250
3534,-3.906250
3535,-3.906250
3536,-3.906250
3537,-7.812500
3538,-3.906250
3539,-3.906250
3540,-7.812500
3541,-7.812500
3542,-3.906250
3543,-7.812500
3544,-7.812500
3545,-7.812500
3546,-7.812500
3547,-7.812500
3548,-7.812500
3549,-7.812500
3550,-7.812500
3551,-7.812500
3552,-7.812500
3553,-7.812500
3554,-7.812500
3555,-7.812500
3556,-7.812500
3557,-7.812500
3558,-7.812500
3559,-7.812500
3560,-7.812500
3561,-7.812500
3562,-11.718750
3563,-7.812500
3564,-11.718750
3565,-7.812500
3566,-7.812500
3567,-11.718750
3568,-11.718750
3569,-11.718750
3570,-11.718750
3571,-11.718750
3572,-11.718750
3573,-11.718750
3574,-11.718750
3575,-11.718750
3576,-11.718750
3577,-11.718750
3578,-11.718750
3579,-11.718750
3580,-11.718750
3581,-11.718750
3582,-11.718750
3583,-11.718750
3584,-11.718750
3585,-11.718750
3586,-15.625000
3587,-15.625000
3588,-15.625000
3589,-11.718750
3590,-15.625000
3591,-15.625000
3592,-15.625000
3593,-15.625000
3594,-15.625000
3595,-15.625000
3596,-15.625000
3597,-15.625000
3598,-15.625000
3599,-15.625000
3600,-15.625000
3601,-15.625000
3602,-15.625000
3603,-15.625000
3604,-15.625000
3605,-15.625000
3606,-15.625000
3607,-15.625000
3608,-15.625000
3609,-15.625000
3610,-19.531250
3611,-15.625000
3612,-19.531250
3613,-19.531250
3614,-19.531250
3615,-15.625000
3616,-19.531250
3617,-19.531250
3618,-19.531250
3619,-19.531250
3620,-19.531250
3621,-19.531250
3622,-19.531250
3623,-19.531250
3624,-19.531250
3625,-19.531250
3626,-19.531250
3627,-19.531250
3628,-19.531250
3629,-19.531250
3630,-19.531250
3631,-19.531250
3632,-19.531250
3633,-19.531250
3634,-19.531250
3635,-19.531250
3636,-23.437500
3637,-23.437500
3638,-23.437500
3639,-23.437500
3640,-23.437500
3641,-23.437500
3642,-23.437500
3643,-23.437500
3644,-23.437500
3645,-23.437500
3646,-23.437500
3647,-23.437500
3648,-23.437500
3649,-23.437500
3650,-23.437500
3651,-23.437500
3652,-23.437500
3653,-23.437500
3654,-23.437500
3655,-23.437500
3656,-23.437500
3657,-23.437500
3658,-23.437500
3659,-23.437500
3660,-23.437500
3661,-27.343750
3662,-27.343750
3663,-27.343750
3664,-27.343750
3665,-27.343750
3666,-27.343750
3667,-27.343750
3668,-27.343750
3669,-27.343750
3670,-27.343750
3671,-27.343750
3672,-27.343750
3673,-27.343750
3674,-27.343750
3675,-27.343750
3676,-27.343750
3677,-31.250000
3678,-27.343750
3679,-27.343750
3680,-27.343750
3681,-27.343750
3682,-27.343750
3683,-27.343750
3684,-27.343750
3685,-27.343750
3686,-31.250000
3687,-31.250000
3688,-31.250000
3689,-27.343750
3690,-31.250000
3691,-31.250000
3692,-31.250000
3693,-31.250000
3694,-31.250000
3695,-31.250000
3696,-31.250000
3697,-31.250000
3698,-31.250000
3699,-31.250000
3700,-31.250000
3701,-31.250000
3702,-31.250000
3703,-31.250000
3704,-31.250000
3705,-31.250000
3706,-31.250000
3707,-31.250000
3708,-31.250000
3709,-31.250000
3710,-31.250000
3711,-31.250000
3712,-31.250000
3713,-31.250000
3714,-35.156250
3715,-31.250000
3716,-31.250000
3717,-31.250000
3718,-31.250000
3719,-35.156250
3720,-35.156250
3721,-35.156250
3722,-35.156250
3723,-35.156250
3724,-35.156250
3725,-35.156250
3726,-35.156250
3727,-35.156250
3728,-35.156250
3729,-35.156250
3730,-35.156250
3731,-35.156250
3732,-35.156250
3733,-35.156250
3734,-35.156250
3735,-35.156250
3736,-35.156250
3737,-35.156250
3738,-35.156250
3739,-35.156250
3740,-35.156250
3741,-35.156250
3742,-35.156250
3743,-35.156250
3744,-35.156250
3745,-35.156250
3746,-35.156250
3747,-35.156250
3748,-35.156250
3749,-35.156250
3750,-35.156250
3751,-35.156250
3752,-35.156250
3753,-35.156250
3754,-35.156250
3755,-35.156250
3756,-35.156250
3757,-35.156250
3758,-39.062500
3759,-35.156250
3760,-35.156250
3761,-35.156250
3762,-39.062500
3763,-39.062500
3764,-39.062500
3765,-39.062500
3766,-39.062500
3767,-39.062500
3768,-35.156250
3769,-39.062500
3770,-39.062500
3771,-39.062500
3772,-39.062500
3773,-39.062500
3774,-39.062500
3775,-39.062500
3776,-39.062500
3777,-39.062500
3778,-39.062500
3779,-39.062500
3780,-39.062500
3781,-39.062500
3782,-39.062500
3783,-39.062500
3784,-39.062500
3785,-39.062500
3786,-39.062500
3787,-39.062500
3788,-39.062500
3789,-39.062500
3790,-39.062500
3791,-39.062500
3792,-39.062500
3793,-39.062500
3794,-39.062500
3795,-39.062500
3796,-39.062500
3797,-39.062500
3798,-39.062500
3799,-39.062500
3800,-39.062500
3801,-39.062500
3802,-39.062500
3803,-39.062500
3804,-39.062500
3805,-39.062500
3806,-39.062500
3807,-39.062500
3808,-39.062500
3809,-39.062500
3810,-39.062500
3811,-39.062500
3812,-39.062500
3813,-39.062500
3814,-39.062500
3815,-39.062500
3816,-39.062500
3817,-39.062500
3818,-39.062500
3819,-39.062500
3820,-39.062500
3821,-39.062500
3822,-39.062500
3823,-39.062500
3824,-39.062500
3825,-39.062500
3826,-39.062500
3827,-39.062500
3828,-39.062500
3829,-39.062500
3830,-39.062500
3831,-39.062500
3832,-39.062500
3833,-39.062500
3834,-39.062500
3835,-39.062500
3836,-39.062500
3837,-39.062500
3838,-39.062500
3839,-39.062500
3840,-39.062500
3841,-39.062500
3842,-39.062500
3843,-39.062500
3844,-39.062500
3845,-39.062500
3846,-39.062500
3847,-39.062500
3848,-39.062500
3849,-39.062500
3850,-39.062500
3851,-39.062500
3852,-39.062500
3853,-39.062500
3854,-39.062500
3855,-39.062500
3856,-39.062500
3857,-39.062500
3858,-39.062500
3859,-39.062500
3860,-39.062500
3861,-39.062500
3862,-39.062500
3863,-39.062500
3864,-39.062500
3865,-39.062500
3866,-39.062500
3867,-39.062500
3868,-39.062500
3869,-39.062500
3870,-39.062500
3871,-39.062500
3872,-39.062500
3873,-39.062500
3874,-39.062500
3875,-39.062500
3876,-39.062500
3877,-39.062500
3878,-39.062500
3879,-39.062500
3880,-39.062500
3881,-39.062500
3882,-39.062500
3883,-39.062500
3884,-35.156250
3885,-35.156250
3886,-39.062500
3887,-39.062500
3888,-35.156250
3889,-39.062500
3890,-35.156250
3891,-39.062500
3892,-35.156250
3893,-35.156250
3894,-35.156250
3895,-35.156250
3896,-35.156250
3897,-35.156250
3898,-35.156250
3899,-35.156250
3900,-35.156250
3901,-35.156250
3902,-35.156250
3903,-35.156250
3904,-35.156250
3905,-35.156250
3906,-35.156250
3907,-35.156250
3908,-35.156250
3909,-35.156250
3910,-35.156250
3911,-35.156250
3912,-35.156250
3913,-35.156250
3914,-35.156250
3915,-35.156250
3916,-35.156250
3917,-35.156250
3918,-35.156250
3919,-35.156250
3920,-35.156250
3921,-35.156250
3922,-35.156250
3923,-35.156250
3924,-35.156250
3925,-35.156250
3926,-35.156250
3927,-35.156250
3928,-35.156250
3929,-31.250000
3930,-31.250000
3931,-35.156250
3932,-35.156250
3933,-35.156250
3934,-31.250000
3935,-35.156250
3936,-31.250000
3937,-31.250000
3938,-31.250000
3939,-31.250000
3940,-35.156250
3941,-31.250000
3942,-31.250000
3943,-31.250000
3944,-31.250000
3945,-31.250000
3946,-31.250000
3947,-31.250000
3948,-31.250000
3949,-31.250000
3950,-31.250000
3951,-31.250000
3952,-31.250000
3953,-31.250000
3954,-31.250000
3955,-31.250000
3956,-31.250000
3957,-31.250000
3958,-31.250000
3959,-31.250000
3960,-31.250000
3961,-31.250000
3962,-31.250000
3963,-31.250000
3964,-31.250000
3965,-31.250000
3966,-27.343750
3967,-27.343750
3968,-27.343750
3969,-27.343750
3970,-27.343750
3971,-27.343750
3972,-27.343750
3973,-27.343750
3974,-27.343750
3975,-27.343750
3976,-27.343750
3977,-27.343750
3978,-27.343750
3979,-27.343750
3980,-27.343750
3981,-27.343750
3982,-27.343750
3983,-27.343750
3984,-27.343750
3985,-27.343750
3986,-27.343750
3987,-27.343750
3988,-27.343750
3989,-27.343750
3990,-27.343750
3991,-27.343750
3992,-23.437500
3993,-23.437500
3994,-23.437500
3995,-23.437500
3996,-23.437500
3997,-23.437500
3998,-23.437500
3999,-23.437500
4000,-23.437500
4001,-23.437500
4002,-23.437500
4003,-23.437500
4004,-23.437500
4005,-23.437500
4006,-23.437500
4007,-23.437500
4008,-23.437500
4009,-23.437500
4010,-23.437500
4011,-23.437500
4012,-23.437500
4013,-23.437500
4014,-23.437500
4015,-23.437500
4016,-23.437500
4017,-19.531250
4018,-19.531250
4019,-19.531250
4020,-19.531250
4021,-19.531250
4022,-19.531250
4023,-19.531250
4024,-19.531250
4025,-19.531250
4026,-19.531250
4027,-19.531250
4028,-19.531250
4029,-19.531250
4030,-19.531250
4031,-19.531250
4032,-19.531250
4033,-19.531250
4034,-19.531250
4035,-19.531250
4036,-19.531250
4037,-19.531250
4038,-15.625000
4039,-15.625000
4040,-15.625000
4041,-15.625000
4042,-15.625000
4043,-15.625000
4044,-15.625000
4045,-15.625000
4046,-15.625000
4047,-15.625000
4048,-15.625000
4049,-15.625000
4050,-15.625000
4051,-15.625000
4052,-15.625000
4053,-15.625000
4054,-15.625000
4055,-15.625000
4056,-15.625000
4057,-15.625000
4058,-15.625000
4059,-15.625000
4060,-15.625000
4061,-15.625000
4062,-15.625000
4063,-15.625000
4064,-11.718750
4065,-11.718750
4066,-11.718750
4067,-11.718750
4068,-11.718750
4069,-11.718750
4070,-11.718750
4071,-11.718750
4072,-11.718750
4073,-11.718750
4074,-11.718750
4075,-11.718750
4076,-11.718750
4077,-11.718750
4078,-7.812500
4079,-11.718750
4080,-11.718750
4081,-11.718750
4082,-11.718750
4083,-11.718750
4084,-11.718750
4085,-11.718750
4086,-11.718750
4087,-7.812500
4088,-7.812500
4089,-7.812500
4090,-7.812500
4091,-7.812500
4092,-7.812500
4093,-7.812500
4094,-7.812500
4095,-7.812500
4096,-7.812500
4097,-7.812500
4098,-7.812500
4099,-7.812500
4100,-7.812500
4101,-7.812500
4102,-7.812500
4103,-7.812500
4104,-7.812500
4105,-7.812500
4106,-7.812500
4107,-7.812500
4108,-7.812500
4109,-7.812500
4110,-7.812500
4111,-7.812500
4112,-3.906250
4113,-3.906250
4114,-3.906250
4115,-3.906250
4116,-3.906250
4117,-3.906250
4118,-3.906250
4119,-3.906250
4120,-3.906250
4121,-3.906250
4122,-3.906250
4123,-3.906250
4124,-3.906250
4125,-3.906250
4126,-3.906250
4127,-3.906250
4128,-3.906250
4129,-3.906250
4130,-3.906250
4131,-3.906250
4132,-3.906250
4133,-3.906250
4134,-3.906250
4135,-3.906250
4136,-3.906250
4137,-3.906250
4138,-3.906250
4139,0.000000
4140,0.000000
4141,0.000000
4142,0.000000
4143,0.000000
4144,0.000000
4145,0.000000
4146,0.000000
4147,0.000000
4148,0.000000
4149,0.000000
4150,0.000000
4151,0.000000
4152,0.000000
4153,0.000000
4154,0.000000
4155,0.000000
4156,0.000000
4157,0.000000
4158,0.000000
4159,0.000000
4160,0.000000
4161,0.000000
4162,0.000000
4163,0.000000
4164,0.000000
4165,0.000000
4166,0.000000
4167,0.000000
4168,0.000000
4169,3.906250
4170,3.906250
4171,3.906250
4172,3.906250
4173,3.906250
4174,3.906250
4175,3.906250
4176,3.906250
4177,3.906250
4178,3.906250
4179,3.906250
4180,3.906250
4181,3.906250
4182,3.906250
4183,3.906250
4184,3.906250
4185,3.906250
4186,3.906250
4187,3.906250
4188,3.906250
4189,3.906250
4190,3.906250
4191,3.906250
4192,3.906250
4193,3.906250
4194,3.906250
4195,3.906250
4196,3.906250
4197,3.906250
4198,3.906250
4199,3.906250
4200,3.906250
4201,3.906250
4202,3.906250
4203,3.906250
4204,3.906250
4205,7.812500
4206,3.906250
4207,3.906250
4208,3.906250
4209,7.812500
4210,7.812500
4211,7.812500
4212,7.812500
4213,7.812500
4214,7.812500
4215,7.812500
4216,7.812500
4217,7.812500
4218,7.812500
4219,7.812500
4220,7.812500
4221,7.812500
4222,7.812500
4223,7.812500
4224,7.812500
4225,7.812500
4226,7.812500
4227,7.812500
4228,7.812500
4229,7.812500
4230,7.812500
4231,7.812500
4232,7.812500
4233,7.812500
4234,7.812500
4235,7.812500
4236,7.812500
4237,7.812500
4238,7.812500
4239,7.812500
4240,7.812500
4241,7.812500
4242,7.812500
4243,7.812500
4244,7.812500
4245,7.812500
4246,7.812500
4247,7.812500
4248,7.812500
4249,7.812500
4250,7.812500
4251,7.812500
4252,7.812500
4253,7.812500
4254,7.812500
4255,7.812500
4256,7.812500
4257,7.812500
4258,7.812500
4259,7.812500
4260,7.812500
4261,7.812500
4262,7.812500
4263,11.718750
4264,11.718750
4265,7.812500
4266,7.812500
4267,7.812500
4268,7.812500
4269,11.718750
4270,11.718750
4271,11.718750
4272,11.718750
4273,11.718750
4274,11.718750
4275,11.718750
4276,11.718750
4277,11.718750
4278,11.718750
4279,11.718750
4280,11.718750
4281,11.718750
4282,11.718750
4283,11.718750
4284,11.718750
4285,11.718750
4286,11.718750
4287,11.718750
4288,11.718750
4289,11.718750
4290,11.718750
4291,11.718750
4292,11.718750
4293,7.812500
4294,11.718750
4295,7.812500
4296,11.718750
4297,11.718750
4298,11.718750
4299,11.718750
4300,11.718750
4301,11.718750
4302,11.718750
4303,11.718750
4304,11.718750
4305,11.718750
4306,11.718750
4307,11.718750
4308,11.718750
4309,11.718750
4310,11.718750
4311,11.718750
4312,11.718750
4313,11.718750
4314,11.718750
4315,11.718750
4316,11.718750
4317,11.718750
4318,11.718750
4319,11.718750
4320,11.718750
4321,11.718750
4322,11.718750
4323,11.718750
4324,11.718750
4325,11.718750
4326,11.718750
4327,11.718750
4328,11.718750
4329,11.718750
4330,11.718750
4331,11.718750
4332,11.718750
4333,11.718750
4334,11.718750
4335,11.718750
4336,11.718750
4337,11.718750
4338,11.718750
4339,11.718750
4340,11.718750
4341,11.718750
4342,11.718750
4343,11.718750
4344,11.718750
4345,11.718750
4346,11.718750
4347,11.718750
4348,11.718750
4349,11.718750
4350,11.718750
4351,11.718750
4352,11.718750
4353,11.718750
4354,11.718750
4355,11.718750
4356,11.718750
4357,11.718750
4358,11.718750
4359,11.718750
4360,11.718750
4361,11.718750
4362,7.812500
4363,11.718750
4364,11.718750
4365,11.718750
4366,11.718750
4367,11.718750
4368,11.718750
4369,7.812500
4370,7.812500
4371,11.718750
4372,11.718750
4373,11.718750
4374,11.718750
4375,11.718750
4376,7.812500
4377,7.812500
4378,7.812500
4379,11.718750
4380,11.718750
4381,7.812500
4382,7.812500
4383,7.812500
4384,11.718750
4385,7.812500
4386,7.812500
4387,7.812500
4388,7.812500
4389,7.812500
4390,7.812500
4391,7.812500
4392,7.812500
4393,7.812500
4394,7.812500
4395,7.812500
4396,7.812500
4397,7.812500
4398,7.812500
4399,7.812500
4400,7.812500
4401,7.812500
4402,7.812500
4403,7.812500
4404,7.812500
4405,7.812500
4406,7.812500
4407,7.812500
4408,7.812500
4409,7.812500
4410,7.812500
4411,7.812500
4412,7.812500
4413,7.812500
4414,7.812500
4415,7.812500
4416,7.812500
4417,7.812500
4418,7.812500
4419,7.812500
4420,7.812500
4421,7.812500
4422,7.812500
4423,7.812500
4424,7.812500
4425,7.812500
4426,7.812500
4427,7.812500
4428,7.812500
4429,7.812500
4430,7.812500
4431,7.812500
4432,7.812500
4433,7.812500
4434,7.812500
4435,7.812500
4436,7.812500
4437,3.906250
4438,7.812500
4439,7.812500
4440,3.906250
4441,7.812500
4442,3.906250
4443,7.812500
4444,3.906250
4445,3.906250
4446,3.906250
4447,3.906250
4448,3.906250
4449,3.906250
4450,3.906250
4451,3.906250
4452,3.906250
4453,3.906250
4454,3.906250
4455,3.906250
4456,3.906250
4457,3.906250
4458,3.906250
4459,3.906250
4460,3.906250
4461,3.906250
4462,3.906250
4463,3.906250
4464,3.906250
4465,3.906250
4466,3.906250
4467,3.906250
4468,3.906250
4469,3.906250
4470,0.000000
4471,3.906250
4472,0.000000
4473,3.906250
4474,0.000000
4475,0.000000
4476,0.000000
4477,0.000000
4478,0.000000
4479,0.000000
4480,0.000000
4481,0.000000
4482,0.000000
4483,0.000000
4484,0.000000
4485,0.000000
4486,0.000000
4487,0.000000
4488,0.000000
4489,0.000000
4490,0.000000
4491,0.000000
4492,0.000000
4493,0.000000
4494,0.000000
4495,0.000000
4496,0.000000
4497,0.000000
4498,0.000000
4499,0.000000
4500,0.000000
4501,0.000000
4502,-3.906250
4503,-3.906250
4504,0.000000
4505,0.000000
4506,-3.906250
4507,-3.906250
4508,-3.906250
4509,-3.906250
4510,-3.906250
4511,-3.906250
4512,-3.906250
4513,-3.906250
4514,-3.906250
4515,-3.906250
4516,-3.906250
4517,-3.906250
4518,-3.906250
4519,-3.906250
4520,-3.906250
4521,-3.906250
4522,-3.906250
4523,-3.906250
4524,-3.906250
4525,-3.906250
4526,-3.906250
4527,-3.906250
4528,-3.906250
4529,-3.906250
4530,-7.812500
4531,-7.812500
4532,-7.812500
4533,-7.812500
4534,-7.812500
4535,-7.812500
4536,-7.812500
4537,-7.812500
4538,-7.812500
4539,-7.812500
4540,-7.812500
4541,-7.812500
4542,-7.812500
4543,-7.812500
4544,-7.812500
4545,-7.812500
4546,-7.812500
4547,-7.812500
4548,-7.812500
4549,-7.812500
4550,-7.812500
4551,-7.812500
4552,-7.812500
4553,-7.812500
4554,-7.812500
4555,-7.812500
4556,-7.812500
4557,-11.718750
4558,-11.718750
4559,-7.812500
4560,-11.718750
4561,-11.718750
4562,-11.718750
4563,-11.718750
4564,-11.718750
4565,-11.718750
4566,-11.718750
4567,-11.718750
4568,-11.718750
4569,-11.718750
4570,-11.718750
4571,-11.718750
4572,-11.718750
4573,-11.718750
4574,-11.718750
4575,-11.718750
4576,-11.718750
4577,-11.718750
4578,-15.625000
4579,-11.718750
4580,-15.625000
4581,-15.625000
4582,-15.625000
4583,-15.625000
4584,-15.625000
4585,-15.625000
4586,-15.625000
4587,-15.625000
4588,-15.625000
4589,-15.625000
4590,-15.625000
4591,-15.625000
4592,-15.625000
4593,-15.625000
4594,-15.625000
4595,-15.625000
4596,-15.625000
4597,-15.625000
4598,-15.625000
4599,-15.625000
4600,-15.625000
4601,-15.625000
4602,-15.625000
4603,-15.625000
4604,-19.531250
4605,-15.625000
4606,-19.531250
4607,-15.625000
4608,-19.531250
4609,-19.531250
4610,-19.531250
4611,-19.531250
4612,-19.531250
4613,-19.531250
4614,-19.531250
4615,-19.531250
4616,-19.531250
4617,-19.531250
4618,-19.531250
4619,-19.531250
4620,-19.531250
4621,-19.531250
4622,-19.531250
4623,-19.531250
4624,-19.531250
4625,-19.531250
4626,-19.531250
4627,-19.531250
4628,-23.437500
4629,-23.437500
4630,-19.531250
4631,-19.531250
4632,-19.531250
4633,-19.531250
4634,-23.437500
4635,-23.437500
4636,-23.437500
4637,-23.437500
4638,-23.437500
4639,-23.437500
4640,-23.437500
4641,-23.437500
4642,-23.437500
4643,-23.437500
4644,-23.437500
4645,-23.437500
4646,-23.437500
4647,-23.437500
4648,-23.437500
4649,-23.437500
4650,-23.437500
4651,-23.437500
4652,-23.437500
4653,-23.437500
4654,-27.343750
4655,-27.343750
4656,-27.343750
4657,-27.343750
4658,-27.343750
4659,-27.343750
4660,-27.343750
4661,-27.343750
4662,-27.343750
4663,-27.343750
4664,-27.343750
4665,-27.343750
4666,-27.343750
4667,-27.343750
4668,-27.343750
4669,-27.343750
4670,-27.343750
4671,-27.343750
4672,-27.343750
4673,-27.343750
4674,-27.343750
4675,-27.343750
4676,-27.343750
4677,-27.343750
4678,-27.343750
4679,-31.250000
4680,-27.343750
4681,-27.343750
4682,-27.343750
4683,-27.343750
4684,-31.250000
4685,-31.250000
4686,-31.250000
4687,-31.250000
4688,-31.250000
4689,-31.250000
4690,-31.250000
4691,-31.250000
4692,-31.250000
4693,-31.250000
4694,-31.250000
4695,-31.250000
4696,-31.250000
4697,-31.250000
4698,-31.250000
4699,-31.250000
4700,-31.250000
4701,-31.250000
4702,-31.250000
4703,-31.250000
4704,-31.250000
4705,-31.250000
4706,-31.250000
4707,-31.250000
4708,-31.250000
4709,-35.156250
4710,-31.250000
4711,-31.250000
4712,-31.250000
4713,-31.250000
4714,-35.156250
4715,-35.156250
4716,-31.250000
4717,-35.156250
4718,-35.156250
4719,-35.156250
4720,-35.156250
4721,-35.156250
4722,-35.156250
4723,-35.156250
4724,-35.156250
4725,-35.156250
4726,-35.156250
4727,-35.156250
4728,-35.156250
4729,-35.156250
4730,-35.156250
4731,-35.156250
4732,-35.156250
4733,-35.156250
4734,-35.156250
4735,-35.156250
4736,-35.156250
4737,-35.156250
4738,-35.156250
4739,-35.156250
4740,-35.156250
4741,-35.156250
4742,-35.156250
4743,-35.156250
4744,-35.156250
4745,-35.156250
4746,-35.156250
4747,-35.156250
4748,-35.156250
4749,-35.156250
4750,-39.062500
4751,-39.062500
4752,-39.062500
4753,-39.062500
4754,-35.156250
4755,-35.156250
4756,-39.062500
4757,-39.062500
4758,-39.062500
4759,-39.062500
4760,-35.156250
4761,-39.062500
4762,-39.062500
4763,-39.062500
4764,-35.156250
4765,-39.062500
4766,-39.062500
4767,-39.062500
4768,-35.156250
4769,-39.062500
4770,-39.062500
4771,-39.062500
4772,-39.062500
4773,-39.062500
4774,-39.062500
4775,-39.062500
4776,-39.062500
4777,-39.062500
4778,-39.062500
4779,-39.062500
4780,-39.062500
4781,-39.062500
4782,-39.062500
4783,-39.062500
4784,-39.062500
4785,-39.062500
4786,-39.062500
4787,-39.062500
4788,-39.062500
4789,-39.062500
4790,-39.062500
4791,-39.062500
4792,-39.062500
4793,-39.062500
4794,-39.062500
4795,-39.062500
4796,-39.062500
4797,-39.062500
4798,-39.062500
4799,-39.062500
4800,-39.062500
4801,-39.062500
4802,-39.062500
4803,-39.062500
4804,-39.062500
4805,-39.062500
4806,-39.062500
4807,-39.062500
4808,-39.062500
4809,-39.062500
4810,-39.062500
4811,-39.062500
4812,-39.062500
4813,-39.062500
4814,-39.062500
4815,-39.062500
4816,-39.062500
4817,-39.062500
4818,-39.062500
4819,-39.062500
4820,-39.062500
4821,-39.062500
4822,-39.062500
4823,-39.062500
4824,-39.062500
4825,-39.062500
4826,-39.062500
4827,-39.062500
4828,-39.062500
4829,-39.062500
4830,-39.062500
4831,-39.062500
4832,-39.062500
4833,-39.062500
4834,-39.062500
4835,-39.062500
4836,-39.062500
4837,-39.062500
4838,-39.062500
4839,-39.062500
4840,-39.062500
4841,-39.062500
4842,-39.062500
4843,-39.062500
4844,-42.968750
4845,-39.062500
4846,-39.062500
4847,-39.062500
4848,-39.062500
4849,-39.062500
4850,-39.062500
4851,-39.062500
4852,-39.062500
4853,-39.062500
4854,-39.062500
4855,-39.062500
4856,-39.062500
4857,-39.062500
4858,-39.062500
4859,-39.062500
4860,-39.062500
4861,-39.062500
4862,-39.062500
4863,-39.062500
4864,-39.062500
4865,-39.062500
4866,-39.062500
4867,-39.062500
4868,-39.062500
4869,-39.062500
4870,-39.062500
4871,-39.062500
4872,-39.062500
4873,-39.062500
4874,-39.062500
4875,-39.062500
4876,-39.062500
4877,-39.062500
4878,-39.062500
4879,-39.062500
4880,-39.062500
4881,-35.156250
4882,-39.062500
4883,-39.062500
4884,-35.156250
4885,-35.156250
4886,-35.156250
4887,-35.156250
4888,-35.156250
4889,-35.156250
4890,-35.156250
4891,-35.156250
4892,-35.156250
4893,-35.156250
4894,-35.156250
4895,-35.156250
4896,-35.156250
4897,-35.156250
4898,-35.156250
4899,-35.156250
4900,-35.156250
4901,-35.156250
4902,-35.156250
4903,-35.156250
4904,-35.156250
4905,-35.156250
4906,-35.156250
4907,-35.156250
4908,-35.156250
4909,-35.156250
4910,-35.156250
4911,-35.156250
4912,-35.156250
4913,-35.156250
4914,-35.156250
4915,-35.156250
4916,-35.156250
4917,-35.156250
4918,-35.156250
4919,-35.156250
4920,-35.156250
4921,-35.156250
4922,-31.250000
4923,-31.250000
4924,-31.250000
4925,-31.250000
4926,-35.156250
4927,-35.156250
4928,-31.250000
4929,-31.250000
4930,-31.250000
4931,-31.250000
4932,-31.250000
4933,-31.250000
4934,-31.250000
4935,-31.250000
4936,-31.250000
4937,-31.250000
4938,-31.250000
4939,-31.250000
4940,-31.250000
4941,-31.250000
4942,-31.250000
4943,-31.250000
4944,-31.250000
4945,-31.250000
4946,-31.250000
4947,-31.250000
4948,-31.250000
4949,-31.250000
4950,-27.343750
4951,-31.250000
4952,-31.250000
4953,-27.343750
4954,-27.343750
4955,-27.343750
4956,-27.343750
4957,-27.343750
4958,-27.343750
4959,-27.343750
4960,-27.343750
4961,-27.343750
4962,-27.343750
4963,-27.343750
4964,-27.343750
4965,-27.343750
4966,-27.343750
4967,-27.343750
4968,-27.343750
4969,-27.343750
4970,-27.343750
4971,-27.343750
4972,-27.343750
4973,-27.343750
4974,-27.343750
4975,-27.343750
4976,-27.343750
4977,-27.343750
4978,-27.343750
4979,-23.437500
4980,-23.437500
4981,-23.437500
4982,-23.437500
4983,-23.437500
4984,-27.343750
4985,-23.437500
4986,-23.437500
4987,-23.437500
4988,-23.437500
4989,-23.437500
4990,-23.437500
4991,-23.437500
4992,-23.437500
4993,-23.437500
4994,-23.437500
4995,-23.437500
4996,-23.437500
4997,-23.437500
4998,-23.437500
4999,-23.437500
5000,-23.437500
5001,-23.437500
5002,-23.437500
5003,-23.437500
5004,-19.531250
5005,-19.531250
5006,-19.531250
5007,-19.531250
5008,-19.531250
5009,-19.531250
5010,-19.531250
5011,-19.531250
5012,-19.531250
5013,-19.531250
5014,-19.531250
5015,-19.531250
5016,-19.531250
5017,-19.531250
5018,-19.531250
5019,-19.531250
5020,-19.531250
5021,-19.531250
5022,-19.531250
5023,-19.531250
5024,-19.531250
5025,-19.531250
5026,-19.531250
5027,-15.625000
5028,-19.531250
5029,-15.625000
5030,-15.625000
5031,-15.625000
5032,-15.625000
5033,-15.625000
5034,-15.625000
5035,-15.625000
5036,-15.625000
5037,-15.625000
5038,-15.625000
5039,-15.625000
5040,-15.625000
5041,-15.625000
5042,-15.625000
5043,-15.625000
5044,-15.625000
5045,-15.625000
5046,-15.625000
5047,-15.625000
5048,-11.718750
5049,-15.625000
5050,-15.625000
5051,-11.718750
5052,-15.625000
5053,-15.625000
5054,-15.625000
5055,-11.718750
5056,-11.718750
5057,-11.718750
5058,-11.718750
5059,-11.718750
5060,-11.718750
5061,-11.718750
5062,-11.718750
5063,-11.718750
5064,-11.718750
5065,-11.718750
5066,-11.718750
5067,-11.718750
5068,-11.718750
5069,-11.718750
5070,-11.718750
5071,-11.718750
5072,-7.812500
5073,-11.718750
5074,-11.718750
5075,-7.812500
5076,-7.812500
5077,-11.718750
5078,-7.812500
5079,-11.718750
5080,-7.812500
5081,-7.812500
5082,-7.812500
5083,-7.812500
5084,-7.812500
5085,-7.812500
5086,-7.812500
5087,-7.812500
5088,-7.812500
5089,-7.812500
5090,-7.812500
5091,-7.812500
5092,-7.812500
5093,-7.812500
5094,-7.812500
5095,-7.812500
5096,-7.812500
5097,-7.812500
5098,-7.812500
5099,-7.812500
5100,-7.812500
5101,-3.906250
5102,-7.812500
5103,-7.812500
5104,-7.812500
5105,-3.906250
5106,-3.906250
5107,-3.906250
5108,-3.906250
5109,-3.906250
5110,-7.812500
5111,-3.906250
5112,-3.906250
5113,0.000000
5114,-3.906250
5115,-3.906250
5116,-3.906250
5117,-3.906250
5118,-3.906250
5119,0.000000
5120,-3.906250
5121,-3.906250
5122,-3.906250
5123,-3.906250
5124,-3.906250
5125,-3.906250
5126,-3.906250
5127,-3.906250
5128,0.000000
5129,-3.906250
5130,0.000000
5131,0.000000
5132,0.000000
5133,0.000000
5134,0.000000
5135,0.000000
5136,0.000000
5137,0.000000
5138,0.000000
5139,0.000000
5140,0.000000
5141,0.000000
5142,0.000000
5143,0.000000
5144,0.000000
5145,0.000000
5146,0.000000
5147,0.000000
5148,0.000000
5149,0.000000
5150,0.000000
5151,0.000000
5152,3.906250
5153,0.000000
5154,0.000000
5155,0.000000
5156,0.000000
5157,3.906250
5158,3.906250
5159,0.000000
5160,3.906250
5161,3.906250
5162,3.906250
5163,3.906250
5164,3.906250
5165,3.906250
5166,3.906250
5167,3.906250
5168,3.906250
5169,3.906250
5170,3.906250
5171,3.906250
5172,3.906250
5173,3.906250
5174,3.906250
5175,3.906250
5176,3.906250
5177,3.906250
5178,3.906250
5179,3.906250
5180,3.906250
5181,3.906250
5182,3.906250
5183,3.906250
5184,3.906250
5185,7.812500
5186,3.906250
5187,3.906250
5188,3.906250
5189,3.906250
5190,3.906250
5191,3.906250
5192,7.812500
5193,7.812500
5194,7.812500
5195,7.812500
5196,3.906250
5197,7.812500
5198,7.812500
5199,7.812500
5200,7.812500
5201,7.812500
5202,7.812500
5203,7.812500
5204,7.812500
5205,7.812500
5206,7.812500
5207,7.812500
5208,7.812500
5209,7.812500
5210,7.812500
5211,7.812500
5212,7.812500
5213,7.812500
5214,7.812500
5215,7.812500
5216,7.812500
5217,7.812500
5218,7.812500
5219,7.812500
5220,7.812500
5221,7.812500
5222,7.812500
5223,7.812500
5224,7.812500
5225,7.812500
5226,7.812500
5227,7.812500
5228,7.812500
5229,7.812500
5230,7.812500
5231,7.812500
5232,7.812500
5233,7.812500
5234,7.812500
5235,7.812500
5236,7.812500
5237,7.812500
5238,7.812500
5239,7.812500
5240,7.812500
5241,7.812500
5242,7.812500
5243,7.812500
5244,7.812500
5245,7.812500
5246,7.812500
5247,7.812500
5248,7.812500
5249,11.718750
5250,7.812500
5251,7.812500
5252,7.812500
5253,11.718750
5254,11.718750
5255,11.718750
5256,11.718750
5257,11.718750
5258,11.718750
5259,11.718750
5260,7.812500
5261,11.718750
5262,11.718750
5263,11.718750
5264,11.718750
5265,11.718750
5266,11.718750
5267,11.718750
5268,11.718750
5269,11.718750
5270,11.718750
5271,11.718750
5272,11.718750
5273,11.718750
5274,11.718750
5275,11.718750
5276,11.718750
5277,11.718750
5278,11.718750
5279,11.718750
5280,11.718750
5281,11.718750
5282,11.718750
5283,11.718750
5284,11.718750
5285,11.718750
5286,11.718750
5287,11.718750
5288,11.718750
5289,11.718750
5290,11.718750
5291,11.718750
5292,11.718750
5293,11.718750
5294,11.718750
5295,11.718750
5296,11.718750
5297,11.718750
5298,11.718750
5299,11.718750
5300,11.718750
5301,11.718750
5302,11.718750
5303,11.718750
5304,11.718750
5305,11.718750
5306,11.718750
5307,11.718750
5308,11.718750
5309,11.718750
5310,11.718750
5311,11.718750
5312,11.718750
5313,11.718750
5314,11.718750
5315,11.718750
5316,11.718750
5317,11.718750
5318,11.718750
5319,11.718750
5320,11.718750
5321,11.718750
5322,11.718750
5323,11.718750
5324,11.718750
5325,11.718750
5326,11.718750
5327,11.718750
5328,11.718750
5329,11.718750
5330,11.718750
5331,11.718750
5332,11.718750
5333,11.718750
5334,11.718750
5335,11.718750
5336,11.718750
5337,11.718750
5338,11.718750
5339,11.718750
5340,11.718750
5341,11.718750
5342,11.718750
5343,11.718750
5344,11.718750
5345,11.718750
5346,11.718750
5347,11.718750
5348,11.718750
5349,11.718750
5350,11.718750
5351,11.718750
5352,11.718750
5353,7.812500
5354,11.718750
5355,7.812500
5356,11.718750
5357,11.718750
5358,11.718750
5359,11.718750
5360,11.718750
5361,11.718750
5362,11.718750
5363,11.718750
5364,11.718750
5365,7.812500
5366,7.812500
5367,7.812500
5368,7.812500
5369,7.812500
5370,7.812500
5371,11.718750
5372,7.812500
5373,7.812500
5374,7.812500
5375,7.812500
5376,7.812500
5377,7.812500
5378,7.812500
5379,7.812500
5380,7.812500
5381,7.812500
5382,7.812500
5383,7.812500
5384,7.812500
5385,7.812500
5386,7.812500
5387,7.812500
5388,7.812500
5389,7.812500
5390,7.812500
5391,7.812500
5392,7.812500
5393,7.812500
5394,7.812500
5395,7.812500
5396,7.812500
5397,7.812500
5398,7.812500
5399,7.812500
5400,7.812500
5401,7.812500
5402,7.812500
5403,7.812500
5404,7.812500
5405,7.812500
5406,7.812500
5407,7.812500
5408,7.812500
5409,7.812500
5410,7.812500
5411,7.812500
5412,7.812500
5413,7.812500
5414,7.812500
5415,7.812500
5416,7.812500
5417,7.812500
5418,7.812500
5419,7.812500
5420,7.812500
5421,7.812500
5422,3.906250
5423,3.906250
5424,3.906250
5425,3.906250
5426,3.906250
5427,7.812500
5428,3.906250
5429,3.906250
5430,7.812500
5431,3.906250
5432,3.906250
5433,3.906250
5434,3.906250
5435,3.906250
5436,3.906250
5437,3.906250
5438,3.906250
5439,3.906250
5440,3.906250
5441,3.906250
5442,3.906250
5443,3.906250
5444,3.906250
5445,3.906250
5446,3.906250
5447,3.906250
5448,3.906250
5449,3.906250
5450,3.906250
5451,3.906250
5452,3.906250
5453,3.906250
5454,3.906250
5455,3.906250
5456,3.906250
5457,3.906250
5458,3.906250
5459,3.906250
5460,3.906250
5461,3.906250
5462,3.906250
5463,0.000000
5464,0.000000
5465,0.000000
5466,0.000000
5467,0.000000
5468,0.000000
5469,0.000000
5470,0.000000
5471,0.000000
5472,0.000000
5473,0.000000
5474,0.000000
5475,0.000000
5476,0.000000
5477,0.000000
5478,0.000000
5479,0.000000
5480,0.000000
5481,0.000000
5482,0.000000
5483,0.000000
5484,0.000000
5485,0.000000
5486,0.000000
5487,0.000000
5488,0.000000
5489,0.000000
5490,0.000000
5491,0.000000
5492,-3.906250
5493,0.000000
5494,-3.906250
5495,-3.906250
5496,-3.906250
5497,-3.906250
5498,-3.906250
5499,-3.906250
5500,-3.906250
5501,-3.906250
5502,-3.906250
5503,-3.906250
5504,-3.906250
5505,-3.906250
5506,-3.906250
5507,-3.906250
5508,-3.906250
5509,-3.906250
5510,-3.906250
5511,-3.906250
5512,-3.906250
5513,-3.906250
5514,-3.906250
5515,-3.906250
5516,-3.906250
5517,-3.906250
5518,-3.906250
5519,-3.906250
5520,-3.906250
5521,-3.906250
5522,-7.812500
5523,-7.812500
5524,-7.812500
5525,-7.812500
5526,-7.812500
5527,-7.812500
5528,-7.812500
5529,-7.812500
5530,-7.812500
5531,-7.812500
5532,-7.812500
5533,-7.812500
5534,-7.812500
5535,-7.812500
5536,-7.812500
5537,-7.812500
5538,-7.812500
5539,-7.812500
5540,-7.812500
5541,-7.812500
5542,-7.812500
5543,-7.812500
5544,-7.812500
5545,-11.718750
5546,-11.718750
5547,-7.812500
5548,-11.718750
5549,-11.718750
5550,-7.812500
5551,-11.718750
5552,-11.718750
5553,-11.718750
5554,-11.718750
5555,-11.718750
5556,-11.718750
5557,-11.718750
5558,-11.718750
5559,-11.718750
5560,-11.718750
5561,-11.718750
5562,-11.718750
5563,-11.718750
5564,-11.718750
5565,-11.718750
5566,-11.718750
5567,-11.718750
5568,-11.718750
5569,-11.718750
5570,-11.718750
5571,-11.718750
5572,-11.718750
5573,-15.625000
5574,-15.625000
5575,-15.625000
5576,-11.718750
5577,-15.625000
5578,-15.625000
5579,-15.625000
5580,-15.625000
5581,-15.625000
5582,-15.625000
5583,-15.625000
5584,-15.625000
5585,-15.625000
5586,-15.625000
5587,-15.625000
5588,-15.625000
5589,-15.625000
5590,-15.625000
5591,-15.625000
5592,-15.625000
5593,-15.625000
5594,-15.625000
5595,-15.625000
5596,-15.625000
5597,-15.625000
5598,-19.531250
5599,-19.531250
5600,-19.531250
5601,-19.531250
5602,-19.531250
5603,-19.531250
5604,-19.531250
5605,-19.531250
5606,-19.531250
5607,-19.531250
5608,-19.531250
5609,-19.531250
5610,-19.531250
5611,-19.531250
5612,-19.531250
5613,-19.531250
5614,-19.531250
5615,-19.531250
5616,-19.531250
5617,-19.531250
5618,-19.531250
5619,-23.437500
5620,-23.437500
5621,-23.437500
5622,-23.437500
5623,-23.437500
5624,-23.437500
5625,-23.437500
5626,-23.437500
5627,-23.437500
5628,-23.437500
5629,-23.437500
5630,-23.437500
5631,-23.437500
5632,-23.437500
5633,-23.437500
5634,-23.437500
5635,-23.437500
5636,-23.437500
5637,-23.437500
5638,-23.437500
5639,-23.437500
5640,-23.437500
5641,-23.437500
5642,-23.437500
5643,-23.437500
5644,-23.437500
5645,-23.437500
5646,-27.343750
5647,-27.343750
5648,-27.343750
5649,-27.343750
5650,-27.343750
5651,-27.343750
5652,-27.343750
5653,-27.343750
5654,-27.343750
5655,-27.343750
5656,-27.343750
5657,-27.343750
5658,-27.343750
5659,-27.343750
5660,-27.343750
5661,-27.343750
5662,-27.343750
5663,-27.343750
5664,-27.343750
5665,-27.343750
5666,-27.343750
5667,-27.343750
5668,-27.343750
5669,-27.343750
5670,-27.343750
5671,-27.343750
5672,-31.250000
5673,-27.343750
5674,-31.250000
5675,-27.343750
5676,-31.250000
5677,-31.250000
5678,-31.250000
5679,-31.250000
5680,-31.250000
5681,-31.250000
5682,-31.250000
5683,-31.250000
5684,-31.250000
5685,-31.250000
5686,-31.250000
5687,-31.250000
5688,-31.250000
5689,-31.250000
5690,-31.250000
5691,-31.250000
5692,-31.250000
5693,-31.250000
5694,-31.250000
5695,-31.250000
5696,-31.250000
5697,-31.250000
5698,-31.250000
5699,-31.250000
5700,-31.250000
5701,-31.250000
5702,-31.250000
5703,-31.250000
5704,-31.250000
5705,-35.156250
5706,-35.156250
5707,-35.156250
5708,-35.156250
5709,-35.156250
5710,-35.156250
5711,-35.156250
5712,-35.156250
5713,-35.156250
5714,-35.156250
5715,-35.156250
5716,-35.156250
5717,-35.156250
5718,-35.156250
5719,-35.156250
5720,-35.156250
5721,-35.156250
5722,-35.156250
5723,-35.156250
5724,-35.156250
5725,-35.156250
5726,-35.156250
5727,-35.156250
5728,-35.156250
5729,-35.156250
5730,-35.156250
5731,-35.156250
5732,-35.156250
5733,-35.156250
5734,-35.156250
5735,-35.156250
5736,-35.156250
5737,-35.156250
5738,-35.156250
5739,-35.156250
5740,-35.156250
5741,-35.156250
5742,-39.062500
5743,-35.156250
5744,-35.156250
5745,-35.156250
5746,-35.156250
5747,-35.156250
5748,-39.062500
5749,-39.062500
5750,-39.062500
5751,-39.062500
5752,-39.062500
5753,-35.156250
5754,-39.062500
5755,-39.062500
5756,-35.156250
5757,-39.062500
5758,-39.062500
5759,-39.062500
5760,-39.062500
5761,-39.062500
5762,-39.062500
5763,-39.062500
5764,-39.062500
5765,-39.062500
5766,-39.062500
5767,-39.062500
5768,-39.062500
5769,-39.062500
5770,-39.062500
5771,-39.062500
5772,-39.062500
5773,-39.062500
5774,-39.062500
5775,-39.062500
5776,-39.062500
5777,-39.062500
5778,-39.062500
5779,-39.062500
5780,-39.062500
5781,-39.062500
5782,-39.062500
5783,-39.062500
5784,-39.062500
5785,-39.062500
5786,-39.062500
5787,-39.062500
5788,-39.062500
5789,-39.062500
5790,-39.062500
5791,-39.062500
5792,-39.062500
5793,-39.062500
5794,-39.062500
5795,-39.062500
5796,-39.062500
5797,-39.062500
5798,-39.062500
5799,-39.062500
5800,-39.062500
5801,-39.062500
5802,-39.062500
5803,-39.062500
5804,-39.062500
5805,-39.062500
5806,-39.062500
5807,-39.062500
5808,-39.062500
5809,-39.062500
5810,-39.062500
5811,-39.062500
5812,-39.062500
5813,-39.062500
5814,-39.062500
5815,-39.062500
5816,-39.062500
5817,-39.062500
5818,-39.062500
5819,-39.062500
5820,-39.062500
5821,-39.062500
5822,-39.062500
5823,-39.062500
5824,-39.062500
5825,-39.062500
5826,-39.062500
5827,-39.062500
5828,-39.062500
5829,-39.062500
5830,-39.062500
5831,-39.062500
5832,-39.062500
5833,-39.062500
5834,-39.062500
5835,-39.062500
5836,-39.062500
5837,-39.062500
5838,-39.062500
5839,-39.062500
5840,-39.062500
5841,-39.062500
5842,-39.062500
5843,-39.062500
5844,-39.062500
5845,-39.062500
5846,-39.062500
5847,-39.062500
5848,-39.062500
5849,-39.062500
5850,-39.062500
5851,-39.062500
5852,-39.062500
5853,-39.062500
5854,-39.062500
5855,-39.062500
5856,-39.062500
5857,-39.062500
5858,-39.062500
5859,-35.156250
5860,-35.156250
5861,-35.156250
5862,-39.062500
5863,-39.062500
5864,-39.062500
5865,-39.062500
5866,-39.062500
5867,-39.062500
5868,-35.156250
5869,-35.156250
5870,-35.156250
5871,-35.156250
5872,-39.062500
5873,-35.156250
5874,-39.062500
5875,-35.156250
5876,-39.062500
5877,-35.156250
5878,-35.156250
5879,-35.156250
5880,-35.156250
5881,-35.156250
5882,-35.156250
5883,-35.156250
5884,-35.156250
5885,-35.156250
5886,-35.156250
5887,-35.156250
5888,-35.156250
5889,-35.156250
5890,-35.156250
5891,-35.156250
5892,-35.156250
5893,-35.156250
5894,-35.156250
5895,-35.156250
5896,-35.156250
5897,-35.156250
5898,-35.156250
5899,-35.156250
5900,-35.156250
5901,-35.156250
5902,-35.156250
5903,-35.156250
5904,-35.156250
5905,-35.156250
5906,-35.156250
5907,-31.250000
5908,-35.156250
5909,-35.156250
5910,-31.250000
5911,-31.250000
5912,-31.250000
5913,-35.156250
5914,-35.156250
5915,-31.250000
5916,-31.250000
5917,-31.250000
5918,-31.250000
5919,-31.250000
5920,-31.250000
5921,-31.250000
5922,-31.250000
5923,-31.250000
5924,-31.250000
5925,-31.250000
5926,-31.250000
5927,-31.250000
5928,-31.250000
5929,-31.250000
5930,-31.250000
5931,-31.250000
5932,-31.250000
5933,-31.250000
5934,-31.250000
5935,-31.250000
5936,-31.250000
5937,-31.250000
5938,-31.250000
5939,-31.250000
5940,-31.250000
5941,-27.343750
5942,-27.343750
5943,-27.343750
5944,-27.343750
5945,-27.343750
5946,-27.343750
5947,-27.343750
5948,-27.343750
5949,-27.343750
5950,-27.343750
5951,-27.343750
5952,-27.343750
5953,-27.343750
5954,-27.343750
5955,-27.343750
5956,-27.343750
5957,-27.343750
5958,-27.343750
5959,-27.343750
5960,-27.343750
5961,-27.343750
5962,-27.343750
5963,-27.343750
5964,-27.343750
5965,-27.343750
5966,-27.343750
5967,-23.437500
5968,-23.437500
5969,-23.437500
5970,-27.343750
5971,-27.343750
5972,-23.437500
5973,-23.437500
5974,-23.437500
5975,-23.437500
5976,-23.437500
5977,-23.437500
5978,-23.437500
5979,-23.437500
5980,-23.437500
5981,-23.437500
5982,-23.437500
5983,-23.437500
5984,-23.437500
5985,-23.437500
5986,-23.437500
5987,-23.437500
5988,-23.437500
5989,-23.437500
5990,-23.437500
5991,-23.437500
5992,-23.437500
5993,-23.437500
5994,-19.531250
5995,-19.531250
5996,-23.437500
5997,-19.531250
5998,-19.531250
5999,-19.531250
6000,-19.531250
6001,-19.531250
6002,-19.531250
6003,-19.531250
6004,-19.531250
6005,-19.531250
6006,-19.531250
6007,-19.531250
6008,-19.531250
6009,-19.531250
6010,-19.531250
6011,-19.531250
6012,-19.531250
6013,-19.531250
6014,-19.531250
6015,-15.625000
6016,-19.531250
6017,-15.625000
6018,-19.531250
6019,-19.531250
6020,-19.531250
6021,-15.625000
6022,-19.531250
6023,-15.625000
6024,-15.625000
6025,-15.625000
6026,-15.625000
6027,-15.625000
6028,-15.625000
6029,-15.625000
6030,-15.625000
6031,-15.625000
6032,-15.625000
6033,-15.625000
6034,-15.625000
6035,-15.625000
6036,-15.625000
6037,-15.625000
6038,-15.625000
6039,-15.625000
6040,-15.625000
6041,-15.625000
6042,-11.718750
6043,-11.718750
6044,-11.718750
6045,-11.718750
6046,-11.718750
6047,-11.718750
6048,-11.718750
6049,-11.718750
6050,-11.718750
6051,-11.718750
6052,-11.718750
6053,-11.718750
6054,-11.718750
6055,-11.718750
6056,-11.718750
6057,-11.718750
6058,-11.718750
6059,-11.718750
6060,-11.718750
6061,-11.718750
6062,-11.718750
6063,-7.812500
6064,-7.812500
6065,-11.718750
6066,-7.812500
6067,-7.812500
6068,-7.812500
6069,-11.718750
6070,-7.812500
6071,-7.812500
6072,-7.812500
6073,-7.812500
6074,-7.812500
6075,-7.812500
6076,-7.812500
6077,-7.812500
6078,-7.812500
6079,-7.812500
6080,-7.812500
6081,-7.812500
6082,-7.812500
6083,-7.812500
6084,-7.812500
6085,-7.812500
6086,-7.812500
6087,-7.812500
6088,-3.906250
6089,-7.812500
6090,-3.906250
6091,-3.906250
6092,-3.906250
6093,-3.906250
6094,-3.906250
6095,-3.906250
6096,-3.906250
6097,-3.906250
6098,-3.906250
6099,-3.906250
6100,-3.906250
6101,-3.906250
6102,-3.906250
6103,-3.906250
6104,-3.906250
6105,-3.906250
6106,-3.906250
6107,-3.906250
6108,-3.906250
6109,-3.906250
6110,-3.906250
6111,-3.906250
6112,-3.906250
6113,-3.906250
6114,-3.906250
6115,-3.906250
6116,0.000000
6117,0.000000
6118,0.000000
6119,0.000000
6120,0.000000
6121,0.000000
6122,0.000000
6123,0.000000
6124,0.000000
6125,0.000000
6126,0.000000
6127,0.000000
6128,0.000000
6129,0.000000
6130,0.000000
6131,0.000000
6132,0.000000
6133,0.000000
6134,0.000000
6135,0.000000
6136,0.000000
6137,0.000000
6138,0.000000
6139,0.000000
6140,0.000000
6141,0.000000
6142,0.000000
6143,0.000000
6144,0.000000
6145,0.000000
6146,0.000000
6147,0.000000
6148,3.906250
6149,3.906250
6150,3.906250
6151,3.906250
6152,3.906250
6153,3.906250
6154,3.906250
6155,3.906250
6156,3.906250
6157,3.906250
6158,3.906250
6159,3.906250
6160,3.906250
6161,3.906250
6162,3.906250
6163,3.906250
6164,3.906250
6165,3.906250
6166,3.906250
6167,3.906250
6168,3.906250
6169,3.906250
6170,3.906250
6171,3.906250
6172,3.906250
6173,3.906250
6174,3.906250
6175,3.906250
6176,3.906250
6177,3.906250
6178,7.812500
6179,3.906250
6180,3.906250
6181,7.812500
6182,3.906250
6183,7.812500
6184,3.906250
6185,7.812500
6186,7.812500
6187,7.812500
6188,7.812500
6189,7.812500
6190,7.812500
6191,7.812500
6192,7.812500
6193,7.812500
6194,7.812500
6195,7.812500
6196,7.812500
6197,7.812500
6198,7.812500
6199,7.812500
6200,7.812500
6201,7.812500
6202,7.812500
6203,7.812500
6204,7.812500
6205,7.812500
6206,7.812500
6207,7.812500
6208,7.812500
6209,7.812500
6210,7.812500
6211,7.812500
6212,7.812500
6213,7.812500
6214,7.812500
6215,7.812500
6216,7.812500
6217,7.812500
6218,7.812500
6219,7.812500
6220,7.812500
6221,7.812500
6222,7.812500
6223,11.718750
6224,7.812500
6225,11.718750
6226,11.718750
6227,11.718750
6228,7.812500
6229,7.812500
6230,7.812500
6231,11.718750
6232,7.812500
6233,7.812500
6234,7.812500
6235,11.718750
6236,11.718750
6237,7.812500
6238,11.718750
6239,11.718750
6240,11.718750
6241,11.718750
6242,11.718750
6243,11.718750
6244,11.718750
6245,11.718750
6246,11.718750
6247,11.718750
6248,11.718750
6249,11.718750
6250,11.718750
6251,11.718750
6252,11.718750
6253,11.718750
6254,11.718750
6255,11.718750
6256,11.718750
6257,11.718750
6258,11.718750
6259,11.718750
6260,11.718750
6261,11.718750
6262,11.718750
6263,11.718750
6264,11.718750
6265,11.718750
6266,11.718750
6267,11.718750
6268,11.718750
6269,11.718750
6270,11.718750
6271,11.718750
6272,11.718750
6273,11.718750
6274,11.718750
6275,11.718750
6276,11.718750
6277,11.718750
6278,11.718750
6279,11.718750
6280,11.718750
6281,11.718750
6282,11.718750
6283,7.812500
6284,11.718750
6285,11.718750
6286,11.718750
6287,11.718750
6288,11.718750
6289,11.718750
6290,11.718750
6291,11.718750
6292,7.812500
6293,11.718750
6294,11.718750
6295,11.718750
6296,11.718750
6297,11.718750
6298,11.718750
6299,11.718750
6300,11.718750
6301,11.718750
6302,11.718750
6303,11.718750
6304,11.718750
6305,11.718750
6306,11.718750
6307,11.718750
6308,11.718750
6309,11.718750
6310,11.718750
6311,11.718750
6312,11.718750
6313,11.718750
6314,11.718750
6315,11.718750
6316,11.718750
6317,11.718750
6318,11.718750
6319,11.718750
6320,11.718750
6321,11.718750
6322,15.625000
6323,11.718750
6324,11.718750
6325,11.718750
6326,11.718750
6327,7.812500
6328,11.718750
6329,11.718750
6330,11.718750
6331,11.718750
6332,11.718750
6333,11.718750
6334,11.718750
6335,11.718750
6336,11.718750
6337,11.718750
6338,11.718750
6339,11.718750
6340,11.718750
6341,11.718750
6342,11.718750
6343,11.718750
6344,7.812500
6345,11.718750
6346,11.718750
6347,11.718750
6348,11.718750
6349,11.718750
6350,11.718750
6351,11.718750
6352,11.718750
6353,11.718750
6354,11.718750
6355,11.718750
6356,7.812500
6357,11.718750
6358,11.718750
6359,7.812500
6360,7.812500
6361,11.718750
6362,11.718750
6363,11.718750
6364,11.718750
6365,7.812500
6366,11.718750
6367,11.718750
6368,7.812500
6369,7.812500
6370,7.812500
6371,7.812500
6372,7.812500
6373,7.812500
6374,7.812500
6375,7.812500
6376,7.812500
6377,7.812500
6378,7.812500
6379,7.812500
6380,7.812500
6381,7.812500
6382,7.812500
6383,7.812500
6384,7.812500
6385,7.812500
6386,7.812500
6387,7.812500
6388,7.812500
6389,7.812500
6390,7.812500
6391,7.812500
6392,7.812500
6393,7.812500
6394,7.812500
6395,7.812500
6396,7.812500
6397,7.812500
6398,7.812500
6399,7.812500
6400,7.812500
6401,7.812500
6402,7.812500
6403,7.812500
6404,7.812500
6405,7.812500
6406,7.812500
6407,7.812500
6408,7.812500
6409,7.812500
6410,3.906250
6411,7.812500
6412,3.906250
6413,7.812500
6414,3.906250
6415,3.906250
6416,3.906250
6417,3.906250
6418,3.906250
6419,3.906250
6420,3.906250
6421,3.906250
6422,3.906250
6423,3.906250
6424,3.906250
6425,3.906250
6426,3.906250
6427,3.906250
6428,3.906250
6429,3.906250
6430,3.906250
6431,3.906250
6432,3.906250
6433,3.906250
6434,3.906250
6435,3.906250
6436,3.906250
6437,3.906250
6438,3.906250
6439,3.906250
6440,3.906250
6441,3.906250
6442,3.906250
6443,3.906250
6444,3.906250
6445,3.906250
6446,3.906250
6447,0.000000
6448,3.906250
6449,3.906250
6450,3.906250
6451,3.906250
6452,0.000000
6453,3.906250
6454,0.000000
6455,0.000000
6456,0.000000
6457,0.000000
6458,0.000000
6459,0.000000
6460,0.000000
6461,0.000000
6462,0.000000
6463,0.000000
6464,0.000000
6465,0.000000
6466,0.000000
6467,0.000000
6468,0.000000
6469,0.000000
6470,0.000000
6471,0.000000
6472,0.000000
6473,0.000000
6474,0.000000
6475,0.000000
6476,0.000000
6477,0.000000
6478,0.000000
6479,0.000000
6480,-3.906250
6481,0.000000
6482,-3.906250
6483,0.000000
6484,-3.906250
6485,-3.906250
6486,-3.906250
6487,-3.906250
6488,-3.906250
6489,-3.906250
6490,-3.906250
6491,-3.906250
6492,-3.906250
6493,-3.906250
6494,-3.906250
6495,-3.906250
6496,-3.906250
6497,-3.906250
6498,-3.906250
6499,-3.906250
6500,-3.906250
6501,-3.906250
6502,-3.906250
6503,-3.906250
6504,-3.906250
6505,-3.906250
6506,-3.906250
6507,-3.906250
6508,-3.906250
6509,-3.906250
6510,-3.906250
6511,-7.812500
6512,-7.812500
6513,-7.812500
6514,-7.812500
6515,-7.812500
6516,-7.812500
6517,-7.812500
6518,-7.812500
6519,-7.812500
6520,-7.812500
6521,-7.812500
6522,-7.812500
6523,-7.812500
6524,-7.812500
6525,-7.812500
6526,-7.812500
6527,-7.812500
6528,-7.812500
6529,-7.812500
6530,-7.812500
6531,-7.812500
6532,-7.812500
6533,-11.718750
6534,-11.718750
6535,-11.718750
6536,-11.718750
6537,-11.718750
6538,-11.718750
6539,-7.812500
6540,-11.718750
6541,-11.718750
6542,-11.718750
6543,-11.718750
6544,-11.718750
6545,-11.718750
6546,-11.718750
6547,-11.718750
6548,-11.718750
6549,-11.718750
6550,-11.718750
6551,-11.718750
6552,-11.718750
6553,-11.718750
6554,-11.718750
6555,-11.718750
6556,-11.718750
6557,-11.718750
6558,-11.718750
6559,-11.718750
6560,-11.718750
6561,-15.625000
6562,-11.718750
6563,-15.625000
6564,-15.625000
6565,-11.718750
6566,-15.625000
6567,-11.718750
6568,-15.625000
6569,-15.625000
6570,-15.625000
6571,-15.625000
6572,-15.625000
6573,-15.625000
6574,-15.625000
6575,-15.625000
6576,-15.625000
6577,-15.625000
6578,-15.625000
6579,-15.625000
6580,-15.625000
6581,-15.625000
6582,-15.625000
6583,-19.531250
6584,-19.531250
6585,-15.625000
6586,-19.531250
6587,-15.625000
6588,-15.625000
6589,-19.531250
6590,-19.531250
6591,-19.531250
6592,-19.531250
6593,-19.531250
6594,-19.531250
6595,-19.531250
6596,-19.531250
6597,-19.531250
6598,-19.531250
6599,-19.531250
6600,-19.531250
6601,-19.531250
6602,-19.531250
6603,-19.531250
6604,-19.531250
6605,-19.531250
6606,-19.531250
6607,-19.531250
6608,-19.531250
6609,-19.531250
6610,-23.437500
6611,-19.531250
6612,-19.531250
6613,-19.531250
6614,-23.437500
6615,-19.531250
6616,-23.437500
6617,-23.437500
6618,-23.437500
6619,-23.437500
6620,-23.437500
6621,-23.437500
6622,-23.437500
6623,-23.437500
6624,-23.437500
6625,-23.437500
6626,-23.437500
6627,-23.437500
6628,-23.437500
6629,-23.437500
6630,-23.437500
6631,-23.437500
6632,-23.437500
6633,-23.437500
6634,-23.437500
6635,-27.343750
6636,-27.343750
6637,-27.343750
6638,-27.343750
6639,-27.343750
6640,-27.343750
6641,-23.437500
6642,-27.343750
6643,-27.343750
6644,-27.343750
6645,-27.343750
6646,-27.343750
6647,-27.343750
6648,-27.343750
6649,-27.343750
6650,-27.343750
6651,-27.343750
6652,-27.343750
6653,-27.343750
6654,-27.343750
6655,-27.343750
6656,-27.343750
6657,-27.343750
6658,-27.343750
6659,-27.343750
6660,-27.343750
6661,-27.343750
6662,-31.250000
6663,-31.250000
6664,-31.250000
6665,-31.250000
6666,-31.250000
6667,-31.250000
6668,-31.250000
6669,-31.250000
6670,-31.250000
6671,-31.250000
6672,-31.250000
6673,-31.250000
6674,-31.250000
6675,-31.250000
6676,-31.250000
6677,-31.250000
6678,-31.250000
6679,-31.250000
6680,-31.250000
6681,-31.250000
6682,-31.250000
6683,-31.250000
6684,-31.250000
6685,-31.250000
6686,-31.250000
6687,-31.250000
6688,-31.250000
6689,-31.250000
6690,-35.156250
6691,-31.250000
6692,-31.250000
6693,-31.250000
6694,-31.250000
6695,-31.250000
6696,-31.250000
6697,-31.250000
6698,-35.156250
6699,-35.156250
6700,-35.156250
6701,-35.156250
6702,-35.156250
6703,-31.250000
6704,-35.156250
6705,-35.156250
6706,-35.156250
6707,-35.156250
6708,-35.156250
6709,-35.156250
6710,-35.156250
6711,-35.156250
6712,-35.156250
6713,-35.156250
6714,-35.156250
6715,-35.156250
6716,-35.156250
6717,-35.156250
6718,-35.156250
6719,-35.156250
6720,-35.156250
6721,-39.062500
6722,-35.156250
6723,-35.156250
6724,-35.156250
6725,-35.156250
6726,-35.156250
6727,-35.156250
6728,-35.156250
6729,-35.156250
6730,-35.156250
6731,-35.156250
6732,-35.156250
6733,-35.156250
6734,-39.062500
6735,-35.156250
6736,-35.156250
6737,-35.156250
6738,-35.156250
6739,-35.156250
6740,-35.156250
6741,-35.156250
6742,-35.156250
6743,-35.156250
6744,-35.156250
6745,-39.062500
6746,-39.062500
6747,-39.062500
6748,-39.062500
6749,-39.062500
6750,-39.062500
6751,-39.062500
6752,-39.062500
6753,-39.062500
6754,-39.062500
6755,-39.062500
6756,-39.062500
6757,-39.062500
6758,-39.062500
6759,-39.062500
6760,-39.062500
6761,-39.062500
6762,-39.062500
6763,-39.062500
6764,-39.062500
6765,-39.062500
6766,-39.062500
6767,-39.062500
6768,-39.062500
6769,-39.062500
6770,-39.062500
6771,-39.062500
6772,-39.062500
6773,-39.062500
6774,-39.062500
6775,-39.062500
6776,-39.062500
6777,-39.062500
6778,-39.062500
6779,-39.062500
6780,-39.062500
6781,-39.062500
6782,-39.062500
6783,-39.062500
6784,-39.062500
6785,-39.062500
6786,-39.062500
6787,-39.062500
6788,-39.062500
6789,-39.062500
6790,-39.062500
6791,-39.062500
6792,-39.062500
6793,-39.062500
6794,-39.062500
6795,-39.062500
6796,-39.062500
6797,-39.062500
6798,-39.062500
6799,-39.062500
6800,-39.062500
6801,-39.062500
6802,-39.062500
6803,-39.062500
6804,-39.062500
6805,-39.062500
6806,-39.062500
6807,-39.062500
6808,-39.062500
6809,-39.062500
6810,-39.062500
6811,-39.062500
6812,-39.062500
6813,-39.062500
6814,-39.062500
6815,-39.062500
6816,-39.062500
6817,-39.062500
6818,-39.062500
6819,-39.062500
6820,-39.062500
6821,-39.062500
6822,-39.062500
6823,-39.062500
6824,-39.062500
6825,-39.062500
6826,-39.062500
6827,-39.062500
6828,-39.062500
6829,-39.062500
6830,-39.062500
6831,-39.062500
6832,-39.062500
6833,-39.062500
6834,-39.062500
6835,-39.062500
6836,-39.062500
6837,-39.062500
6838,-39.062500
6839,-39.062500
6840,-39.062500
6841,-39.062500
6842,-39.062500
6843,-39.062500
6844,-39.062500
6845,-39.062500
6846,-39.062500
6847,-39.062500
6848,-39.062500
6849,-35.156250
6850,-35.156250
6851,-35.156250
6852,-39.062500
6853,-35.156250
6854,-35.156250
6855,-39.062500
6856,-35.156250
6857,-35.156250
6858,-35.156250
6859,-35.156250
6860,-35.156250
6861,-35.156250
6862,-39.062500
6863,-35.156250
6864,-35.156250
6865,-35.156250
6866,-35.156250
6867,-35.156250
6868,-35.156250
6869,-35.156250
6870,-35.156250
6871,-35.156250
6872,-35.156250
6873,-35.156250
6874,-35.156250
6875,-35.156250
6876,-35.156250
6877,-35.156250
6878,-35.156250
6879,-35.156250
6880,-35.156250
6881,-35.156250
6882,-35.156250
6883,-35.156250
6884,-35.156250
6885,-35.156250
6886,-35.156250
6887,-35.156250
6888,-35.156250
6889,-35.156250
6890,-35.156250
6891,-35.156250
6892,-35.156250
6893,-35.156250
6894,-35.156250
6895,-31.250000
6896,-35.156250
6897,-35.156250
6898,-35.156250
6899,-31.250000
6900,-31.250000
6901,-31.250000
6902,-35.156250
6903,-31.250000
6904,-31.250000
6905,-31.250000
6906,-31.250000
6907,-31.250000
6908,-31.250000
6909,-31.250000
6910,-31.250000
6911,-31.250000
6912,-31.250000
6913,-31.250000
6914,-31.250000
6915,-31.250000
6916,-31.250000
6917,-31.250000
6918,-31.250000
6919,-31.250000
6920,-31.250000
6921,-31.250000
6922,-31.250000
6923,-31.250000
6924,-31.250000
6925,-31.250000
6926,-31.250000
6927,-31.250000
6928,-31.250000
6929,-27.343750
6930,-31.250000
6931,-27.343750
6932,-31.250000
6933,-31.250000
6934,-31.250000
6935,-27.343750
6936,-27.343750
6937,-27.343750
6938,-27.343750
6939,-27.343750
6940,-27.343750
6941,-27.343750
6942,-27.343750
6943,-27.343750
6944,-27.343750
6945,-27.343750
6946,-27.343750
6947,-27.343750
6948,-27.343750
6949,-27.343750
6950,-27.343750
6951,-27.343750
6952,-27.343750
6953,-27.343750
6954,-27.343750
6955,-23.437500
6956,-23.437500
6957,-23.437500
6958,-23.437500
6959,-23.437500
6960,-23.437500
6961,-23.437500
6962,-23.437500
6963,-23.437500
6964,-23.437500
6965,-23.437500
6966,-23.437500
6967,-23.437500
6968,-23.437500
6969,-23.437500
6970,-23.437500
6971,-23.437500
6972,-23.437500
6973,-23.437500
6974,-23.437500
6975,-23.437500
6976,-23.437500
6977,-23.437500
6978,-23.437500
6979,-23.437500
6980,-23.437500
6981,-23.437500
6982,-19.531250
6983,-19.531250
6984,-19.531250
6985,-19.531250
6986,-19.531250
6987,-19.531250
6988,-19.531250
6989,-19.531250
6990,-19.531250
6991,-19.531250
6992,-19.531250
6993,-19.531250
6994,-19.531250
6995,-19.531250
6996,-19.531250
6997,-19.531250
6998,-19.531250
6999,-19.531250
7000,-19.531250
7001,-19.531250
7002,-15.625000
7003,-19.531250
7004,-19.531250
7005,-19.531250
7006,-19.531250
7007,-19.531250
7008,-19.531250
7009,-15.625000
7010,-15.625000
7011,-15.625000
7012,-15.625000
7013,-15.625000
7014,-15.625000
7015,-15.625000
7016,-15.625000
7017,-15.625000
7018,-15.625000
7019,-15.625000
7020,-15.625000
7021,-15.625000
7022,-15.625000
7023,-15.625000
7024,-15.625000
7025,-15.625000
7026,-15.625000
7027,-15.625000
7028,-15.625000
7029,-15.625000
7030,-15.625000
7031,-11.718750
7032,-11.718750
7033,-11.718750
7034,-11.718750
7035,-11.718750
7036,-11.718750
7037,-11.718750
7038,-11.718750
7039,-11.718750
7040,-11.718750
7041,-11.718750
7042,-11.718750
7043,-11.718750
7044,-11.718750
7045,-11.718750
7046,-11.718750
7047,-11.718750
7048,-11.718750
7049,-11.718750
7050,-11.718750
7051,-11.718750
7052,-11.718750
7053,-11.718750
7054,-11.718750
7055,-11.718750
7056,-11.718750
7057,-7.812500
7058,-7.812500
7059,-7.812500
7060,-7.812500
7061,-7.812500
7062,-7.812500
7063,-7.812500
7064,-7.812500
7065,-7.812500
7066,-7.812500
7067,-7.812500
7068,-7.812500
7069,-7.812500
7070,-7.812500
7071,-7.812500
7072,-7.812500
7073,-7.812500
7074,-7.812500
7075,-7.812500
7076,-7.812500
7077,-7.812500
7078,-7.812500
7079,-7.812500
7080,-3.906250
7081,-3.906250
7082,-3.906250
7083,-3.906250
7084,-3.906250
7085,-3.906250
7086,-3.906250
7087,-3.906250
7088,-3.906250
7089,-3.906250
7090,-3.906250
7091,-3.906250
7092,-3.906250
7093,-3.906250
7094,-3.906250
7095,-3.906250
7096,-3.906250
7097,-3.906250
7098,-3.906250
7099,-3.906250
7100,-3.906250
7101,-3.906250
7102,-3.906250
7103,-3.906250
7104,-3.906250
7105,-3.906250
7106,-3.906250
7107,-3.906250
7108,-3.906250
7109,0.000000
7110,0.000000
7111,0.000000
7112,0.000000
7113,0.000000
7114,0.000000
7115,0.000000
7116,0.000000
7117,0.000000
7118,0.000000
7119,0.000000
7120,0.000000
7121,0.000000
7122,0.000000
7123,0.000000
7124,0.000000
7125,0.000000
7126,0.000000
7127,0.000000
7128,0.000000
7129,0.000000
7130,0.000000
7131,0.000000
7132,0.000000
7133,0.000000
7134,0.000000
7135,0.000000
7136,0.000000
7137,3.906250
7138,3.906250
7139,3.906250
7140,3.906250
7141,3.906250
7142,3.906250
7143,3.906250
7144,3.906250
7145,3.906250
7146,3.906250
7147,3.906250
7148,3.906250
7149,3.906250
7150,3.906250
7151,3.906250
7152,3.906250
7153,3.906250
7154,3.906250
7155,3.906250
7156,3.906250
7157,3.906250
7158,3.906250
7159,3.906250
7160,3.906250
7161,3.906250
7162,3.906250
7163,3.906250
7164,3.906250
7165,3.906250
7166,3.906250
7167,3.906250
7168,3.906250
7169,3.906250
7170,3.906250
7171,3.906250
7172,3.906250
7173,3.906250
7174,3.906250
7175,7.812500
7176,7.812500
7177,7.812500
7178,3.906250
7179,7.812500
7180,7.812500
7181,7.812500
7182,7.812500
7183,7.812500
7184,7.812500
7185,7.812500
7186,7.812500
7187,7.812500
7188,7.812500
7189,7.812500
7190,7.812500
7191,7.812500
7192,7.812500
7193,7.812500
7194,7.812500
7195,7.812500
7196,7.812500
7197,7.812500
7198,7.812500
7199,7.812500
7200,7.812500
7201,7.812500
7202,7.812500
7203,7.812500
7204,7.812500
7205,7.812500
7206,7.812500
7207,7.812500
7208,7.812500
7209,7.812500
7210,7.812500
7211,7.812500
7212,7.812500
7213,7.812500
7214,7.812500
7215,7.812500
7216,7.812500
7217,7.812500
7218,7.812500
7219,7.812500
7220,7.812500
7221,7.812500
7222,7.812500
7223,7.812500
7224,11.718750
7225,7.812500
7226,7.812500
7227,11.718750
7228,11.718750
7229,7.812500
7230,11.718750
7231,11.718750
7232,7.812500
7233,7.812500
7234,7.812500
7235,11.718750
7236,7.812500
7237,7.812500
7238,11.718750
7239,11.718750
7240,11.718750
7241,11.718750
7242,11.718750
7243,11.718750
7244,11.718750
7245,11.718750
7246,11.718750
7247,11.718750
7248,7.812500
7249,11.718750
7250,11.718750
7251,11.718750
7252,11.718750
7253,11.718750
7254,11.718750
7255,11.718750
7256,11.718750
7257,11.718750
7258,11.718750
7259,11.718750
7260,11.718750
7261,11.718750
7262,11.718750
7263,11.718750
7264,11.718750
7265,11.718750
7266,11.718750
7267,11.718750
7268,11.718750
7269,11.718750
7270,11.718750
7271,11.718750
7272,11.718750
7273,11.718750
7274,11.718750
7275,11.718750
7276,11.718750
7277,11.718750
7278,11.718750
7279,11.718750
7280,11.718750
7281,11.718750
7282,11.718750
7283,11.718750
7284,11.718750
7285,11.718750
7286,11.718750
7287,11.718750
7288,11.718750
7289,11.718750
7290,11.718750
7291,11.718750
7292,11.718750
7293,11.718750
7294,11.718750
7295,11.718750
7296,11.718750
7297,11.718750
7298,11.718750
7299,11.718750
7300,11.718750
7301,11.718750
7302,11.718750
7303,11.718750
7304,11.718750
7305,11.718750
7306,11.718750
7307,11.718750
7308,11.718750
7309,11.718750
7310,11.718750
7311,11.718750
7312,11.718750
7313,11.718750
7314,11.718750
7315,11.718750
7316,11.718750
7317,11.718750
7318,11.718750
7319,11.718750
7320,11.718750
7321,11.718750
7322,11.718750
7323,11.718750
7324,11.718750
7325,11.718750
7326,11.718750
7327,11.718750
7328,11.718750
7329,11.718750
7330,11.718750
7331,11.718750
7332,11.718750
7333,11.718750
7334,11.718750
7335,11.718750
7336,11.718750
7337,11.718750
7338,11.718750
7339,11.718750
7340,11.718750
7341,11.718750
7342,11.718750
7343,11.718750
7344,11.718750
7345,11.718750
7346,7.812500
7347,11.718750
7348,7.812500
7349,11.718750
7350,7.812500
7351,11.718750
7352,11.718750
7353,11.718750
7354,7.812500
7355,7.812500
7356,7.812500
7357,7.812500
7358,7.812500
7359,7.812500
7360,7.812500
7361,7.812500
7362,7.812500
7363,7.812500
7364,7.812500
7365,7.812500
7366,7.812500
7367,7.812500
7368,7.812500
7369,7.812500
7370,7.812500
7371,7.812500
7372,7.812500
7373,7.812500
7374,7.812500
7375,7.812500
7376,7.812500
7377,7.812500
7378,7.812500
7379,7.812500
7380,7.812500
7381,7.812500
7382,7.812500
7383,7.812500
7384,7.812500
7385,7.812500
7386,7.812500
7387,7.812500
7388,7.812500
7389,7.812500
7390,7.812500
7391,7.812500
7392,7.812500
7393,7.812500
7394,7.812500
7395,7.812500
7396,7.812500
7397,7.812500
7398,7.812500
7399,7.812500
7400,3.906250
7401,7.812500
7402,3.906250
7403,7.812500
7404,7.812500
7405,3.906250
7406,7.812500
7407,3.906250
7408,3.906250
7409,3.906250
7410,3.906250
7411,3.906250
7412,3.906250
7413,3.906250
7414,3.906250
7415,3.906250
7416,3.906250
7417,3.906250
7418,3.906250
7419,3.906250
7420,3.906250
7421,3.906250
7422,3.906250
7423,3.906250
7424,3.906250
7425,3.906250
7426,3.906250
7427,3.906250
7428,3.906250
7429,3.906250
7430,3.906250
7431,3.906250
7432,3.906250
7433,3.906250
7434,3.906250
7435,3.906250
7436,3.906250
7437,3.906250
7438,3.906250
7439,3.906250
7440,3.906250
7441,3.906250
7442,0.000000
7443,3.906250
7444,0.000000
7445,0.000000
7446,0.000000
7447,0.000000
7448,0.000000
7449,0.000000
7450,0.000000
7451,0.000000
7452,0.000000
7453,0.000000
7454,0.000000
7455,0.000000
7456,0.000000
7457,0.000000
7458,0.000000
7459,0.000000
7460,0.000000
7461,0.000000
7462,0.000000
7463,0.000000
7464,0.000000
7465,0.000000
7466,0.000000
7467,0.000000
7468,0.000000
7469,0.000000
7470,0.000000
7471,0.000000
7472,0.000000
7473,0.000000
7474,0.000000
7475,-3.906250
7476,0.000000
7477,-3.906250
7478,0.000000
7479,0.000000
7480,-3.906250
7481,-3.906250
7482,-3.906250
7483,-3.906250
7484,-3.906250
7485,-3.906250
7486,-3.906250
7487,-3.906250
7488,-3.906250
7489,-3.906250
7490,-3.906250
7491,-3.906250
7492,-3.906250
7493,-3.906250
7494,-3.906250
7495,-3.906250
7496,-3.906250
7497,-3.906250
7498,-3.906250
7499,-3.906250
7500,-3.906250
7501,-3.906250
7502,-7.812500
7503,-7.812500
7504,-7.812500
7505,-3.906250
7506,-7.812500
7507,-7.812500
7508,-7.812500
7509,-7.812500
7510,-7.812500
7511,-7.812500
7512,-7.812500
7513,-7.812500
7514,-7.812500
7515,-7.812500
7516,-7.812500
7517,-7.812500
7518,-7.812500
7519,-7.812500
7520,-7.812500
7521,-7.812500
7522,-7.812500
7523,-7.812500
7524,-7.812500
7525,-7.812500
7526,-7.812500
7527,-7.812500
7528,-7.812500
7529,-11.718750
7530,-11.718750
7531,-11.718750
7532,-11.718750
7533,-11.718750
7534,-11.718750
7535,-11.718750
7536,-11.718750
7537,-11.718750
7538,-11.718750
7539,-11.718750
7540,-11.718750
7541,-11.718750
7542,-11.718750
7543,-11.718750
7544,-11.718750
7545,-11.718750
7546,-11.718750
7547,-11.718750
7548,-11.718750
7549,-11.718750
7550,-11.718750
7551,-15.625000
7552,-15.625000
7553,-15.625000
7554,-15.625000
7555,-15.625000
7556,-15.625000
7557,-15.625000
7558,-15.625000
7559,-15.625000
7560,-15.625000
7561,-15.625000
7562,-15.625000
7563,-15.625000
7564,-15.625000
7565,-15.625000
7566,-15.625000
7567,-15.625000
7568,-15.625000
7569,-15.625000
7570,-15.625000
7571,-15.625000
7572,-15.625000
7573,-15.625000
7574,-15.625000
7575,-15.625000
7576,-15.625000
7577,-19.531250
7578,-19.531250
7579,-19.531250
7580,-19.531250
7581,-19.531250
7582,-19.531250
7583,-19.531250
7584,-19.531250
7585,-19.531250
7586,-19.531250
7587,-19.531250
7588,-19.531250
7589,-19.531250
7590,-19.531250
7591,-19.531250
7592,-19.531250
7593,-19.531250
7594,-19.531250
7595,-19.531250
7596,-19.531250
7597,-19.531250
7598,-19.531250
7599,-19.531250
7600,-19.531250
7601,-19.531250
7602,-23.437500
7603,-23.437500
7604,-23.437500
7605,-23.437500
7606,-23.437500
7607,-23.437500
7608,-23.437500
7609,-23.437500
7610,-23.437500
7611,-23.437500
7612,-23.437500
7613,-23.437500
7614,-23.437500
7615,-23.437500
7616,-23.437500
7617,-23.437500
7618,-23.437500
7619,-23.437500
7620,-23.437500
7621,-23.437500
7622,-23.437500
7623,-23.437500
7624,-23.437500
7625,-23.437500
7626,-27.343750
7627,-23.437500
7628,-23.437500
7629,-23.437500
7630,-27.343750
7631,-27.343750
7632,-27.343750
7633,-27.343750
7634,-27.343750
7635,-27.343750
7636,-27.343750
7637,-27.343750
7638,-27.343750
7639,-27.343750
7640,-27.343750
7641,-27.343750
7642,-27.343750
7643,-27.343750
7644,-27.343750
7645,-27.343750
7646,-27.343750
7647,-27.343750
7648,-27.343750
7649,-27.343750
7650,-27.343750
7651,-27.343750
7652,-27.343750
7653,-27.343750
7654,-31.250000
7655,-27.343750
7656,-31.250000
7657,-31.250000
7658,-31.250000
7659,-31.250000
7660,-31.250000
7661,-31.250000
7662,-31.250000
7663,-31.250000
7664,-31.250000
7665,-31.250000
7666,-31.250000
7667,-31.250000
7668,-31.250000
7669,-31.250000
7670,-31.250000
7671,-31.250000
7672,-31.250000
7673,-31.250000
7674,-31.250000
7675,-31.250000
7676,-31.250000
7677,-31.250000
7678,-31.250000
7679,-31.250000
7680,-31.250000
7681,-31.250000
7682,-31.250000
7683,-31.250000
7684,-31.250000
7685,-35.156250
7686,-35.156250
7687,-35.156250
7688,-35.156250
7689,-35.156250
7690,-35.156250
7691,-35.156250
7692,-35.156250
7693,-35.156250
7694,-35.156250
7695,-35.156250
7696,-35.156250
7697,-35.156250
7698,-35.156250
7699,-35.156250
7700,-35.156250
7701,-35.156250
7702,-35.156250
7703,-35.156250
7704,-35.156250
7705,-35.156250
7706,-35.156250
7707,-35.156250
7708,-35.156250
7709,-35.156250
7710,-35.156250
7711,-35.156250
7712,-35.156250
7713,-35.156250
7714,-35.156250
7715,-35.156250
7716,-35.156250
7717,-35.156250
7718,-35.156250
7719,-35.156250
7720,-35.156250
7721,-35.156250
7722,-35.156250
7723,-35.156250
7724,-39.062500
7725,-35.156250
7726,-35.156250
7727,-35.156250
7728,-35.156250
7729,-35.156250
7730,-39.062500
7731,-35.156250
7732,-39.062500
7733,-35.156250
7734,-35.156250
7735,-39.062500
7736,-35.156250
7737,-35.156250
7738,-39.062500
7739,-35.156250
7740,-39.062500
7741,-39.062500
7742,-39.062500
7743,-39.062500
7744,-39.062500
7745,-39.062500
7746,-39.062500
7747,-39.062500
7748,-39.062500
7749,-39.062500
7750,-39.062500
7751,-39.062500
7752,-39.062500
7753,-39.062500
7754,-39.062500
7755,-39.062500
7756,-39.062500
7757,-39.062500
7758,-39.062500
7759,-39.062500
7760,-39.062500
7761,-39.062500
7762,-39.062500
7763,-39.062500
7764,-39.062500
7765,-39.062500
7766,-39.062500
7767,-39.062500
7768,-39.062500
7769,-39.062500
7770,-39.062500
7771,-39.062500
7772,-39.062500
7773,-39.062500
7774,-39.062500
7775,-39.062500
7776,-39.062500
7777,-39.062500
7778,-39.062500
7779,-39.062500
7780,-39.062500
7781,-39.062500
7782,-39.062500
7783,-39.062500
7784,-39.062500
7785,-39.062500
7786,-39.062500
7787,-39.062500
7788,-39.062500
7789,-39.062500
7790,-39.062500
7791,-39.062500
7792,-39.062500
7793,-39.062500
7794,-39.062500
7795,-39.062500
7796,-39.062500
7797,-39.062500
7798,-39.062500
7799,-39.062500
7800,-39.062500
7801,-39.062500
7802,-39.062500
7803,-39.062500
7804,-39.062500
7805,-39.062500
7806,-39.062500
7807,-39.062500
7808,-39.062500
7809,-39.062500
7810,-39.062500
7811,-39.062500
7812,-39.062500
7813,-39.062500
7814,-39.062500
7815,-39.062500
7816,-39.062500
7817,-39.062500
7818,-39.062500
7819,-39.062500
7820,-39.062500
7821,-39.062500
7822,-39.062500
7823,-39.062500
7824,-39.062500
7825,-39.062500
7826,-39.062500
7827,-39.062500
7828,-39.062500
7829,-39.062500
7830,-35.156250
7831,-39.062500
7832,-39.062500
7833,-39.062500
7834,-39.062500
7835,-39.062500
7836,-39.062500
7837,-39.062500
7838,-39.062500
7839,-39.062500
7840,-39.062500
7841,-39.062500
7842,-39.062500
7843,-39.062500
7844,-39.062500
7845,-39.062500
7846,-35.156250
7847,-39.062500
7848,-35.156250
7849,-35.156250
7850,-39.062500
7851,-35.156250
7852,-35.156250
7853,-35.156250
7854,-35.156250
7855,-35.156250
7856,-35.156250
7857,-39.062500
7858,-39.062500
7859,-35.156250
7860,-35.156250
7861,-39.062500
7862,-35.156250
7863,-35.156250
7864,-39.062500
7865,-35.156250
7866,-35.156250
7867,-39.062500
7868,-35.156250
7869,-35.156250
7870,-39.062500
7871,-35.156250
7872,-35.156250
7873,-35.156250
7874,-35.156250
7875,-35.156250
7876,-35.156250
7877,-35.156250
7878,-35.156250
7879,-35.156250
7880,-35.156250
7881,-35.156250
7882,-35.156250
7883,-35.156250
7884,-35.156250
7885,-35.156250
7886,-35.156250
7887,-35.156250
7888,-31.250000
7889,-35.156250
7890,-31.250000
7891,-31.250000
7892,-31.250000
7893,-35.156250
7894,-31.250000
7895,-31.250000
7896,-35.156250
7897,-31.250000
7898,-31.250000
7899,-31.250000
7900,-31.250000
7901,-31.250000
7902,-31.250000
7903,-31.250000
7904,-31.250000
7905,-31.250000
7906,-31.250000
7907,-31.250000
7908,-31.250000
7909,-31.250000
7910,-31.250000
7911,-31.250000
7912,-31.250000
7913,-31.250000
7914,-31.250000
7915,-31.250000
7916,-31.250000
7917,-31.250000
7918,-31.250000
7919,-31.250000
7920,-31.250000
7921,-31.250000
7922,-31.250000
7923,-27.343750
7924,-31.250000
7925,-27.343750
7926,-31.250000
7927,-27.343750
7928,-27.343750
7929,-27.343750
7930,-27.343750
7931,-27.343750
7932,-27.343750
7933,-27.343750
7934,-27.343750
7935,-27.343750
7936,-27.343750
7937,-27.343750
7938,-27.343750
7939,-27.343750
7940,-27.343750
7941,-27.343750
7942,-27.343750
7943,-23.437500
7944,-27.343750
7945,-27.343750
7946,-27.343750
7947,-27.343750
7948,-27.343750
7949,-27.343750
7950,-27.343750
7951,-23.437500
7952,-23.437500
7953,-23.437500
7954,-23.437500
7955,-23.437500
7956,-23.437500
7957,-23.437500
7958,-23.437500
7959,-23.437500
7960,-23.437500
7961,-23.437500
7962,-23.437500
7963,-23.437500
7964,-23.437500
7965,-23.437500
7966,-23.437500
7967,-23.437500
7968,-23.437500
7969,-23.437500
7970,-23.437500
7971,-23.437500
7972,-23.437500
7973,-23.437500
7974,-23.437500
7975,-23.437500
7976,-19.531250
7977,-19.531250
7978,-19.531250
7979,-19.531250
7980,-19.531250
7981,-19.531250
7982,-19.531250
7983,-19.531250
7984,-19.531250
7985,-19.531250
7986,-19.531250
7987,-19.531250
7988,-19.531250
7989,-19.531250
7990,-19.531250
7991,-19.531250
7992,-19.531250
7993,-19.531250
7994,-19.531250
7995,-19.531250
7996,-19.531250
7997,-19.531250
7998,-15.625000
7999,-15.625000
8000,-15.625000
8001,-15.625000
8002,-15.625000
8003,-15.625000
8004,-15.625000
8005,-15.625000
8006,-15.625000
8007,-15.625000
8008,-15.625000
8009,-15.625000
8010,-15.625000
8011,-15.625000
8012,-15.625000
8013,-15.625000
8014,-15.625000
8015,-15.625000
8016,-15.625000
8017,-15.625000
8018,-15.625000
8019,-15.625000
8020,-15.625000
8021,-11.718750
8022,-15.625000
8023,-11.718750
8024,-11.718750
8025,-11.718750
8026,-11.718750
8027,-11.718750
8028,-11.718750
8029,-11.718750
8030,-11.718750
8031,-11.718750
8032,-11.718750
8033,-11.718750
8034,-11.718750
8035,-11.718750
8036,-11.718750
8037,-11.718750
8038,-11.718750
8039,-11.718750
8040,-11.718750
8041,-11.718750
8042,-11.718750
8043,-11.718750
8044,-11.718750
8045,-11.718750
8046,-11.718750
8047,-11.718750
8048,-7.812500
8049,-7.812500
8050,-7.812500
8051,-7.812500
8052,-7.812500
8053,-7.812500
8054,-7.812500
8055,-7.812500
8056,-7.812500
8057,-7.812500
8058,-7.812500
8059,-7.812500
8060,-7.812500
8061,-7.812500
8062,-7.812500
8063,-7.812500
8064,-7.812500
8065,-7.812500
8066,-7.812500
8067,-3.906250
8068,-7.812500
8069,-7.812500
8070,-7.812500
8071,-7.812500
8072,-7.812500
8073,-3.906250
8074,-3.906250
8075,-3.906250
8076,-3.906250
8077,-3.906250
8078,-3.906250
8079,-3.906250
8080,-3.906250
8081,-3.906250
8082,-3.906250
8083,-3.906250
8084,-3.906250
8085,-3.906250
8086,-3.906250
8087,-3.906250
8088,-3.906250
8089,-3.906250
8090,-3.906250
8091,-3.906250
8092,-3.906250
8093,-3.906250
8094,-3.906250
8095,-3.906250
8096,-3.906250
8097,-3.906250
8098,-3.906250
8099,-3.906250
8100,-3.906250
8101,0.000000
8102,0.000000
8103,0.000000
8104,0.000000
8105,0.000000
8106,0.000000
8107,0.000000
8108,0.000000
8109,0.000000
8110,0.000000
8111,0.000000
8112,0.000000
8113,0.000000
8114,0.000000
8115,0.000000
8116,0.000000
8117,0.000000
8118,0.000000
8119,0.000000
8120,0.000000
8121,0.000000
8122,0.000000
8123,0.000000
8124,0.000000
8125,0.000000
8126,0.000000
8127,3.906250
8128,3.906250
8129,3.906250
8130,3.906250
8131,3.906250
8132,0.000000
8133,3.906250
8134,3.906250
8135,3.906250
8136,3.906250
8137,3.906250
8138,3.906250
8139,3.906250
8140,3.906250
8141,3.906250
8142,3.906250
8143,3.906250
8144,3.906250
8145,3.906250
8146,3.906250
8147,3.906250
8148,3.906250
8149,3.906250
8150,3.906250
8151,3.906250
8152,3.906250
8153,3.906250
8154,3.906250
8155,7.812500
8156,3.906250
8157,3.906250
8158,3.906250
8159,7.812500
8160,3.906250
8161,3.906250
8162,3.906250
8163,7.812500
8164,7.812500
8165,7.812500
8166,7.812500
8167,7.812500
8168,7.812500
8169,7.812500
8170,7.812500
8171,7.812500
8172,7.812500
8173,7.812500
8174,7.812500
8175,7.812500
8176,7.812500
8177,7.812500
8178,7.812500
8179,7.812500
8180,7.812500
8181,7.812500
8182,7.812500
8183,7.812500
8184,7.812500
8185,7.812500
8186,7.812500
8187,7.812500
8188,7.812500
8189,7.812500
8190,7.812500
8191,7.812500
8192,7.812500
8193,7.812500
8194,7.812500
8195,7.812500
8196,7.812500
8197,7.812500
8198,7.812500
8199,7.812500
8200,7.812500
8201,7.812500
8202,7.812500
8203,7.812500
8204,7.812500
8205,11.718750
8206,7.812500
8207,7.812500
8208,7.812500
8209,7.812500
8210,7.812500
8211,7.812500
8212,7.812500
8213,11.718750
8214,11.718750
8215,11.718750
8216,11.718750
8217,11.718750
8218,11.718750
8219,11.718750
8220,11.718750
8221,11.718750
8222,11.718750
8223,11.718750
8224,11.718750
8225,11.718750
8226,11.718750
8227,11.718750
8228,11.718750
8229,11.718750
8230,11.718750
8231,11.718750
8232,11.718750
8233,11.718750
8234,11.718750
8235,11.718750
8236,11.718750
8237,11.718750
8238,11.718750
8239,11.718750
8240,11.718750
8241,11.718750
8242,11.718750
8243,11.718750
8244,11.718750
8245,11.718750
8246,11.718750
8247,11.718750
8248,11.718750
8249,11.718750
8250,11.718750
8251,11.718750
8252,11.718750
8253,11.718750
8254,11.718750
8255,11.718750
8256,11.718750
8257,11.718750
8258,11.718750
8259,11.718750
8260,11.718750
8261,11.718750
8262,11.718750
8263,11.718750
8264,11.718750
8265,11.718750
8266,11.718750
8267,11.718750
8268,11.718750
8269,11.718750
8270,11.718750
8271,11.718750
8272,11.718750
8273,11.718750
8274,11.718750
8275,11.718750
8276,11.718750
8277,11.718750
8278,11.718750
8279,11.718750
8280,11.718750
8281,11.718750
8282,11.718750
8283,11.718750
8284,11.718750
8285,11.718750
8286,11.718750
8287,11.718750
8288,11.718750
8289,11.718750
8290,11.718750
8291,11.718750
8292,11.718750
8293,11.718750
8294,11.718750
8295,11.718750
8296,11.718750
8297,11.718750
8298,11.718750
8299,11.718750
8300,11.718750
8301,11.718750
8302,11.718750
8303,11.718750
8304,11.718750
8305,11.718750
8306,11.718750
8307,11.718750
8308,11.718750
8309,11.718750
8310,11.718750
8311,11.718750
8312,11.718750
8313,11.718750
8314,11.718750
8315,11.718750
8316,11.718750
8317,11.718750
8318,11.718750
8319,11.718750
8320,11.718750
8321,11.718750
8322,11.718750
8323,11.718750
8324,11.718750
8325,11.718750
8326,11.718750
8327,11.718750
8328,7.812500
8329,11.718750
8330,11.718750
8331,11.718750
8332,11.718750
8333,11.718750
8334,7.812500
8335,11.718750
8336,7.812500
8337,11.718750
8338,11.718750
8339,11.718750
8340,11.718750
8341,7.812500
8342,11.718750
8343,7.812500
8344,7.812500
8345,7.812500
8346,7.812500
8347,7.812500
8348,7.812500
8349,11.718750
8350,7.812500
8351,7.812500
8352,7.812500
8353,7.812500
8354,7.812500
8355,7.812500
8356,7.812500
8357,7.812500
8358,7.812500
8359,7.812500
8360,7.812500
8361,7.812500
8362,7.812500
8363,7.812500
8364,7.812500
8365,7.812500
8366,7.812500
8367,7.812500
8368,7.812500
8369,7.812500
8370,7.812500
8371,7.812500
8372,7.812500
8373,7.812500
8374,7.812500
8375,7.812500
8376,7.812500
8377,7.812500
8378,7.812500
8379,7.812500
8380,7.812500
8381,7.812500
8382,7.812500
8383,7.812500
8384,7.812500
8385,7.812500
8386,7.812500
8387,7.812500
8388,7.812500
8389,3.906250
8390,3.906250
8391,3.906250
8392,7.812500
8393,3.906250
8394,7.812500
8395,7.812500
8396,7.812500
8397,7.812500
8398,3.906250
8399,3.906250
8400,3.906250
8401,3.906250
8402,3.906250
8403,3.906250
8404,3.906250
8405,3.906250
8406,3.906250
8407,3.906250
8408,3.906250
8409,3.906250
8410,3.906250
8411,3.906250
8412,3.906250
8413,3.906250
8414,3.906250
8415,3.906250
8416,3.906250
8417,3.906250
8418,3.906250
8419,3.906250
8420,3.906250
8421,3.906250
8422,3.906250
8423,3.906250
8424,3.906250
8425,3.906250
8426,3.906250
8427,3.906250
8428,3.906250
8429,3.906250
8430,0.000000
8431,0.000000
8432,0.000000
8433,0.000000
8434,0.000000
8435,0.000000
8436,0.000000
8437,0.000000
8438,0.000000
8439,0.000000
8440,0.000000
8441,0.000000
8442,0.000000
8443,0.000000
8444,0.000000
8445,0.000000
8446,0.000000
8447,0.000000
8448,0.000000
8449,0.000000
8450,0.000000
8451,0.000000
8452,0.000000
8453,0.000000
8454,0.000000
8455,0.000000
8456,0.000000
8457,0.000000
8458,0.000000
8459,-3.906250
8460,-3.906250
8461,-3.906250
8462,-3.906250
8463,-3.906250
8464,-3.906250
8465,-3.906250
8466,-3.906250
8467,-3.906250
8468,-3.906250
8469,-3.906250
8470,-3.906250
8471,-3.906250
8472,-3.906250
8473,-3.906250
8474,-3.906250
8475,-3.906250
8476,-3.906250
8477,-3.906250
8478,-3.906250
8479,-3.906250
8480,-3.906250
8481,-3.906250
8482,-3.906250
8483,-7.812500
8484,-7.812500
8485,-3.906250
8486,-7.812500
8487,-3.906250
8488,-7.812500
8489,-3.906250
8490,-7.812500
8491,-7.812500
8492,-7.812500
8493,-7.812500
8494,-7.812500
8495,-7.812500
8496,-7.812500
8497,-7.812500
8498,-7.812500
8499,-7.812500
8500,-7.812500
8501,-7.812500
8502,-7.812500
8503,-7.812500
8504,-7.812500
8505,-7.812500
8506,-7.812500
8507,-7.812500
8508,-7.812500
8509,-7.812500
8510,-7.812500
8511,-7.812500
8512,-7.812500
8513,-7.812500
8514,-11.718750
8515,-11.718750
8516,-7.812500
8517,-11.718750
8518,-11.718750
8519,-11.718750
8520,-11.718750
8521,-11.718750
8522,-11.718750
8523,-11.718750
8524,-11.718750
8525,-11.718750
8526,-11.718750
8527,-11.718750
8528,-11.718750
8529,-11.718750
8530,-11.718750
8531,-11.718750
8532,-11.718750
8533,-11.718750
8534,-11.718750
8535,-11.718750
8536,-11.718750
8537,-11.718750
8538,-11.718750
8539,-15.625000
8540,-15.625000
8541,-15.625000
8542,-15.625000
8543,-15.625000
8544,-15.625000
8545,-15.625000
8546,-15.625000
8547,-15.625000
8548,-15.625000
8549,-15.625000
8550,-15.625000
8551,-15.625000
8552,-15.625000
8553,-15.625000
8554,-15.625000
8555,-15.625000
8556,-15.625000
8557,-15.625000
8558,-15.625000
8559,-15.625000
8560,-15.625000
8561,-15.625000
8562,-15.625000
8563,-15.625000
8564,-19.531250
8565,-19.531250
8566,-19.531250
8567,-19.531250
8568,-19.531250
8569,-19.531250
8570,-19.531250
8571,-19.531250
8572,-19.531250
8573,-19.531250
8574,-19.531250
8575,-19.531250
8576,-19.531250
8577,-19.531250
8578,-19.531250
8579,-19.531250
8580,-19.531250
8581,-19.531250
8582,-19.531250
8583,-19.531250
8584,-23.437500
8585,-19.531250
8586,-19.531250
8587,-23.437500
8588,-23.437500
8589,-23.437500
8590,-23.437500
8591,-19.531250
8592,-23.437500
8593,-23.437500
8594,-23.437500
8595,-23.437500
8596,-23.437500
8597,-23.437500
8598,-23.437500
8599,-23.437500
8600,-23.437500
8601,-23.437500
8602,-23.437500
8603,-23.437500
8604,-23.437500
8605,-23.437500
8606,-23.437500
8607,-23.437500
8608,-23.437500
8609,-23.437500
8610,-23.437500
8611,-23.437500
8612,-23.437500
8613,-23.437500
8614,-27.343750
8615,-23.437500
8616,-27.343750
8617,-27.343750
8618,-27.343750
8619,-27.343750
8620,-27.343750
8621,-27.343750
8622,-27.343750
8623,-27.343750
8624,-27.343750
8625,-27.343750
8626,-27.343750
8627,-27.343750
8628,-27.343750
8629,-27.343750
8630,-27.343750
8631,-27.343750
8632,-27.343750
8633,-27.343750
8634,-27.343750
8635,-27.343750
8636,-31.250000
8637,-27.343750
8638,-27.343750
8639,-27.343750
8640,-27.343750
8641,-27.343750
8642,-31.250000
8643,-31.250000
8644,-31.250000
8645,-31.250000
8646,-31.250000
8647,-31.250000
8648,-31.250000
8649,-31.250000
8650,-31.250000
8651,-31.250000
8652,-31.250000
8653,-31.250000
8654,-31.250000
8655,-31.250000
8656,-31.250000
8657,-31.250000
8658,-31.250000
8659,-31.250000
8660,-31.250000
8661,-31.250000
8662,-31.250000
8663,-31.250000
8664,-31.250000
8665,-31.250000
8666,-31.250000
8667,-31.250000
8668,-31.250000
8669,-31.250000
8670,-31.250000
8671,-31.250000
8672,-35.156250
8673,-35.156250
8674,-35.156250
8675,-31.250000
8676,-35.156250
8677,-35.156250
8678,-35.156250
8679,-35.156250
8680,-35.156250
8681,-35.156250
8682,-35.156250
8683,-35.156250
8684,-35.156250
8685,-35.156250
8686,-35.156250
8687,-35.156250
8688,-35.156250
8689,-35.156250
8690,-35.156250
8691,-35.156250
8692,-35.156250
8693,-35.156250
8694,-35.156250
8695,-35.156250
8696,-35.156250
8697,-35.156250
8698,-35.156250
8699,-35.156250
8700,-35.156250
8701,-35.156250
8702,-35.156250
8703,-35.156250
8704,-35.156250
8705,-35.156250
8706,-35.156250
8707,-35.156250
8708,-35.156250
8709,-39.062500
8710,-39.062500
8711,-35.156250
8712,-35.156250
8713,-35.156250
8714,-35.156250
8715,-39.062500
8716,-39.062500
8717,-39.062500
8718,-39.062500
8719,-39.062500
8720,-39.062500
8721,-39.062500
8722,-35.156250
8723,-39.062500
8724,-39.062500
8725,-39.062500
8726,-39.062500
8727,-39.062500
8728,-39.062500
8729,-39.062500
8730,-39.062500
8731,-39.062500
8732,-39.062500
8733,-39.062500
8734,-39.062500
8735,-39.062500
8736,-39.062500
8737,-39.062500
8738,-39.062500
8739,-39.062500
8740,-39.062500
8741,-39.062500
8742,-39.062500
8743,-39.062500
8744,-39.062500
8745,-39.062500
8746,-39.062500
8747,-39.062500
8748,-39.062500
8749,-39.062500
8750,-39.062500
8751,-39.062500
8752,-39.062500
8753,-39.062500
8754,-39.062500
8755,-39.062500
8756,-39.062500
8757,-39.062500
8758,-39.062500
8759,-39.062500
8760,-39.062500
8761,-39.062500
8762,-39.062500
8763,-39.062500
8764,-39.062500
8765,-39.062500
8766,-39.062500
8767,-39.062500
8768,-39.062500
8769,-39.062500
8770,-39.062500
8771,-39.062500
8772,-39.062500
8773,-39.062500
8774,-39.062500
8775,-39.062500
8776,-39.062500
8777,-39.062500
8778,-39.062500
8779,-39.062500
8780,-39.062500
8781,-39.062500
8782,-39.062500
8783,-39.062500
8784,-39.062500
8785,-39.062500
8786,-39.062500
8787,-39.062500
8788,-39.062500
8789,-39.062500
8790,-39.062500
8791,-39.062500
8792,-39.062500
8793,-39.062500
8794,-39.062500
8795,-39.062500
8796,-39.062500
8797,-39.062500
8798,-39.062500
8799,-39.062500
8800,-39.062500
8801,-39.062500
8802,-39.062500
8803,-39.062500
8804,-39.062500
8805,-39.062500
8806,-39.062500
8807,-39.062500
8808,-39.062500
8809,-39.062500
8810,-39.062500
8811,-39.062500
8812,-39.062500
8813,-39.062500
8814,-39.062500
8815,-39.062500
8816,-39.062500
8817,-39.062500
8818,-39.062500
8819,-39.062500
8820,-39.062500
8821,-39.062500
8822,-39.062500
8823,-39.062500
8824,-39.062500
8825,-39.062500
8826,-39.062500
8827,-39.062500
8828,-39.062500
8829,-39.062500
8830,-39.062500
8831,-39.062500
8832,-35.156250
8833,-39.062500
8834,-39.062500
8835,-39.062500
8836,-35.156250
8837,-35.156250
8838,-35.156250
8839,-35.156250
8840,-35.156250
8841,-35.156250
8842,-35.156250
8843,-35.156250
8844,-35.156250
8845,-35.156250
8846,-35.156250
8847,-35.156250
8848,-35.156250
8849,-35.156250
8850,-35.156250
8851,-35.156250
8852,-35.156250
8853,-35.156250
8854,-35.156250
8855,-35.156250
8856,-35.156250
8857,-35.156250
8858,-35.156250
8859,-35.156250
8860,-35.156250
8861,-35.156250
8862,-35.156250
8863,-35.156250
8864,-35.156250
8865,-35.156250
8866,-35.156250
8867,-35.156250
8868,-35.156250
8869,-35.156250
8870,-35.156250
8871,-35.156250
8872,-35.156250
8873,-35.156250
8874,-35.156250
8875,-35.156250
8876,-35.156250
8877,-35.156250
8878,-31.250000
8879,-35.156250
8880,-35.156250
8881,-31.250000
8882,-35.156250
8883,-31.250000
8884,-31.250000
8885,-31.250000
8886,-31.250000
8887,-31.250000
8888,-31.250000
8889,-31.250000
8890,-31.250000
8891,-31.250000
8892,-31.250000
8893,-31.250000
8894,-31.250000
8895,-31.250000
8896,-31.250000
8897,-31.250000
8898,-31.250000
8899,-31.250000
8900,-31.250000
8901,-31.250000
8902,-31.250000
8903,-31.250000
8904,-31.250000
8905,-31.250000
8906,-31.250000
8907,-31.250000
8908,-31.250000
8909,-31.250000
8910,-31.250000
8911,-27.343750
8912,-27.343750
8913,-27.343750
8914,-27.343750
8915,-27.343750
8916,-27.343750
8917,-27.343750
8918,-27.343750
8919,-27.343750
8920,-27.343750
8921,-27.343750
8922,-27.343750
8923,-27.343750
8924,-27.343750
8925,-27.343750
8926,-27.343750
8927,-27.343750
8928,-27.343750
8929,-27.343750
8930,-27.343750
8931,-27.343750
8932,-27.343750
8933,-27.343750
8934,-27.343750
8935,-27.343750
8936,-27.343750
8937,-27.343750
8938,-27.343750
8939,-27.343750
8940,-27.343750
8941,-23.437500
8942,-23.437500
8943,-23.437500
8944,-23.437500
8945,-23.437500
8946,-23.437500
8947,-23.437500
8948,-23.437500
8949,-23.437500
8950,-23.437500
8951,-23.437500
8952,-23.437500
8953,-23.437500
8954,-23.437500
8955,-23.437500
8956,-23.437500
8957,-23.437500
8958,-23.437500
8959,-23.437500
8960,-23.437500
8961,-23.437500
8962,-19.531250
8963,-19.531250
8964,-23.437500
8965,-19.531250
8966,-19.531250
8967,-19.531250
8968,-23.437500
8969,-19.531250
8970,-19.531250
8971,-19.531250
8972,-19.531250
8973,-19.531250
8974,-19.531250
8975,-19.531250
8976,-19.531250
8977,-19.531250
8978,-19.531250
8979,-19.531250
8980,-19.531250
8981,-19.531250
8982,-19.531250
8983,-19.531250
8984,-19.531250
8985,-19.531250
8986,-19.531250
8987,-19.531250
8988,-19.531250
8989,-15.625000
8990,-15.625000
8991,-15.625000
8992,-15.625000
8993,-15.625000
8994,-15.625000
8995,-15.625000
8996,-15.625000
8997,-15.625000
8998,-15.625000
8999,-15.625000
9000,-15.625000
9001,-15.625000
9002,-15.625000
9003,-15.625000
9004,-15.625000
9005,-15.625000
9006,-15.625000
9007,-15.625000
9008,-15.625000
9009,-15.625000
9010,-15.625000
9011,-11.718750
9012,-11.718750
9013,-11.718750
9014,-15.625000
9015,-11.718750
9016,-11.718750
9017,-11.718750
9018,-11.718750
9019,-11.718750
9020,-11.718750
9021,-11.718750
9022,-11.718750
9023,-15.625000
9024,-11.718750
9025,-11.718750
9026,-11.718750
9027,-11.718750
9028,-11.718750
9029,-11.718750
9030,-11.718750
9031,-11.718750
9032,-11.718750
9033,-11.718750
9034,-7.812500
9035,-11.718750
9036,-11.718750
9037,-7.812500
9038,-7.812500
9039,-7.812500
9040,-7.812500
9041,-7.812500
9042,-7.812500
9043,-7.812500
9044,-7.812500
9045,-7.812500
9046,-7.812500
9047,-7.812500
9048,-7.812500
9049,-7.812500
9050,-7.812500
9051,-7.812500
9052,-7.812500
9053,-7.812500
9054,-7.812500
9055,-7.812500
9056,-7.812500
9057,-7.812500
9058,-7.812500
9059,-7.812500
9060,-7.812500
9061,-3.906250
9062,-3.906250
9063,-3.906250
9064,-3.906250
9065,-3.906250
9066,-3.906250
9067,-3.906250
9068,-3.906250
9069,-3.906250
9070,-3.906250
9071,-3.906250
9072,-3.906250
9073,-3.906250
9074,-3.906250
9075,-3.906250
9076,-3.906250
9077,-3.906250
9078,-3.906250
9079,-3.906250
9080,-3.906250
9081,-3.906250
9082,-3.906250
9083,-3.906250
9084,-3.906250
9085,-3.906250
9086,-3.906250
9087,-3.906250
9088,0.000000
9089,0.000000
9090,0.000000
9091,0.000000
9092,0.000000
9093,0.000000
9094,0.000000
9095,0.000000
9096,0.000000
9097,0.000000
9098,0.000000
9099,0.000000
9100,-3.906250
9101,0.000000
9102,0.000000
9103,0.000000
9104,0.000000
9105,0.000000
9106,0.000000
9107,0.000000
9108,0.000000
9109,0.000000
9110,0.000000
9111,0.000000
9112,0.000000
9113,0.000000
9114,0.000000
9115,0.000000
9116,0.000000
9117,3.906250
9118,0.000000
9119,3.906250
9120,3.906250
9121,3.906250
9122,0.000000
9123,3.906250
9124,3.906250
9125,3.906250
9126,3.906250
9127,3.906250
9128,3.906250
9129,3.906250
9130,3.906250
9131,3.906250
9132,3.906250
9133,3.906250
9134,3.906250
9135,3.906250
9136,3.906250
9137,3.906250
9138,3.906250
9139,3.906250
9140,3.906250
9141,3.906250
9142,3.906250
9143,3.906250
9144,3.906250
9145,3.906250
9146,3.906250
9147,3.906250
9148,3.906250
9149,3.906250
9150,3.906250
9151,3.906250
9152,3.906250
9153,3.906250
9154,3.906250
9155,7.812500
9156,7.812500
9157,7.812500
9158,3.906250
9159,7.812500
9160,7.812500
9161,7.812500
9162,7.812500
9163,7.812500
9164,7.812500
9165,7.812500
9166,7.812500
9167,7.812500
9168,7.812500
9169,7.812500
9170,7.812500
9171,7.812500
9172,7.812500
9173,7.812500
9174,7.812500
9175,7.812500
9176,7.812500
9177,7.812500
9178,7.812500
9179,7.812500
9180,7.812500
9181,7.812500
9182,7.812500
9183,7.812500
9184,7.812500
9185,7.812500
9186,7.812500
9187,7.812500
9188,7.812500
9189,7.812500
9190,7.812500
9191,7.812500
9192,7.812500
9193,7.812500
9194,7.812500
9195,7.812500
9196,7.812500
9197,7.812500
9198,7.812500
9199,7.812500
9200,7.812500
9201,7.812500
9202,7.812500
9203,7.812500
9204,7.812500
9205,7.812500
9206,7.812500
9207,7.812500
9208,7.812500
9209,11.718750
9210,7.812500
9211,7.812500
9212,7.812500
9213,7.812500
9214,11.718750
9215,11.718750
9216,11.718750
9217,7.812500
9218,7.812500
9219,7.812500
9220,11.718750
9221,11.718750
9222,11.718750
9223,11.718750
9224,7.812500
9225,7.812500
9226,11.718750
9227,11.718750
9228,11.718750
9229,11.718750
9230,11.718750
9231,11.718750
9232,7.812500
9233,11.718750
9234,11.718750
9235,11.718750
9236,11.718750
9237,11.718750
9238,11.718750
9239,11.718750
9240,11.718750
9241,11.718750
9242,11.718750
9243,11.718750
9244,11.718750
9245,11.718750
9246,11.718750
9247,11.718750
9248,11.718750
9249,11.718750
9250,11.718750
9251,11.718750
9252,7.812500
9253,11.718750
9254,11.718750
9255,11.718750
9256,11.718750
9257,11.718750
9258,11.718750
9259,11.718750
9260,11.718750
9261,11.718750
9262,11.718750
9263,11.718750
9264,11.718750
9265,11.718750
9266,11.718750
9267,11.718750
9268,11.718750
9269,11.718750
9270,11.718750
9271,11.718750
9272,11.718750
9273,11.718750
9274,11.718750
9275,11.718750
9276,11.718750
9277,11.718750
9278,11.718750
9279,11.718750
9280,11.718750
9281,11.718750
9282,11.718750
9283,11.718750
9284,11.718750
9285,11.718750
9286,11.718750
9287,11.718750
9288,11.718750
9289,11.718750
9290,11.718750
9291,11.718750
9292,11.718750
9293,11.718750
9294,11.718750
9295,11.718750
9296,11.718750
9297,11.718750
9298,11.718750
9299,11.718750
9300,11.718750
9301,11.718750
9302,11.718750
9303,11.718750
9304,11.718750
9305,11.718750
9306,11.718750
9307,11.718750
9308,11.718750
9309,11.718750
9310,11.718750
9311,11.718750
9312,11.718750
9313,11.718750
9314,11.718750
9315,11.718750
9316,7.812500
9317,11.718750
9318,11.718750
9319,11.718750
9320,11.718750
9321,11.718750
9322,11.718750
9323,11.718750
9324,7.812500
9325,7.812500
9326,7.812500
9327,7.812500
9328,7.812500
9329,7.812500
9330,7.812500
9331,7.812500
9332,11.718750
9333,11.718750
9334,7.812500
9335,7.812500
9336,7.812500
9337,7.812500
9338,7.812500
9339,7.812500
9340,7.812500
9341,7.812500
9342,7.812500
9343,7.812500
9344,7.812500
9345,7.812500
9346,7.812500
9347,7.812500
9348,7.812500
9349,7.812500
9350,7.812500
9351,7.812500
9352,7.812500
9353,7.812500
9354,7.812500
9355,7.812500
9356,7.812500
9357,7.812500
9358,7.812500
9359,7.812500
9360,7.812500
9361,7.812500
9362,7.812500
9363,7.812500
9364,7.812500
9365,7.812500
9366,7.812500
9367,7.812500
9368,7.812500
9369,7.812500
9370,7.812500
9371,7.812500
9372,3.906250
9373,7.812500
9374,7.812500
9375,7.812500
9376,7.812500
9377,7.812500
9378,3.906250
9379,3.906250
9380,3.906250
9381,3.906250
9382,3.906250
9383,7.812500
9384,3.906250
9385,3.906250
9386,3.906250
9387,3.906250
9388,3.906250
9389,3.906250
9390,3.906250
9391,3.906250
9392,3.906250
9393,3.906250
9394,3.906250
9395,3.906250
9396,3.906250
9397,3.906250
9398,3.906250
9399,3.906250
9400,3.906250
9401,3.906250
9402,3.906250
9403,3.906250
9404,3.906250
9405,3.906250
9406,3.906250
9407,3.906250
9408,3.906250
9409,3.906250
9410,3.906250
9411,3.906250
9412,3.906250
9413,3.906250
9414,3.906250
9415,3.906250
9416,0.000000
9417,3.906250
9418,0.000000
9419,0.000000
9420,0.000000
9421,0.000000
9422,0.000000
9423,3.906250
9424,0.000000
9425,0.000000
9426,0.000000
9427,0.000000
9428,0.000000
9429,0.000000
9430,0.000000
9431,0.000000
9432,0.000000
9433,0.000000
9434,0.000000
9435,0.000000
9436,0.000000
9437,0.000000
9438,0.000000
9439,0.000000
9440,0.000000
9441,0.000000
9442,0.000000
9443,0.000000
9444,0.000000
9445,0.000000
9446,0.000000
9447,0.000000
9448,0.000000
9449,0.000000
9450,-3.906250
9451,0.000000
9452,-3.906250
9453,-3.906250
9454,-3.906250
9455,-3.906250
9456,0.000000
9457,-3.906250
9458,-3.906250
9459,-3.906250
9460,-3.906250
9461,-3.906250
9462,-3.906250
9463,-3.906250
9464,-3.906250
9465,-3.906250
9466,-3.906250
9467,-3.906250
9468,-3.906250
9469,-3.906250
9470,-3.906250
9471,-3.906250
9472,-3.906250
9473,-3.906250
9474,-3.906250
9475,-7.812500
9476,-7.812500
9477,-7.812500
9478,-7.812500
9479,-7.812500
9480,-7.812500
9481,-7.812500
9482,-7.812500
9483,-7.812500
9484,-7.812500
9485,-7.812500
9486,-7.812500
9487,-7.812500
9488,-7.812500
9489,-7.812500
9490,-7.812500
9491,-7.812500
9492,-7.812500
9493,-7.812500
9494,-7.812500
9495,-7.812500
9496,-7.812500
9497,-11.718750
9498,-7.812500
9499,-7.812500
9500,-7.812500
9501,-11.718750
9502,-11.718750
9503,-11.718750
9504,-11.718750
9505,-11.718750
9506,-11.718750
9507,-11.718750
9508,-11.718750
9509,-11.718750
9510,-11.718750
9511,-11.718750
9512,-11.718750
9513,-11.718750
9514,-11.718750
9515,-11.718750
9516,-11.718750
9517,-11.718750
9518,-11.718750
9519,-11.718750
9520,-11.718750
9521,-11.718750
9522,-11.718750
9523,-11.718750
9524,-11.718750
9525,-11.718750
9526,-15.625000
9527,-15.625000
9528,-15.625000
9529,-15.625000
9530,-15.625000
9531,-15.625000
9532,-15.625000
9533,-15.625000
9534,-15.625000
9535,-15.625000
9536,-15.625000
9537,-15.625000
9538,-15.625000
9539,-15.625000
9540,-15.625000
9541,-15.625000
9542,-15.625000
9543,-15.625000
9544,-15.625000
9545,-15.625000
9546,-15.625000
9547,-15.625000
9548,-15.625000
9549,-19.531250
9550,-15.625000
9551,-15.625000
9552,-15.625000
9553,-19.531250
9554,-19.531250
9555,-19.531250
9556,-15.625000
9557,-19.531250
9558,-19.531250
9559,-19.531250
9560,-19.531250
9561,-19.531250
9562,-19.531250
9563,-19.531250
9564,-19.531250
9565,-19.531250
9566,-19.531250
9567,-19.531250
9568,-19.531250
9569,-19.531250
9570,-19.531250
9571,-19.531250
9572,-19.531250
9573,-19.531250
9574,-19.531250
9575,-19.531250
9576,-19.531250
9577,-19.531250
9578,-23.437500
9579,-19.531250
9580,-23.437500
9581,-23.437500
9582,-23.437500
9583,-23.437500
9584,-23.437500
9585,-23.437500
9586,-23.437500
9587,-23.437500
9588,-23.437500
9589,-23.437500
9590,-23.437500
9591,-23.437500
9592,-23.437500
9593,-23.437500
9594,-23.437500
9595,-23.437500
9596,-23.437500
9597,-23.437500
9598,-23.437500
9599,-23.437500
9600,-23.437500
9601,-23.437500
9602,-23.437500
9603,-23.437500
9604,-27.343750
9605,-27.343750
9606,-27.343750
9607,-27.343750
9608,-27.343750
9609,-27.343750
9610,-27.343750
9611,-27.343750
9612,-27.343750
9613,-27.343750
9614,-27.343750
9615,-27.343750
9616,-27.343750
9617,-27.343750
9618,-27.343750
9619,-27.343750
9620,-27.343750
9621,-27.343750
9622,-27.343750
9623,-27.343750
9624,-27.343750
9625,-27.343750
9626,-31.250000
9627,-27.343750
9628,-31.250000
9629,-27.343750
9630,-31.250000
9631,-27.343750
9632,-31.250000
9633,-31.250000
9634,-31.250000
9635,-31.250000
9636,-31.250000
9637,-31.250000
9638,-31.250000
9639,-31.250000
9640,-31.250000
9641,-31.250000
9642,-31.250000
9643,-31.250000
9644,-31.250000
9645,-31.250000
9646,-31.250000
9647,-31.250000
9648,-31.250000
9649,-31.250000
9650,-31.250000
9651,-31.250000
9652,-31.250000
9653,-31.250000
9654,-31.250000
9655,-31.250000
9656,-31.250000
9657,-31.250000
9658,-31.250000
9659,-31.250000
9660,-31.250000
9661,-31.250000
9662,-31.250000
9663,-31.250000
9664,-31.250000
9665,-35.156250
9666,-35.156250
9667,-35.156250
9668,-35.156250
9669,-35.156250
9670,-35.156250
9671,-35.156250
9672,-35.156250
9673,-35.156250
9674,-35.156250
9675,-35.156250
9676,-35.156250
9677,-35.156250
9678,-35.156250
9679,-35.156250
9680,-35.156250
9681,-35.156250
9682,-35.156250
9683,-35.156250
9684,-35.156250
9685,-35.156250
9686,-35.156250
9687,-35.156250
9688,-35.156250
9689,-35.156250
9690,-35.156250
9691,-35.156250
9692,-35.156250
9693,-35.156250
9694,-35.156250
9695,-35.156250
9696,-35.156250
9697,-35.156250
9698,-35.156250
9699,-35.156250
9700,-35.156250
9701,-35.156250
9702,-35.156250
9703,-35.156250
9704,-35.156250
9705,-35.156250
9706,-39.062500
9707,-35.156250
9708,-39.062500
9709,-35.156250
9710,-35.156250
9711,-35.156250
9712,-39.062500
9713,-35.156250
9714,-35.156250
9715,-39.062500
9716,-39.062500
9717,-35.156250
9718,-35.156250
9719,-39.062500
9720,-35.156250
9721,-39.062500
9722,-39.062500
9723,-39.062500
9724,-39.062500
9725,-39.062500
9726,-39.062500
9727,-39.062500
9728,-39.062500
9729,-39.062500
9730,-39.062500
9731,-39.062500
9732,-39.062500
9733,-39.062500
9734,-39.062500
9735,-39.062500
9736,-39.062500
9737,-39.062500
9738,-39.062500
9739,-39.062500
9740,-39.062500
9741,-39.062500
9742,-39.062500
9743,-39.062500
9744,-39.062500
9745,-39.062500
9746,-39.062500
9747,-39.062500
9748,-39.062500
9749,-39.062500
9750,-39.062500
9751,-39.062500
9752,-39.062500
9753,-39.062500
9754,-39.062500
9755,-39.062500
9756,-39.062500
9757,-39.062500
9758,-39.062500
9759,-39.062500
9760,-39.062500
9761,-39.062500
9762,-39.062500
9763,-39.062500
9764,-39.062500
9765,-39.062500
9766,-39.062500
9767,-39.062500
9768,-39.062500
9769,-39.062500
9770,-39.062500
9771,-39.062500
9772,-39.062500
9773,-39.062500
9774,-39.062500
9775,-39.062500
9776,-39.062500
9777,-39.062500
9778,-39.062500
9779,-39.062500
9780,-39.062500
9781,-39.062500
9782,-35.156250
9783,-39.062500
9784,-39.062500
9785,-35.156250
9786,-39.062500
9787,-39.062500
9788,-39.062500
9789,-39.062500
9790,-39.062500
9791,-39.062500
9792,-39.062500
9793,-39.062500
9794,-39.062500
9795,-39.062500
9796,-39.062500
9797,-39.062500
9798,-39.062500
9799,-39.062500
9800,-39.062500
9801,-39.062500
9802,-39.062500
9803,-39.062500
9804,-39.062500
9805,-39.062500
9806,-39.062500
9807,-39.062500
9808,-39.062500
9809,-39.062500
9810,-39.062500
9811,-39.062500
9812,-39.062500
9813,-39.062500
9814,-39.062500
9815,-39.062500
9816,-39.062500
9817,-39.062500
9818,-39.062500
9819,-39.062500
9820,-39.062500
9821,-39.062500
9822,-39.062500
9823,-35.156250
9824,-35.156250
9825,-35.156250
9826,-35.156250
9827,-35.156250
9828,-39.062500
9829,-39.062500
9830,-35.156250
9831,-35.156250
9832,-35.156250
9833,-35.156250
9834,-35.156250
9835,-35.156250
9836,-35.156250
9837,-35.156250
9838,-35.156250
9839,-35.156250
9840,-35.156250
9841,-35.156250
9842,-35.156250
9843,-35.156250
9844,-35.156250
9845,-35.156250
9846,-35.156250
9847,-35.156250
9848,-35.156250
9849,-35.156250
9850,-35.156250
9851,-35.156250
9852,-35.156250
9853,-35.156250
9854,-35.156250
9855,-35.156250
9856,-35.156250
9857,-35.156250
9858,-35.156250
9859,-35.156250
9860,-35.156250
9861,-35.156250
9862,-35.156250
9863,-35.156250
9864,-35.156250
9865,-35.156250
9866,-35.156250
9867,-31.250000
9868,-35.156250
9869,-35.156250
9870,-35.156250
9871,-35.156250
9872,-35.156250
9873,-31.250000
9874,-31.250000
9875,-35.156250
9876,-31.250000
9877,-31.250000
9878,-31.250000
9879,-31.250000
9880,-35.156250
9881,-31.250000
9882,-31.250000
9883,-31.250000
9884,-31.250000
9885,-31.250000
9886,-31.250000
9887,-31.250000
9888,-31.250000
9889,-31.250000
9890,-31.250000
9891,-31.250000
9892,-31.250000
9893,-31.250000
9894,-31.250000
9895,-31.250000
9896,-31.250000
9897,-31.250000
9898,-31.250000
9899,-31.250000
9900,-31.250000
9901,-31.250000
9902,-31.250000
9903,-31.250000
9904,-31.250000
9905,-27.343750
9906,-27.343750
9907,-27.343750
9908,-27.343750
9909,-27.343750
9910,-27.343750
9911,-27.343750
9912,-27.343750
9913,-27.343750
9914,-27.343750
9915,-27.343750
9916,-27.343750
9917,-27.343750
9918,-27.343750
9919,-27.343750
9920,-27.343750
9921,-27.343750
9922,-27.343750
9923,-27.343750
9924,-23.437500
9925,-27.343750
9926,-27.343750
9927,-27.343750
9928,-27.343750
9929,-27.343750
9930,-27.343750
9931,-23.437500
9932,-23.437500
9933,-23.437500
9934,-23.437500
9935,-23.437500
9936,-23.437500
9937,-23.437500
9938,-23.437500
9939,-23.437500
9940,-23.437500
9941,-23.437500
9942,-23.437500
9943,-23.437500
9944,-23.437500
9945,-23.437500
9946,-23.437500
9947,-23.437500
9948,-23.437500
9949,-23.437500
9950,-19.531250
9951,-19.531250
9952,-23.437500
9953,-23.437500
9954,-23.437500
9955,-19.531250
9956,-19.531250
9957,-19.531250
9958,-19.531250
9959,-19.531250
9960,-19.531250
9961,-19.531250
9962,-19.531250
9963,-19.531250
9964,-19.531250
9965,-19.531250
9966,-19.531250
9967,-19.531250
9968,-19.531250
9969,-19.531250
9970,-19.531250
9971,-19.531250
9972,-19.531250
9973,-19.531250
9974,-19.531250
9975,-15.625000
9976,-19.531250
9977,-19.531250
9978,-19.531250
9979,-19.531250
9980,-19.531250
9981,-15.625000
9982,-15.625000
9983,-15.625000
9984,-15.625000
9985,-15.625000
9986,-15.625000
9987,-15.625000
9988,-15.625000
9989,-15.625000
9990,-15.625000
9991,-15.625000
9992,-15.625000
9993,-15.625000
9994,-15.625000
9995,-15.625000
9996,-15.625000
9997,-15.625000
9998,-15.625000
9999,-15.625000
10000,-15.625000
