Channel              :,CH1
Frequency            :,1.012kHz
Period               :,0.989ms
PK-PK                :,164.1mV
Probe attenuation    :,1X
Voltage per ADC value:,0.244141mV
Time interval        :,1.00000us

index,CH1_Voltage(mV)
1,-50.781250
2,-50.781250
3,-46.875000
4,-46.875000
5,-46.875000
6,-46.875000
7,-46.875000
8,-46.875000
9,-46.875000
10,-46.875000
11,-42.968750
12,-42.968750
13,-42.968750
14,-42.968750
15,-42.968750
16,-42.968750
17,-42.968750
18,-42.968750
19,-39.062500
20,-39.062500
21,-39.062500
22,-39.062500
23,-39.062500
24,-39.062500
25,-39.062500
26,-39.062500
27,-35.156250
28,-35.156250
29,-35.156250
30,-35.156250
31,-35.156250
32,-35.156250
33,-35.156250
34,-31.250000
35,-35.156250
36,-31.250000
37,-31.250000
38,-31.250000
39,-31.250000
40,-27.343750
41,-27.343750
42,-31.250000
43,-27.343750
44,-27.343750
45,-27.343750
46,-27.343750
47,-27.343750
48,-27.343750
49,-23.437500
50,-23.437500
51,-23.437500
52,-23.437500
53,-23.437500
54,-23.437500
55,-23.437500
56,-19.531250
57,-19.531250
58,-19.531250
59,-19.531250
60,-19.531250
61,-19.531250
62,-19.531250
63,-19.531250
64,-15.625000
65,-15.625000
66,-15.625000
67,-15.625000
68,-15.625000
69,-15.625000
70,-15.625000
71,-11.718750
72,-11.718750
73,-11.718750
74,-11.718750
75,-11.718750
76,-11.718750
77,-11.718750
78,-11.718750
79,-7.812500
80,-7.812500
81,-7.812500
82,-7.812500
83,-7.812500
84,-7.812500
85,-3.906250
86,-3.906250
87,-3.906250
88,-3.906250
89,-3.906250
90,-3.906250
91,-3.906250
92,-3.906250
93,-3.906250
94,0.000000
95,0.000000
96,0.000000
97,0.000000
98,0.000000
99,0.000000
100,3.906250
101,0.000000
102,3.906250
103,3.906250
104,3.906250
105,3.906250
106,3.906250
107,3.906250
108,3.906250
109,7.812500
110,7.812500
111,7.812500
112,7.812500
113,7.812500
114,7.812500
115,7.812500
116,7.812500
117,11.718750
118,11.718750
119,11.718750
120,11.718750
121,11.718750
122,11.718750
123,11.718750
124,11.718750
125,11.718750
126,15.625000
127,15.625000
128,15.625000
129,15.625000
130,15.625000
131,19.531250
132,19.531250
133,19.531250
134,19.531250
135,19.531250
136,19.531250
137,19.531250
138,19.531250
139,23.437500
140,19.531250
141,19.531250
142,19.531250
143,23.437500
144,23.437500
145,23.437500
146,23.437500
147,23.437500
148,23.437500
149,23.437500
150,23.437500
151,27.343750
152,27.343750
153,27.343750
154,27.343750
155,27.343750
156,27.343750
157,27.343750
158,27.343750
159,31.250000
160,31.250000
161,31.250000
162,31.250000
163,31.250000
164,31.250000
165,31.250000
166,31.250000
167,35.156250
168,35.156250
169,35.156250
170,31.250000
171,35.156250
172,35.156250
173,35.156250
174,35.156250
175,35.156250
176,35.156250
177,35.156250
178,35.156250
179,39.062500
180,39.062500
181,39.062500
182,39.062500
183,39.062500
184,39.062500
185,39.062500
186,39.062500
187,42.968750
188,42.968750
189,42.968750
190,42.968750
191,42.968750
192,42.968750
193,42.968750
194,42.968750
195,42.968750
196,42.968750
197,42.968750
198,46.875000
199,42.968750
200,42.968750
201,46.875000
202,46.875000
203,46.875000
204,46.875000
205,46.875000
206,46.875000
207,46.875000
208,46.875000
209,46.875000
210,50.781250
211,50.781250
212,50.781250
213,50.781250
214,50.781250
215,50.781250
216,50.781250
217,50.781250
218,50.781250
219,50.781250
220,50.781250
221,50.781250
222,50.781250
223,50.781250
224,50.781250
225,54.687500
226,54.687500
227,54.687500
228,54.687500
229,54.687500
230,54.687500
231,54.687500
232,54.687500
233,54.687500
234,54.687500
235,58.593750
236,58.593750
237,54.687500
238,54.687500
239,58.593750
240,54.687500
241,58.593750
242,58.593750
243,58.593750
244,58.593750
245,58.593750
246,58.593750
247,58.593750
248,58.593750
249,58.593750
250,58.593750
251,58.593750
252,58.593750
253,58.593750
254,58.593750
255,58.593750
256,58.593750
257,62.500000
258,62.500000
259,62.500000
260,62.500000
261,62.500000
262,62.500000
263,62.500000
264,62.500000
265,62.500000
266,62.500000
267,62.500000
268,62.500000
269,62.500000
270,62.500000
271,62.500000
272,62.500000
273,62.500000
274,62.500000
275,62.500000
276,62.500000
277,62.500000
278,62.500000
279,62.500000
280,62.500000
281,62.500000
282,66.406250
283,62.500000
284,66.406250
285,66.406250
286,66.406250
287,66.406250
288,66.406250
289,66.406250
290,66.406250
291,66.406250
292,66.406250
293,66.406250
294,66.406250
295,66.406250
296,66.406250
297,66.406250
298,66.406250
299,66.406250
300,66.406250
301,66.406250
302,66.406250
303,66.406250
304,66.406250
305,66.406250
306,66.406250
307,66.406250
308,66.406250
309,66.406250
310,66.406250
311,66.406250
312,66.406250
313,66.406250
314,66.406250
315,66.406250
316,66.406250
317,66.406250
318,66.406250
319,66.406250
320,66.406250
321,66.406250
322,66.406250
323,66.406250
324,66.406250
325,66.406250
326,66.406250
327,66.406250
328,66.406250
329,66.406250
330,66.406250
331,66.406250
332,66.406250
333,66.406250
334,66.406250
335,66.406250
336,66.406250
337,66.406250
338,66.406250
339,66.406250
340,66.406250
341,66.406250
342,66.406250
343,66.406250
344,66.406250
345,66.406250
346,66.406250
347,66.406250
348,66.406250
349,66.406250
350,66.406250
351,66.406250
352,66.406250
353,66.406250
354,66.406250
355,66.406250
356,66.406250
357,66.406250
358,66.406250
359,66.406250
360,66.406250
361,66.406250
362,66.406250
363,62.500000
364,62.500000
365,62.500000
366,66.406250
367,66.406250
368,66.406250
369,66.406250
370,62.500000
371,62.500000
372,62.500000
373,62.500000
374,62.500000
375,62.500000
376,62.500000
377,62.500000
378,62.500000
379,62.500000
380,62.500000
381,62.500000
382,62.500000
383,62.500000
384,62.500000
385,62.500000
386,62.500000
387,62.500000
388,62.500000
389,62.500000
390,62.500000
391,58.593750
392,58.593750
393,58.593750
394,58.593750
395,58.593750
396,58.593750
397,58.593750
398,58.593750
399,58.593750
400,58.593750
401,58.593750
402,58.593750
403,58.593750
404,58.593750
405,58.593750
406,58.593750
407,58.593750
408,58.593750
409,54.687500
410,54.687500
411,54.687500
412,54.687500
413,54.687500
414,54.687500
415,54.687500
416,54.687500
417,54.687500
418,54.687500
419,54.687500
420,54.687500
421,54.687500
422,54.687500
423,50.781250
424,50.781250
425,50.781250
426,50.781250
427,50.781250
428,50.781250
429,50.781250
430,50.781250
431,50.781250
432,50.781250
433,50.781250
434,50.781250
435,50.781250
436,46.875000
437,46.875000
438,46.875000
439,46.875000
440,46.875000
441,46.875000
442,46.875000
443,46.875000
444,46.875000
445,42.968750
446,46.875000
447,42.968750
448,42.968750
449,42.968750
450,42.968750
451,42.968750
452,42.968750
453,42.968750
454,42.968750
455,42.968750
456,42.968750
457,42.968750
458,42.968750
459,42.968750
460,39.062500
461,39.062500
462,39.062500
463,39.062500
464,39.062500
465,39.062500
466,39.062500
467,39.062500
468,35.156250
469,35.156250
470,35.156250
471,35.156250
472,35.156250
473,35.156250
474,35.156250
475,35.156250
476,35.156250
477,35.156250
478,31.250000
479,31.250000
480,31.250000
481,31.250000
482,31.250000
483,31.250000
484,31.250000
485,31.250000
486,31.250000
487,31.250000
488,31.250000
489,27.343750
490,27.343750
491,27.343750
492,27.343750
493,27.343750
494,27.343750
495,27.343750
496,27.343750
497,27.343750
498,27.343750
499,27.343750
500,23.437500
501,23.437500
502,23.437500
503,23.437500
504,23.437500
505,23.437500
506,19.531250
507,19.531250
508,19.531250
509,19.531250
510,19.531250
511,19.531250
512,19.531250
513,19.531250
514,19.531250
515,19.531250
516,15.625000
517,15.625000
518,15.625000
519,15.625000
520,15.625000
521,15.625000
522,15.625000
523,11.718750
524,11.718750
525,11.718750
526,11.718750
527,11.718750
528,11.718750
529,11.718750
530,11.718750
531,7.812500
532,7.812500
533,7.812500
534,7.812500
535,7.812500
536,7.812500
537,7.812500
538,7.812500
539,7.812500
540,3.906250
541,3.906250
542,3.906250
543,3.906250
544,0.000000
545,3.906250
546,0.000000
547,0.000000
548,0.000000
549,0.000000
550,0.000000
551,0.000000
552,0.000000
553,-3.906250
554,-3.906250
555,-3.906250
556,-3.906250
557,-3.906250
558,-3.906250
559,-3.906250
560,-3.906250
561,-3.906250
562,-7.812500
563,-7.812500
564,-7.812500
565,-7.812500
566,-7.812500
567,-7.812500
568,-7.812500
569,-11.718750
570,-11.718750
571,-11.718750
572,-11.718750
573,-11.718750
574,-11.718750
575,-11.718750
576,-11.718750
577,-15.625000
578,-15.625000
579,-15.625000
580,-15.625000
581,-15.625000
582,-15.625000
583,-15.625000
584,-15.625000
585,-15.625000
586,-19.531250
587,-19.531250
588,-19.531250
589,-19.531250
590,-19.531250
591,-19.531250
592,-19.531250
593,-23.437500
594,-23.437500
595,-23.437500
596,-23.437500
597,-23.437500
598,-23.437500
599,-27.343750
600,-27.343750
601,-27.343750
602,-27.343750
603,-27.343750
604,-27.343750
605,-27.343750
606,-27.343750
607,-27.343750
608,-31.250000
609,-31.250000
610,-31.250000
611,-31.250000
612,-31.250000
613,-31.250000
614,-31.250000
615,-35.156250
616,-35.156250
617,-35.156250
618,-35.156250
619,-35.156250
620,-35.156250
621,-35.156250
622,-39.062500
623,-39.062500
624,-39.062500
625,-39.062500
626,-39.062500
627,-39.062500
628,-39.062500
629,-39.062500
630,-42.968750
631,-42.968750
632,-42.968750
633,-42.968750
634,-42.968750
635,-42.968750
636,-42.968750
637,-42.968750
638,-46.875000
639,-46.875000
640,-46.875000
641,-46.875000
642,-46.875000
643,-46.875000
644,-46.875000
645,-46.875000
646,-50.781250
647,-50.781250
648,-50.781250
649,-50.781250
650,-50.781250
651,-50.781250
652,-50.781250
653,-54.687500
654,-54.687500
655,-54.687500
656,-54.687500
657,-54.687500
658,-54.687500
659,-54.687500
660,-54.687500
661,-54.687500
662,-58.593750
663,-58.593750
664,-58.593750
665,-58.593750
666,-58.593750
667,-58.593750
668,-58.593750
669,-58.593750
670,-62.500000
671,-62.500000
672,-62.500000
673,-62.500000
674,-62.500000
675,-62.500000
676,-62.500000
677,-62.500000
678,-66.406250
679,-62.500000
680,-66.406250
681,-66.406250
682,-66.406250
683,-66.406250
684,-66.406250
685,-66.406250
686,-66.406250
687,-66.406250
688,-66.406250
689,-70.312500
690,-70.312500
691,-70.312500
692,-70.312500
693,-70.312500
694,-70.312500
695,-70.312500
696,-70.312500
697,-70.312500
698,-70.312500
699,-74.218750
700,-74.218750
701,-74.218750
702,-74.218750
703,-74.218750
704,-74.218750
705,-74.218750
706,-74.218750
707,-74.218750
708,-74.218750
709,-74.218750
710,-78.125000
711,-78.125000
712,-78.125000
713,-78.125000
714,-78.125000
715,-78.125000
716,-78.125000
717,-78.125000
718,-78.125000
719,-78.125000
720,-78.125000
721,-82.031250
722,-82.031250
723,-82.031250
724,-82.031250
725,-82.031250
726,-82.031250
727,-82.031250
728,-82.031250
729,-82.031250
730,-82.031250
731,-82.031250
732,-85.937500
733,-85.937500
734,-82.031250
735,-85.937500
736,-85.937500
737,-85.937500
738,-85.937500
739,-85.937500
740,-85.937500
741,-85.937500
742,-85.937500
743,-85.937500
744,-85.937500
745,-85.937500
746,-85.937500
747,-85.937500
748,-85.937500
749,-89.843750
750,-89.843750
751,-89.843750
752,-89.843750
753,-89.843750
754,-89.843750
755,-89.843750
756,-89.843750
757,-89.843750
758,-89.843750
759,-89.843750
760,-89.843750
761,-89.843750
762,-93.750000
763,-89.843750
764,-93.750000
765,-89.843750
766,-93.750000
767,-89.843750
768,-93.750000
769,-93.750000
770,-93.750000
771,-93.750000
772,-93.750000
773,-93.750000
774,-93.750000
775,-93.750000
776,-93.750000
777,-93.750000
778,-93.750000
779,-93.750000
780,-93.750000
781,-93.750000
782,-93.750000
783,-93.750000
784,-93.750000
785,-93.750000
786,-93.750000
787,-97.656250
788,-97.656250
789,-97.656250
790,-93.750000
791,-97.656250
792,-97.656250
793,-93.750000
794,-93.750000
795,-97.656250
796,-97.656250
797,-97.656250
798,-97.656250
799,-97.656250
800,-97.656250
801,-97.656250
802,-97.656250
803,-97.656250
804,-97.656250
805,-97.656250
806,-97.656250
807,-97.656250
808,-97.656250
809,-97.656250
810,-97.656250
811,-97.656250
812,-97.656250
813,-97.656250
814,-97.656250
815,-97.656250
816,-97.656250
817,-97.656250
818,-97.656250
819,-97.656250
820,-97.656250
821,-97.656250
822,-97.656250
823,-97.656250
824,-97.656250
825,-97.656250
826,-97.656250
827,-97.656250
828,-97.656250
829,-97.656250
830,-97.656250
831,-97.656250
832,-97.656250
833,-97.656250
834,-97.656250
835,-97.656250
836,-97.656250
837,-97.656250
838,-97.656250
839,-97.656250
840,-97.656250
841,-97.656250
842,-97.656250
843,-97.656250
844,-97.656250
845,-97.656250
846,-97.656250
847,-93.750000
848,-97.656250
849,-93.750000
850,-97.656250
851,-97.656250
852,-97.656250
853,-93.750000
854,-93.750000
855,-93.750000
856,-97.656250
857,-93.750000
858,-93.750000
859,-93.750000
860,-93.750000
861,-93.750000
862,-93.750000
863,-93.750000
864,-93.750000
865,-93.750000
866,-93.750000
867,-93.750000
868,-93.750000
869,-93.750000
870,-93.750000
871,-93.750000
872,-93.750000
873,-93.750000
874,-93.750000
875,-89.843750
876,-89.843750
877,-89.843750
878,-89.843750
879,-89.843750
880,-89.843750
881,-89.843750
882,-89.843750
883,-89.843750
884,-89.843750
885,-89.843750
886,-89.843750
887,-89.843750
888,-89.843750
889,-89.843750
890,-89.843750
891,-89.843750
892,-89.843750
893,-85.937500
894,-85.937500
895,-85.937500
896,-85.937500
897,-85.937500
898,-85.937500
899,-85.937500
900,-85.937500
901,-85.937500
902,-85.937500
903,-85.937500
904,-85.937500
905,-85.937500
906,-82.031250
907,-82.031250
908,-82.031250
909,-82.031250
910,-82.031250
911,-82.031250
912,-82.031250
913,-82.031250
914,-82.031250
915,-82.031250
916,-82.031250
917,-82.031250
918,-82.031250
919,-82.031250
920,-78.125000
921,-78.125000
922,-78.125000
923,-78.125000
924,-78.125000
925,-78.125000
926,-78.125000
927,-78.125000
928,-78.125000
929,-78.125000
930,-78.125000
931,-78.125000
932,-74.218750
933,-74.218750
934,-74.218750
935,-74.218750
936,-74.218750
937,-74.218750
938,-74.218750
939,-74.218750
940,-74.218750
941,-74.218750
942,-74.218750
943,-70.312500
944,-70.312500
945,-70.312500
946,-70.312500
947,-70.312500
948,-70.312500
949,-70.312500
950,-70.312500
951,-70.312500
952,-70.312500
953,-66.406250
954,-66.406250
955,-66.406250
956,-66.406250
957,-66.406250
958,-66.406250
959,-66.406250
960,-62.500000
961,-62.500000
962,-62.500000
963,-62.500000
964,-62.500000
965,-62.500000
966,-62.500000
967,-62.500000
968,-62.500000
969,-58.593750
970,-58.593750
971,-58.593750
972,-58.593750
973,-58.593750
974,-58.593750
975,-58.593750
976,-58.593750
977,-54.687500
978,-54.687500
979,-54.687500
980,-54.687500
981,-54.687500
982,-54.687500
983,-54.687500
984,-54.687500
985,-54.687500
986,-50.781250
987,-50.781250
988,-50.781250
989,-50.781250
990,-50.781250
991,-50.781250
992,-50.781250
993,-46.875000
994,-46.875000
995,-46.875000
996,-46.875000
997,-46.875000
998,-46.875000
999,-46.875000
1000,-46.875000
1001,-46.875000
1002,-42.968750
1003,-42.968750
1004,-42.968750
1005,-42.968750
1006,-42.968750
1007,-42.968750
1008,-42.968750
1009,-42.968750
1010,-39.062500
1011,-39.062500
1012,-39.062500
1013,-39.062500
1014,-39.062500
1015,-39.062500
1016,-39.062500
1017,-35.156250
1018,-35.156250
1019,-35.156250
1020,-35.156250
1021,-35.156250
1022,-35.156250
1023,-35.156250
1024,-31.250000
1025,-31.250000
1026,-31.250000
1027,-31.250000
1028,-31.250000
1029,-31.250000
1030,-31.250000
1031,-31.250000
1032,-27.343750
1033,-27.343750
1034,-27.343750
1035,-27.343750
1036,-27.343750
1037,-27.343750
1038,-27.343750
1039,-23.437500
1040,-23.437500
1041,-23.437500
1042,-23.437500
1043,-23.437500
1044,-23.437500
1045,-19.531250
1046,-19.531250
1047,-19.531250
1048,-19.531250
1049,-19.531250
1050,-19.531250
1051,-19.531250
1052,-19.531250
1053,-19.531250
1054,-15.625000
1055,-15.625000
1056,-15.625000
1057,-15.625000
1058,-15.625000
1059,-15.625000
1060,-15.625000
1061,-15.625000
1062,-11.718750
1063,-11.718750
1064,-11.718750
1065,-11.718750
1066,-11.718750
1067,-11.718750
1068,-11.718750
1069,-11.718750
1070,-7.812500
1071,-7.812500
1072,-7.812500
1073,-7.812500
1074,-7.812500
1075,-3.906250
1076,-7.812500
1077,-3.906250
1078,-3.906250
1079,-3.906250
1080,-3.906250
1081,-3.906250
1082,-3.906250
1083,-3.906250
1084,0.000000
1085,0.000000
1086,0.000000
1087,0.000000
1088,0.000000
1089,0.000000
1090,0.000000
1091,3.906250
1092,3.906250
1093,3.906250
1094,3.906250
1095,3.906250
1096,3.906250
1097,3.906250
1098,7.812500
1099,7.812500
1100,7.812500
1101,7.812500
1102,7.812500
1103,7.812500
1104,7.812500
1105,7.812500
1106,11.718750
1107,11.718750
1108,11.718750
1109,11.718750
1110,11.718750
1111,11.718750
1112,11.718750
1113,11.718750
1114,11.718750
1115,15.625000
1116,15.625000
1117,15.625000
1118,15.625000
1119,15.625000
1120,15.625000
1121,15.625000
1122,15.625000
1123,19.531250
1124,19.531250
1125,19.531250
1126,19.531250
1127,19.531250
1128,19.531250
1129,19.531250
1130,23.437500
1131,23.437500
1132,23.437500
1133,23.437500
1134,23.437500
1135,23.437500
1136,23.437500
1137,23.437500
1138,23.437500
1139,27.343750
1140,27.343750
1141,27.343750
1142,27.343750
1143,27.343750
1144,27.343750
1145,27.343750
1146,27.343750
1147,27.343750
1148,27.343750
1149,31.250000
1150,31.250000
1151,31.250000
1152,31.250000
1153,31.250000
1154,31.250000
1155,31.250000
1156,31.250000
1157,31.250000
1158,35.156250
1159,35.156250
1160,35.156250
1161,35.156250
1162,35.156250
1163,35.156250
1164,35.156250
1165,35.156250
1166,35.156250
1167,39.062500
1168,39.062500
1169,39.062500
1170,39.062500
1171,39.062500
1172,39.062500
1173,39.062500
1174,39.062500
1175,39.062500
1176,39.062500
1177,39.062500
1178,39.062500
1179,42.968750
1180,42.968750
1181,42.968750
1182,42.968750
1183,42.968750
1184,42.968750
1185,42.968750
1186,42.968750
1187,46.875000
1188,46.875000
1189,46.875000
1190,46.875000
1191,46.875000
1192,46.875000
1193,46.875000
1194,46.875000
1195,46.875000
1196,46.875000
1197,46.875000
1198,46.875000
1199,46.875000
1200,46.875000
1201,50.781250
1202,50.781250
1203,50.781250
1204,50.781250
1205,50.781250
1206,50.781250
1207,50.781250
1208,50.781250
1209,50.781250
1210,50.781250
1211,50.781250
1212,50.781250
1213,50.781250
1214,54.687500
1215,54.687500
1216,54.687500
1217,54.687500
1218,54.687500
1219,54.687500
1220,54.687500
1221,54.687500
1222,54.687500
1223,54.687500
1224,54.687500
1225,54.687500
1226,54.687500
1227,54.687500
1228,58.593750
1229,58.593750
1230,58.593750
1231,58.593750
1232,58.593750
1233,58.593750
1234,58.593750
1235,58.593750
1236,58.593750
1237,58.593750
1238,58.593750
1239,58.593750
1240,58.593750
1241,58.593750
1242,58.593750
1243,58.593750
1244,62.500000
1245,62.500000
1246,62.500000
1247,62.500000
1248,62.500000
1249,62.500000
1250,62.500000
1251,62.500000
1252,62.500000
1253,62.500000
1254,62.500000
1255,62.500000
1256,62.500000
1257,62.500000
1258,62.500000
1259,62.500000
1260,62.500000
1261,62.500000
1262,62.500000
1263,62.500000
1264,62.500000
1265,62.500000
1266,62.500000
1267,62.500000
1268,62.500000
1269,66.406250
1270,62.500000
1271,66.406250
1272,66.406250
1273,62.500000
1274,62.500000
1275,66.406250
1276,66.406250
1277,66.406250
1278,66.406250
1279,66.406250
1280,66.406250
1281,66.406250
1282,66.406250
1283,66.406250
1284,66.406250
1285,66.406250
1286,66.406250
1287,66.406250
1288,66.406250
1289,66.406250
1290,66.406250
1291,66.406250
1292,66.406250
1293,66.406250
1294,66.406250
1295,66.406250
1296,66.406250
1297,66.406250
1298,66.406250
1299,66.406250
1300,66.406250
1301,66.406250
1302,66.406250
1303,66.406250
1304,66.406250
1305,66.406250
1306,66.406250
1307,66.406250
1308,66.406250
1309,66.406250
1310,66.406250
1311,66.406250
1312,66.406250
1313,66.406250
1314,66.406250
1315,66.406250
1316,66.406250
1317,66.406250
1318,66.406250
1319,66.406250
1320,66.406250
1321,66.406250
1322,66.406250
1323,66.406250
1324,66.406250
1325,66.406250
1326,66.406250
1327,66.406250
1328,66.406250
1329,66.406250
1330,66.406250
1331,66.406250
1332,66.406250
1333,66.406250
1334,66.406250
1335,66.406250
1336,66.406250
1337,66.406250
1338,66.406250
1339,66.406250
1340,66.406250
1341,66.406250
1342,66.406250
1343,66.406250
1344,66.406250
1345,66.406250
1346,66.406250
1347,62.500000
1348,62.500000
1349,66.406250
1350,66.406250
1351,66.406250
1352,66.406250
1353,62.500000
1354,62.500000
1355,62.500000
1356,62.500000
1357,62.500000
1358,62.500000
1359,62.500000
1360,62.500000
1361,62.500000
1362,62.500000
1363,62.500000
1364,62.500000
1365,62.500000
1366,62.500000
1367,62.500000
1368,62.500000
1369,62.500000
1370,62.500000
1371,62.500000
1372,62.500000
1373,62.500000
1374,62.500000
1375,62.500000
1376,62.500000
1377,58.593750
1378,58.593750
1379,58.593750
1380,58.593750
1381,58.593750
1382,58.593750
1383,58.593750
1384,58.593750
1385,58.593750
1386,58.593750
1387,58.593750
1388,58.593750
1389,58.593750
1390,58.593750
1391,58.593750
1392,58.593750
1393,54.687500
1394,58.593750
1395,54.687500
1396,54.687500
1397,54.687500
1398,58.593750
1399,54.687500
1400,54.687500
1401,54.687500
1402,54.687500
1403,54.687500
1404,54.687500
1405,54.687500
1406,54.687500
1407,54.687500
1408,54.687500
1409,54.687500
1410,50.781250
1411,50.781250
1412,50.781250
1413,50.781250
1414,50.781250
1415,50.781250
1416,50.781250
1417,50.781250
1418,50.781250
1419,50.781250
1420,50.781250
1421,50.781250
1422,46.875000
1423,50.781250
1424,46.875000
1425,46.875000
1426,46.875000
1427,46.875000
1428,46.875000
1429,46.875000
1430,46.875000
1431,46.875000
1432,46.875000
1433,46.875000
1434,46.875000
1435,46.875000
1436,42.968750
1437,42.968750
1438,42.968750
1439,42.968750
1440,42.968750
1441,42.968750
1442,42.968750
1443,42.968750
1444,42.968750
1445,42.968750
1446,42.968750
1447,39.062500
1448,39.062500
1449,39.062500
1450,39.062500
1451,39.062500
1452,39.062500
1453,39.062500
1454,39.062500
1455,39.062500
1456,39.062500
1457,39.062500
1458,35.156250
1459,35.156250
1460,35.156250
1461,35.156250
1462,35.156250
1463,35.156250
1464,35.156250
1465,35.156250
1466,35.156250
1467,35.156250
1468,31.250000
1469,31.250000
1470,31.250000
1471,31.250000
1472,31.250000
1473,31.250000
1474,31.250000
1475,31.250000
1476,31.250000
1477,27.343750
1478,31.250000
1479,27.343750
1480,27.343750
1481,27.343750
1482,27.343750
1483,27.343750
1484,27.343750
1485,27.343750
1486,23.437500
1487,23.437500
1488,23.437500
1489,23.437500
1490,23.437500
1491,23.437500
1492,23.437500
1493,23.437500
1494,23.437500
1495,23.437500
1496,19.531250
1497,19.531250
1498,19.531250
1499,19.531250
1500,19.531250
1501,19.531250
1502,19.531250
1503,19.531250
1504,19.531250
1505,15.625000
1506,15.625000
1507,15.625000
1508,15.625000
1509,15.625000
1510,15.625000
1511,11.718750
1512,11.718750
1513,11.718750
1514,11.718750
1515,11.718750
1516,11.718750
1517,11.718750
1518,11.718750
1519,11.718750
1520,11.718750
1521,7.812500
1522,7.812500
1523,7.812500
1524,7.812500
1525,7.812500
1526,7.812500
1527,7.812500
1528,3.906250
1529,7.812500
1530,3.906250
1531,3.906250
1532,3.906250
1533,3.906250
1534,3.906250
1535,3.906250
1536,0.000000
1537,0.000000
1538,0.000000
1539,0.000000
1540,0.000000
1541,0.000000
1542,0.000000
1543,0.000000
1544,-3.906250
1545,-3.906250
1546,-3.906250
1547,-3.906250
1548,-3.906250
1549,-3.906250
1550,-3.906250
1551,-7.812500
1552,-7.812500
1553,-7.812500
1554,-7.812500
1555,-7.812500
1556,-7.812500
1557,-7.812500
1558,-7.812500
1559,-7.812500
1560,-11.718750
1561,-11.718750
1562,-11.718750
1563,-11.718750
1564,-11.718750
1565,-15.625000
1566,-15.625000
1567,-15.625000
1568,-15.625000
1569,-15.625000
1570,-15.625000
1571,-15.625000
1572,-15.625000
1573,-15.625000
1574,-19.531250
1575,-19.531250
1576,-19.531250
1577,-19.531250
1578,-19.531250
1579,-19.531250
1580,-19.531250
1581,-19.531250
1582,-23.437500
1583,-23.437500
1584,-23.437500
1585,-23.437500
1586,-23.437500
1587,-23.437500
1588,-23.437500
1589,-27.343750
1590,-27.343750
1591,-27.343750
1592,-27.343750
1593,-27.343750
1594,-27.343750
1595,-27.343750
1596,-31.250000
1597,-31.250000
1598,-31.250000
1599,-31.250000
1600,-31.250000
1601,-31.250000
1602,-31.250000
1603,-31.250000
1604,-35.156250
1605,-35.156250
1606,-35.156250
1607,-35.156250
1608,-35.156250
1609,-35.156250
1610,-35.156250
1611,-35.156250
1612,-39.062500
1613,-39.062500
1614,-39.062500
1615,-39.062500
1616,-39.062500
1617,-39.062500
1618,-39.062500
1619,-39.062500
1620,-42.968750
1621,-42.968750
1622,-42.968750
1623,-42.968750
1624,-42.968750
1625,-42.968750
1626,-42.968750
1627,-42.968750
1628,-46.875000
1629,-46.875000
1630,-46.875000
1631,-46.875000
1632,-46.875000
1633,-46.875000
1634,-46.875000
1635,-50.781250
1636,-46.875000
1637,-50.781250
1638,-50.781250
1639,-50.781250
1640,-50.781250
1641,-50.781250
1642,-50.781250
1643,-54.687500
1644,-54.687500
1645,-54.687500
1646,-54.687500
1647,-54.687500
1648,-54.687500
1649,-54.687500
1650,-54.687500
1651,-54.687500
1652,-58.593750
1653,-58.593750
1654,-58.593750
1655,-58.593750
1656,-58.593750
1657,-58.593750
1658,-58.593750
1659,-58.593750
1660,-58.593750
1661,-58.593750
1662,-62.500000
1663,-62.500000
1664,-62.500000
1665,-62.500000
1666,-62.500000
1667,-62.500000
1668,-66.406250
1669,-62.500000
1670,-66.406250
1671,-66.406250
1672,-66.406250
1673,-66.406250
1674,-66.406250
1675,-66.406250
1676,-66.406250
1677,-66.406250
1678,-66.406250
1679,-70.312500
1680,-70.312500
1681,-70.312500
1682,-70.312500
1683,-70.312500
1684,-70.312500
1685,-70.312500
1686,-70.312500
1687,-70.312500
1688,-74.218750
1689,-70.312500
1690,-74.218750
1691,-74.218750
1692,-74.218750
1693,-74.218750
1694,-74.218750
1695,-74.218750
1696,-74.218750
1697,-74.218750
1698,-74.218750
1699,-74.218750
1700,-78.125000
1701,-78.125000
1702,-78.125000
1703,-78.125000
1704,-78.125000
1705,-78.125000
1706,-78.125000
1707,-78.125000
1708,-78.125000
1709,-78.125000
1710,-82.031250
1711,-82.031250
1712,-82.031250
1713,-78.125000
1714,-82.031250
1715,-82.031250
1716,-82.031250
1717,-82.031250
1718,-82.031250
1719,-82.031250
1720,-85.937500
1721,-82.031250
1722,-82.031250
1723,-82.031250
1724,-85.937500
1725,-82.031250
1726,-85.937500
1727,-85.937500
1728,-85.937500
1729,-85.937500
1730,-85.937500
1731,-85.937500
1732,-85.937500
1733,-85.937500
1734,-85.937500
1735,-85.937500
1736,-85.937500
1737,-85.937500
1738,-85.937500
1739,-85.937500
1740,-89.843750
1741,-89.843750
1742,-89.843750
1743,-89.843750
1744,-89.843750
1745,-89.843750
1746,-89.843750
1747,-89.843750
1748,-89.843750
1749,-89.843750
1750,-89.843750
1751,-89.843750
1752,-89.843750
1753,-89.843750
1754,-93.750000
1755,-89.843750
1756,-89.843750
1757,-93.750000
1758,-93.750000
1759,-93.750000
1760,-93.750000
1761,-93.750000
1762,-93.750000
1763,-93.750000
1764,-93.750000
1765,-93.750000
1766,-93.750000
1767,-93.750000
1768,-93.750000
1769,-93.750000
1770,-93.750000
1771,-93.750000
1772,-93.750000
1773,-97.656250
1774,-93.750000
1775,-93.750000
1776,-93.750000
1777,-93.750000
1778,-93.750000
1779,-93.750000
1780,-93.750000
1781,-97.656250
1782,-93.750000
1783,-93.750000
1784,-97.656250
1785,-97.656250
1786,-97.656250
1787,-97.656250
1788,-97.656250
1789,-97.656250
1790,-97.656250
1791,-97.656250
1792,-97.656250
1793,-97.656250
1794,-97.656250
1795,-97.656250
1796,-97.656250
1797,-97.656250
1798,-97.656250
1799,-97.656250
1800,-97.656250
1801,-97.656250
1802,-97.656250
1803,-97.656250
1804,-97.656250
1805,-97.656250
1806,-97.656250
1807,-97.656250
1808,-97.656250
1809,-97.656250
1810,-97.656250
1811,-97.656250
1812,-97.656250
1813,-97.656250
1814,-97.656250
1815,-97.656250
1816,-97.656250
1817,-97.656250
1818,-97.656250
1819,-97.656250
1820,-97.656250
1821,-97.656250
1822,-97.656250
1823,-97.656250
1824,-97.656250
1825,-97.656250
1826,-97.656250
1827,-97.656250
1828,-97.656250
1829,-97.656250
1830,-97.656250
1831,-97.656250
1832,-97.656250
1833,-97.656250
1834,-97.656250
1835,-97.656250
1836,-97.656250
1837,-97.656250
1838,-97.656250
1839,-97.656250
1840,-93.750000
1841,-93.750000
1842,-93.750000
1843,-93.750000
1844,-93.750000
1845,-93.750000
1846,-93.750000
1847,-93.750000
1848,-93.750000
1849,-93.750000
1850,-93.750000
1851,-93.750000
1852,-93.750000
1853,-93.750000
1854,-93.750000
1855,-93.750000
1856,-93.750000
1857,-93.750000
1858,-93.750000
1859,-93.750000
1860,-93.750000
1861,-93.750000
1862,-93.750000
1863,-89.843750
1864,-93.750000
1865,-89.843750
1866,-89.843750
1867,-89.843750
1868,-89.843750
1869,-89.843750
1870,-89.843750
1871,-89.843750
1872,-89.843750
1873,-89.843750
1874,-89.843750
1875,-89.843750
1876,-89.843750
1877,-89.843750
1878,-89.843750
1879,-89.843750
1880,-89.843750
1881,-85.937500
1882,-85.937500
1883,-85.937500
1884,-85.937500
1885,-85.937500
1886,-85.937500
1887,-85.937500
1888,-85.937500
1889,-85.937500
1890,-85.937500
1891,-85.937500
1892,-85.937500
1893,-85.937500
1894,-85.937500
1895,-85.937500
1896,-85.937500
1897,-85.937500
1898,-82.031250
1899,-82.031250
1900,-82.031250
1901,-82.031250
1902,-82.031250
1903,-82.031250
1904,-82.031250
1905,-82.031250
1906,-82.031250
1907,-82.031250
1908,-82.031250
1909,-82.031250
1910,-82.031250
1911,-78.125000
1912,-78.125000
1913,-78.125000
1914,-78.125000
1915,-78.125000
1916,-78.125000
1917,-78.125000
1918,-78.125000
1919,-78.125000
1920,-78.125000
1921,-74.218750
1922,-74.218750
1923,-74.218750
1924,-74.218750
1925,-74.218750
1926,-74.218750
1927,-74.218750
1928,-74.218750
1929,-74.218750
1930,-74.218750
1931,-70.312500
1932,-70.312500
1933,-70.312500
1934,-70.312500
1935,-70.312500
1936,-70.312500
1937,-70.312500
1938,-70.312500
1939,-66.406250
1940,-70.312500
1941,-66.406250
1942,-70.312500
1943,-66.406250
1944,-66.406250
1945,-66.406250
1946,-66.406250
1947,-66.406250
1948,-66.406250
1949,-66.406250
1950,-66.406250
1951,-62.500000
1952,-62.500000
1953,-62.500000
1954,-62.500000
1955,-62.500000
1956,-62.500000
1957,-62.500000
1958,-62.500000
1959,-62.500000
1960,-62.500000
1961,-58.593750
1962,-58.593750
1963,-58.593750
1964,-58.593750
1965,-58.593750
1966,-58.593750
1967,-58.593750
1968,-54.687500
1969,-54.687500
1970,-54.687500
1971,-54.687500
1972,-54.687500
1973,-50.781250
1974,-54.687500
1975,-50.781250
1976,-50.781250
1977,-50.781250
1978,-50.781250
1979,-50.781250
1980,-50.781250
1981,-50.781250
1982,-50.781250
1983,-46.875000
1984,-46.875000
1985,-46.875000
1986,-46.875000
1987,-46.875000
1988,-46.875000
1989,-46.875000
1990,-46.875000
1991,-46.875000
1992,-42.968750
1993,-42.968750
1994,-42.968750
1995,-42.968750
1996,-42.968750
1997,-42.968750
1998,-42.968750
1999,-39.062500
2000,-39.062500
2001,-39.062500
2002,-39.062500
2003,-39.062500
2004,-39.062500
2005,-39.062500
2006,-39.062500
2007,-35.156250
2008,-35.156250
2009,-35.156250
2010,-35.156250
2011,-35.156250
2012,-35.156250
2013,-35.156250
2014,-31.250000
2015,-31.250000
2016,-31.250000
2017,-31.250000
2018,-31.250000
2019,-31.250000
2020,-31.250000
2021,-27.343750
2022,-27.343750
2023,-27.343750
2024,-27.343750
2025,-27.343750
2026,-27.343750
2027,-27.343750
2028,-27.343750
2029,-23.437500
2030,-23.437500
2031,-23.437500
2032,-23.437500
2033,-23.437500
2034,-23.437500
2035,-19.531250
2036,-19.531250
2037,-19.531250
2038,-19.531250
2039,-19.531250
2040,-19.531250
2041,-19.531250
2042,-19.531250
2043,-19.531250
2044,-15.625000
2045,-15.625000
2046,-15.625000
2047,-15.625000
2048,-15.625000
2049,-15.625000
2050,-15.625000
2051,-15.625000
2052,-11.718750
2053,-11.718750
2054,-11.718750
2055,-11.718750
2056,-11.718750
2057,-11.718750
2058,-11.718750
2059,-7.812500
2060,-7.812500
2061,-7.812500
2062,-7.812500
2063,-7.812500
2064,-7.812500
2065,-3.906250
2066,-3.906250
2067,-3.906250
2068,-3.906250
2069,-3.906250
2070,-3.906250
2071,-3.906250
2072,-3.906250
2073,-3.906250
2074,0.000000
2075,0.000000
2076,0.000000
2077,0.000000
2078,0.000000
2079,0.000000
2080,0.000000
2081,3.906250
2082,3.906250
2083,3.906250
2084,3.906250
2085,3.906250
2086,3.906250
2087,3.906250
2088,3.906250
2089,7.812500
2090,7.812500
2091,7.812500
2092,7.812500
2093,7.812500
2094,7.812500
2095,7.812500
2096,7.812500
2097,11.718750
2098,11.718750
2099,11.718750
2100,11.718750
2101,11.718750
2102,11.718750
2103,11.718750
2104,11.718750
2105,15.625000
2106,15.625000
2107,15.625000
2108,15.625000
2109,15.625000
2110,15.625000
2111,15.625000
2112,15.625000
2113,19.531250
2114,19.531250
2115,19.531250
2116,19.531250
2117,19.531250
2118,19.531250
2119,19.531250
2120,19.531250
2121,19.531250
2122,19.531250
2123,23.437500
2124,23.437500
2125,23.437500
2126,23.437500
2127,23.437500
2128,23.437500
2129,23.437500
2130,27.343750
2131,27.343750
2132,27.343750
2133,27.343750
2134,27.343750
2135,27.343750
2136,27.343750
2137,27.343750
2138,27.343750
2139,31.250000
2140,31.250000
2141,31.250000
2142,31.250000
2143,31.250000
2144,31.250000
2145,31.250000
2146,31.250000
2147,35.156250
2148,35.156250
2149,35.156250
2150,35.156250
2151,35.156250
2152,35.156250
2153,35.156250
2154,35.156250
2155,35.156250
2156,35.156250
2157,35.156250
2158,39.062500
2159,39.062500
2160,39.062500
2161,39.062500
2162,39.062500
2163,39.062500
2164,39.062500
2165,39.062500
2166,39.062500
2167,42.968750
2168,42.968750
2169,42.968750
2170,42.968750
2171,42.968750
2172,42.968750
2173,42.968750
2174,42.968750
2175,42.968750
2176,42.968750
2177,42.968750
2178,42.968750
2179,46.875000
2180,46.875000
2181,46.875000
2182,46.875000
2183,46.875000
2184,46.875000
2185,46.875000
2186,46.875000
2187,46.875000
2188,46.875000
2189,46.875000
2190,50.781250
2191,50.781250
2192,50.781250
2193,50.781250
2194,50.781250
2195,50.781250
2196,50.781250
2197,50.781250
2198,50.781250
2199,50.781250
2200,50.781250
2201,50.781250
2202,50.781250
2203,54.687500
2204,54.687500
2205,54.687500
2206,54.687500
2207,54.687500
2208,54.687500
2209,54.687500
2210,54.687500
2211,54.687500
2212,54.687500
2213,54.687500
2214,54.687500
2215,54.687500
2216,58.593750
2217,54.687500
2218,54.687500
2219,54.687500
2220,54.687500
2221,58.593750
2222,58.593750
2223,58.593750
2224,58.593750
2225,58.593750
2226,58.593750
2227,58.593750
2228,58.593750
2229,58.593750
2230,58.593750
2231,58.593750
2232,58.593750
2233,58.593750
2234,58.593750
2235,58.593750
2236,58.593750
2237,62.500000
2238,58.593750
2239,62.500000
2240,62.500000
2241,62.500000
2242,62.500000
2243,62.500000
2244,62.500000
2245,62.500000
2246,62.500000
2247,62.500000
2248,62.500000
2249,62.500000
2250,62.500000
2251,62.500000
2252,62.500000
2253,62.500000
2254,62.500000
2255,62.500000
2256,62.500000
2257,62.500000
2258,62.500000
2259,62.500000
2260,62.500000
2261,62.500000
2262,62.500000
2263,62.500000
2264,62.500000
2265,66.406250
2266,66.406250
2267,66.406250
2268,66.406250
2269,66.406250
2270,66.406250
2271,66.406250
2272,66.406250
2273,66.406250
2274,66.406250
2275,66.406250
2276,66.406250
2277,66.406250
2278,66.406250
2279,66.406250
2280,66.406250
2281,66.406250
2282,66.406250
2283,66.406250
2284,66.406250
2285,66.406250
2286,66.406250
2287,66.406250
2288,66.406250
2289,66.406250
2290,66.406250
2291,66.406250
2292,66.406250
2293,66.406250
2294,66.406250
2295,66.406250
2296,66.406250
2297,66.406250
2298,66.406250
2299,66.406250
2300,66.406250
2301,66.406250
2302,66.406250
2303,66.406250
2304,66.406250
2305,66.406250
2306,66.406250
2307,66.406250
2308,66.406250
2309,66.406250
2310,66.406250
2311,66.406250
2312,66.406250
2313,66.406250
2314,66.406250
2315,66.406250
2316,66.406250
2317,66.406250
2318,66.406250
2319,66.406250
2320,66.406250
2321,66.406250
2322,66.406250
2323,66.406250
2324,66.406250
2325,66.406250
2326,66.406250
2327,66.406250
2328,66.406250
2329,66.406250
2330,66.406250
2331,66.406250
2332,66.406250
2333,66.406250
2334,66.406250
2335,66.406250
2336,66.406250
2337,62.500000
2338,66.406250
2339,62.500000
2340,62.500000
2341,62.500000
2342,62.500000
2343,62.500000
2344,62.500000
2345,62.500000
2346,62.500000
2347,62.500000
2348,62.500000
2349,62.500000
2350,62.500000
2351,62.500000
2352,62.500000
2353,62.500000
2354,62.500000
2355,62.500000
2356,62.500000
2357,62.500000
2358,62.500000
2359,62.500000
2360,62.500000
2361,62.500000
2362,62.500000
2363,62.500000
2364,58.593750
2365,58.593750
2366,58.593750
2367,58.593750
2368,58.593750
2369,58.593750
2370,58.593750
2371,58.593750
2372,58.593750
2373,58.593750
2374,58.593750
2375,58.593750
2376,58.593750
2377,58.593750
2378,58.593750
2379,58.593750
2380,58.593750
2381,58.593750
2382,58.593750
2383,58.593750
2384,58.593750
2385,54.687500
2386,54.687500
2387,58.593750
2388,54.687500
2389,54.687500
2390,54.687500
2391,54.687500
2392,54.687500
2393,54.687500
2394,54.687500
2395,54.687500
2396,54.687500
2397,54.687500
2398,54.687500
2399,54.687500
2400,54.687500
2401,54.687500
2402,50.781250
2403,50.781250
2404,50.781250
2405,50.781250
2406,50.781250
2407,50.781250
2408,50.781250
2409,50.781250
2410,50.781250
2411,50.781250
2412,50.781250
2413,50.781250
2414,50.781250
2415,50.781250
2416,46.875000
2417,46.875000
2418,46.875000
2419,46.875000
2420,46.875000
2421,42.968750
2422,46.875000
2423,46.875000
2424,46.875000
2425,46.875000
2426,42.968750
2427,42.968750
2428,42.968750
2429,42.968750
2430,42.968750
2431,42.968750
2432,42.968750
2433,42.968750
2434,42.968750
2435,42.968750
2436,42.968750
2437,42.968750
2438,39.062500
2439,39.062500
2440,39.062500
2441,39.062500
2442,39.062500
2443,39.062500
2444,39.062500
2445,39.062500
2446,39.062500
2447,39.062500
2448,39.062500
2449,39.062500
2450,35.156250
2451,35.156250
2452,35.156250
2453,35.156250
2454,35.156250
2455,35.156250
2456,35.156250
2457,35.156250
2458,35.156250
2459,35.156250
2460,31.250000
2461,31.250000
2462,31.250000
2463,31.250000
2464,31.250000
2465,31.250000
2466,31.250000
2467,27.343750
2468,27.343750
2469,27.343750
2470,27.343750
2471,27.343750
2472,27.343750
2473,27.343750
2474,27.343750
2475,27.343750
2476,27.343750
2477,23.437500
2478,23.437500
2479,23.437500
2480,23.437500
2481,23.437500
2482,23.437500
2483,23.437500
2484,23.437500
2485,19.531250
2486,19.531250
2487,19.531250
2488,23.437500
2489,19.531250
2490,19.531250
2491,23.437500
2492,19.531250
2493,19.531250
2494,15.625000
2495,15.625000
2496,15.625000
2497,15.625000
2498,15.625000
2499,15.625000
2500,15.625000
2501,11.718750
2502,11.718750
2503,11.718750
2504,11.718750
2505,11.718750
2506,11.718750
2507,11.718750
2508,11.718750
2509,11.718750
2510,11.718750
2511,7.812500
2512,7.812500
2513,7.812500
2514,7.812500
2515,7.812500
2516,7.812500
2517,7.812500
2518,7.812500
2519,3.906250
2520,7.812500
2521,3.906250
2522,3.906250
2523,3.906250
2524,3.906250
2525,3.906250
2526,0.000000
2527,0.000000
2528,0.000000
2529,0.000000
2530,0.000000
2531,0.000000
2532,0.000000
2533,0.000000
2534,-3.906250
2535,-3.906250
2536,-3.906250
2537,-3.906250
2538,-3.906250
2539,-3.906250
2540,-3.906250
2541,-7.812500
2542,-7.812500
2543,-7.812500
2544,-7.812500
2545,-7.812500
2546,-7.812500
2547,-7.812500
2548,-7.812500
2549,-7.812500
2550,-11.718750
2551,-11.718750
2552,-11.718750
2553,-11.718750
2554,-11.718750
2555,-11.718750
2556,-15.625000
2557,-15.625000
2558,-15.625000
2559,-15.625000
2560,-15.625000
2561,-15.625000
2562,-15.625000
2563,-15.625000
2564,-15.625000
2565,-19.531250
2566,-19.531250
2567,-19.531250
2568,-19.531250
2569,-19.531250
2570,-19.531250
2571,-19.531250
2572,-23.437500
2573,-23.437500
2574,-23.437500
2575,-23.437500
2576,-23.437500
2577,-23.437500
2578,-23.437500
2579,-27.343750
2580,-27.343750
2581,-27.343750
2582,-27.343750
2583,-27.343750
2584,-27.343750
2585,-27.343750
2586,-31.250000
2587,-31.250000
2588,-31.250000
2589,-31.250000
2590,-31.250000
2591,-31.250000
2592,-31.250000
2593,-31.250000
2594,-31.250000
2595,-31.250000
2596,-35.156250
2597,-35.156250
2598,-35.156250
2599,-35.156250
2600,-35.156250
2601,-35.156250
2602,-39.062500
2603,-39.062500
2604,-39.062500
2605,-39.062500
2606,-39.062500
2607,-39.062500
2608,-39.062500
2609,-39.062500
2610,-39.062500
2611,-42.968750
2612,-42.968750
2613,-42.968750
2614,-42.968750
2615,-42.968750
2616,-42.968750
2617,-46.875000
2618,-46.875000
2619,-46.875000
2620,-46.875000
2621,-46.875000
2622,-46.875000
2623,-46.875000
2624,-46.875000
2625,-50.781250
2626,-50.781250
2627,-50.781250
2628,-50.781250
2629,-50.781250
2630,-50.781250
2631,-50.781250
2632,-50.781250
2633,-50.781250
2634,-50.781250
2635,-54.687500
2636,-54.687500
2637,-54.687500
2638,-54.687500
2639,-54.687500
2640,-54.687500
2641,-54.687500
2642,-58.593750
2643,-58.593750
2644,-58.593750
2645,-58.593750
2646,-58.593750
2647,-58.593750
2648,-58.593750
2649,-58.593750
2650,-58.593750
2651,-58.593750
2652,-62.500000
2653,-62.500000
2654,-62.500000
2655,-62.500000
2656,-62.500000
2657,-62.500000
2658,-62.500000
2659,-62.500000
2660,-66.406250
2661,-66.406250
2662,-66.406250
2663,-66.406250
2664,-66.406250
2665,-66.406250
2666,-66.406250
2667,-66.406250
2668,-70.312500
2669,-70.312500
2670,-70.312500
2671,-70.312500
2672,-70.312500
2673,-70.312500
2674,-70.312500
2675,-70.312500
2676,-70.312500
2677,-70.312500
2678,-70.312500
2679,-74.218750
2680,-74.218750
2681,-74.218750
2682,-74.218750
2683,-74.218750
2684,-74.218750
2685,-74.218750
2686,-74.218750
2687,-74.218750
2688,-74.218750
2689,-74.218750
2690,-74.218750
2691,-78.125000
2692,-78.125000
2693,-78.125000
2694,-78.125000
2695,-78.125000
2696,-78.125000
2697,-78.125000
2698,-78.125000
2699,-78.125000
2700,-78.125000
2701,-82.031250
2702,-82.031250
2703,-82.031250
2704,-82.031250
2705,-82.031250
2706,-82.031250
2707,-82.031250
2708,-82.031250
2709,-82.031250
2710,-82.031250
2711,-82.031250
2712,-82.031250
2713,-85.937500
2714,-85.937500
2715,-85.937500
2716,-85.937500
2717,-85.937500
2718,-85.937500
2719,-85.937500
2720,-85.937500
2721,-85.937500
2722,-85.937500
2723,-85.937500
2724,-89.843750
2725,-85.937500
2726,-85.937500
2727,-89.843750
2728,-89.843750
2729,-89.843750
2730,-89.843750
2731,-89.843750
2732,-89.843750
2733,-89.843750
2734,-89.843750
2735,-89.843750
2736,-89.843750
2737,-89.843750
2738,-89.843750
2739,-89.843750
2740,-89.843750
2741,-89.843750
2742,-93.750000
2743,-93.750000
2744,-93.750000
2745,-93.750000
2746,-93.750000
2747,-93.750000
2748,-93.750000
2749,-93.750000
2750,-93.750000
2751,-93.750000
2752,-93.750000
2753,-93.750000
2754,-93.750000
2755,-93.750000
2756,-93.750000
2757,-93.750000
2758,-93.750000
2759,-93.750000
2760,-97.656250
2761,-93.750000
2762,-93.750000
2763,-93.750000
2764,-93.750000
2765,-93.750000
2766,-97.656250
2767,-97.656250
2768,-93.750000
2769,-93.750000
2770,-93.750000
2771,-93.750000
2772,-97.656250
2773,-97.656250
2774,-97.656250
2775,-97.656250
2776,-97.656250
2777,-97.656250
2778,-97.656250
2779,-97.656250
2780,-97.656250
2781,-97.656250
2782,-97.656250
2783,-97.656250
2784,-97.656250
2785,-97.656250
2786,-97.656250
2787,-97.656250
2788,-97.656250
2789,-97.656250
2790,-97.656250
2791,-97.656250
2792,-97.656250
2793,-97.656250
2794,-97.656250
2795,-97.656250
2796,-97.656250
2797,-97.656250
2798,-97.656250
2799,-97.656250
2800,-97.656250
2801,-97.656250
2802,-97.656250
2803,-97.656250
2804,-97.656250
2805,-97.656250
2806,-97.656250
2807,-97.656250
2808,-97.656250
2809,-97.656250
2810,-97.656250
2811,-97.656250
2812,-97.656250
2813,-97.656250
2814,-97.656250
2815,-97.656250
2816,-97.656250
2817,-97.656250
2818,-97.656250
2819,-97.656250
2820,-97.656250
2821,-97.656250
2822,-97.656250
2823,-97.656250
2824,-97.656250
2825,-97.656250
2826,-97.656250
2827,-97.656250
2828,-97.656250
2829,-93.750000
2830,-93.750000
2831,-93.750000
2832,-93.750000
2833,-93.750000
2834,-93.750000
2835,-97.656250
2836,-93.750000
2837,-93.750000
2838,-93.750000
2839,-93.750000
2840,-93.750000
2841,-93.750000
2842,-93.750000
2843,-93.750000
2844,-93.750000
2845,-93.750000
2846,-93.750000
2847,-93.750000
2848,-93.750000
2849,-93.750000
2850,-93.750000
2851,-93.750000
2852,-93.750000
2853,-93.750000
2854,-93.750000
2855,-93.750000
2856,-89.843750
2857,-89.843750
2858,-89.843750
2859,-89.843750
2860,-89.843750
2861,-89.843750
2862,-89.843750
2863,-89.843750
2864,-89.843750
2865,-89.843750
2866,-89.843750
2867,-89.843750
2868,-89.843750
2869,-89.843750
2870,-89.843750
2871,-85.937500
2872,-85.937500
2873,-85.937500
2874,-85.937500
2875,-85.937500
2876,-85.937500
2877,-85.937500
2878,-85.937500
2879,-85.937500
2880,-85.937500
2881,-85.937500
2882,-85.937500
2883,-85.937500
2884,-85.937500
2885,-85.937500
2886,-85.937500
2887,-85.937500
2888,-82.031250
2889,-82.031250
2890,-85.937500
2891,-82.031250
2892,-82.031250
2893,-82.031250
2894,-82.031250
2895,-82.031250
2896,-82.031250
2897,-82.031250
2898,-82.031250
2899,-82.031250
2900,-78.125000
2901,-78.125000
2902,-78.125000
2903,-78.125000
2904,-78.125000
2905,-78.125000
2906,-78.125000
2907,-78.125000
2908,-78.125000
2909,-78.125000
2910,-74.218750
2911,-74.218750
2912,-74.218750
2913,-74.218750
2914,-74.218750
2915,-74.218750
2916,-74.218750
2917,-74.218750
2918,-74.218750
2919,-74.218750
2920,-70.312500
2921,-70.312500
2922,-70.312500
2923,-70.312500
2924,-70.312500
2925,-70.312500
2926,-70.312500
2927,-70.312500
2928,-70.312500
2929,-66.406250
2930,-66.406250
2931,-66.406250
2932,-66.406250
2933,-66.406250
2934,-66.406250
2935,-66.406250
2936,-66.406250
2937,-66.406250
2938,-66.406250
2939,-62.500000
2940,-62.500000
2941,-62.500000
2942,-62.500000
2943,-62.500000
2944,-62.500000
2945,-62.500000
2946,-62.500000
2947,-62.500000
2948,-62.500000
2949,-58.593750
2950,-58.593750
2951,-58.593750
2952,-58.593750
2953,-58.593750
2954,-58.593750
2955,-58.593750
2956,-58.593750
2957,-54.687500
2958,-54.687500
2959,-54.687500
2960,-54.687500
2961,-54.687500
2962,-54.687500
2963,-54.687500
2964,-50.781250
2965,-50.781250
2966,-50.781250
2967,-50.781250
2968,-50.781250
2969,-50.781250
2970,-50.781250
2971,-50.781250
2972,-50.781250
2973,-46.875000
2974,-46.875000
2975,-46.875000
2976,-46.875000
2977,-46.875000
2978,-46.875000
2979,-42.968750
2980,-42.968750
2981,-42.968750
2982,-42.968750
2983,-42.968750
2984,-42.968750
2985,-42.968750
2986,-42.968750
2987,-42.968750
2988,-42.968750
2989,-39.062500
2990,-39.062500
2991,-39.062500
2992,-39.062500
2993,-39.062500
2994,-39.062500
2995,-39.062500
2996,-39.062500
2997,-35.156250
2998,-35.156250
2999,-35.156250
3000,-35.156250
3001,-35.156250
3002,-35.156250
3003,-35.156250
3004,-35.156250
3005,-31.250000
3006,-31.250000
3007,-31.250000
3008,-31.250000
3009,-31.250000
3010,-27.343750
3011,-27.343750
3012,-27.343750
3013,-27.343750
3014,-27.343750
3015,-27.343750
3016,-27.343750
3017,-27.343750
3018,-27.343750
3019,-23.437500
3020,-23.437500
3021,-23.437500
3022,-23.437500
3023,-23.437500
3024,-23.437500
3025,-19.531250
3026,-19.531250
3027,-19.531250
3028,-19.531250
3029,-19.531250
3030,-19.531250
3031,-19.531250
3032,-19.531250
3033,-15.625000
3034,-15.625000
3035,-15.625000
3036,-15.625000
3037,-15.625000
3038,-15.625000
3039,-15.625000
3040,-15.625000
3041,-11.718750
3042,-15.625000
3043,-11.718750
3044,-11.718750
3045,-11.718750
3046,-11.718750
3047,-11.718750
3048,-7.812500
3049,-7.812500
3050,-7.812500
3051,-7.812500
3052,-7.812500
3053,-7.812500
3054,-7.812500
3055,-3.906250
3056,-3.906250
3057,-3.906250
3058,-3.906250
3059,-3.906250
3060,-3.906250
3061,-3.906250
3062,-3.906250
3063,0.000000
3064,0.000000
3065,0.000000
3066,0.000000
3067,0.000000
3068,0.000000
3069,3.906250
3070,3.906250
3071,3.906250
3072,3.906250
3073,3.906250
3074,3.906250
3075,3.906250
3076,3.906250
3077,3.906250
3078,7.812500
3079,7.812500
3080,7.812500
3081,7.812500
3082,7.812500
3083,7.812500
3084,7.812500
3085,11.718750
3086,7.812500
3087,11.718750
3088,11.718750
3089,11.718750
3090,11.718750
3091,11.718750
3092,11.718750
3093,15.625000
3094,15.625000
3095,15.625000
3096,15.625000
3097,15.625000
3098,15.625000
3099,15.625000
3100,15.625000
3101,15.625000
3102,15.625000
3103,19.531250
3104,19.531250
3105,19.531250
3106,19.531250
3107,19.531250
3108,19.531250
3109,23.437500
3110,23.437500
3111,23.437500
3112,23.437500
3113,23.437500
3114,23.437500
3115,23.437500
3116,23.437500
3117,23.437500
3118,23.437500
3119,27.343750
3120,27.343750
3121,27.343750
3122,27.343750
3123,27.343750
3124,27.343750
3125,27.343750
3126,27.343750
3127,27.343750
3128,31.250000
3129,31.250000
3130,31.250000
3131,31.250000
3132,31.250000
3133,31.250000
3134,31.250000
3135,31.250000
3136,31.250000
3137,35.156250
3138,35.156250
3139,35.156250
3140,35.156250
3141,35.156250
3142,35.156250
3143,35.156250
3144,35.156250
3145,35.156250
3146,35.156250
3147,35.156250
3148,35.156250
3149,39.062500
3150,39.062500
3151,39.062500
3152,39.062500
3153,39.062500
3154,39.062500
3155,39.062500
3156,42.968750
3157,42.968750
3158,42.968750
3159,42.968750
3160,42.968750
3161,42.968750
3162,42.968750
3163,42.968750
3164,42.968750
3165,42.968750
3166,42.968750
3167,42.968750
3168,46.875000
3169,46.875000
3170,46.875000
3171,46.875000
3172,46.875000
3173,46.875000
3174,46.875000
3175,46.875000
3176,46.875000
3177,46.875000
3178,46.875000
3179,50.781250
3180,46.875000
3181,50.781250
3182,50.781250
3183,50.781250
3184,50.781250
3185,50.781250
3186,50.781250
3187,50.781250
3188,50.781250
3189,50.781250
3190,50.781250
3191,50.781250
3192,50.781250
3193,50.781250
3194,50.781250
3195,54.687500
3196,54.687500
3197,54.687500
3198,54.687500
3199,54.687500
3200,54.687500
3201,54.687500
3202,54.687500
3203,54.687500
3204,54.687500
3205,54.687500
3206,54.687500
3207,54.687500
3208,54.687500
3209,54.687500
3210,58.593750
3211,58.593750
3212,58.593750
3213,58.593750
3214,58.593750
3215,58.593750
3216,58.593750
3217,58.593750
3218,58.593750
3219,58.593750
3220,58.593750
3221,58.593750
3222,58.593750
3223,58.593750
3224,58.593750
3225,58.593750
3226,58.593750
3227,58.593750
3228,62.500000
3229,62.500000
3230,62.500000
3231,62.500000
3232,62.500000
3233,62.500000
3234,62.500000
3235,62.500000
3236,62.500000
3237,62.500000
3238,62.500000
3239,62.500000
3240,62.500000
3241,62.500000
3242,62.500000
3243,62.500000
3244,62.500000
3245,62.500000
3246,62.500000
3247,62.500000
3248,62.500000
3249,62.500000
3250,62.500000
3251,62.500000
3252,62.500000
3253,62.500000
3254,62.500000
3255,66.406250
3256,62.500000
3257,66.406250
3258,66.406250
3259,66.406250
3260,66.406250
3261,66.406250
3262,66.406250
3263,66.406250
3264,66.406250
3265,66.406250
3266,66.406250
3267,66.406250
3268,66.406250
3269,66.406250
3270,66.406250
3271,66.406250
3272,66.406250
3273,66.406250
3274,66.406250
3275,66.406250
3276,66.406250
3277,66.406250
3278,66.406250
3279,66.406250
3280,66.406250
3281,66.406250
3282,66.406250
3283,66.406250
3284,66.406250
3285,66.406250
3286,66.406250
3287,66.406250
3288,66.406250
3289,66.406250
3290,66.406250
3291,66.406250
3292,66.406250
3293,66.406250
3294,66.406250
3295,66.406250
3296,66.406250
3297,66.406250
3298,66.406250
3299,66.406250
3300,66.406250
3301,66.406250
3302,66.406250
3303,66.406250
3304,66.406250
3305,66.406250
3306,66.406250
3307,66.406250
3308,66.406250
3309,66.406250
3310,66.406250
3311,66.406250
3312,66.406250
3313,66.406250
3314,66.406250
3315,66.406250
3316,66.406250
3317,66.406250
3318,66.406250
3319,66.406250
3320,66.406250
3321,66.406250
3322,66.406250
3323,66.406250
3324,66.406250
3325,66.406250
3326,66.406250
3327,66.406250
3328,66.406250
3329,66.406250
3330,66.406250
3331,62.500000
3332,66.406250
3333,62.500000
3334,62.500000
3335,62.500000
3336,62.500000
3337,62.500000
3338,62.500000
3339,62.500000
3340,62.500000
3341,62.500000
3342,62.500000
3343,62.500000
3344,62.500000
3345,62.500000
3346,62.500000
3347,62.500000
3348,62.500000
3349,62.500000
3350,62.500000
3351,62.500000
3352,62.500000
3353,62.500000
3354,62.500000
3355,62.500000
3356,58.593750
3357,62.500000
3358,58.593750
3359,58.593750
3360,58.593750
3361,58.593750
3362,58.593750
3363,58.593750
3364,58.593750
3365,58.593750
3366,58.593750
3367,58.593750
3368,58.593750
3369,58.593750
3370,58.593750
3371,58.593750
3372,58.593750
3373,58.593750
3374,54.687500
3375,54.687500
3376,54.687500
3377,54.687500
3378,54.687500
3379,54.687500
3380,54.687500
3381,54.687500
3382,54.687500
3383,54.687500
3384,54.687500
3385,54.687500
3386,54.687500
3387,54.687500
3388,54.687500
3389,54.687500
3390,54.687500
3391,54.687500
3392,54.687500
3393,50.781250
3394,50.781250
3395,50.781250
3396,50.781250
3397,50.781250
3398,50.781250
3399,50.781250
3400,50.781250
3401,50.781250
3402,50.781250
3403,50.781250
3404,50.781250
3405,46.875000
3406,46.875000
3407,46.875000
3408,46.875000
3409,46.875000
3410,46.875000
3411,46.875000
3412,46.875000
3413,46.875000
3414,46.875000
3415,46.875000
3416,46.875000
3417,46.875000
3418,42.968750
3419,42.968750
3420,42.968750
3421,42.968750
3422,42.968750
3423,42.968750
3424,42.968750
3425,42.968750
3426,42.968750
3427,42.968750
3428,42.968750
3429,39.062500
3430,39.062500
3431,39.062500
3432,39.062500
3433,39.062500
3434,39.062500
3435,39.062500
3436,39.062500
3437,39.062500
3438,35.156250
3439,35.156250
3440,35.156250
3441,35.156250
3442,35.156250
3443,35.156250
3444,35.156250
3445,35.156250
3446,35.156250
3447,35.156250
3448,35.156250
3449,35.156250
3450,31.250000
3451,31.250000
3452,31.250000
3453,31.250000
3454,31.250000
3455,31.250000
3456,31.250000
3457,31.250000
3458,31.250000
3459,27.343750
3460,27.343750
3461,27.343750
3462,27.343750
3463,27.343750
3464,27.343750
3465,27.343750
3466,23.437500
3467,27.343750
3468,23.437500
3469,23.437500
3470,23.437500
3471,23.437500
3472,23.437500
3473,23.437500
3474,23.437500
3475,23.437500
3476,23.437500
3477,19.531250
3478,19.531250
3479,19.531250
3480,19.531250
3481,19.531250
3482,15.625000
3483,15.625000
3484,15.625000
3485,19.531250
3486,15.625000
3487,15.625000
3488,15.625000
3489,15.625000
3490,15.625000
3491,15.625000
3492,15.625000
3493,15.625000
3494,15.625000
3495,11.718750
3496,11.718750
3497,11.718750
3498,11.718750
3499,7.812500
3500,11.718750
3501,7.812500
3502,7.812500
3503,7.812500
3504,7.812500
3505,7.812500
3506,7.812500
3507,7.812500
3508,3.906250
3509,7.812500
3510,3.906250
3511,3.906250
3512,3.906250
3513,3.906250
3514,3.906250
3515,0.000000
3516,0.000000
3517,0.000000
3518,0.000000
3519,0.000000
3520,0.000000
3521,0.000000
3522,0.000000
3523,0.000000
3524,-3.906250
3525,-3.906250
3526,-3.906250
3527,-3.906250
3528,-3.906250
3529,-3.906250
3530,-3.906250
3531,-3.906250
3532,-7.812500
3533,-7.812500
3534,-7.812500
3535,-7.812500
3536,-7.812500
3537,-7.812500
3538,-11.718750
3539,-11.718750
3540,-11.718750
3541,-11.718750
3542,-11.718750
3543,-11.718750
3544,-11.718750
3545,-11.718750
3546,-11.718750
3547,-11.718750
3548,-15.625000
3549,-15.625000
3550,-15.625000
3551,-15.625000
3552,-15.625000
3553,-15.625000
3554,-19.531250
3555,-19.531250
3556,-19.531250
3557,-19.531250
3558,-19.531250
3559,-19.531250
3560,-19.531250
3561,-19.531250
3562,-23.437500
3563,-23.437500
3564,-23.437500
3565,-23.437500
3566,-23.437500
3567,-23.437500
3568,-27.343750
3569,-27.343750
3570,-27.343750
3571,-27.343750
3572,-27.343750
3573,-27.343750
3574,-27.343750
3575,-27.343750
3576,-27.343750
3577,-27.343750
3578,-31.250000
3579,-31.250000
3580,-31.250000
3581,-31.250000
3582,-31.250000
3583,-31.250000
3584,-35.156250
3585,-31.250000
3586,-35.156250
3587,-35.156250
3588,-35.156250
3589,-35.156250
3590,-35.156250
3591,-35.156250
3592,-39.062500
3593,-39.062500
3594,-39.062500
3595,-39.062500
3596,-39.062500
3597,-39.062500
3598,-39.062500
3599,-39.062500
3600,-42.968750
3601,-42.968750
3602,-42.968750
3603,-42.968750
3604,-42.968750
3605,-42.968750
3606,-42.968750
3607,-42.968750
3608,-46.875000
3609,-46.875000
3610,-46.875000
3611,-46.875000
3612,-46.875000
3613,-46.875000
3614,-50.781250
3615,-46.875000
3616,-50.781250
3617,-50.781250
3618,-50.781250
3619,-50.781250
3620,-50.781250
3621,-50.781250
3622,-50.781250
3623,-50.781250
3624,-54.687500
3625,-54.687500
3626,-54.687500
3627,-54.687500
3628,-54.687500
3629,-54.687500
3630,-54.687500
3631,-54.687500
3632,-58.593750
3633,-58.593750
3634,-58.593750
3635,-58.593750
3636,-58.593750
3637,-58.593750
3638,-58.593750
3639,-58.593750
3640,-58.593750
3641,-62.500000
3642,-62.500000
3643,-62.500000
3644,-62.500000
3645,-62.500000
3646,-62.500000
3647,-62.500000
3648,-62.500000
3649,-62.500000
3650,-66.406250
3651,-66.406250
3652,-66.406250
3653,-66.406250
3654,-66.406250
3655,-66.406250
3656,-66.406250
3657,-66.406250
3658,-70.312500
3659,-70.312500
3660,-70.312500
3661,-70.312500
3662,-70.312500
3663,-70.312500
3664,-70.312500
3665,-70.312500
3666,-70.312500
3667,-70.312500
3668,-70.312500
3669,-74.218750
3670,-74.218750
3671,-74.218750
3672,-74.218750
3673,-74.218750
3674,-74.218750
3675,-74.218750
3676,-74.218750
3677,-74.218750
3678,-78.125000
3679,-78.125000
3680,-78.125000
3681,-78.125000
3682,-78.125000
3683,-78.125000
3684,-78.125000
3685,-78.125000
3686,-78.125000
3687,-78.125000
3688,-78.125000
3689,-82.031250
3690,-78.125000
3691,-78.125000
3692,-82.031250
3693,-82.031250
3694,-82.031250
3695,-82.031250
3696,-82.031250
3697,-82.031250
3698,-82.031250
3699,-82.031250
3700,-82.031250
3701,-82.031250
3702,-82.031250
3703,-82.031250
3704,-85.937500
3705,-85.937500
3706,-85.937500
3707,-85.937500
3708,-85.937500
3709,-85.937500
3710,-85.937500
3711,-85.937500
3712,-85.937500
3713,-85.937500
3714,-85.937500
3715,-85.937500
3716,-85.937500
3717,-85.937500
3718,-89.843750
3719,-89.843750
3720,-89.843750
3721,-89.843750
3722,-89.843750
3723,-89.843750
3724,-89.843750
3725,-89.843750
3726,-89.843750
3727,-89.843750
3728,-89.843750
3729,-89.843750
3730,-89.843750
3731,-89.843750
3732,-89.843750
3733,-89.843750
3734,-89.843750
3735,-93.750000
3736,-89.843750
3737,-93.750000
3738,-93.750000
3739,-93.750000
3740,-93.750000
3741,-93.750000
3742,-93.750000
3743,-93.750000
3744,-93.750000
3745,-93.750000
3746,-93.750000
3747,-93.750000
3748,-93.750000
3749,-93.750000
3750,-93.750000
3751,-93.750000
3752,-93.750000
3753,-93.750000
3754,-93.750000
3755,-93.750000
3756,-93.750000
3757,-93.750000
3758,-93.750000
3759,-97.656250
3760,-93.750000
3761,-97.656250
3762,-93.750000
3763,-93.750000
3764,-97.656250
3765,-97.656250
3766,-97.656250
3767,-97.656250
3768,-97.656250
3769,-97.656250
3770,-97.656250
3771,-97.656250
3772,-97.656250
3773,-97.656250
3774,-97.656250
3775,-97.656250
3776,-97.656250
3777,-97.656250
3778,-97.656250
3779,-97.656250
3780,-97.656250
3781,-97.656250
3782,-97.656250
3783,-97.656250
3784,-97.656250
3785,-97.656250
3786,-97.656250
3787,-97.656250
3788,-97.656250
3789,-97.656250
3790,-97.656250
3791,-97.656250
3792,-97.656250
3793,-97.656250
3794,-97.656250
3795,-97.656250
3796,-97.656250
3797,-97.656250
3798,-97.656250
3799,-97.656250
3800,-97.656250
3801,-97.656250
3802,-97.656250
3803,-97.656250
3804,-97.656250
3805,-97.656250
3806,-97.656250
3807,-97.656250
3808,-97.656250
3809,-97.656250
3810,-97.656250
3811,-97.656250
3812,-97.656250
3813,-93.750000
3814,-93.750000
3815,-97.656250
3816,-93.750000
3817,-97.656250
3818,-97.656250
3819,-97.656250
3820,-97.656250
3821,-97.656250
3822,-93.750000
3823,-93.750000
3824,-93.750000
3825,-93.750000
3826,-93.750000
3827,-93.750000
3828,-93.750000
3829,-93.750000
3830,-93.750000
3831,-93.750000
3832,-93.750000
3833,-93.750000
3834,-93.750000
3835,-93.750000
3836,-93.750000
3837,-93.750000
3838,-93.750000
3839,-93.750000
3840,-93.750000
3841,-93.750000
3842,-93.750000
3843,-89.843750
3844,-89.843750
3845,-93.750000
3846,-89.843750
3847,-89.843750
3848,-89.843750
3849,-89.843750
3850,-89.843750
3851,-89.843750
3852,-89.843750
3853,-89.843750
3854,-89.843750
3855,-89.843750
3856,-89.843750
3857,-89.843750
3858,-89.843750
3859,-89.843750
3860,-89.843750
3861,-89.843750
3862,-89.843750
3863,-89.843750
3864,-85.937500
3865,-85.937500
3866,-85.937500
3867,-85.937500
3868,-85.937500
3869,-85.937500
3870,-85.937500
3871,-85.937500
3872,-85.937500
3873,-85.937500
3874,-85.937500
3875,-82.031250
3876,-82.031250
3877,-82.031250
3878,-82.031250
3879,-82.031250
3880,-82.031250
3881,-82.031250
3882,-82.031250
3883,-82.031250
3884,-82.031250
3885,-82.031250
3886,-82.031250
3887,-78.125000
3888,-82.031250
3889,-78.125000
3890,-78.125000
3891,-78.125000
3892,-78.125000
3893,-78.125000
3894,-78.125000
3895,-78.125000
3896,-78.125000
3897,-78.125000
3898,-78.125000
3899,-78.125000
3900,-78.125000
3901,-74.218750
3902,-74.218750
3903,-74.218750
3904,-74.218750
3905,-74.218750
3906,-74.218750
3907,-74.218750
3908,-74.218750
3909,-74.218750
3910,-70.312500
3911,-74.218750
3912,-70.312500
3913,-70.312500
3914,-70.312500
3915,-70.312500
3916,-70.312500
3917,-70.312500
3918,-70.312500
3919,-66.406250
3920,-70.312500
3921,-66.406250
3922,-66.406250
3923,-66.406250
3924,-66.406250
3925,-66.406250
3926,-66.406250
3927,-66.406250
3928,-66.406250
3929,-66.406250
3930,-62.500000
3931,-62.500000
3932,-62.500000
3933,-62.500000
3934,-62.500000
3935,-62.500000
3936,-62.500000
3937,-62.500000
3938,-62.500000
3939,-62.500000
3940,-58.593750
3941,-58.593750
3942,-58.593750
3943,-58.593750
3944,-58.593750
3945,-58.593750
3946,-58.593750
3947,-54.687500
3948,-54.687500
3949,-58.593750
3950,-54.687500
3951,-54.687500
3952,-54.687500
3953,-54.687500
3954,-50.781250
3955,-50.781250
3956,-50.781250
3957,-50.781250
3958,-50.781250
3959,-50.781250
3960,-50.781250
3961,-50.781250
3962,-50.781250
3963,-46.875000
3964,-46.875000
3965,-46.875000
3966,-46.875000
3967,-46.875000
3968,-46.875000
3969,-42.968750
3970,-46.875000
3971,-42.968750
3972,-42.968750
3973,-42.968750
3974,-42.968750
3975,-42.968750
3976,-42.968750
3977,-39.062500
3978,-39.062500
3979,-39.062500
3980,-39.062500
3981,-39.062500
3982,-39.062500
3983,-39.062500
3984,-39.062500
3985,-39.062500
3986,-39.062500
3987,-35.156250
3988,-35.156250
3989,-35.156250
3990,-35.156250
3991,-35.156250
3992,-35.156250
3993,-35.156250
3994,-31.250000
3995,-31.250000
3996,-31.250000
3997,-31.250000
3998,-31.250000
3999,-31.250000
4000,-31.250000
4001,-27.343750
4002,-27.343750
4003,-27.343750
4004,-27.343750
4005,-27.343750
4006,-27.343750
4007,-27.343750
4008,-27.343750
4009,-23.437500
4010,-23.437500
4011,-23.437500
4012,-23.437500
4013,-23.437500
4014,-23.437500
4015,-23.437500
4016,-23.437500
4017,-19.531250
4018,-19.531250
4019,-19.531250
4020,-19.531250
4021,-19.531250
4022,-19.531250
4023,-19.531250
4024,-15.625000
4025,-15.625000
4026,-15.625000
4027,-15.625000
4028,-15.625000
4029,-15.625000
4030,-11.718750
4031,-11.718750
4032,-11.718750
4033,-11.718750
4034,-7.812500
4035,-11.718750
4036,-11.718750
4037,-7.812500
4038,-7.812500
4039,-7.812500
4040,-7.812500
4041,-7.812500
4042,-7.812500
4043,-7.812500
4044,-7.812500
4045,-7.812500
4046,-7.812500
4047,-3.906250
4048,-3.906250
4049,-3.906250
4050,-3.906250
4051,-3.906250
4052,-3.906250
4053,0.000000
4054,0.000000
4055,0.000000
4056,0.000000
4057,0.000000
4058,0.000000
4059,0.000000
4060,0.000000
4061,3.906250
4062,3.906250
4063,3.906250
4064,3.906250
4065,3.906250
4066,3.906250
4067,3.906250
4068,3.906250
4069,7.812500
4070,7.812500
4071,7.812500
4072,7.812500
4073,7.812500
4074,7.812500
4075,11.718750
4076,11.718750
4077,11.718750
4078,11.718750
4079,11.718750
4080,11.718750
4081,11.718750
4082,11.718750
4083,15.625000
4084,15.625000
4085,15.625000
4086,15.625000
4087,15.625000
4088,15.625000
4089,15.625000
4090,15.625000
4091,15.625000
4092,19.531250
4093,19.531250
4094,19.531250
4095,19.531250
4096,19.531250
4097,19.531250
4098,19.531250
4099,19.531250
4100,23.437500
4101,23.437500
4102,23.437500
4103,23.437500
4104,23.437500
4105,23.437500
4106,23.437500
4107,23.437500
4108,23.437500
4109,27.343750
4110,27.343750
4111,27.343750
4112,27.343750
4113,27.343750
4114,27.343750
4115,27.343750
4116,27.343750
4117,27.343750
4118,31.250000
4119,31.250000
4120,31.250000
4121,31.250000
4122,31.250000
4123,31.250000
4124,31.250000
4125,31.250000
4126,31.250000
4127,35.156250
4128,35.156250
4129,35.156250
4130,35.156250
4131,35.156250
4132,35.156250
4133,35.156250
4134,35.156250
4135,39.062500
4136,35.156250
4137,39.062500
4138,39.062500
4139,39.062500
4140,39.062500
4141,39.062500
4142,39.062500
4143,39.062500
4144,39.062500
4145,39.062500
4146,39.062500
4147,42.968750
4148,42.968750
4149,42.968750
4150,42.968750
4151,42.968750
4152,42.968750
4153,42.968750
4154,42.968750
4155,42.968750
4156,42.968750
4157,46.875000
4158,46.875000
4159,46.875000
4160,46.875000
4161,46.875000
4162,46.875000
4163,46.875000
4164,46.875000
4165,46.875000
4166,46.875000
4167,46.875000
4168,46.875000
4169,46.875000
4170,46.875000
4171,50.781250
4172,50.781250
4173,50.781250
4174,50.781250
4175,50.781250
4176,50.781250
4177,50.781250
4178,50.781250
4179,50.781250
4180,50.781250
4181,50.781250
4182,54.687500
4183,54.687500
4184,54.687500
4185,54.687500
4186,54.687500
4187,54.687500
4188,54.687500
4189,54.687500
4190,54.687500
4191,54.687500
4192,54.687500
4193,54.687500
4194,54.687500
4195,54.687500
4196,54.687500
4197,58.593750
4198,54.687500
4199,58.593750
4200,58.593750
4201,58.593750
4202,58.593750
4203,58.593750
4204,58.593750
4205,58.593750
4206,58.593750
4207,58.593750
4208,58.593750
4209,58.593750
4210,58.593750
4211,58.593750
4212,58.593750
4213,58.593750
4214,58.593750
4215,58.593750
4216,58.593750
4217,62.500000
4218,62.500000
4219,62.500000
4220,62.500000
4221,62.500000
4222,62.500000
4223,62.500000
4224,62.500000
4225,62.500000
4226,62.500000
4227,62.500000
4228,62.500000
4229,62.500000
4230,62.500000
4231,62.500000
4232,62.500000
4233,62.500000
4234,62.500000
4235,62.500000
4236,62.500000
4237,62.500000
4238,62.500000
4239,62.500000
4240,62.500000
4241,62.500000
4242,62.500000
4243,66.406250
4244,66.406250
4245,62.500000
4246,62.500000
4247,66.406250
4248,66.406250
4249,66.406250
4250,66.406250
4251,66.406250
4252,66.406250
4253,66.406250
4254,66.406250
4255,66.406250
4256,66.406250
4257,66.406250
4258,66.406250
4259,66.406250
4260,66.406250
4261,66.406250
4262,66.406250
4263,66.406250
4264,66.406250
4265,66.406250
4266,66.406250
4267,66.406250
4268,66.406250
4269,66.406250
4270,66.406250
4271,66.406250
4272,66.406250
4273,66.406250
4274,66.406250
4275,66.406250
4276,66.406250
4277,66.406250
4278,66.406250
4279,66.406250
4280,66.406250
4281,66.406250
4282,66.406250
4283,66.406250
4284,66.406250
4285,66.406250
4286,66.406250
4287,66.406250
4288,66.406250
4289,66.406250
4290,66.406250
4291,66.406250
4292,66.406250
4293,66.406250
4294,66.406250
4295,66.406250
4296,66.406250
4297,66.406250
4298,66.406250
4299,66.406250
4300,66.406250
4301,66.406250
4302,66.406250
4303,66.406250
4304,66.406250
4305,66.406250
4306,66.406250
4307,66.406250
4308,66.406250
4309,66.406250
4310,66.406250
4311,66.406250
4312,66.406250
4313,66.406250
4314,66.406250
4315,66.406250
4316,66.406250
4317,66.406250
4318,66.406250
4319,62.500000
4320,66.406250
4321,62.500000
4322,62.500000
4323,62.500000
4324,62.500000
4325,62.500000
4326,62.500000
4327,62.500000
4328,62.500000
4329,62.500000
4330,62.500000
4331,62.500000
4332,62.500000
4333,62.500000
4334,62.500000
4335,62.500000
4336,62.500000
4337,62.500000
4338,62.500000
4339,62.500000
4340,62.500000
4341,62.500000
4342,62.500000
4343,62.500000
4344,54.687500
4345,62.500000
4346,62.500000
4347,58.593750
4348,62.500000
4349,62.500000
4350,58.593750
4351,58.593750
4352,58.593750
4353,58.593750
4354,58.593750
4355,58.593750
4356,58.593750
4357,58.593750
4358,58.593750
4359,58.593750
4360,58.593750
4361,58.593750
4362,58.593750
4363,58.593750
4364,58.593750
4365,58.593750
4366,58.593750
4367,54.687500
4368,54.687500
4369,54.687500
4370,54.687500
4371,54.687500
4372,54.687500
4373,54.687500
4374,54.687500
4375,54.687500
4376,54.687500
4377,54.687500
4378,54.687500
4379,54.687500
4380,54.687500
4381,50.781250
4382,50.781250
4383,50.781250
4384,50.781250
4385,50.781250
4386,50.781250
4387,50.781250
4388,50.781250
4389,50.781250
4390,50.781250
4391,50.781250
4392,50.781250
4393,50.781250
4394,50.781250
4395,46.875000
4396,46.875000
4397,46.875000
4398,46.875000
4399,46.875000
4400,46.875000
4401,46.875000
4402,46.875000
4403,42.968750
4404,42.968750
4405,46.875000
4406,46.875000
4407,42.968750
4408,42.968750
4409,42.968750
4410,42.968750
4411,42.968750
4412,42.968750
4413,42.968750
4414,42.968750
4415,42.968750
4416,42.968750
4417,42.968750
4418,42.968750
4419,39.062500
4420,39.062500
4421,39.062500
4422,39.062500
4423,39.062500
4424,39.062500
4425,39.062500
4426,39.062500
4427,39.062500
4428,39.062500
4429,39.062500
4430,35.156250
4431,35.156250
4432,35.156250
4433,35.156250
4434,35.156250
4435,35.156250
4436,35.156250
4437,35.156250
4438,35.156250
4439,31.250000
4440,31.250000
4441,31.250000
4442,31.250000
4443,31.250000
4444,31.250000
4445,27.343750
4446,27.343750
4447,27.343750
4448,27.343750
4449,27.343750
4450,27.343750
4451,27.343750
4452,27.343750
4453,27.343750
4454,27.343750
4455,27.343750
4456,23.437500
4457,23.437500
4458,23.437500
4459,23.437500
4460,23.437500
4461,23.437500
4462,23.437500
4463,23.437500
4464,19.531250
4465,23.437500
4466,23.437500
4467,19.531250
4468,19.531250
4469,19.531250
4470,19.531250
4471,19.531250
4472,15.625000
4473,15.625000
4474,15.625000
4475,15.625000
4476,15.625000
4477,15.625000
4478,15.625000
4479,15.625000
4480,15.625000
4481,15.625000
4482,11.718750
4483,11.718750
4484,11.718750
4485,11.718750
4486,11.718750
4487,11.718750
4488,11.718750
4489,11.718750
4490,11.718750
4491,7.812500
4492,7.812500
4493,7.812500
4494,7.812500
4495,7.812500
4496,7.812500
4497,7.812500
4498,3.906250
4499,7.812500
4500,3.906250
4501,3.906250
4502,3.906250
4503,3.906250
4504,3.906250
4505,0.000000
4506,0.000000
4507,0.000000
4508,0.000000
4509,0.000000
4510,0.000000
4511,0.000000
4512,0.000000
4513,0.000000
4514,-3.906250
4515,-3.906250
4516,-3.906250
4517,-3.906250
4518,-3.906250
4519,-3.906250
4520,-3.906250
4521,-7.812500
4522,-7.812500
4523,-7.812500
4524,-7.812500
4525,-7.812500
4526,-7.812500
4527,-7.812500
4528,-7.812500
4529,-11.718750
4530,-11.718750
4531,-11.718750
4532,-11.718750
4533,-11.718750
4534,-11.718750
4535,-11.718750
4536,-11.718750
4537,-15.625000
4538,-15.625000
4539,-15.625000
4540,-15.625000
4541,-15.625000
4542,-19.531250
4543,-15.625000
4544,-19.531250
4545,-19.531250
4546,-19.531250
4547,-19.531250
4548,-19.531250
4549,-19.531250
4550,-23.437500
4551,-23.437500
4552,-23.437500
4553,-23.437500
4554,-23.437500
4555,-23.437500
4556,-23.437500
4557,-23.437500
4558,-27.343750
4559,-27.343750
4560,-27.343750
4561,-27.343750
4562,-27.343750
4563,-27.343750
4564,-27.343750
4565,-27.343750
4566,-27.343750
4567,-31.250000
4568,-31.250000
4569,-31.250000
4570,-31.250000
4571,-31.250000
4572,-31.250000
4573,-35.156250
4574,-31.250000
4575,-35.156250
4576,-35.156250
4577,-35.156250
4578,-35.156250
4579,-35.156250
4580,-35.156250
4581,-39.062500
4582,-39.062500
4583,-39.062500
4584,-39.062500
4585,-39.062500
4586,-39.062500
4587,-39.062500
4588,-39.062500
4589,-42.968750
4590,-42.968750
4591,-42.968750
4592,-42.968750
4593,-42.968750
4594,-42.968750
4595,-42.968750
4596,-42.968750
4597,-42.968750
4598,-46.875000
4599,-46.875000
4600,-46.875000
4601,-46.875000
4602,-46.875000
4603,-46.875000
4604,-46.875000
4605,-46.875000
4606,-46.875000
4607,-50.781250
4608,-50.781250
4609,-50.781250
4610,-50.781250
4611,-50.781250
4612,-50.781250
4613,-50.781250
4614,-50.781250
4615,-54.687500
4616,-54.687500
4617,-54.687500
4618,-54.687500
4619,-54.687500
4620,-54.687500
4621,-54.687500
4622,-54.687500
4623,-58.593750
4624,-58.593750
4625,-58.593750
4626,-58.593750
4627,-58.593750
4628,-58.593750
4629,-58.593750
4630,-58.593750
4631,-58.593750
4632,-58.593750
4633,-62.500000
4634,-62.500000
4635,-62.500000
4636,-62.500000
4637,-62.500000
4638,-62.500000
4639,-62.500000
4640,-62.500000
4641,-66.406250
4642,-66.406250
4643,-66.406250
4644,-66.406250
4645,-66.406250
4646,-66.406250
4647,-66.406250
4648,-70.312500
4649,-70.312500
4650,-70.312500
4651,-70.312500
4652,-70.312500
4653,-70.312500
4654,-70.312500
4655,-70.312500
4656,-70.312500
4657,-70.312500
4658,-74.218750
4659,-74.218750
4660,-70.312500
4661,-74.218750
4662,-74.218750
4663,-74.218750
4664,-74.218750
4665,-74.218750
4666,-74.218750
4667,-74.218750
4668,-74.218750
4669,-78.125000
4670,-74.218750
4671,-78.125000
4672,-78.125000
4673,-78.125000
4674,-78.125000
4675,-78.125000
4676,-78.125000
4677,-78.125000
4678,-78.125000
4679,-78.125000
4680,-78.125000
4681,-78.125000
4682,-82.031250
4683,-82.031250
4684,-82.031250
4685,-82.031250
4686,-82.031250
4687,-82.031250
4688,-82.031250
4689,-82.031250
4690,-82.031250
4691,-82.031250
4692,-85.937500
4693,-85.937500
4694,-85.937500
4695,-85.937500
4696,-85.937500
4697,-85.937500
4698,-85.937500
4699,-85.937500
4700,-85.937500
4701,-85.937500
4702,-85.937500
4703,-85.937500
4704,-85.937500
4705,-85.937500
4706,-85.937500
4707,-85.937500
4708,-85.937500
4709,-85.937500
4710,-85.937500
4711,-89.843750
4712,-89.843750
4713,-89.843750
4714,-89.843750
4715,-89.843750
4716,-89.843750
4717,-89.843750
4718,-89.843750
4719,-89.843750
4720,-89.843750
4721,-89.843750
4722,-89.843750
4723,-93.750000
4724,-93.750000
4725,-93.750000
4726,-93.750000
4727,-89.843750
4728,-89.843750
4729,-93.750000
4730,-93.750000
4731,-93.750000
4732,-93.750000
4733,-93.750000
4734,-93.750000
4735,-93.750000
4736,-93.750000
4737,-93.750000
4738,-93.750000
4739,-93.750000
4740,-93.750000
4741,-93.750000
4742,-93.750000
4743,-93.750000
4744,-93.750000
4745,-93.750000
4746,-93.750000
4747,-93.750000
4748,-93.750000
4749,-93.750000
4750,-93.750000
4751,-93.750000
4752,-97.656250
4753,-93.750000
4754,-93.750000
4755,-93.750000
4756,-93.750000
4757,-93.750000
4758,-93.750000
4759,-97.656250
4760,-97.656250
4761,-97.656250
4762,-93.750000
4763,-93.750000
4764,-97.656250
4765,-97.656250
4766,-97.656250
4767,-97.656250
4768,-97.656250
4769,-97.656250
4770,-97.656250
4771,-97.656250
4772,-97.656250
4773,-97.656250
4774,-97.656250
4775,-97.656250
4776,-97.656250
4777,-97.656250
4778,-97.656250
4779,-97.656250
4780,-97.656250
4781,-97.656250
4782,-97.656250
4783,-97.656250
4784,-97.656250
4785,-97.656250
4786,-97.656250
4787,-97.656250
4788,-97.656250
4789,-97.656250
4790,-97.656250
4791,-97.656250
4792,-97.656250
4793,-93.750000
4794,-97.656250
4795,-97.656250
4796,-97.656250
4797,-97.656250
4798,-97.656250
4799,-97.656250
4800,-97.656250
4801,-97.656250
4802,-97.656250
4803,-97.656250
4804,-93.750000
4805,-93.750000
4806,-93.750000
4807,-93.750000
4808,-97.656250
4809,-93.750000
4810,-93.750000
4811,-93.750000
4812,-93.750000
4813,-97.656250
4814,-93.750000
4815,-93.750000
4816,-93.750000
4817,-93.750000
4818,-93.750000
4819,-93.750000
4820,-93.750000
4821,-93.750000
4822,-93.750000
4823,-93.750000
4824,-93.750000
4825,-93.750000
4826,-93.750000
4827,-93.750000
4828,-93.750000
4829,-93.750000
4830,-89.843750
4831,-93.750000
4832,-93.750000
4833,-93.750000
4834,-93.750000
4835,-93.750000
4836,-89.843750
4837,-89.843750
4838,-89.843750
4839,-89.843750
4840,-89.843750
4841,-89.843750
4842,-89.843750
4843,-89.843750
4844,-89.843750
4845,-89.843750
4846,-89.843750
4847,-89.843750
4848,-89.843750
4849,-89.843750
4850,-85.937500
4851,-85.937500
4852,-89.843750
4853,-85.937500
4854,-85.937500
4855,-85.937500
4856,-85.937500
4857,-85.937500
4858,-85.937500
4859,-85.937500
4860,-85.937500
4861,-85.937500
4862,-85.937500
4863,-85.937500
4864,-85.937500
4865,-85.937500
4866,-82.031250
4867,-82.031250
4868,-82.031250
4869,-82.031250
4870,-82.031250
4871,-82.031250
4872,-82.031250
4873,-82.031250
4874,-82.031250
4875,-82.031250
4876,-82.031250
4877,-82.031250
4878,-82.031250
4879,-78.125000
4880,-78.125000
4881,-78.125000
4882,-78.125000
4883,-78.125000
4884,-78.125000
4885,-78.125000
4886,-78.125000
4887,-78.125000
4888,-78.125000
4889,-78.125000
4890,-78.125000
4891,-74.218750
4892,-74.218750
4893,-74.218750
4894,-74.218750
4895,-74.218750
4896,-74.218750
4897,-74.218750
4898,-74.218750
4899,-74.218750
4900,-70.312500
4901,-70.312500
4902,-70.312500
4903,-70.312500
4904,-70.312500
4905,-70.312500
4906,-70.312500
4907,-70.312500
4908,-70.312500
4909,-66.406250
4910,-66.406250
4911,-66.406250
4912,-66.406250
4913,-66.406250
4914,-66.406250
4915,-66.406250
4916,-66.406250
4917,-66.406250
4918,-66.406250
4919,-62.500000
4920,-62.500000
4921,-62.500000
4922,-62.500000
4923,-62.500000
4924,-62.500000
4925,-62.500000
4926,-62.500000
4927,-62.500000
4928,-62.500000
4929,-58.593750
4930,-58.593750
4931,-58.593750
4932,-58.593750
4933,-58.593750
4934,-58.593750
4935,-58.593750
4936,-58.593750
4937,-54.687500
4938,-54.687500
4939,-54.687500
4940,-54.687500
4941,-54.687500
4942,-54.687500
4943,-54.687500
4944,-54.687500
4945,-54.687500
4946,-50.781250
4947,-50.781250
4948,-50.781250
4949,-50.781250
4950,-50.781250
4951,-50.781250
4952,-50.781250
4953,-46.875000
4954,-46.875000
4955,-46.875000
4956,-46.875000
4957,-46.875000
4958,-46.875000
4959,-46.875000
4960,-42.968750
4961,-42.968750
4962,-42.968750
4963,-42.968750
4964,-42.968750
4965,-42.968750
4966,-42.968750
4967,-42.968750
4968,-42.968750
4969,-39.062500
4970,-39.062500
4971,-39.062500
4972,-39.062500
4973,-39.062500
4974,-39.062500
4975,-39.062500
4976,-39.062500
4977,-35.156250
4978,-35.156250
4979,-35.156250
4980,-35.156250
4981,-35.156250
4982,-35.156250
4983,-31.250000
4984,-31.250000
4985,-31.250000
4986,-31.250000
4987,-31.250000
4988,-31.250000
4989,-31.250000
4990,-31.250000
4991,-27.343750
4992,-27.343750
4993,-27.343750
4994,-27.343750
4995,-27.343750
4996,-27.343750
4997,-27.343750
4998,-27.343750
4999,-23.437500
5000,-23.437500
5001,-23.437500
5002,-23.437500
5003,-23.437500
5004,-23.437500
5005,-23.437500
5006,-23.437500
5007,-19.531250
5008,-19.531250
5009,-19.531250
5010,-19.531250
5011,-19.531250
5012,-19.531250
5013,-15.625000
5014,-15.625000
5015,-15.625000
5016,-15.625000
5017,-15.625000
5018,-15.625000
5019,-15.625000
5020,-15.625000
5021,-11.718750
5022,-11.718750
5023,-11.718750
5024,-11.718750
5025,-11.718750
5026,-11.718750
5027,-11.718750
5028,-7.812500
5029,-7.812500
5030,-7.812500
5031,-7.812500
5032,-7.812500
5033,-7.812500
5034,-7.812500
5035,-3.906250
5036,-7.812500
5037,-3.906250
5038,-3.906250
5039,-3.906250
5040,-3.906250
5041,-3.906250
5042,-3.906250
5043,0.000000
5044,0.000000
5045,0.000000
5046,0.000000
5047,0.000000
5048,0.000000
5049,0.000000
5050,3.906250
5051,3.906250
5052,3.906250
5053,3.906250
5054,3.906250
5055,3.906250
5056,3.906250
5057,7.812500
5058,7.812500
5059,7.812500
5060,7.812500
5061,7.812500
5062,7.812500
5063,7.812500
5064,7.812500
5065,7.812500
5066,7.812500
5067,11.718750
5068,11.718750
5069,11.718750
5070,11.718750
5071,11.718750
5072,11.718750
5073,11.718750
5074,11.718750
5075,15.625000
5076,15.625000
5077,15.625000
5078,15.625000
5079,15.625000
5080,15.625000
5081,15.625000
5082,15.625000
5083,19.531250
5084,19.531250
5085,19.531250
5086,19.531250
5087,19.531250
5088,19.531250
5089,19.531250
5090,19.531250
5091,23.437500
5092,23.437500
5093,23.437500
5094,23.437500
5095,23.437500
5096,23.437500
5097,23.437500
5098,27.343750
5099,23.437500
5100,23.437500
5101,27.343750
5102,27.343750
5103,27.343750
5104,27.343750
5105,27.343750
5106,27.343750
5107,27.343750
5108,27.343750
5109,31.250000
5110,31.250000
5111,31.250000
5112,31.250000
5113,31.250000
5114,31.250000
5115,31.250000
5116,31.250000
5117,35.156250
5118,31.250000
5119,31.250000
5120,35.156250
5121,35.156250
5122,35.156250
5123,35.156250
5124,35.156250
5125,35.156250
5126,35.156250
5127,35.156250
5128,39.062500
5129,39.062500
5130,39.062500
5131,39.062500
5132,39.062500
5133,39.062500
5134,39.062500
5135,39.062500
5136,39.062500
5137,42.968750
5138,39.062500
5139,42.968750
5140,42.968750
5141,42.968750
5142,42.968750
5143,42.968750
5144,42.968750
5145,42.968750
5146,42.968750
5147,42.968750
5148,42.968750
5149,46.875000
5150,46.875000
5151,46.875000
5152,42.968750
5153,46.875000
5154,46.875000
5155,46.875000
5156,46.875000
5157,46.875000
5158,46.875000
5159,46.875000
5160,50.781250
5161,46.875000
5162,50.781250
5163,50.781250
5164,50.781250
5165,50.781250
5166,50.781250
5167,50.781250
5168,50.781250
5169,50.781250
5170,50.781250
5171,50.781250
5172,50.781250
5173,54.687500
5174,54.687500
5175,54.687500
5176,54.687500
5177,54.687500
5178,54.687500
5179,54.687500
5180,54.687500
5181,54.687500
5182,54.687500
5183,54.687500
5184,54.687500
5185,54.687500
5186,54.687500
5187,58.593750
5188,58.593750
5189,58.593750
5190,54.687500
5191,58.593750
5192,58.593750
5193,58.593750
5194,58.593750
5195,54.687500
5196,58.593750
5197,58.593750
5198,58.593750
5199,58.593750
5200,58.593750
5201,58.593750
5202,58.593750
5203,58.593750
5204,58.593750
5205,62.500000
5206,62.500000
5207,62.500000
5208,62.500000
5209,58.593750
5210,58.593750
5211,62.500000
5212,62.500000
5213,62.500000
5214,62.500000
5215,62.500000
5216,62.500000
5217,62.500000
5218,62.500000
5219,62.500000
5220,62.500000
5221,62.500000
5222,62.500000
5223,62.500000
5224,62.500000
5225,62.500000
5226,62.500000
5227,62.500000
5228,62.500000
5229,62.500000
5230,62.500000
5231,62.500000
5232,66.406250
5233,66.406250
5234,62.500000
5235,62.500000
5236,62.500000
5237,66.406250
5238,66.406250
5239,66.406250
5240,66.406250
5241,66.406250
5242,66.406250
5243,66.406250
5244,66.406250
5245,66.406250
5246,66.406250
5247,66.406250
5248,66.406250
5249,66.406250
5250,66.406250
5251,66.406250
5252,66.406250
5253,66.406250
5254,66.406250
5255,66.406250
5256,66.406250
5257,66.406250
5258,66.406250
5259,66.406250
5260,66.406250
5261,66.406250
5262,66.406250
5263,66.406250
5264,66.406250
5265,66.406250
5266,66.406250
5267,66.406250
5268,66.406250
5269,66.406250
5270,66.406250
5271,66.406250
5272,66.406250
5273,66.406250
5274,66.406250
5275,66.406250
5276,66.406250
5277,66.406250
5278,66.406250
5279,66.406250
5280,66.406250
5281,66.406250
5282,66.406250
5283,66.406250
5284,66.406250
5285,66.406250
5286,66.406250
5287,66.406250
5288,66.406250
5289,66.406250
5290,66.406250
5291,66.406250
5292,66.406250
5293,66.406250
5294,66.406250
5295,66.406250
5296,66.406250
5297,66.406250
5298,66.406250
5299,66.406250
5300,66.406250
5301,66.406250
5302,66.406250
5303,66.406250
5304,66.406250
5305,66.406250
5306,66.406250
5307,66.406250
5308,66.406250
5309,66.406250
5310,66.406250
5311,66.406250
5312,66.406250
5313,66.406250
5314,66.406250
5315,66.406250
5316,62.500000
5317,62.500000
5318,62.500000
5319,62.500000
5320,62.500000
5321,62.500000
5322,62.500000
5323,62.500000
5324,62.500000
5325,62.500000
5326,62.500000
5327,62.500000
5328,62.500000
5329,62.500000
5330,62.500000
5331,62.500000
5332,62.500000
5333,62.500000
5334,62.500000
5335,62.500000
5336,62.500000
5337,62.500000
5338,58.593750
5339,58.593750
5340,58.593750
5341,58.593750
5342,58.593750
5343,58.593750
5344,58.593750
5345,58.593750
5346,58.593750
5347,58.593750
5348,58.593750
5349,58.593750
5350,58.593750
5351,58.593750
5352,58.593750
5353,58.593750
5354,58.593750
5355,58.593750
5356,54.687500
5357,54.687500
5358,54.687500
5359,54.687500
5360,54.687500
5361,54.687500
5362,54.687500
5363,54.687500
5364,54.687500
5365,54.687500
5366,54.687500
5367,54.687500
5368,50.781250
5369,54.687500
5370,54.687500
5371,50.781250
5372,54.687500
5373,50.781250
5374,50.781250
5375,50.781250
5376,50.781250
5377,50.781250
5378,50.781250
5379,50.781250
5380,50.781250
5381,50.781250
5382,50.781250
5383,50.781250
5384,50.781250
5385,46.875000
5386,46.875000
5387,46.875000
5388,46.875000
5389,46.875000
5390,46.875000
5391,46.875000
5392,46.875000
5393,46.875000
5394,46.875000
5395,46.875000
5396,46.875000
5397,46.875000
5398,46.875000
5399,46.875000
5400,42.968750
5401,42.968750
5402,42.968750
5403,42.968750
5404,42.968750
5405,42.968750
5406,42.968750
5407,42.968750
5408,42.968750
5409,42.968750
5410,39.062500
5411,39.062500
5412,39.062500
5413,39.062500
5414,39.062500
5415,39.062500
5416,39.062500
5417,39.062500
5418,39.062500
5419,39.062500
5420,39.062500
5421,35.156250
5422,35.156250
5423,35.156250
5424,35.156250
5425,35.156250
5426,35.156250
5427,35.156250
5428,35.156250
5429,35.156250
5430,31.250000
5431,31.250000
5432,31.250000
5433,31.250000
5434,31.250000
5435,31.250000
5436,31.250000
5437,31.250000
5438,31.250000
5439,27.343750
5440,31.250000
5441,27.343750
5442,27.343750
5443,27.343750
5444,27.343750
5445,27.343750
5446,27.343750
5447,27.343750
5448,27.343750
5449,23.437500
5450,23.437500
5451,23.437500
5452,23.437500
5453,23.437500
5454,23.437500
5455,23.437500
5456,23.437500
5457,23.437500
5458,19.531250
5459,19.531250
5460,19.531250
5461,19.531250
5462,19.531250
5463,19.531250
5464,19.531250
5465,19.531250
5466,15.625000
5467,15.625000
5468,15.625000
5469,15.625000
5470,15.625000
5471,15.625000
5472,11.718750
5473,11.718750
5474,15.625000
5475,11.718750
5476,11.718750
5477,11.718750
5478,11.718750
5479,11.718750
5480,7.812500
5481,7.812500
5482,7.812500
5483,7.812500
5484,7.812500
5485,7.812500
5486,7.812500
5487,7.812500
5488,7.812500
5489,3.906250
5490,3.906250
5491,3.906250
5492,3.906250
5493,3.906250
5494,3.906250
5495,3.906250
5496,3.906250
5497,0.000000
5498,0.000000
5499,0.000000
5500,0.000000
5501,0.000000
5502,0.000000
5503,0.000000
5504,-3.906250
5505,-3.906250
5506,-3.906250
5507,-3.906250
5508,-3.906250
5509,-3.906250
5510,-3.906250
5511,-3.906250
5512,-3.906250
5513,-7.812500
5514,-7.812500
5515,-7.812500
5516,-7.812500
5517,-7.812500
5518,-7.812500
5519,-11.718750
5520,-11.718750
5521,-11.718750
5522,-11.718750
5523,-11.718750
5524,-11.718750
5525,-11.718750
5526,-11.718750
5527,-11.718750
5528,-15.625000
5529,-15.625000
5530,-15.625000
5531,-15.625000
5532,-15.625000
5533,-15.625000
5534,-19.531250
5535,-19.531250
5536,-19.531250
5537,-19.531250
5538,-19.531250
5539,-19.531250
5540,-19.531250
5541,-19.531250
5542,-19.531250
5543,-23.437500
5544,-23.437500
5545,-23.437500
5546,-23.437500
5547,-23.437500
5548,-23.437500
5549,-27.343750
5550,-27.343750
5551,-27.343750
5552,-27.343750
5553,-27.343750
5554,-27.343750
5555,-27.343750
5556,-27.343750
5557,-31.250000
5558,-31.250000
5559,-27.343750
5560,-31.250000
5561,-31.250000
5562,-31.250000
5563,-31.250000
5564,-31.250000
5565,-35.156250
5566,-35.156250
5567,-35.156250
5568,-35.156250
5569,-35.156250
5570,-35.156250
5571,-35.156250
5572,-35.156250
5573,-39.062500
5574,-39.062500
5575,-39.062500
5576,-39.062500
5577,-39.062500
5578,-39.062500
5579,-39.062500
5580,-42.968750
5581,-42.968750
5582,-42.968750
5583,-42.968750
5584,-42.968750
5585,-42.968750
5586,-42.968750
5587,-46.875000
5588,-46.875000
5589,-46.875000
5590,-46.875000
5591,-46.875000
5592,-46.875000
5593,-46.875000
5594,-50.781250
5595,-50.781250
5596,-50.781250
5597,-50.781250
5598,-50.781250
5599,-50.781250
5600,-50.781250
5601,-50.781250
5602,-50.781250
5603,-50.781250
5604,-54.687500
5605,-54.687500
5606,-54.687500
5607,-54.687500
5608,-54.687500
5609,-54.687500
5610,-54.687500
5611,-54.687500
5612,-58.593750
5613,-58.593750
5614,-58.593750
5615,-58.593750
5616,-58.593750
5617,-58.593750
5618,-58.593750
5619,-58.593750
5620,-62.500000
5621,-62.500000
5622,-62.500000
5623,-62.500000
5624,-62.500000
5625,-62.500000
5626,-62.500000
5627,-62.500000
5628,-62.500000
5629,-66.406250
5630,-66.406250
5631,-66.406250
5632,-66.406250
5633,-66.406250
5634,-66.406250
5635,-66.406250
5636,-66.406250
5637,-66.406250
5638,-66.406250
5639,-70.312500
5640,-70.312500
5641,-70.312500
5642,-70.312500
5643,-70.312500
5644,-70.312500
5645,-70.312500
5646,-70.312500
5647,-70.312500
5648,-74.218750
5649,-70.312500
5650,-74.218750
5651,-74.218750
5652,-74.218750
5653,-74.218750
5654,-74.218750
5655,-74.218750
5656,-74.218750
5657,-74.218750
5658,-78.125000
5659,-74.218750
5660,-78.125000
5661,-78.125000
5662,-78.125000
5663,-78.125000
5664,-78.125000
5665,-78.125000
5666,-78.125000
5667,-78.125000
5668,-78.125000
5669,-78.125000
5670,-82.031250
5671,-82.031250
5672,-82.031250
5673,-82.031250
5674,-82.031250
5675,-82.031250
5676,-82.031250
5677,-82.031250
5678,-82.031250
5679,-82.031250
5680,-85.937500
5681,-82.031250
5682,-85.937500
5683,-85.937500
5684,-85.937500
5685,-85.937500
5686,-85.937500
5687,-85.937500
5688,-85.937500
5689,-85.937500
5690,-85.937500
5691,-85.937500
5692,-85.937500
5693,-85.937500
5694,-85.937500
5695,-85.937500
5696,-85.937500
5697,-85.937500
5698,-89.843750
5699,-89.843750
5700,-89.843750
5701,-89.843750
5702,-89.843750
5703,-89.843750
5704,-89.843750
5705,-89.843750
5706,-89.843750
5707,-89.843750
5708,-89.843750
5709,-89.843750
5710,-89.843750
5711,-89.843750
5712,-93.750000
5713,-89.843750
5714,-89.843750
5715,-93.750000
5716,-93.750000
5717,-93.750000
5718,-93.750000
5719,-93.750000
5720,-93.750000
5721,-93.750000
5722,-93.750000
5723,-93.750000
5724,-93.750000
5725,-93.750000
5726,-93.750000
5727,-93.750000
5728,-93.750000
5729,-93.750000
5730,-93.750000
5731,-93.750000
5732,-93.750000
5733,-93.750000
5734,-93.750000
5735,-93.750000
5736,-97.656250
5737,-93.750000
5738,-97.656250
5739,-93.750000
5740,-97.656250
5741,-93.750000
5742,-97.656250
5743,-93.750000
5744,-97.656250
5745,-97.656250
5746,-97.656250
5747,-97.656250
5748,-97.656250
5749,-97.656250
5750,-97.656250
5751,-97.656250
5752,-97.656250
5753,-97.656250
5754,-97.656250
5755,-97.656250
5756,-97.656250
5757,-97.656250
5758,-97.656250
5759,-97.656250
5760,-97.656250
5761,-97.656250
5762,-97.656250
5763,-97.656250
5764,-97.656250
5765,-97.656250
5766,-97.656250
5767,-97.656250
5768,-97.656250
5769,-97.656250
5770,-97.656250
5771,-97.656250
5772,-97.656250
5773,-97.656250
5774,-97.656250
5775,-97.656250
5776,-97.656250
5777,-97.656250
5778,-97.656250
5779,-97.656250
5780,-97.656250
5781,-97.656250
5782,-97.656250
5783,-97.656250
5784,-97.656250
5785,-97.656250
5786,-97.656250
5787,-97.656250
5788,-97.656250
5789,-97.656250
5790,-97.656250
5791,-97.656250
5792,-97.656250
5793,-93.750000
5794,-97.656250
5795,-97.656250
5796,-93.750000
5797,-93.750000
5798,-97.656250
5799,-93.750000
5800,-97.656250
5801,-97.656250
5802,-93.750000
5803,-93.750000
5804,-93.750000
5805,-93.750000
5806,-93.750000
5807,-93.750000
5808,-93.750000
5809,-93.750000
5810,-93.750000
5811,-93.750000
5812,-93.750000
5813,-93.750000
5814,-93.750000
5815,-93.750000
5816,-93.750000
5817,-93.750000
5818,-93.750000
5819,-93.750000
5820,-93.750000
5821,-93.750000
5822,-93.750000
5823,-93.750000
5824,-93.750000
5825,-89.843750
5826,-89.843750
5827,-89.843750
5828,-89.843750
5829,-89.843750
5830,-89.843750
5831,-89.843750
5832,-89.843750
5833,-89.843750
5834,-89.843750
5835,-89.843750
5836,-89.843750
5837,-89.843750
5838,-89.843750
5839,-89.843750
5840,-89.843750
5841,-89.843750
5842,-85.937500
5843,-85.937500
5844,-85.937500
5845,-85.937500
5846,-85.937500
5847,-85.937500
5848,-85.937500
5849,-85.937500
5850,-85.937500
5851,-85.937500
5852,-85.937500
5853,-85.937500
5854,-85.937500
5855,-85.937500
5856,-85.937500
5857,-82.031250
5858,-82.031250
5859,-82.031250
5860,-82.031250
5861,-82.031250
5862,-82.031250
5863,-82.031250
5864,-82.031250
5865,-82.031250
5866,-82.031250
5867,-82.031250
5868,-78.125000
5869,-82.031250
5870,-78.125000
5871,-78.125000
5872,-78.125000
5873,-78.125000
5874,-78.125000
5875,-78.125000
5876,-78.125000
5877,-78.125000
5878,-78.125000
5879,-74.218750
5880,-74.218750
5881,-74.218750
5882,-74.218750
5883,-74.218750
5884,-74.218750
5885,-74.218750
5886,-74.218750
5887,-74.218750
5888,-74.218750
5889,-70.312500
5890,-70.312500
5891,-70.312500
5892,-70.312500
5893,-70.312500
5894,-70.312500
5895,-70.312500
5896,-70.312500
5897,-70.312500
5898,-70.312500
5899,-66.406250
5900,-66.406250
5901,-66.406250
5902,-66.406250
5903,-66.406250
5904,-66.406250
5905,-70.312500
5906,-66.406250
5907,-66.406250
5908,-66.406250
5909,-62.500000
5910,-62.500000
5911,-62.500000
5912,-62.500000
5913,-62.500000
5914,-62.500000
5915,-62.500000
5916,-58.593750
5917,-62.500000
5918,-62.500000
5919,-58.593750
5920,-58.593750
5921,-58.593750
5922,-58.593750
5923,-54.687500
5924,-58.593750
5925,-58.593750
5926,-58.593750
5927,-54.687500
5928,-54.687500
5929,-54.687500
5930,-54.687500
5931,-54.687500
5932,-54.687500
5933,-54.687500
5934,-50.781250
5935,-50.781250
5936,-50.781250
5937,-50.781250
5938,-50.781250
5939,-50.781250
5940,-50.781250
5941,-50.781250
5942,-50.781250
5943,-46.875000
5944,-46.875000
5945,-46.875000
5946,-46.875000
5947,-46.875000
5948,-46.875000
5949,-42.968750
5950,-42.968750
5951,-42.968750
5952,-42.968750
5953,-42.968750
5954,-42.968750
5955,-39.062500
5956,-42.968750
5957,-39.062500
5958,-39.062500
5959,-39.062500
5960,-39.062500
5961,-39.062500
5962,-39.062500
5963,-39.062500
5964,-35.156250
5965,-35.156250
5966,-35.156250
5967,-35.156250
5968,-35.156250
5969,-35.156250
5970,-35.156250
5971,-35.156250
5972,-35.156250
5973,-31.250000
5974,-31.250000
5975,-31.250000
5976,-31.250000
5977,-31.250000
5978,-31.250000
5979,-31.250000
5980,-31.250000
5981,-27.343750
5982,-31.250000
5983,-27.343750
5984,-27.343750
5985,-27.343750
5986,-27.343750
5987,-23.437500
5988,-27.343750
5989,-23.437500
5990,-23.437500
5991,-23.437500
5992,-23.437500
5993,-23.437500
5994,-23.437500
5995,-23.437500
5996,-19.531250
5997,-19.531250
5998,-19.531250
5999,-19.531250
6000,-19.531250
6001,-19.531250
6002,-19.531250
6003,-15.625000
6004,-15.625000
6005,-15.625000
6006,-15.625000
6007,-15.625000
6008,-15.625000
6009,-15.625000
6010,-15.625000
6011,-11.718750
6012,-11.718750
6013,-11.718750
6014,-11.718750
6015,-11.718750
6016,-11.718750
6017,-7.812500
6018,-7.812500
6019,-7.812500
6020,-7.812500
6021,-7.812500
6022,-7.812500
6023,-7.812500
6024,-7.812500
6025,-3.906250
6026,-3.906250
6027,-3.906250
6028,-3.906250
6029,-3.906250
6030,-3.906250
6031,-3.906250
6032,0.000000
6033,-3.906250
6034,0.000000
6035,0.000000
6036,0.000000
6037,0.000000
6038,0.000000
6039,3.906250
6040,3.906250
6041,3.906250
6042,3.906250
6043,3.906250
6044,3.906250
6045,3.906250
6046,3.906250
6047,7.812500
6048,7.812500
6049,7.812500
6050,7.812500
6051,7.812500
6052,7.812500
6053,7.812500
6054,7.812500
6055,11.718750
6056,11.718750
6057,11.718750
6058,11.718750
6059,11.718750
6060,11.718750
6061,11.718750
6062,15.625000
6063,15.625000
6064,15.625000
6065,15.625000
6066,15.625000
6067,15.625000
6068,15.625000
6069,15.625000
6070,15.625000
6071,19.531250
6072,19.531250
6073,19.531250
6074,19.531250
6075,19.531250
6076,19.531250
6077,19.531250
6078,19.531250
6079,19.531250
6080,23.437500
6081,23.437500
6082,23.437500
6083,23.437500
6084,23.437500
6085,23.437500
6086,23.437500
6087,23.437500
6088,23.437500
6089,27.343750
6090,27.343750
6091,27.343750
6092,27.343750
6093,27.343750
6094,27.343750
6095,27.343750
6096,27.343750
6097,31.250000
6098,31.250000
6099,31.250000
6100,31.250000
6101,31.250000
6102,31.250000
6103,31.250000
6104,31.250000
6105,31.250000
6106,35.156250
6107,35.156250
6108,35.156250
6109,35.156250
6110,35.156250
6111,35.156250
6112,35.156250
6113,35.156250
6114,35.156250
6115,35.156250
6116,35.156250
6117,39.062500
6118,39.062500
6119,39.062500
6120,39.062500
6121,39.062500
6122,39.062500
6123,39.062500
6124,42.968750
6125,39.062500
6126,39.062500
6127,39.062500
6128,42.968750
6129,42.968750
6130,42.968750
6131,42.968750
6132,42.968750
6133,42.968750
6134,42.968750
6135,42.968750
6136,42.968750
6137,42.968750
6138,42.968750
6139,46.875000
6140,46.875000
6141,46.875000
6142,46.875000
6143,46.875000
6144,46.875000
6145,46.875000
6146,46.875000
6147,46.875000
6148,50.781250
6149,50.781250
6150,50.781250
6151,50.781250
6152,50.781250
6153,50.781250
6154,50.781250
6155,50.781250
6156,50.781250
6157,50.781250
6158,50.781250
6159,50.781250
6160,50.781250
6161,54.687500
6162,54.687500
6163,54.687500
6164,54.687500
6165,54.687500
6166,54.687500
6167,54.687500
6168,54.687500
6169,54.687500
6170,54.687500
6171,54.687500
6172,54.687500
6173,54.687500
6174,54.687500
6175,54.687500
6176,54.687500
6177,58.593750
6178,58.593750
6179,58.593750
6180,58.593750
6181,58.593750
6182,58.593750
6183,58.593750
6184,58.593750
6185,58.593750
6186,58.593750
6187,58.593750
6188,58.593750
6189,58.593750
6190,58.593750
6191,62.500000
6192,58.593750
6193,62.500000
6194,62.500000
6195,58.593750
6196,58.593750
6197,62.500000
6198,62.500000
6199,62.500000
6200,62.500000
6201,62.500000
6202,62.500000
6203,62.500000
6204,62.500000
6205,62.500000
6206,62.500000
6207,62.500000
6208,62.500000
6209,62.500000
6210,62.500000
6211,62.500000
6212,62.500000
6213,62.500000
6214,62.500000
6215,62.500000
6216,62.500000
6217,62.500000
6218,62.500000
6219,66.406250
6220,62.500000
6221,66.406250
6222,66.406250
6223,66.406250
6224,62.500000
6225,66.406250
6226,66.406250
6227,66.406250
6228,66.406250
6229,66.406250
6230,66.406250
6231,66.406250
6232,66.406250
6233,66.406250
6234,66.406250
6235,66.406250
6236,66.406250
6237,66.406250
6238,66.406250
6239,66.406250
6240,66.406250
6241,66.406250
6242,66.406250
6243,66.406250
6244,66.406250
6245,66.406250
6246,66.406250
6247,66.406250
6248,66.406250
6249,66.406250
6250,66.406250
6251,66.406250
6252,66.406250
6253,66.406250
6254,66.406250
6255,66.406250
6256,66.406250
6257,66.406250
6258,66.406250
6259,66.406250
6260,66.406250
6261,66.406250
6262,66.406250
6263,66.406250
6264,66.406250
6265,66.406250
6266,66.406250
6267,66.406250
6268,66.406250
6269,66.406250
6270,66.406250
6271,66.406250
6272,66.406250
6273,66.406250
6274,66.406250
6275,66.406250
6276,66.406250
6277,66.406250
6278,66.406250
6279,66.406250
6280,66.406250
6281,66.406250
6282,66.406250
6283,66.406250
6284,66.406250
6285,66.406250
6286,66.406250
6287,66.406250
6288,66.406250
6289,66.406250
6290,66.406250
6291,66.406250
6292,66.406250
6293,66.406250
6294,66.406250
6295,66.406250
6296,62.500000
6297,66.406250
6298,66.406250
6299,66.406250
6300,66.406250
6301,62.500000
6302,62.500000
6303,62.500000
6304,62.500000
6305,62.500000
6306,62.500000
6307,62.500000
6308,62.500000
6309,62.500000
6310,62.500000
6311,62.500000
6312,62.500000
6313,62.500000
6314,62.500000
6315,62.500000
6316,62.500000
6317,62.500000
6318,62.500000
6319,62.500000
6320,62.500000
6321,62.500000
6322,62.500000
6323,62.500000
6324,58.593750
6325,62.500000
6326,62.500000
6327,62.500000
6328,58.593750
6329,58.593750
6330,58.593750
6331,58.593750
6332,58.593750
6333,58.593750
6334,58.593750
6335,58.593750
6336,58.593750
6337,58.593750
6338,58.593750
6339,58.593750
6340,58.593750
6341,58.593750
6342,54.687500
6343,54.687500
6344,54.687500
6345,54.687500
6346,54.687500
6347,54.687500
6348,54.687500
6349,54.687500
6350,54.687500
6351,54.687500
6352,54.687500
6353,54.687500
6354,54.687500
6355,54.687500
6356,54.687500
6357,54.687500
6358,54.687500
6359,50.781250
6360,50.781250
6361,50.781250
6362,50.781250
6363,50.781250
6364,50.781250
6365,50.781250
6366,50.781250
6367,50.781250
6368,50.781250
6369,50.781250
6370,50.781250
6371,50.781250
6372,46.875000
6373,46.875000
6374,46.875000
6375,46.875000
6376,46.875000
6377,46.875000
6378,46.875000
6379,46.875000
6380,46.875000
6381,46.875000
6382,46.875000
6383,46.875000
6384,42.968750
6385,46.875000
6386,46.875000
6387,42.968750
6388,42.968750
6389,42.968750
6390,42.968750
6391,42.968750
6392,42.968750
6393,39.062500
6394,39.062500
6395,42.968750
6396,39.062500
6397,39.062500
6398,39.062500
6399,39.062500
6400,39.062500
6401,39.062500
6402,39.062500
6403,39.062500
6404,35.156250
6405,39.062500
6406,39.062500
6407,35.156250
6408,39.062500
6409,35.156250
6410,35.156250
6411,35.156250
6412,35.156250
6413,35.156250
6414,35.156250
6415,35.156250
6416,35.156250
6417,35.156250
6418,31.250000
6419,31.250000
6420,31.250000
6421,31.250000
6422,31.250000
6423,31.250000
6424,31.250000
6425,31.250000
6426,27.343750
6427,31.250000
6428,27.343750
6429,27.343750
6430,27.343750
6431,27.343750
6432,27.343750
6433,27.343750
6434,27.343750
6435,27.343750
6436,27.343750
6437,27.343750
6438,23.437500
6439,23.437500
6440,23.437500
6441,23.437500
6442,23.437500
6443,23.437500
6444,23.437500
6445,23.437500
6446,19.531250
6447,19.531250
6448,19.531250
6449,19.531250
6450,19.531250
6451,19.531250
6452,19.531250
6453,15.625000
6454,15.625000
6455,15.625000
6456,15.625000
6457,15.625000
6458,15.625000
6459,15.625000
6460,15.625000
6461,15.625000
6462,11.718750
6463,11.718750
6464,11.718750
6465,11.718750
6466,11.718750
6467,11.718750
6468,11.718750
6469,11.718750
6470,7.812500
6471,7.812500
6472,7.812500
6473,7.812500
6474,7.812500
6475,7.812500
6476,7.812500
6477,3.906250
6478,3.906250
6479,3.906250
6480,3.906250
6481,3.906250
6482,3.906250
6483,3.906250
6484,3.906250
6485,0.000000
6486,0.000000
6487,0.000000
6488,0.000000
6489,0.000000
6490,0.000000
6491,0.000000
6492,0.000000
6493,0.000000
6494,-3.906250
6495,-3.906250
6496,-3.906250
6497,-3.906250
6498,-3.906250
6499,-3.906250
6500,-7.812500
6501,-7.812500
6502,-7.812500
6503,-7.812500
6504,-7.812500
6505,-7.812500
6506,-7.812500
6507,-7.812500
6508,-11.718750
6509,-11.718750
6510,-11.718750
6511,-11.718750
6512,-11.718750
6513,-11.718750
6514,-11.718750
6515,-11.718750
6516,-15.625000
6517,-15.625000
6518,-15.625000
6519,-15.625000
6520,-15.625000
6521,-15.625000
6522,-15.625000
6523,-15.625000
6524,-19.531250
6525,-19.531250
6526,-19.531250
6527,-19.531250
6528,-19.531250
6529,-19.531250
6530,-23.437500
6531,-19.531250
6532,-19.531250
6533,-23.437500
6534,-23.437500
6535,-23.437500
6536,-23.437500
6537,-23.437500
6538,-23.437500
6539,-23.437500
6540,-27.343750
6541,-27.343750
6542,-27.343750
6543,-27.343750
6544,-27.343750
6545,-27.343750
6546,-31.250000
6547,-31.250000
6548,-31.250000
6549,-31.250000
6550,-31.250000
6551,-31.250000
6552,-31.250000
6553,-31.250000
6554,-35.156250
6555,-35.156250
6556,-35.156250
6557,-35.156250
6558,-35.156250
6559,-35.156250
6560,-35.156250
6561,-35.156250
6562,-35.156250
6563,-39.062500
6564,-39.062500
6565,-39.062500
6566,-39.062500
6567,-39.062500
6568,-39.062500
6569,-39.062500
6570,-42.968750
6571,-42.968750
6572,-42.968750
6573,-42.968750
6574,-42.968750
6575,-42.968750
6576,-42.968750
6577,-46.875000
6578,-46.875000
6579,-46.875000
6580,-46.875000
6581,-46.875000
6582,-46.875000
6583,-46.875000
6584,-46.875000
6585,-46.875000
6586,-50.781250
6587,-50.781250
6588,-50.781250
6589,-50.781250
6590,-50.781250
6591,-50.781250
6592,-50.781250
6593,-50.781250
6594,-50.781250
6595,-54.687500
6596,-54.687500
6597,-54.687500
6598,-54.687500
6599,-54.687500
6600,-54.687500
6601,-54.687500
6602,-58.593750
6603,-58.593750
6604,-58.593750
6605,-58.593750
6606,-58.593750
6607,-58.593750
6608,-58.593750
6609,-58.593750
6610,-58.593750
6611,-62.500000
6612,-62.500000
6613,-62.500000
6614,-62.500000
6615,-62.500000
6616,-62.500000
6617,-62.500000
6618,-62.500000
6619,-62.500000
6620,-66.406250
6621,-66.406250
6622,-66.406250
6623,-66.406250
6624,-66.406250
6625,-66.406250
6626,-66.406250
6627,-66.406250
6628,-66.406250
6629,-70.312500
6630,-66.406250
6631,-70.312500
6632,-70.312500
6633,-70.312500
6634,-70.312500
6635,-70.312500
6636,-70.312500
6637,-70.312500
6638,-70.312500
6639,-70.312500
6640,-74.218750
6641,-74.218750
6642,-74.218750
6643,-74.218750
6644,-74.218750
6645,-74.218750
6646,-74.218750
6647,-74.218750
6648,-74.218750
6649,-74.218750
6650,-78.125000
6651,-78.125000
6652,-78.125000
6653,-78.125000
6654,-78.125000
6655,-78.125000
6656,-78.125000
6657,-78.125000
6658,-78.125000
6659,-78.125000
6660,-78.125000
6661,-78.125000
6662,-82.031250
6663,-82.031250
6664,-82.031250
6665,-82.031250
6666,-82.031250
6667,-82.031250
6668,-82.031250
6669,-82.031250
6670,-82.031250
6671,-82.031250
6672,-82.031250
6673,-82.031250
6674,-82.031250
6675,-85.937500
6676,-85.937500
6677,-85.937500
6678,-85.937500
6679,-85.937500
6680,-85.937500
6681,-85.937500
6682,-85.937500
6683,-85.937500
6684,-85.937500
6685,-85.937500
6686,-85.937500
6687,-85.937500
6688,-85.937500
6689,-89.843750
6690,-89.843750
6691,-89.843750
6692,-89.843750
6693,-89.843750
6694,-89.843750
6695,-89.843750
6696,-89.843750
6697,-89.843750
6698,-89.843750
6699,-89.843750
6700,-89.843750
6701,-89.843750
6702,-89.843750
6703,-89.843750
6704,-89.843750
6705,-93.750000
6706,-93.750000
6707,-89.843750
6708,-89.843750
6709,-89.843750
6710,-93.750000
6711,-93.750000
6712,-93.750000
6713,-93.750000
6714,-93.750000
6715,-93.750000
6716,-93.750000
6717,-93.750000
6718,-93.750000
6719,-93.750000
6720,-93.750000
6721,-93.750000
6722,-93.750000
6723,-93.750000
6724,-93.750000
6725,-93.750000
6726,-93.750000
6727,-93.750000
6728,-93.750000
6729,-93.750000
6730,-97.656250
6731,-93.750000
6732,-97.656250
6733,-93.750000
6734,-97.656250
6735,-93.750000
6736,-93.750000
6737,-97.656250
6738,-97.656250
6739,-97.656250
6740,-97.656250
6741,-97.656250
6742,-97.656250
6743,-97.656250
6744,-97.656250
6745,-97.656250
6746,-97.656250
6747,-97.656250
6748,-97.656250
6749,-97.656250
6750,-97.656250
6751,-97.656250
6752,-97.656250
6753,-97.656250
6754,-97.656250
6755,-97.656250
6756,-97.656250
6757,-97.656250
6758,-97.656250
6759,-97.656250
6760,-97.656250
6761,-97.656250
6762,-97.656250
6763,-97.656250
6764,-97.656250
6765,-97.656250
6766,-97.656250
6767,-97.656250
6768,-97.656250
6769,-97.656250
6770,-97.656250
6771,-97.656250
6772,-97.656250
6773,-97.656250
6774,-97.656250
6775,-97.656250
6776,-97.656250
6777,-97.656250
6778,-93.750000
6779,-93.750000
6780,-97.656250
6781,-97.656250
6782,-97.656250
6783,-97.656250
6784,-93.750000
6785,-93.750000
6786,-97.656250
6787,-93.750000
6788,-97.656250
6789,-93.750000
6790,-93.750000
6791,-93.750000
6792,-93.750000
6793,-93.750000
6794,-93.750000
6795,-93.750000
6796,-93.750000
6797,-93.750000
6798,-93.750000
6799,-93.750000
6800,-93.750000
6801,-93.750000
6802,-93.750000
6803,-93.750000
6804,-93.750000
6805,-93.750000
6806,-93.750000
6807,-93.750000
6808,-93.750000
6809,-89.843750
6810,-93.750000
6811,-93.750000
6812,-89.843750
6813,-89.843750
6814,-89.843750
6815,-89.843750
6816,-89.843750
6817,-89.843750
6818,-89.843750
6819,-89.843750
6820,-89.843750
6821,-89.843750
6822,-89.843750
6823,-89.843750
6824,-89.843750
6825,-89.843750
6826,-89.843750
6827,-85.937500
6828,-85.937500
6829,-85.937500
6830,-85.937500
6831,-85.937500
6832,-85.937500
6833,-85.937500
6834,-85.937500
6835,-85.937500
6836,-85.937500
6837,-85.937500
6838,-85.937500
6839,-85.937500
6840,-85.937500
6841,-85.937500
6842,-85.937500
6843,-82.031250
6844,-82.031250
6845,-82.031250
6846,-82.031250
6847,-82.031250
6848,-82.031250
6849,-82.031250
6850,-82.031250
6851,-82.031250
6852,-82.031250
6853,-82.031250
6854,-82.031250
6855,-82.031250
6856,-78.125000
6857,-78.125000
6858,-78.125000
6859,-78.125000
6860,-78.125000
6861,-78.125000
6862,-78.125000
6863,-78.125000
6864,-78.125000
6865,-78.125000
6866,-74.218750
6867,-74.218750
6868,-74.218750
6869,-74.218750
6870,-74.218750
6871,-74.218750
6872,-74.218750
6873,-74.218750
6874,-74.218750
6875,-74.218750
6876,-74.218750
6877,-74.218750
6878,-74.218750
6879,-70.312500
6880,-70.312500
6881,-70.312500
6882,-70.312500
6883,-70.312500
6884,-70.312500
6885,-70.312500
6886,-70.312500
6887,-70.312500
6888,-70.312500
6889,-66.406250
6890,-66.406250
6891,-66.406250
6892,-66.406250
6893,-66.406250
6894,-66.406250
6895,-66.406250
6896,-66.406250
6897,-62.500000
6898,-66.406250
6899,-62.500000
6900,-62.500000
6901,-62.500000
6902,-62.500000
6903,-62.500000
6904,-62.500000
6905,-62.500000
6906,-58.593750
6907,-58.593750
6908,-58.593750
6909,-58.593750
6910,-58.593750
6911,-58.593750
6912,-58.593750
6913,-58.593750
6914,-58.593750
6915,-58.593750
6916,-54.687500
6917,-54.687500
6918,-54.687500
6919,-54.687500
6920,-54.687500
6921,-54.687500
6922,-54.687500
6923,-50.781250
6924,-50.781250
6925,-50.781250
6926,-50.781250
6927,-50.781250
6928,-50.781250
6929,-50.781250
6930,-50.781250
6931,-46.875000
6932,-46.875000
6933,-46.875000
6934,-46.875000
6935,-46.875000
6936,-46.875000
6937,-46.875000
6938,-46.875000
6939,-42.968750
6940,-46.875000
6941,-42.968750
6942,-42.968750
6943,-42.968750
6944,-42.968750
6945,-42.968750
6946,-42.968750
6947,-39.062500
6948,-39.062500
6949,-39.062500
6950,-39.062500
6951,-39.062500
6952,-39.062500
6953,-39.062500
6954,-39.062500
6955,-35.156250
6956,-35.156250
6957,-35.156250
6958,-35.156250
6959,-35.156250
6960,-35.156250
6961,-35.156250
6962,-31.250000
6963,-31.250000
6964,-31.250000
6965,-31.250000
6966,-31.250000
6967,-31.250000
6968,-27.343750
6969,-27.343750
6970,-27.343750
6971,-27.343750
6972,-27.343750
6973,-27.343750
6974,-27.343750
6975,-27.343750
6976,-27.343750
6977,-23.437500
6978,-23.437500
6979,-23.437500
6980,-23.437500
6981,-23.437500
6982,-23.437500
6983,-23.437500
6984,-23.437500
6985,-19.531250
6986,-19.531250
6987,-19.531250
6988,-19.531250
6989,-19.531250
6990,-19.531250
6991,-15.625000
6992,-15.625000
6993,-15.625000
6994,-15.625000
6995,-15.625000
6996,-15.625000
6997,-15.625000
6998,-15.625000
6999,-11.718750
7000,-11.718750
7001,-11.718750
7002,-11.718750
7003,-11.718750
7004,-11.718750
7005,-11.718750
7006,-11.718750
7007,-7.812500
7008,-7.812500
7009,-7.812500
7010,-7.812500
7011,-7.812500
7012,-7.812500
7013,-7.812500
7014,-7.812500
7015,-3.906250
7016,-3.906250
7017,-3.906250
7018,-3.906250
7019,-3.906250
7020,-3.906250
7021,-3.906250
7022,0.000000
7023,0.000000
7024,0.000000
7025,0.000000
7026,0.000000
7027,0.000000
7028,0.000000
7029,3.906250
7030,3.906250
7031,3.906250
7032,3.906250
7033,3.906250
7034,3.906250
7035,3.906250
7036,3.906250
7037,3.906250
7038,7.812500
7039,7.812500
7040,7.812500
7041,7.812500
7042,7.812500
7043,7.812500
7044,7.812500
7045,7.812500
7046,11.718750
7047,11.718750
7048,11.718750
7049,11.718750
7050,11.718750
7051,11.718750
7052,11.718750
7053,15.625000
7054,15.625000
7055,15.625000
7056,15.625000
7057,15.625000
7058,15.625000
7059,15.625000
7060,15.625000
7061,19.531250
7062,19.531250
7063,19.531250
7064,19.531250
7065,19.531250
7066,19.531250
7067,19.531250
7068,19.531250
7069,23.437500
7070,23.437500
7071,23.437500
7072,23.437500
7073,23.437500
7074,23.437500
7075,23.437500
7076,23.437500
7077,27.343750
7078,27.343750
7079,27.343750
7080,27.343750
7081,27.343750
7082,27.343750
7083,27.343750
7084,27.343750
7085,27.343750
7086,27.343750
7087,27.343750
7088,27.343750
7089,31.250000
7090,31.250000
7091,31.250000
7092,31.250000
7093,31.250000
7094,31.250000
7095,31.250000
7096,31.250000
7097,31.250000
7098,35.156250
7099,35.156250
7100,35.156250
7101,35.156250
7102,35.156250
7103,35.156250
7104,35.156250
7105,35.156250
7106,35.156250
7107,39.062500
7108,39.062500
7109,39.062500
7110,39.062500
7111,39.062500
7112,39.062500
7113,39.062500
7114,42.968750
7115,39.062500
7116,39.062500
7117,42.968750
7118,42.968750
7119,42.968750
7120,42.968750
7121,42.968750
7122,42.968750
7123,42.968750
7124,42.968750
7125,42.968750
7126,42.968750
7127,42.968750
7128,42.968750
7129,46.875000
7130,46.875000
7131,46.875000
7132,46.875000
7133,46.875000
7134,46.875000
7135,46.875000
7136,46.875000
7137,46.875000
7138,46.875000
7139,46.875000
7140,50.781250
7141,50.781250
7142,50.781250
7143,50.781250
7144,50.781250
7145,50.781250
7146,50.781250
7147,50.781250
7148,50.781250
7149,50.781250
7150,50.781250
7151,50.781250
7152,50.781250
7153,50.781250
7154,50.781250
7155,54.687500
7156,54.687500
7157,54.687500
7158,54.687500
7159,54.687500
7160,54.687500
7161,54.687500
7162,54.687500
7163,54.687500
7164,54.687500
7165,54.687500
7166,54.687500
7167,54.687500
7168,54.687500
7169,54.687500
7170,54.687500
7171,58.593750
7172,58.593750
7173,58.593750
7174,58.593750
7175,58.593750
7176,58.593750
7177,58.593750
7178,58.593750
7179,58.593750
7180,58.593750
7181,58.593750
7182,58.593750
7183,58.593750
7184,58.593750
7185,58.593750
7186,58.593750
7187,62.500000
7188,62.500000
7189,62.500000
7190,62.500000
7191,62.500000
7192,62.500000
7193,62.500000
7194,62.500000
7195,62.500000
7196,62.500000
7197,62.500000
7198,62.500000
7199,62.500000
7200,62.500000
7201,62.500000
7202,62.500000
7203,62.500000
7204,62.500000
7205,62.500000
7206,62.500000
7207,62.500000
7208,62.500000
7209,62.500000
7210,62.500000
7211,62.500000
7212,62.500000
7213,66.406250
7214,66.406250
7215,66.406250
7216,62.500000
7217,66.406250
7218,62.500000
7219,66.406250
7220,66.406250
7221,66.406250
7222,66.406250
7223,66.406250
7224,66.406250
7225,66.406250
7226,66.406250
7227,66.406250
7228,66.406250
7229,66.406250
7230,66.406250
7231,66.406250
7232,66.406250
7233,66.406250
7234,66.406250
7235,66.406250
7236,66.406250
7237,66.406250
7238,66.406250
7239,66.406250
7240,66.406250
7241,66.406250
7242,66.406250
7243,66.406250
7244,66.406250
7245,66.406250
7246,66.406250
7247,66.406250
7248,66.406250
7249,66.406250
7250,66.406250
7251,66.406250
7252,66.406250
7253,66.406250
7254,66.406250
7255,66.406250
7256,66.406250
7257,66.406250
7258,66.406250
7259,66.406250
7260,66.406250
7261,66.406250
7262,66.406250
7263,66.406250
7264,66.406250
7265,66.406250
7266,66.406250
7267,66.406250
7268,66.406250
7269,66.406250
7270,66.406250
7271,66.406250
7272,66.406250
7273,66.406250
7274,66.406250
7275,66.406250
7276,62.500000
7277,66.406250
7278,66.406250
7279,66.406250
7280,66.406250
7281,62.500000
7282,66.406250
7283,62.500000
7284,62.500000
7285,62.500000
7286,62.500000
7287,66.406250
7288,62.500000
7289,62.500000
7290,62.500000
7291,62.500000
7292,62.500000
7293,62.500000
7294,62.500000
7295,62.500000
7296,62.500000
7297,62.500000
7298,62.500000
7299,62.500000
7300,62.500000
7301,62.500000
7302,62.500000
7303,62.500000
7304,62.500000
7305,62.500000
7306,62.500000
7307,62.500000
7308,62.500000
7309,62.500000
7310,62.500000
7311,62.500000
7312,58.593750
7313,62.500000
7314,62.500000
7315,58.593750
7316,58.593750
7317,58.593750
7318,58.593750
7319,58.593750
7320,58.593750
7321,58.593750
7322,58.593750
7323,58.593750
7324,58.593750
7325,58.593750
7326,58.593750
7327,58.593750
7328,54.687500
7329,58.593750
7330,58.593750
7331,58.593750
7332,58.593750
7333,58.593750
7334,54.687500
7335,54.687500
7336,54.687500
7337,54.687500
7338,54.687500
7339,54.687500
7340,54.687500
7341,54.687500
7342,54.687500
7343,54.687500
7344,54.687500
7345,54.687500
7346,54.687500
7347,54.687500
7348,54.687500
7349,54.687500
7350,50.781250
7351,50.781250
7352,50.781250
7353,50.781250
7354,50.781250
7355,50.781250
7356,50.781250
7357,50.781250
7358,50.781250
7359,50.781250
7360,50.781250
7361,50.781250
7362,50.781250
7363,46.875000
7364,46.875000
7365,46.875000
7366,46.875000
7367,46.875000
7368,50.781250
7369,46.875000
7370,46.875000
7371,42.968750
7372,42.968750
7373,46.875000
7374,42.968750
7375,42.968750
7376,46.875000
7377,42.968750
7378,42.968750
7379,42.968750
7380,42.968750
7381,42.968750
7382,42.968750
7383,42.968750
7384,42.968750
7385,42.968750
7386,42.968750
7387,39.062500
7388,39.062500
7389,39.062500
7390,39.062500
7391,39.062500
7392,39.062500
7393,39.062500
7394,35.156250
7395,35.156250
7396,35.156250
7397,35.156250
7398,35.156250
7399,35.156250
7400,35.156250
7401,35.156250
7402,35.156250
7403,35.156250
7404,35.156250
7405,35.156250
7406,35.156250
7407,31.250000
7408,31.250000
7409,31.250000
7410,31.250000
7411,31.250000
7412,31.250000
7413,31.250000
7414,31.250000
7415,31.250000
7416,27.343750
7417,27.343750
7418,27.343750
7419,27.343750
7420,27.343750
7421,27.343750
7422,27.343750
7423,27.343750
7424,27.343750
7425,27.343750
7426,27.343750
7427,23.437500
7428,23.437500
7429,23.437500
7430,23.437500
7431,23.437500
7432,23.437500
7433,23.437500
7434,19.531250
7435,19.531250
7436,19.531250
7437,19.531250
7438,19.531250
7439,19.531250
7440,19.531250
7441,19.531250
7442,19.531250
7443,15.625000
7444,15.625000
7445,15.625000
7446,15.625000
7447,15.625000
7448,15.625000
7449,15.625000
7450,15.625000
7451,15.625000
7452,11.718750
7453,11.718750
7454,11.718750
7455,11.718750
7456,11.718750
7457,11.718750
7458,11.718750
7459,7.812500
7460,7.812500
7461,7.812500
7462,7.812500
7463,7.812500
7464,7.812500
7465,7.812500
7466,3.906250
7467,7.812500
7468,3.906250
7469,3.906250
7470,3.906250
7471,3.906250
7472,3.906250
7473,3.906250
7474,3.906250
7475,0.000000
7476,0.000000
7477,0.000000
7478,0.000000
7479,0.000000
7480,0.000000
7481,0.000000
7482,0.000000
7483,0.000000
7484,-3.906250
7485,-3.906250
7486,-3.906250
7487,-3.906250
7488,-3.906250
7489,-3.906250
7490,-7.812500
7491,-3.906250
7492,-3.906250
7493,-7.812500
7494,-7.812500
7495,-7.812500
7496,-11.718750
7497,-7.812500
7498,-7.812500
7499,-7.812500
7500,-11.718750
7501,-11.718750
7502,-11.718750
7503,-11.718750
7504,-11.718750
7505,-11.718750
7506,-11.718750
7507,-15.625000
7508,-15.625000
7509,-15.625000
7510,-15.625000
7511,-15.625000
7512,-15.625000
7513,-15.625000
7514,-19.531250
7515,-19.531250
7516,-19.531250
7517,-19.531250
7518,-19.531250
7519,-19.531250
7520,-23.437500
7521,-23.437500
7522,-23.437500
7523,-23.437500
7524,-23.437500
7525,-23.437500
7526,-23.437500
7527,-23.437500
7528,-27.343750
7529,-27.343750
7530,-27.343750
7531,-27.343750
7532,-27.343750
7533,-27.343750
7534,-27.343750
7535,-27.343750
7536,-31.250000
7537,-31.250000
7538,-31.250000
7539,-31.250000
7540,-31.250000
7541,-31.250000
7542,-31.250000
7543,-31.250000
7544,-31.250000
7545,-35.156250
7546,-35.156250
7547,-35.156250
7548,-35.156250
7549,-35.156250
7550,-35.156250
7551,-35.156250
7552,-39.062500
7553,-39.062500
7554,-39.062500
7555,-39.062500
7556,-39.062500
7557,-39.062500
7558,-39.062500
7559,-42.968750
7560,-42.968750
7561,-42.968750
7562,-42.968750
7563,-42.968750
7564,-42.968750
7565,-42.968750
7566,-46.875000
7567,-46.875000
7568,-46.875000
7569,-46.875000
7570,-46.875000
7571,-46.875000
7572,-46.875000
7573,-46.875000
7574,-46.875000
7575,-50.781250
7576,-50.781250
7577,-50.781250
7578,-50.781250
7579,-50.781250
7580,-50.781250
7581,-50.781250
7582,-50.781250
7583,-50.781250
7584,-50.781250
7585,-54.687500
7586,-54.687500
7587,-54.687500
7588,-54.687500
7589,-54.687500
7590,-54.687500
7591,-54.687500
7592,-58.593750
7593,-54.687500
7594,-58.593750
7595,-58.593750
7596,-58.593750
7597,-58.593750
7598,-58.593750
7599,-58.593750
7600,-62.500000
7601,-62.500000
7602,-62.500000
7603,-62.500000
7604,-62.500000
7605,-62.500000
7606,-62.500000
7607,-62.500000
7608,-62.500000
7609,-62.500000
7610,-66.406250
7611,-62.500000
7612,-66.406250
7613,-66.406250
7614,-66.406250
7615,-66.406250
7616,-66.406250
7617,-66.406250
7618,-66.406250
7619,-66.406250
7620,-70.312500
7621,-70.312500
7622,-70.312500
7623,-70.312500
7624,-70.312500
7625,-70.312500
7626,-70.312500
7627,-70.312500
7628,-70.312500
7629,-74.218750
7630,-74.218750
7631,-74.218750
7632,-74.218750
7633,-74.218750
7634,-74.218750
7635,-74.218750
7636,-74.218750
7637,-74.218750
7638,-78.125000
7639,-74.218750
7640,-74.218750
7641,-78.125000
7642,-78.125000
7643,-78.125000
7644,-78.125000
7645,-78.125000
7646,-78.125000
7647,-78.125000
7648,-78.125000
7649,-82.031250
7650,-78.125000
7651,-78.125000
7652,-82.031250
7653,-82.031250
7654,-82.031250
7655,-82.031250
7656,-82.031250
7657,-82.031250
7658,-82.031250
7659,-82.031250
7660,-82.031250
7661,-82.031250
7662,-82.031250
7663,-82.031250
7664,-85.937500
7665,-85.937500
7666,-85.937500
7667,-85.937500
7668,-85.937500
7669,-85.937500
7670,-85.937500
7671,-85.937500
7672,-85.937500
7673,-85.937500
7674,-85.937500
7675,-85.937500
7676,-85.937500
7677,-85.937500
7678,-89.843750
7679,-89.843750
7680,-89.843750
7681,-89.843750
7682,-89.843750
7683,-89.843750
7684,-89.843750
7685,-89.843750
7686,-89.843750
7687,-89.843750
7688,-89.843750
7689,-89.843750
7690,-89.843750
7691,-89.843750
7692,-89.843750
7693,-89.843750
7694,-89.843750
7695,-89.843750
7696,-89.843750
7697,-93.750000
7698,-93.750000
7699,-93.750000
7700,-93.750000
7701,-93.750000
7702,-93.750000
7703,-93.750000
7704,-93.750000
7705,-93.750000
7706,-93.750000
7707,-93.750000
7708,-93.750000
7709,-93.750000
7710,-93.750000
7711,-93.750000
7712,-93.750000
7713,-93.750000
7714,-93.750000
7715,-93.750000
7716,-93.750000
7717,-93.750000
7718,-93.750000
7719,-93.750000
7720,-97.656250
7721,-93.750000
7722,-93.750000
7723,-93.750000
7724,-93.750000
7725,-93.750000
7726,-93.750000
7727,-97.656250
7728,-97.656250
7729,-97.656250
7730,-97.656250
7731,-97.656250
7732,-97.656250
7733,-97.656250
7734,-97.656250
7735,-97.656250
7736,-97.656250
7737,-97.656250
7738,-97.656250
7739,-97.656250
7740,-97.656250
7741,-97.656250
7742,-97.656250
7743,-97.656250
7744,-97.656250
7745,-97.656250
7746,-97.656250
7747,-97.656250
7748,-97.656250
7749,-97.656250
7750,-97.656250
7751,-97.656250
7752,-97.656250
7753,-97.656250
7754,-97.656250
7755,-97.656250
7756,-97.656250
7757,-97.656250
7758,-97.656250
7759,-97.656250
7760,-97.656250
7761,-93.750000
7762,-97.656250
7763,-97.656250
7764,-97.656250
7765,-97.656250
7766,-93.750000
7767,-97.656250
7768,-97.656250
7769,-93.750000
7770,-97.656250
7771,-97.656250
7772,-93.750000
7773,-93.750000
7774,-93.750000
7775,-93.750000
7776,-93.750000
7777,-93.750000
7778,-93.750000
7779,-93.750000
7780,-93.750000
7781,-93.750000
7782,-93.750000
7783,-93.750000
7784,-93.750000
7785,-93.750000
7786,-93.750000
7787,-93.750000
7788,-93.750000
7789,-93.750000
7790,-93.750000
7791,-93.750000
7792,-93.750000
7793,-93.750000
7794,-93.750000
7795,-93.750000
7796,-93.750000
7797,-93.750000
7798,-93.750000
7799,-93.750000
7800,-93.750000
7801,-93.750000
7802,-89.843750
7803,-89.843750
7804,-89.843750
7805,-89.843750
7806,-89.843750
7807,-89.843750
7808,-89.843750
7809,-89.843750
7810,-89.843750
7811,-89.843750
7812,-89.843750
7813,-89.843750
7814,-89.843750
7815,-89.843750
7816,-89.843750
7817,-89.843750
7818,-85.937500
7819,-85.937500
7820,-85.937500
7821,-85.937500
7822,-85.937500
7823,-85.937500
7824,-85.937500
7825,-85.937500
7826,-85.937500
7827,-85.937500
7828,-85.937500
7829,-85.937500
7830,-85.937500
7831,-82.031250
7832,-82.031250
7833,-82.031250
7834,-85.937500
7835,-82.031250
7836,-82.031250
7837,-82.031250
7838,-82.031250
7839,-82.031250
7840,-82.031250
7841,-82.031250
7842,-82.031250
7843,-82.031250
7844,-82.031250
7845,-82.031250
7846,-82.031250
7847,-82.031250
7848,-78.125000
7849,-78.125000
7850,-78.125000
7851,-78.125000
7852,-78.125000
7853,-78.125000
7854,-78.125000
7855,-78.125000
7856,-78.125000
7857,-78.125000
7858,-78.125000
7859,-74.218750
7860,-74.218750
7861,-74.218750
7862,-74.218750
7863,-74.218750
7864,-74.218750
7865,-74.218750
7866,-74.218750
7867,-74.218750
7868,-74.218750
7869,-70.312500
7870,-70.312500
7871,-70.312500
7872,-70.312500
7873,-70.312500
7874,-70.312500
7875,-70.312500
7876,-70.312500
7877,-70.312500
7878,-70.312500
7879,-66.406250
7880,-66.406250
7881,-66.406250
7882,-66.406250
7883,-66.406250
7884,-66.406250
7885,-66.406250
7886,-66.406250
7887,-66.406250
7888,-66.406250
7889,-62.500000
7890,-62.500000
7891,-62.500000
7892,-62.500000
7893,-62.500000
7894,-62.500000
7895,-58.593750
7896,-58.593750
7897,-58.593750
7898,-58.593750
7899,-58.593750
7900,-58.593750
7901,-58.593750
7902,-58.593750
7903,-58.593750
7904,-58.593750
7905,-54.687500
7906,-54.687500
7907,-54.687500
7908,-54.687500
7909,-54.687500
7910,-54.687500
7911,-50.781250
7912,-54.687500
7913,-54.687500
7914,-50.781250
7915,-50.781250
7916,-50.781250
7917,-50.781250
7918,-50.781250
7919,-50.781250
7920,-50.781250
7921,-50.781250
7922,-46.875000
7923,-46.875000
7924,-46.875000
7925,-46.875000
7926,-46.875000
7927,-46.875000
7928,-46.875000
7929,-46.875000
7930,-42.968750
7931,-42.968750
7932,-42.968750
7933,-42.968750
7934,-42.968750
7935,-42.968750
7936,-42.968750
7937,-42.968750
7938,-42.968750
7939,-39.062500
7940,-39.062500
7941,-39.062500
7942,-39.062500
7943,-39.062500
7944,-39.062500
7945,-39.062500
7946,-35.156250
7947,-35.156250
7948,-35.156250
7949,-35.156250
7950,-35.156250
7951,-35.156250
7952,-35.156250
7953,-35.156250
7954,-31.250000
7955,-31.250000
7956,-31.250000
7957,-31.250000
7958,-31.250000
7959,-31.250000
7960,-31.250000
7961,-27.343750
7962,-27.343750
7963,-27.343750
7964,-27.343750
7965,-27.343750
7966,-27.343750
7967,-27.343750
7968,-23.437500
7969,-23.437500
7970,-23.437500
7971,-23.437500
7972,-23.437500
7973,-23.437500
7974,-23.437500
7975,-19.531250
7976,-19.531250
7977,-19.531250
7978,-19.531250
7979,-19.531250
7980,-19.531250
7981,-19.531250
7982,-19.531250
7983,-19.531250
7984,-19.531250
7985,-15.625000
7986,-15.625000
7987,-15.625000
7988,-15.625000
7989,-11.718750
7990,-11.718750
7991,-11.718750
7992,-11.718750
7993,-11.718750
7994,-11.718750
7995,-11.718750
7996,-11.718750
7997,-11.718750
7998,-7.812500
7999,-7.812500
8000,-7.812500
8001,-7.812500
8002,-7.812500
8003,-7.812500
8004,-7.812500
8005,-3.906250
8006,-3.906250
8007,-3.906250
8008,-3.906250
8009,-3.906250
8010,-3.906250
8011,-3.906250
8012,-3.906250
8013,-3.906250
8014,0.000000
8015,0.000000
8016,0.000000
8017,0.000000
8018,0.000000
8019,0.000000
8020,3.906250
8021,0.000000
8022,3.906250
8023,3.906250
8024,3.906250
8025,3.906250
8026,3.906250
8027,3.906250
8028,3.906250
8029,7.812500
8030,7.812500
8031,7.812500
8032,7.812500
8033,7.812500
8034,7.812500
8035,7.812500
8036,7.812500
8037,11.718750
8038,11.718750
8039,11.718750
8040,11.718750
8041,11.718750
8042,11.718750
8043,11.718750
8044,15.625000
8045,15.625000
8046,15.625000
8047,15.625000
8048,15.625000
8049,15.625000
8050,15.625000
8051,19.531250
8052,15.625000
8053,19.531250
8054,15.625000
8055,19.531250
8056,19.531250
8057,19.531250
8058,19.531250
8059,23.437500
8060,19.531250
8061,19.531250
8062,19.531250
8063,23.437500
8064,23.437500
8065,23.437500
8066,23.437500
8067,23.437500
8068,23.437500
8069,27.343750
8070,23.437500
8071,27.343750
8072,27.343750
8073,27.343750
8074,27.343750
8075,27.343750
8076,27.343750
8077,27.343750
8078,27.343750
8079,31.250000
8080,27.343750
8081,31.250000
8082,31.250000
8083,31.250000
8084,31.250000
8085,31.250000
8086,31.250000
8087,31.250000
8088,35.156250
8089,35.156250
8090,35.156250
8091,35.156250
8092,35.156250
8093,35.156250
8094,35.156250
8095,35.156250
8096,35.156250
8097,35.156250
8098,39.062500
8099,39.062500
8100,39.062500
8101,39.062500
8102,39.062500
8103,39.062500
8104,39.062500
8105,39.062500
8106,39.062500
8107,39.062500
8108,39.062500
8109,42.968750
8110,42.968750
8111,42.968750
8112,42.968750
8113,42.968750
8114,42.968750
8115,42.968750
8116,42.968750
8117,46.875000
8118,46.875000
8119,46.875000
8120,46.875000
8121,46.875000
8122,46.875000
8123,46.875000
8124,46.875000
8125,46.875000
8126,46.875000
8127,46.875000
8128,46.875000
8129,46.875000
8130,46.875000
8131,50.781250
8132,50.781250
8133,50.781250
8134,50.781250
8135,50.781250
8136,50.781250
8137,50.781250
8138,50.781250
8139,50.781250
8140,50.781250
8141,50.781250
8142,50.781250
8143,50.781250
8144,54.687500
8145,54.687500
8146,54.687500
8147,54.687500
8148,54.687500
8149,54.687500
8150,54.687500
8151,54.687500
8152,54.687500
8153,54.687500
8154,54.687500
8155,54.687500
8156,54.687500
8157,58.593750
8158,58.593750
8159,58.593750
8160,58.593750
8161,58.593750
8162,58.593750
8163,58.593750
8164,58.593750
8165,58.593750
8166,58.593750
8167,58.593750
8168,58.593750
8169,58.593750
8170,58.593750
8171,58.593750
8172,58.593750
8173,58.593750
8174,62.500000
8175,58.593750
8176,58.593750
8177,58.593750
8178,58.593750
8179,58.593750
8180,62.500000
8181,62.500000
8182,62.500000
8183,62.500000
8184,62.500000
8185,62.500000
8186,62.500000
8187,62.500000
8188,62.500000
8189,62.500000
8190,62.500000
8191,62.500000
8192,62.500000
8193,62.500000
8194,62.500000
8195,62.500000
8196,62.500000
8197,62.500000
8198,62.500000
8199,62.500000
8200,62.500000
8201,62.500000
8202,62.500000
8203,62.500000
8204,62.500000
8205,66.406250
8206,66.406250
8207,66.406250
8208,66.406250
8209,66.406250
8210,66.406250
8211,66.406250
8212,66.406250
8213,66.406250
8214,66.406250
8215,66.406250
8216,66.406250
8217,66.406250
8218,66.406250
8219,66.406250
8220,66.406250
8221,66.406250
8222,66.406250
8223,66.406250
8224,66.406250
8225,66.406250
8226,66.406250
8227,66.406250
8228,66.406250
8229,66.406250
8230,66.406250
8231,66.406250
8232,66.406250
8233,66.406250
8234,66.406250
8235,66.406250
8236,66.406250
8237,66.406250
8238,66.406250
8239,66.406250
8240,66.406250
8241,66.406250
8242,66.406250
8243,66.406250
8244,66.406250
8245,66.406250
8246,66.406250
8247,66.406250
8248,66.406250
8249,66.406250
8250,66.406250
8251,66.406250
8252,66.406250
8253,66.406250
8254,66.406250
8255,66.406250
8256,66.406250
8257,66.406250
8258,66.406250
8259,66.406250
8260,66.406250
8261,66.406250
8262,66.406250
8263,66.406250
8264,66.406250
8265,66.406250
8266,66.406250
8267,66.406250
8268,66.406250
8269,66.406250
8270,66.406250
8271,66.406250
8272,66.406250
8273,66.406250
8274,66.406250
8275,66.406250
8276,66.406250
8277,66.406250
8278,62.500000
8279,62.500000
8280,62.500000
8281,66.406250
8282,62.500000
8283,62.500000
8284,62.500000
8285,62.500000
8286,62.500000
8287,62.500000
8288,62.500000
8289,62.500000
8290,62.500000
8291,62.500000
8292,62.500000
8293,62.500000
8294,62.500000
8295,62.500000
8296,62.500000
8297,62.500000
8298,62.500000
8299,62.500000
8300,62.500000
8301,62.500000
8302,62.500000
8303,62.500000
8304,62.500000
8305,62.500000
8306,62.500000
8307,58.593750
8308,58.593750
8309,58.593750
8310,58.593750
8311,58.593750
8312,58.593750
8313,58.593750
8314,58.593750
8315,58.593750
8316,58.593750
8317,58.593750
8318,58.593750
8319,58.593750
8320,58.593750
8321,58.593750
8322,58.593750
8323,58.593750
8324,58.593750
8325,54.687500
8326,54.687500
8327,54.687500
8328,54.687500
8329,54.687500
8330,54.687500
8331,54.687500
8332,54.687500
8333,54.687500
8334,54.687500
8335,54.687500
8336,54.687500
8337,50.781250
8338,50.781250
8339,50.781250
8340,50.781250
8341,50.781250
8342,50.781250
8343,50.781250
8344,50.781250
8345,50.781250
8346,50.781250
8347,50.781250
8348,50.781250
8349,50.781250
8350,50.781250
8351,50.781250
8352,46.875000
8353,46.875000
8354,46.875000
8355,46.875000
8356,46.875000
8357,46.875000
8358,46.875000
8359,46.875000
8360,46.875000
8361,46.875000
8362,46.875000
8363,46.875000
8364,46.875000
8365,46.875000
8366,42.968750
8367,42.968750
8368,42.968750
8369,42.968750
8370,42.968750
8371,42.968750
8372,42.968750
8373,42.968750
8374,42.968750
8375,42.968750
8376,42.968750
8377,39.062500
8378,42.968750
8379,39.062500
8380,39.062500
8381,39.062500
8382,39.062500
8383,39.062500
8384,39.062500
8385,39.062500
8386,39.062500
8387,39.062500
8388,35.156250
8389,39.062500
8390,35.156250
8391,35.156250
8392,35.156250
8393,35.156250
8394,35.156250
8395,35.156250
8396,35.156250
8397,35.156250
8398,31.250000
8399,31.250000
8400,31.250000
8401,31.250000
8402,31.250000
8403,31.250000
8404,31.250000
8405,31.250000
8406,31.250000
8407,27.343750
8408,27.343750
8409,27.343750
8410,27.343750
8411,27.343750
8412,27.343750
8413,27.343750
8414,27.343750
8415,27.343750
8416,23.437500
8417,23.437500
8418,23.437500
8419,23.437500
8420,23.437500
8421,23.437500
8422,23.437500
8423,23.437500
8424,19.531250
8425,19.531250
8426,19.531250
8427,19.531250
8428,19.531250
8429,19.531250
8430,19.531250
8431,19.531250
8432,15.625000
8433,15.625000
8434,15.625000
8435,15.625000
8436,15.625000
8437,15.625000
8438,15.625000
8439,15.625000
8440,15.625000
8441,15.625000
8442,11.718750
8443,11.718750
8444,11.718750
8445,11.718750
8446,11.718750
8447,11.718750
8448,11.718750
8449,11.718750
8450,11.718750
8451,7.812500
8452,7.812500
8453,7.812500
8454,7.812500
8455,7.812500
8456,7.812500
8457,7.812500
8458,3.906250
8459,3.906250
8460,3.906250
8461,3.906250
8462,3.906250
8463,3.906250
8464,3.906250
8465,0.000000
8466,0.000000
8467,0.000000
8468,0.000000
8469,0.000000
8470,0.000000
8471,0.000000
8472,0.000000
8473,-3.906250
8474,-3.906250
8475,-3.906250
8476,-3.906250
8477,-3.906250
8478,-3.906250
8479,-3.906250
8480,-3.906250
8481,-7.812500
8482,-7.812500
8483,-7.812500
8484,-7.812500
8485,-7.812500
8486,-7.812500
8487,-7.812500
8488,-7.812500
8489,-11.718750
8490,-11.718750
8491,-11.718750
8492,-11.718750
8493,-11.718750
8494,-11.718750
8495,-11.718750
8496,-15.625000
8497,-15.625000
8498,-15.625000
8499,-15.625000
8500,-15.625000
8501,-15.625000
8502,-15.625000
8503,-15.625000
8504,-19.531250
8505,-19.531250
8506,-19.531250
8507,-19.531250
8508,-19.531250
8509,-19.531250
8510,-19.531250
8511,-19.531250
8512,-23.437500
8513,-23.437500
8514,-23.437500
8515,-23.437500
8516,-23.437500
8517,-23.437500
8518,-23.437500
8519,-23.437500
8520,-27.343750
8521,-27.343750
8522,-27.343750
8523,-27.343750
8524,-27.343750
8525,-27.343750
8526,-27.343750
8527,-31.250000
8528,-31.250000
8529,-31.250000
8530,-31.250000
8531,-31.250000
8532,-31.250000
8533,-31.250000
8534,-35.156250
8535,-35.156250
8536,-35.156250
8537,-35.156250
8538,-35.156250
8539,-35.156250
8540,-35.156250
8541,-35.156250
8542,-39.062500
8543,-39.062500
8544,-39.062500
8545,-39.062500
8546,-39.062500
8547,-39.062500
8548,-39.062500
8549,-39.062500
8550,-39.062500
8551,-42.968750
8552,-42.968750
8553,-42.968750
8554,-42.968750
8555,-42.968750
8556,-42.968750
8557,-46.875000
8558,-46.875000
8559,-46.875000
8560,-46.875000
8561,-46.875000
8562,-46.875000
8563,-46.875000
8564,-46.875000
8565,-46.875000
8566,-50.781250
8567,-50.781250
8568,-50.781250
8569,-50.781250
8570,-50.781250
8571,-50.781250
8572,-50.781250
8573,-54.687500
8574,-54.687500
8575,-54.687500
8576,-54.687500
8577,-54.687500
8578,-54.687500
8579,-54.687500
8580,-54.687500
8581,-58.593750
8582,-58.593750
8583,-58.593750
8584,-58.593750
8585,-58.593750
8586,-58.593750
8587,-58.593750
8588,-58.593750
8589,-58.593750
8590,-62.500000
8591,-62.500000
8592,-62.500000
8593,-62.500000
8594,-62.500000
8595,-62.500000
8596,-62.500000
8597,-62.500000
8598,-66.406250
8599,-62.500000
8600,-66.406250
8601,-66.406250
8602,-66.406250
8603,-66.406250
8604,-66.406250
8605,-66.406250
8606,-66.406250
8607,-70.312500
8608,-70.312500
8609,-70.312500
8610,-70.312500
8611,-70.312500
8612,-70.312500
8613,-70.312500
8614,-70.312500
8615,-70.312500
8616,-70.312500
8617,-74.218750
8618,-70.312500
8619,-74.218750
8620,-74.218750
8621,-74.218750
8622,-74.218750
8623,-74.218750
8624,-74.218750
8625,-74.218750
8626,-74.218750
8627,-74.218750
8628,-78.125000
8629,-78.125000
8630,-78.125000
8631,-78.125000
8632,-78.125000
8633,-78.125000
8634,-78.125000
8635,-78.125000
8636,-78.125000
8637,-78.125000
8638,-78.125000
8639,-78.125000
8640,-82.031250
8641,-82.031250
8642,-82.031250
8643,-82.031250
8644,-82.031250
8645,-82.031250
8646,-82.031250
8647,-82.031250
8648,-82.031250
8649,-82.031250
8650,-82.031250
8651,-82.031250
8652,-85.937500
8653,-85.937500
8654,-85.937500
8655,-85.937500
8656,-85.937500
8657,-85.937500
8658,-85.937500
8659,-85.937500
8660,-85.937500
8661,-85.937500
8662,-85.937500
8663,-85.937500
8664,-85.937500
8665,-89.843750
8666,-85.937500
8667,-89.843750
8668,-89.843750
8669,-89.843750
8670,-89.843750
8671,-89.843750
8672,-89.843750
8673,-89.843750
8674,-89.843750
8675,-89.843750
8676,-89.843750
8677,-89.843750
8678,-89.843750
8679,-89.843750
8680,-89.843750
8681,-89.843750
8682,-93.750000
8683,-93.750000
8684,-93.750000
8685,-93.750000
8686,-93.750000
8687,-93.750000
8688,-93.750000
8689,-93.750000
8690,-93.750000
8691,-93.750000
8692,-93.750000
8693,-93.750000
8694,-93.750000
8695,-93.750000
8696,-93.750000
8697,-93.750000
8698,-93.750000
8699,-93.750000
8700,-93.750000
8701,-93.750000
8702,-93.750000
8703,-93.750000
8704,-93.750000
8705,-97.656250
8706,-97.656250
8707,-97.656250
8708,-97.656250
8709,-97.656250
8710,-97.656250
8711,-97.656250
8712,-97.656250
8713,-97.656250
8714,-97.656250
8715,-97.656250
8716,-97.656250
8717,-97.656250
8718,-97.656250
8719,-97.656250
8720,-97.656250
8721,-97.656250
8722,-97.656250
8723,-97.656250
8724,-97.656250
8725,-97.656250
8726,-97.656250
8727,-97.656250
8728,-97.656250
8729,-97.656250
8730,-97.656250
8731,-97.656250
8732,-97.656250
8733,-97.656250
8734,-97.656250
8735,-97.656250
8736,-97.656250
8737,-97.656250
8738,-97.656250
8739,-97.656250
8740,-97.656250
8741,-97.656250
8742,-97.656250
8743,-97.656250
8744,-97.656250
8745,-97.656250
8746,-97.656250
8747,-97.656250
8748,-97.656250
8749,-97.656250
8750,-97.656250
8751,-97.656250
8752,-97.656250
8753,-97.656250
8754,-97.656250
8755,-97.656250
8756,-97.656250
8757,-97.656250
8758,-97.656250
8759,-97.656250
8760,-97.656250
8761,-97.656250
8762,-97.656250
8763,-97.656250
8764,-97.656250
8765,-97.656250
8766,-97.656250
8767,-97.656250
8768,-97.656250
8769,-97.656250
8770,-93.750000
8771,-93.750000
8772,-97.656250
8773,-93.750000
8774,-93.750000
8775,-93.750000
8776,-93.750000
8777,-93.750000
8778,-93.750000
8779,-93.750000
8780,-93.750000
8781,-93.750000
8782,-93.750000
8783,-93.750000
8784,-93.750000
8785,-93.750000
8786,-93.750000
8787,-93.750000
8788,-93.750000
8789,-93.750000
8790,-93.750000
8791,-93.750000
8792,-93.750000
8793,-93.750000
8794,-93.750000
8795,-93.750000
8796,-89.843750
8797,-89.843750
8798,-89.843750
8799,-89.843750
8800,-89.843750
8801,-89.843750
8802,-89.843750
8803,-89.843750
8804,-89.843750
8805,-89.843750
8806,-89.843750
8807,-89.843750
8808,-89.843750
8809,-89.843750
8810,-85.937500
8811,-85.937500
8812,-89.843750
8813,-85.937500
8814,-85.937500
8815,-85.937500
8816,-85.937500
8817,-85.937500
8818,-85.937500
8819,-85.937500
8820,-85.937500
8821,-85.937500
8822,-85.937500
8823,-85.937500
8824,-85.937500
8825,-82.031250
8826,-82.031250
8827,-82.031250
8828,-82.031250
8829,-82.031250
8830,-82.031250
8831,-82.031250
8832,-82.031250
8833,-82.031250
8834,-82.031250
8835,-82.031250
8836,-82.031250
8837,-82.031250
8838,-78.125000
8839,-82.031250
8840,-82.031250
8841,-78.125000
8842,-78.125000
8843,-78.125000
8844,-78.125000
8845,-78.125000
8846,-78.125000
8847,-78.125000
8848,-78.125000
8849,-78.125000
8850,-74.218750
8851,-74.218750
8852,-74.218750
8853,-74.218750
8854,-74.218750
8855,-74.218750
8856,-74.218750
8857,-74.218750
8858,-74.218750
8859,-74.218750
8860,-74.218750
8861,-70.312500
8862,-70.312500
8863,-70.312500
8864,-70.312500
8865,-70.312500
8866,-70.312500
8867,-70.312500
8868,-70.312500
8869,-70.312500
8870,-66.406250
8871,-66.406250
8872,-66.406250
8873,-66.406250
8874,-66.406250
8875,-66.406250
8876,-66.406250
8877,-66.406250
8878,-66.406250
8879,-62.500000
8880,-62.500000
8881,-62.500000
8882,-62.500000
8883,-62.500000
8884,-62.500000
8885,-62.500000
8886,-62.500000
8887,-62.500000
8888,-58.593750
8889,-58.593750
8890,-58.593750
8891,-58.593750
8892,-58.593750
8893,-58.593750
8894,-58.593750
8895,-58.593750
8896,-54.687500
8897,-54.687500
8898,-54.687500
8899,-54.687500
8900,-54.687500
8901,-54.687500
8902,-54.687500
8903,-54.687500
8904,-54.687500
8905,-50.781250
8906,-50.781250
8907,-50.781250
8908,-50.781250
8909,-50.781250
8910,-50.781250
8911,-50.781250
8912,-50.781250
8913,-46.875000
8914,-46.875000
8915,-46.875000
8916,-46.875000
8917,-46.875000
8918,-46.875000
8919,-46.875000
8920,-42.968750
8921,-42.968750
8922,-42.968750
8923,-42.968750
8924,-42.968750
8925,-39.062500
8926,-42.968750
8927,-39.062500
8928,-42.968750
8929,-39.062500
8930,-39.062500
8931,-39.062500
8932,-39.062500
8933,-39.062500
8934,-39.062500
8935,-35.156250
8936,-39.062500
8937,-35.156250
8938,-35.156250
8939,-35.156250
8940,-35.156250
8941,-35.156250
8942,-35.156250
8943,-31.250000
8944,-31.250000
8945,-31.250000
8946,-31.250000
8947,-31.250000
8948,-31.250000
8949,-31.250000
8950,-27.343750
8951,-27.343750
8952,-27.343750
8953,-27.343750
8954,-27.343750
8955,-27.343750
8956,-27.343750
8957,-27.343750
8958,-23.437500
8959,-23.437500
8960,-23.437500
8961,-23.437500
8962,-23.437500
8963,-23.437500
8964,-23.437500
8965,-23.437500
8966,-19.531250
8967,-19.531250
8968,-19.531250
8969,-19.531250
8970,-19.531250
8971,-19.531250
8972,-19.531250
8973,-15.625000
8974,-15.625000
8975,-15.625000
8976,-15.625000
8977,-15.625000
8978,-15.625000
8979,-11.718750
8980,-11.718750
8981,-11.718750
8982,-11.718750
8983,-11.718750
8984,-11.718750
8985,-11.718750
8986,-11.718750
8987,-11.718750
8988,-7.812500
8989,-7.812500
8990,-7.812500
8991,-7.812500
8992,-7.812500
8993,-3.906250
8994,-3.906250
8995,-3.906250
8996,-3.906250
8997,-3.906250
8998,-3.906250
8999,-3.906250
9000,-3.906250
9001,-3.906250
9002,0.000000
9003,0.000000
9004,0.000000
9005,0.000000
9006,0.000000
9007,0.000000
9008,3.906250
9009,3.906250
9010,3.906250
9011,3.906250
9012,3.906250
9013,3.906250
9014,3.906250
9015,3.906250
9016,3.906250
9017,7.812500
9018,7.812500
9019,3.906250
9020,7.812500
9021,7.812500
9022,7.812500
9023,11.718750
9024,7.812500
9025,11.718750
9026,11.718750
9027,11.718750
9028,11.718750
9029,11.718750
9030,11.718750
9031,11.718750
9032,15.625000
9033,15.625000
9034,15.625000
9035,15.625000
9036,15.625000
9037,15.625000
9038,15.625000
9039,15.625000
9040,15.625000
9041,19.531250
9042,19.531250
9043,19.531250
9044,19.531250
9045,19.531250
9046,19.531250
9047,19.531250
9048,19.531250
9049,23.437500
9050,23.437500
9051,23.437500
9052,23.437500
9053,23.437500
9054,23.437500
9055,23.437500
9056,23.437500
9057,23.437500
9058,27.343750
9059,27.343750
9060,27.343750
9061,27.343750
9062,27.343750
9063,27.343750
9064,27.343750
9065,27.343750
9066,27.343750
9067,31.250000
9068,31.250000
9069,31.250000
9070,31.250000
9071,31.250000
9072,31.250000
9073,31.250000
9074,31.250000
9075,31.250000
9076,31.250000
9077,35.156250
9078,35.156250
9079,35.156250
9080,35.156250
9081,35.156250
9082,35.156250
9083,35.156250
9084,35.156250
9085,35.156250
9086,39.062500
9087,39.062500
9088,35.156250
9089,39.062500
9090,39.062500
9091,39.062500
9092,39.062500
9093,39.062500
9094,42.968750
9095,39.062500
9096,39.062500
9097,42.968750
9098,42.968750
9099,42.968750
9100,42.968750
9101,42.968750
9102,42.968750
9103,42.968750
9104,42.968750
9105,42.968750
9106,42.968750
9107,46.875000
9108,46.875000
9109,46.875000
9110,46.875000
9111,46.875000
9112,46.875000
9113,46.875000
9114,46.875000
9115,46.875000
9116,46.875000
9117,46.875000
9118,50.781250
9119,50.781250
9120,50.781250
9121,50.781250
9122,50.781250
9123,50.781250
9124,50.781250
9125,50.781250
9126,50.781250
9127,50.781250
9128,50.781250
9129,50.781250
9130,54.687500
9131,54.687500
9132,54.687500
9133,54.687500
9134,50.781250
9135,54.687500
9136,54.687500
9137,54.687500
9138,54.687500
9139,54.687500
9140,54.687500
9141,54.687500
9142,54.687500
9143,54.687500
9144,54.687500
9145,54.687500
9146,54.687500
9147,58.593750
9148,58.593750
9149,58.593750
9150,58.593750
9151,58.593750
9152,58.593750
9153,58.593750
9154,58.593750
9155,58.593750
9156,58.593750
9157,58.593750
9158,58.593750
9159,58.593750
9160,58.593750
9161,58.593750
9162,58.593750
9163,62.500000
9164,58.593750
9165,62.500000
9166,62.500000
9167,62.500000
9168,62.500000
9169,62.500000
9170,62.500000
9171,62.500000
9172,62.500000
9173,62.500000
9174,62.500000
9175,62.500000
9176,62.500000
9177,62.500000
9178,62.500000
9179,62.500000
9180,62.500000
9181,62.500000
9182,62.500000
9183,62.500000
9184,62.500000
9185,62.500000
9186,62.500000
9187,62.500000
9188,62.500000
9189,62.500000
9190,66.406250
9191,66.406250
9192,66.406250
9193,66.406250
9194,66.406250
9195,66.406250
9196,66.406250
9197,66.406250
9198,66.406250
9199,66.406250
9200,66.406250
9201,66.406250
9202,66.406250
9203,66.406250
9204,66.406250
9205,66.406250
9206,66.406250
9207,66.406250
9208,66.406250
9209,66.406250
9210,66.406250
9211,66.406250
9212,66.406250
9213,66.406250
9214,66.406250
9215,66.406250
9216,66.406250
9217,66.406250
9218,66.406250
9219,66.406250
9220,66.406250
9221,66.406250
9222,66.406250
9223,66.406250
9224,66.406250
9225,66.406250
9226,66.406250
9227,66.406250
9228,66.406250
9229,66.406250
9230,66.406250
9231,66.406250
9232,66.406250
9233,66.406250
9234,66.406250
9235,66.406250
9236,66.406250
9237,66.406250
9238,66.406250
9239,66.406250
9240,66.406250
9241,66.406250
9242,66.406250
9243,66.406250
9244,66.406250
9245,66.406250
9246,66.406250
9247,66.406250
9248,66.406250
9249,66.406250
9250,66.406250
9251,66.406250
9252,66.406250
9253,66.406250
9254,66.406250
9255,66.406250
9256,66.406250
9257,66.406250
9258,66.406250
9259,66.406250
9260,66.406250
9261,66.406250
9262,66.406250
9263,66.406250
9264,66.406250
9265,66.406250
9266,66.406250
9267,62.500000
9268,62.500000
9269,62.500000
9270,62.500000
9271,66.406250
9272,62.500000
9273,62.500000
9274,62.500000
9275,62.500000
9276,62.500000
9277,62.500000
9278,62.500000
9279,62.500000
9280,62.500000
9281,62.500000
9282,62.500000
9283,62.500000
9284,62.500000
9285,62.500000
9286,62.500000
9287,62.500000
9288,62.500000
9289,62.500000
9290,62.500000
9291,62.500000
9292,62.500000
9293,62.500000
9294,58.593750
9295,58.593750
9296,62.500000
9297,58.593750
9298,58.593750
9299,58.593750
9300,58.593750
9301,58.593750
9302,58.593750
9303,58.593750
9304,58.593750
9305,58.593750
9306,58.593750
9307,58.593750
9308,58.593750
9309,58.593750
9310,58.593750
9311,58.593750
9312,58.593750
9313,58.593750
9314,54.687500
9315,58.593750
9316,54.687500
9317,54.687500
9318,54.687500
9319,54.687500
9320,54.687500
9321,54.687500
9322,54.687500
9323,54.687500
9324,54.687500
9325,54.687500
9326,54.687500
9327,50.781250
9328,54.687500
9329,54.687500
9330,50.781250
9331,50.781250
9332,50.781250
9333,50.781250
9334,50.781250
9335,50.781250
9336,50.781250
9337,50.781250
9338,50.781250
9339,50.781250
9340,50.781250
9341,46.875000
9342,46.875000
9343,46.875000
9344,46.875000
9345,46.875000
9346,46.875000
9347,46.875000
9348,46.875000
9349,46.875000
9350,46.875000
9351,46.875000
9352,42.968750
9353,46.875000
9354,42.968750
9355,42.968750
9356,42.968750
9357,42.968750
9358,42.968750
9359,42.968750
9360,42.968750
9361,42.968750
9362,42.968750
9363,42.968750
9364,39.062500
9365,39.062500
9366,39.062500
9367,39.062500
9368,39.062500
9369,39.062500
9370,39.062500
9371,39.062500
9372,39.062500
9373,39.062500
9374,39.062500
9375,35.156250
9376,39.062500
9377,35.156250
9378,39.062500
9379,35.156250
9380,35.156250
9381,35.156250
9382,35.156250
9383,35.156250
9384,35.156250
9385,31.250000
9386,31.250000
9387,31.250000
9388,31.250000
9389,31.250000
9390,31.250000
9391,31.250000
9392,31.250000
9393,31.250000
9394,31.250000
9395,31.250000
9396,27.343750
9397,27.343750
9398,27.343750
9399,27.343750
9400,27.343750
9401,27.343750
9402,27.343750
9403,27.343750
9404,23.437500
9405,23.437500
9406,23.437500
9407,23.437500
9408,23.437500
9409,23.437500
9410,23.437500
9411,23.437500
9412,23.437500
9413,19.531250
9414,19.531250
9415,19.531250
9416,19.531250
9417,19.531250
9418,19.531250
9419,19.531250
9420,19.531250
9421,19.531250
9422,15.625000
9423,15.625000
9424,15.625000
9425,15.625000
9426,15.625000
9427,15.625000
9428,15.625000
9429,15.625000
9430,15.625000
9431,15.625000
9432,11.718750
9433,11.718750
9434,11.718750
9435,11.718750
9436,11.718750
9437,11.718750
9438,11.718750
9439,7.812500
9440,7.812500
9441,7.812500
9442,7.812500
9443,7.812500
9444,7.812500
9445,7.812500
9446,7.812500
9447,7.812500
9448,3.906250
9449,3.906250
9450,3.906250
9451,3.906250
9452,3.906250
9453,3.906250
9454,0.000000
9455,0.000000
9456,0.000000
9457,0.000000
9458,0.000000
9459,0.000000
9460,0.000000
9461,-3.906250
9462,-3.906250
9463,-3.906250
9464,-3.906250
9465,-3.906250
9466,-3.906250
9467,-3.906250
9468,-3.906250
9469,-3.906250
9470,-7.812500
9471,-7.812500
9472,-7.812500
9473,-7.812500
9474,-7.812500
9475,-7.812500
9476,-7.812500
9477,-7.812500
9478,-11.718750
9479,-11.718750
9480,-11.718750
9481,-11.718750
9482,-11.718750
9483,-11.718750
9484,-15.625000
9485,-15.625000
9486,-11.718750
9487,-15.625000
9488,-15.625000
9489,-15.625000
9490,-15.625000
9491,-15.625000
9492,-15.625000
9493,-19.531250
9494,-19.531250
9495,-19.531250
9496,-19.531250
9497,-19.531250
9498,-23.437500
9499,-19.531250
9500,-23.437500
9501,-23.437500
9502,-23.437500
9503,-23.437500
9504,-23.437500
9505,-23.437500
9506,-23.437500
9507,-23.437500
9508,-27.343750
9509,-27.343750
9510,-27.343750
9511,-27.343750
9512,-27.343750
9513,-27.343750
9514,-27.343750
9515,-31.250000
9516,-31.250000
9517,-31.250000
9518,-31.250000
9519,-31.250000
9520,-31.250000
9521,-31.250000
9522,-31.250000
9523,-35.156250
9524,-35.156250
9525,-35.156250
9526,-35.156250
9527,-35.156250
9528,-35.156250
9529,-35.156250
9530,-35.156250
9531,-39.062500
9532,-39.062500
9533,-39.062500
9534,-39.062500
9535,-39.062500
9536,-39.062500
9537,-39.062500
9538,-39.062500
9539,-42.968750
9540,-42.968750
9541,-42.968750
9542,-42.968750
9543,-42.968750
9544,-42.968750
9545,-42.968750
9546,-46.875000
9547,-46.875000
9548,-46.875000
9549,-46.875000
9550,-46.875000
9551,-46.875000
9552,-46.875000
9553,-50.781250
9554,-50.781250
9555,-50.781250
9556,-50.781250
9557,-50.781250
9558,-50.781250
9559,-50.781250
9560,-50.781250
9561,-54.687500
9562,-54.687500
9563,-54.687500
9564,-54.687500
9565,-54.687500
9566,-54.687500
9567,-54.687500
9568,-54.687500
9569,-54.687500
9570,-58.593750
9571,-58.593750
9572,-58.593750
9573,-58.593750
9574,-58.593750
9575,-58.593750
9576,-58.593750
9577,-58.593750
9578,-58.593750
9579,-58.593750
9580,-58.593750
9581,-62.500000
9582,-62.500000
9583,-62.500000
9584,-62.500000
9585,-62.500000
9586,-62.500000
9587,-62.500000
9588,-66.406250
9589,-66.406250
9590,-66.406250
9591,-66.406250
9592,-66.406250
9593,-66.406250
9594,-66.406250
9595,-66.406250
9596,-70.312500
9597,-66.406250
9598,-70.312500
9599,-70.312500
9600,-70.312500
9601,-70.312500
9602,-70.312500
9603,-70.312500
9604,-70.312500
9605,-70.312500
9606,-74.218750
9607,-74.218750
9608,-74.218750
9609,-74.218750
9610,-74.218750
9611,-74.218750
9612,-74.218750
9613,-74.218750
9614,-74.218750
9615,-74.218750
9616,-74.218750
9617,-78.125000
9618,-78.125000
9619,-78.125000
9620,-78.125000
9621,-78.125000
9622,-78.125000
9623,-78.125000
9624,-78.125000
9625,-78.125000
9626,-78.125000
9627,-78.125000
9628,-78.125000
9629,-78.125000
9630,-82.031250
9631,-82.031250
9632,-82.031250
9633,-82.031250
9634,-82.031250
9635,-82.031250
9636,-82.031250
9637,-82.031250
9638,-82.031250
9639,-82.031250
9640,-82.031250
9641,-85.937500
9642,-85.937500
9643,-85.937500
9644,-85.937500
9645,-85.937500
9646,-85.937500
9647,-85.937500
9648,-85.937500
9649,-85.937500
9650,-85.937500
9651,-85.937500
9652,-85.937500
9653,-85.937500
9654,-85.937500
9655,-85.937500
9656,-85.937500
9657,-89.843750
9658,-89.843750
9659,-89.843750
9660,-89.843750
9661,-89.843750
9662,-89.843750
9663,-89.843750
9664,-89.843750
9665,-89.843750
9666,-89.843750
9667,-89.843750
9668,-89.843750
9669,-89.843750
9670,-89.843750
9671,-89.843750
9672,-89.843750
9673,-89.843750
9674,-93.750000
9675,-93.750000
9676,-93.750000
9677,-93.750000
9678,-93.750000
9679,-93.750000
9680,-93.750000
9681,-93.750000
9682,-93.750000
9683,-93.750000
9684,-93.750000
9685,-93.750000
9686,-93.750000
9687,-93.750000
9688,-93.750000
9689,-93.750000
9690,-93.750000
9691,-93.750000
9692,-93.750000
9693,-93.750000
9694,-93.750000
9695,-93.750000
9696,-93.750000
9697,-93.750000
9698,-93.750000
9699,-93.750000
9700,-93.750000
9701,-93.750000
9702,-93.750000
9703,-93.750000
9704,-97.656250
9705,-97.656250
9706,-97.656250
9707,-97.656250
9708,-97.656250
9709,-97.656250
9710,-97.656250
9711,-97.656250
9712,-97.656250
9713,-97.656250
9714,-97.656250
9715,-97.656250
9716,-97.656250
9717,-97.656250
9718,-97.656250
9719,-97.656250
9720,-97.656250
9721,-97.656250
9722,-97.656250
9723,-97.656250
9724,-97.656250
9725,-97.656250
9726,-97.656250
9727,-97.656250
9728,-97.656250
9729,-97.656250
9730,-97.656250
9731,-97.656250
9732,-97.656250
9733,-97.656250
9734,-97.656250
9735,-97.656250
9736,-97.656250
9737,-97.656250
9738,-97.656250
9739,-97.656250
9740,-97.656250
9741,-97.656250
9742,-97.656250
9743,-97.656250
9744,-97.656250
9745,-97.656250
9746,-97.656250
9747,-97.656250
9748,-97.656250
9749,-97.656250
9750,-97.656250
9751,-97.656250
9752,-93.750000
9753,-93.750000
9754,-97.656250
9755,-93.750000
9756,-97.656250
9757,-97.656250
9758,-97.656250
9759,-93.750000
9760,-97.656250
9761,-93.750000
9762,-93.750000
9763,-93.750000
9764,-93.750000
9765,-93.750000
9766,-93.750000
9767,-93.750000
9768,-93.750000
9769,-93.750000
9770,-93.750000
9771,-93.750000
9772,-93.750000
9773,-93.750000
9774,-93.750000
9775,-93.750000
9776,-93.750000
9777,-93.750000
9778,-93.750000
9779,-93.750000
9780,-93.750000
9781,-93.750000
9782,-93.750000
9783,-93.750000
9784,-93.750000
9785,-89.843750
9786,-89.843750
9787,-89.843750
9788,-89.843750
9789,-89.843750
9790,-89.843750
9791,-89.843750
9792,-89.843750
9793,-89.843750
9794,-89.843750
9795,-89.843750
9796,-89.843750
9797,-89.843750
9798,-89.843750
9799,-89.843750
9800,-85.937500
9801,-85.937500
9802,-85.937500
9803,-85.937500
9804,-85.937500
9805,-85.937500
9806,-85.937500
9807,-85.937500
9808,-85.937500
9809,-85.937500
9810,-85.937500
9811,-85.937500
9812,-85.937500
9813,-85.937500
9814,-82.031250
9815,-85.937500
9816,-82.031250
9817,-82.031250
9818,-82.031250
9819,-82.031250
9820,-82.031250
9821,-82.031250
9822,-82.031250
9823,-82.031250
9824,-82.031250
9825,-78.125000
9826,-82.031250
9827,-78.125000
9828,-78.125000
9829,-78.125000
9830,-78.125000
9831,-78.125000
9832,-78.125000
9833,-78.125000
9834,-78.125000
9835,-78.125000
9836,-78.125000
9837,-74.218750
9838,-74.218750
9839,-74.218750
9840,-74.218750
9841,-74.218750
9842,-74.218750
9843,-74.218750
9844,-74.218750
9845,-74.218750
9846,-74.218750
9847,-74.218750
9848,-74.218750
9849,-70.312500
9850,-70.312500
9851,-70.312500
9852,-70.312500
9853,-70.312500
9854,-70.312500
9855,-70.312500
9856,-70.312500
9857,-70.312500
9858,-70.312500
9859,-66.406250
9860,-66.406250
9861,-66.406250
9862,-66.406250
9863,-66.406250
9864,-66.406250
9865,-66.406250
9866,-66.406250
9867,-66.406250
9868,-66.406250
9869,-62.500000
9870,-62.500000
9871,-62.500000
9872,-62.500000
9873,-62.500000
9874,-62.500000
9875,-58.593750
9876,-62.500000
9877,-58.593750
9878,-58.593750
9879,-58.593750
9880,-58.593750
9881,-58.593750
9882,-58.593750
9883,-58.593750
9884,-58.593750
9885,-54.687500
9886,-54.687500
9887,-54.687500
9888,-54.687500
9889,-54.687500
9890,-54.687500
9891,-54.687500
9892,-54.687500
9893,-54.687500
9894,-50.781250
9895,-50.781250
9896,-50.781250
9897,-50.781250
9898,-50.781250
9899,-50.781250
9900,-50.781250
9901,-46.875000
9902,-46.875000
9903,-46.875000
9904,-46.875000
9905,-46.875000
9906,-46.875000
9907,-46.875000
9908,-46.875000
9909,-42.968750
9910,-42.968750
9911,-42.968750
9912,-42.968750
9913,-42.968750
9914,-42.968750
9915,-42.968750
9916,-42.968750
9917,-42.968750
9918,-39.062500
9919,-39.062500
9920,-39.062500
9921,-39.062500
9922,-39.062500
9923,-39.062500
9924,-39.062500
9925,-35.156250
9926,-35.156250
9927,-35.156250
9928,-35.156250
9929,-35.156250
9930,-35.156250
9931,-35.156250
9932,-35.156250
9933,-31.250000
9934,-31.250000
9935,-31.250000
9936,-31.250000
9937,-31.250000
9938,-31.250000
9939,-27.343750
9940,-31.250000
9941,-27.343750
9942,-27.343750
9943,-27.343750
9944,-27.343750
9945,-27.343750
9946,-27.343750
9947,-23.437500
9948,-23.437500
9949,-23.437500
9950,-23.437500
9951,-23.437500
9952,-23.437500
9953,-23.437500
9954,-23.437500
9955,-19.531250
9956,-19.531250
9957,-19.531250
9958,-19.531250
9959,-19.531250
9960,-19.531250
9961,-19.531250
9962,-19.531250
9963,-15.625000
9964,-15.625000
9965,-15.625000
9966,-15.625000
9967,-15.625000
9968,-15.625000
9969,-11.718750
9970,-11.718750
9971,-11.718750
9972,-11.718750
9973,-11.718750
9974,-11.718750
9975,-11.718750
9976,-11.718750
9977,-11.718750
9978,-7.812500
9979,-7.812500
9980,-7.812500
9981,-7.812500
9982,-7.812500
9983,-7.812500
9984,-7.812500
9985,-3.906250
9986,-3.906250
9987,-3.906250
9988,-3.906250
9989,-3.906250
9990,-3.906250
9991,-3.906250
9992,0.000000
9993,0.000000
9994,0.000000
9995,0.000000
9996,0.000000
9997,0.000000
9998,0.000000
9999,0.000000
10000,0.000000
