Channel              :,CH1
Frequency            :,1.010kHz
Period               :,0.990ms
PK-PK                :,296.9mV
Probe attenuation    :,1X
Voltage per ADC value:,0.244141mV
Time interval        :,1.00000us

index,CH1_Voltage(mV)
1,-70.312500
2,-70.312500
3,-70.312500
4,-70.312500
5,-70.312500
6,-66.406250
7,-66.406250
8,-66.406250
9,-66.406250
10,-66.406250
11,-62.500000
12,-62.500000
13,-62.500000
14,-58.593750
15,-58.593750
16,-58.593750
17,-58.593750
18,-58.593750
19,-54.687500
20,-54.687500
21,-54.687500
22,-54.687500
23,-50.781250
24,-50.781250
25,-50.781250
26,-46.875000
27,-46.875000
28,-46.875000
29,-46.875000
30,-46.875000
31,-46.875000
32,-42.968750
33,-42.968750
34,-42.968750
35,-42.968750
36,-39.062500
37,-39.062500
38,-39.062500
39,-39.062500
40,-35.156250
41,-35.156250
42,-35.156250
43,-35.156250
44,-31.250000
45,-31.250000
46,-31.250000
47,-31.250000
48,-27.343750
49,-27.343750
50,-27.343750
51,-27.343750
52,-23.437500
53,-23.437500
54,-23.437500
55,-23.437500
56,-19.531250
57,-19.531250
58,-19.531250
59,-19.531250
60,-15.625000
61,-15.625000
62,-15.625000
63,-15.625000
64,-15.625000
65,-11.718750
66,-11.718750
67,-11.718750
68,-11.718750
69,-7.812500
70,-7.812500
71,-7.812500
72,-7.812500
73,-3.906250
74,-3.906250
75,-3.906250
76,-3.906250
77,0.000000
78,0.000000
79,0.000000
80,0.000000
81,3.906250
82,3.906250
83,3.906250
84,3.906250
85,7.812500
86,7.812500
87,7.812500
88,7.812500
89,7.812500
90,11.718750
91,11.718750
92,11.718750
93,11.718750
94,15.625000
95,15.625000
96,15.625000
97,15.625000
98,19.531250
99,19.531250
100,19.531250
101,19.531250
102,19.531250
103,19.531250
104,23.437500
105,23.437500
106,27.343750
107,27.343750
108,27.343750
109,27.343750
110,27.343750
111,27.343750
112,27.343750
113,31.250000
114,31.250000
115,31.250000
116,35.156250
117,35.156250
118,35.156250
119,35.156250
120,35.156250
121,39.062500
122,39.062500
123,39.062500
124,39.062500
125,39.062500
126,42.968750
127,42.968750
128,42.968750
129,46.875000
130,46.875000
131,46.875000
132,46.875000
133,46.875000
134,46.875000
135,50.781250
136,50.781250
137,50.781250
138,50.781250
139,50.781250
140,54.687500
141,54.687500
142,54.687500
143,54.687500
144,54.687500
145,54.687500
146,58.593750
147,58.593750
148,58.593750
149,58.593750
150,58.593750
151,62.500000
152,62.500000
153,62.500000
154,62.500000
155,62.500000
156,66.406250
157,66.406250
158,66.406250
159,66.406250
160,66.406250
161,70.312500
162,70.312500
163,70.312500
164,70.312500
165,70.312500
166,70.312500
167,74.218750
168,74.218750
169,74.218750
170,74.218750
171,74.218750
172,74.218750
173,78.125000
174,78.125000
175,78.125000
176,78.125000
177,78.125000
178,82.031250
179,82.031250
180,82.031250
181,82.031250
182,82.031250
183,82.031250
184,82.031250
185,82.031250
186,85.937500
187,85.937500
188,85.937500
189,85.937500
190,85.937500
191,89.843750
192,89.843750
193,89.843750
194,89.843750
195,89.843750
196,89.843750
197,89.843750
198,89.843750
199,89.843750
200,93.750000
201,93.750000
202,93.750000
203,93.750000
204,93.750000
205,93.750000
206,97.656250
207,97.656250
208,97.656250
209,97.656250
210,97.656250
211,97.656250
212,97.656250
213,97.656250
214,97.656250
215,101.562500
216,101.562500
217,101.562500
218,101.562500
219,101.562500
220,101.562500
221,101.562500
222,101.562500
223,105.468750
224,105.468750
225,105.468750
226,105.468750
227,105.468750
228,105.468750
229,109.375000
230,105.468750
231,105.468750
232,109.375000
233,109.375000
234,109.375000
235,109.375000
236,109.375000
237,109.375000
238,109.375000
239,109.375000
240,113.281250
241,109.375000
242,113.281250
243,113.281250
244,113.281250
245,113.281250
246,113.281250
247,113.281250
248,113.281250
249,113.281250
250,113.281250
251,113.281250
252,113.281250
253,117.187500
254,117.187500
255,117.187500
256,117.187500
257,117.187500
258,117.187500
259,117.187500
260,117.187500
261,117.187500
262,117.187500
263,117.187500
264,117.187500
265,121.093750
266,121.093750
267,121.093750
268,121.093750
269,121.093750
270,121.093750
271,121.093750
272,121.093750
273,121.093750
274,121.093750
275,121.093750
276,121.093750
277,121.093750
278,121.093750
279,121.093750
280,121.093750
281,121.093750
282,121.093750
283,121.093750
284,121.093750
285,121.093750
286,125.000000
287,125.000000
288,125.000000
289,125.000000
290,125.000000
291,125.000000
292,125.000000
293,125.000000
294,125.000000
295,125.000000
296,125.000000
297,125.000000
298,125.000000
299,125.000000
300,125.000000
301,125.000000
302,125.000000
303,125.000000
304,125.000000
305,125.000000
306,125.000000
307,125.000000
308,125.000000
309,125.000000
310,125.000000
311,125.000000
312,125.000000
313,125.000000
314,125.000000
315,125.000000
316,125.000000
317,125.000000
318,125.000000
319,125.000000
320,125.000000
321,125.000000
322,128.906250
323,125.000000
324,125.000000
325,125.000000
326,125.000000
327,125.000000
328,125.000000
329,125.000000
330,125.000000
331,125.000000
332,125.000000
333,125.000000
334,125.000000
335,125.000000
336,125.000000
337,125.000000
338,125.000000
339,125.000000
340,125.000000
341,125.000000
342,125.000000
343,125.000000
344,125.000000
345,125.000000
346,125.000000
347,125.000000
348,125.000000
349,125.000000
350,125.000000
351,125.000000
352,125.000000
353,125.000000
354,125.000000
355,125.000000
356,125.000000
357,125.000000
358,125.000000
359,121.093750
360,121.093750
361,121.093750
362,125.000000
363,121.093750
364,121.093750
365,121.093750
366,121.093750
367,121.093750
368,121.093750
369,121.093750
370,121.093750
371,121.093750
372,121.093750
373,121.093750
374,121.093750
375,121.093750
376,121.093750
377,117.187500
378,117.187500
379,117.187500
380,117.187500
381,117.187500
382,117.187500
383,117.187500
384,117.187500
385,117.187500
386,117.187500
387,117.187500
388,117.187500
389,117.187500
390,117.187500
391,113.281250
392,113.281250
393,113.281250
394,113.281250
395,113.281250
396,113.281250
397,113.281250
398,113.281250
399,113.281250
400,113.281250
401,113.281250
402,113.281250
403,109.375000
404,109.375000
405,109.375000
406,109.375000
407,109.375000
408,109.375000
409,109.375000
410,109.375000
411,109.375000
412,109.375000
413,105.468750
414,105.468750
415,105.468750
416,105.468750
417,105.468750
418,105.468750
419,105.468750
420,105.468750
421,101.562500
422,101.562500
423,101.562500
424,101.562500
425,101.562500
426,101.562500
427,101.562500
428,101.562500
429,101.562500
430,101.562500
431,97.656250
432,97.656250
433,97.656250
434,97.656250
435,97.656250
436,97.656250
437,97.656250
438,93.750000
439,93.750000
440,93.750000
441,93.750000
442,93.750000
443,93.750000
444,93.750000
445,89.843750
446,89.843750
447,89.843750
448,89.843750
449,89.843750
450,89.843750
451,89.843750
452,85.937500
453,85.937500
454,85.937500
455,85.937500
456,85.937500
457,85.937500
458,85.937500
459,82.031250
460,82.031250
461,82.031250
462,82.031250
463,82.031250
464,82.031250
465,78.125000
466,78.125000
467,78.125000
468,78.125000
469,78.125000
470,74.218750
471,74.218750
472,74.218750
473,74.218750
474,74.218750
475,74.218750
476,70.312500
477,70.312500
478,70.312500
479,70.312500
480,70.312500
481,66.406250
482,66.406250
483,66.406250
484,66.406250
485,66.406250
486,66.406250
487,62.500000
488,62.500000
489,62.500000
490,62.500000
491,62.500000
492,58.593750
493,58.593750
494,58.593750
495,58.593750
496,58.593750
497,54.687500
498,54.687500
499,54.687500
500,54.687500
501,54.687500
502,50.781250
503,50.781250
504,50.781250
505,50.781250
506,50.781250
507,46.875000
508,46.875000
509,46.875000
510,46.875000
511,46.875000
512,42.968750
513,42.968750
514,42.968750
515,42.968750
516,42.968750
517,39.062500
518,39.062500
519,39.062500
520,39.062500
521,35.156250
522,35.156250
523,35.156250
524,35.156250
525,31.250000
526,35.156250
527,31.250000
528,31.250000
529,27.343750
530,27.343750
531,27.343750
532,27.343750
533,27.343750
534,27.343750
535,23.437500
536,23.437500
537,23.437500
538,23.437500
539,23.437500
540,19.531250
541,19.531250
542,19.531250
543,15.625000
544,15.625000
545,15.625000
546,15.625000
547,15.625000
548,11.718750
549,11.718750
550,11.718750
551,11.718750
552,7.812500
553,7.812500
554,7.812500
555,7.812500
556,3.906250
557,3.906250
558,3.906250
559,3.906250
560,0.000000
561,0.000000
562,0.000000
563,0.000000
564,-3.906250
565,-3.906250
566,-3.906250
567,-3.906250
568,-7.812500
569,-7.812500
570,-7.812500
571,-7.812500
572,-11.718750
573,-11.718750
574,-11.718750
575,-11.718750
576,-11.718750
577,-15.625000
578,-15.625000
579,-15.625000
580,-19.531250
581,-19.531250
582,-19.531250
583,-19.531250
584,-19.531250
585,-23.437500
586,-23.437500
587,-23.437500
588,-23.437500
589,-27.343750
590,-27.343750
591,-27.343750
592,-27.343750
593,-31.250000
594,-31.250000
595,-31.250000
596,-31.250000
597,-35.156250
598,-35.156250
599,-35.156250
600,-35.156250
601,-39.062500
602,-39.062500
603,-39.062500
604,-39.062500
605,-42.968750
606,-42.968750
607,-42.968750
608,-42.968750
609,-42.968750
610,-46.875000
611,-46.875000
612,-46.875000
613,-50.781250
614,-50.781250
615,-50.781250
616,-50.781250
617,-54.687500
618,-54.687500
619,-54.687500
620,-54.687500
621,-54.687500
622,-58.593750
623,-58.593750
624,-58.593750
625,-58.593750
626,-62.500000
627,-62.500000
628,-62.500000
629,-62.500000
630,-66.406250
631,-66.406250
632,-66.406250
633,-66.406250
634,-70.312500
635,-70.312500
636,-70.312500
637,-70.312500
638,-74.218750
639,-74.218750
640,-74.218750
641,-74.218750
642,-74.218750
643,-78.125000
644,-78.125000
645,-78.125000
646,-78.125000
647,-82.031250
648,-82.031250
649,-82.031250
650,-82.031250
651,-85.937500
652,-85.937500
653,-85.937500
654,-85.937500
655,-85.937500
656,-85.937500
657,-89.843750
658,-89.843750
659,-89.843750
660,-89.843750
661,-93.750000
662,-93.750000
663,-93.750000
664,-97.656250
665,-97.656250
666,-97.656250
667,-97.656250
668,-97.656250
669,-97.656250
670,-101.562500
671,-101.562500
672,-101.562500
673,-101.562500
674,-105.468750
675,-105.468750
676,-105.468750
677,-105.468750
678,-105.468750
679,-105.468750
680,-109.375000
681,-109.375000
682,-109.375000
683,-109.375000
684,-109.375000
685,-113.281250
686,-113.281250
687,-113.281250
688,-113.281250
689,-113.281250
690,-117.187500
691,-117.187500
692,-117.187500
693,-117.187500
694,-117.187500
695,-121.093750
696,-121.093750
697,-121.093750
698,-121.093750
699,-121.093750
700,-125.000000
701,-125.000000
702,-125.000000
703,-125.000000
704,-125.000000
705,-128.906250
706,-128.906250
707,-128.906250
708,-128.906250
709,-128.906250
710,-128.906250
711,-128.906250
712,-132.812500
713,-132.812500
714,-132.812500
715,-132.812500
716,-132.812500
717,-132.812500
718,-136.718750
719,-136.718750
720,-136.718750
721,-136.718750
722,-136.718750
723,-140.625000
724,-140.625000
725,-140.625000
726,-140.625000
727,-140.625000
728,-140.625000
729,-140.625000
730,-140.625000
731,-140.625000
732,-144.531250
733,-144.531250
734,-144.531250
735,-144.531250
736,-144.531250
737,-144.531250
738,-144.531250
739,-148.437500
740,-148.437500
741,-148.437500
742,-148.437500
743,-148.437500
744,-148.437500
745,-148.437500
746,-152.343750
747,-148.437500
748,-152.343750
749,-152.343750
750,-152.343750
751,-152.343750
752,-152.343750
753,-152.343750
754,-152.343750
755,-152.343750
756,-152.343750
757,-156.250000
758,-156.250000
759,-156.250000
760,-156.250000
761,-156.250000
762,-156.250000
763,-156.250000
764,-156.250000
765,-156.250000
766,-156.250000
767,-156.250000
768,-156.250000
769,-160.156250
770,-160.156250
771,-160.156250
772,-160.156250
773,-160.156250
774,-160.156250
775,-160.156250
776,-160.156250
777,-160.156250
778,-160.156250
779,-160.156250
780,-160.156250
781,-160.156250
782,-160.156250
783,-160.156250
784,-164.062500
785,-160.156250
786,-164.062500
787,-164.062500
788,-164.062500
789,-164.062500
790,-164.062500
791,-164.062500
792,-164.062500
793,-164.062500
794,-164.062500
795,-164.062500
796,-164.062500
797,-164.062500
798,-164.062500
799,-164.062500
800,-164.062500
801,-164.062500
802,-164.062500
803,-164.062500
804,-164.062500
805,-164.062500
806,-164.062500
807,-164.062500
808,-164.062500
809,-164.062500
810,-164.062500
811,-164.062500
812,-164.062500
813,-164.062500
814,-164.062500
815,-164.062500
816,-164.062500
817,-164.062500
818,-164.062500
819,-164.062500
820,-164.062500
821,-164.062500
822,-164.062500
823,-164.062500
824,-164.062500
825,-164.062500
826,-164.062500
827,-164.062500
828,-164.062500
829,-164.062500
830,-164.062500
831,-164.062500
832,-164.062500
833,-164.062500
834,-164.062500
835,-164.062500
836,-164.062500
837,-164.062500
838,-164.062500
839,-164.062500
840,-164.062500
841,-164.062500
842,-164.062500
843,-164.062500
844,-164.062500
845,-160.156250
846,-164.062500
847,-160.156250
848,-164.062500
849,-160.156250
850,-160.156250
851,-160.156250
852,-160.156250
853,-160.156250
854,-160.156250
855,-160.156250
856,-160.156250
857,-160.156250
858,-160.156250
859,-160.156250
860,-160.156250
861,-160.156250
862,-156.250000
863,-156.250000
864,-156.250000
865,-156.250000
866,-156.250000
867,-156.250000
868,-156.250000
869,-156.250000
870,-156.250000
871,-156.250000
872,-156.250000
873,-152.343750
874,-152.343750
875,-152.343750
876,-152.343750
877,-152.343750
878,-152.343750
879,-152.343750
880,-152.343750
881,-152.343750
882,-152.343750
883,-148.437500
884,-148.437500
885,-148.437500
886,-148.437500
887,-148.437500
888,-148.437500
889,-148.437500
890,-148.437500
891,-144.531250
892,-144.531250
893,-144.531250
894,-144.531250
895,-144.531250
896,-144.531250
897,-144.531250
898,-144.531250
899,-140.625000
900,-140.625000
901,-140.625000
902,-140.625000
903,-140.625000
904,-140.625000
905,-136.718750
906,-136.718750
907,-136.718750
908,-136.718750
909,-136.718750
910,-136.718750
911,-136.718750
912,-132.812500
913,-132.812500
914,-132.812500
915,-132.812500
916,-132.812500
917,-128.906250
918,-128.906250
919,-128.906250
920,-128.906250
921,-128.906250
922,-128.906250
923,-128.906250
924,-125.000000
925,-125.000000
926,-125.000000
927,-125.000000
928,-125.000000
929,-121.093750
930,-121.093750
931,-121.093750
932,-121.093750
933,-121.093750
934,-121.093750
935,-117.187500
936,-117.187500
937,-117.187500
938,-117.187500
939,-117.187500
940,-113.281250
941,-113.281250
942,-113.281250
943,-113.281250
944,-109.375000
945,-109.375000
946,-109.375000
947,-109.375000
948,-109.375000
949,-109.375000
950,-105.468750
951,-105.468750
952,-105.468750
953,-105.468750
954,-101.562500
955,-101.562500
956,-101.562500
957,-101.562500
958,-101.562500
959,-101.562500
960,-97.656250
961,-97.656250
962,-97.656250
963,-97.656250
964,-93.750000
965,-93.750000
966,-93.750000
967,-93.750000
968,-93.750000
969,-89.843750
970,-89.843750
971,-89.843750
972,-89.843750
973,-89.843750
974,-85.937500
975,-85.937500
976,-85.937500
977,-85.937500
978,-82.031250
979,-82.031250
980,-82.031250
981,-82.031250
982,-82.031250
983,-78.125000
984,-78.125000
985,-78.125000
986,-78.125000
987,-74.218750
988,-74.218750
989,-74.218750
990,-74.218750
991,-74.218750
992,-70.312500
993,-70.312500
994,-70.312500
995,-66.406250
996,-66.406250
997,-66.406250
998,-66.406250
999,-66.406250
1000,-66.406250
1001,-62.500000
1002,-62.500000
1003,-62.500000
1004,-58.593750
1005,-58.593750
1006,-58.593750
1007,-58.593750
1008,-58.593750
1009,-54.687500
1010,-54.687500
1011,-54.687500
1012,-54.687500
1013,-50.781250
1014,-50.781250
1015,-50.781250
1016,-50.781250
1017,-46.875000
1018,-46.875000
1019,-46.875000
1020,-46.875000
1021,-42.968750
1022,-42.968750
1023,-42.968750
1024,-42.968750
1025,-39.062500
1026,-39.062500
1027,-39.062500
1028,-39.062500
1029,-35.156250
1030,-35.156250
1031,-35.156250
1032,-35.156250
1033,-31.250000
1034,-31.250000
1035,-31.250000
1036,-31.250000
1037,-31.250000
1038,-27.343750
1039,-27.343750
1040,-27.343750
1041,-23.437500
1042,-23.437500
1043,-23.437500
1044,-23.437500
1045,-23.437500
1046,-19.531250
1047,-19.531250
1048,-19.531250
1049,-15.625000
1050,-15.625000
1051,-15.625000
1052,-15.625000
1053,-11.718750
1054,-11.718750
1055,-11.718750
1056,-11.718750
1057,-11.718750
1058,-11.718750
1059,-7.812500
1060,-7.812500
1061,-7.812500
1062,-3.906250
1063,-3.906250
1064,-3.906250
1065,-3.906250
1066,-3.906250
1067,0.000000
1068,0.000000
1069,0.000000
1070,3.906250
1071,3.906250
1072,3.906250
1073,3.906250
1074,3.906250
1075,7.812500
1076,7.812500
1077,7.812500
1078,7.812500
1079,11.718750
1080,11.718750
1081,11.718750
1082,11.718750
1083,11.718750
1084,15.625000
1085,15.625000
1086,15.625000
1087,15.625000
1088,19.531250
1089,19.531250
1090,19.531250
1091,19.531250
1092,19.531250
1093,23.437500
1094,23.437500
1095,23.437500
1096,23.437500
1097,27.343750
1098,27.343750
1099,27.343750
1100,27.343750
1101,31.250000
1102,31.250000
1103,31.250000
1104,31.250000
1105,31.250000
1106,35.156250
1107,35.156250
1108,35.156250
1109,35.156250
1110,39.062500
1111,39.062500
1112,39.062500
1113,39.062500
1114,39.062500
1115,39.062500
1116,42.968750
1117,42.968750
1118,42.968750
1119,42.968750
1120,46.875000
1121,46.875000
1122,46.875000
1123,46.875000
1124,46.875000
1125,50.781250
1126,50.781250
1127,50.781250
1128,50.781250
1129,50.781250
1130,54.687500
1131,54.687500
1132,54.687500
1133,54.687500
1134,54.687500
1135,54.687500
1136,58.593750
1137,58.593750
1138,58.593750
1139,58.593750
1140,58.593750
1141,62.500000
1142,62.500000
1143,62.500000
1144,62.500000
1145,62.500000
1146,66.406250
1147,66.406250
1148,66.406250
1149,66.406250
1150,66.406250
1151,66.406250
1152,70.312500
1153,70.312500
1154,70.312500
1155,70.312500
1156,70.312500
1157,74.218750
1158,74.218750
1159,74.218750
1160,74.218750
1161,74.218750
1162,74.218750
1163,78.125000
1164,78.125000
1165,78.125000
1166,78.125000
1167,78.125000
1168,82.031250
1169,82.031250
1170,82.031250
1171,82.031250
1172,82.031250
1173,82.031250
1174,82.031250
1175,82.031250
1176,85.937500
1177,85.937500
1178,85.937500
1179,85.937500
1180,85.937500
1181,89.843750
1182,89.843750
1183,89.843750
1184,89.843750
1185,89.843750
1186,89.843750
1187,89.843750
1188,89.843750
1189,89.843750
1190,93.750000
1191,93.750000
1192,93.750000
1193,93.750000
1194,93.750000
1195,97.656250
1196,97.656250
1197,97.656250
1198,97.656250
1199,97.656250
1200,97.656250
1201,97.656250
1202,97.656250
1203,97.656250
1204,101.562500
1205,101.562500
1206,101.562500
1207,101.562500
1208,101.562500
1209,101.562500
1210,101.562500
1211,101.562500
1212,101.562500
1213,105.468750
1214,105.468750
1215,105.468750
1216,105.468750
1217,105.468750
1218,105.468750
1219,105.468750
1220,105.468750
1221,105.468750
1222,109.375000
1223,109.375000
1224,109.375000
1225,109.375000
1226,109.375000
1227,109.375000
1228,109.375000
1229,109.375000
1230,109.375000
1231,109.375000
1232,113.281250
1233,113.281250
1234,113.281250
1235,113.281250
1236,113.281250
1237,113.281250
1238,113.281250
1239,113.281250
1240,113.281250
1241,113.281250
1242,113.281250
1243,113.281250
1244,117.187500
1245,117.187500
1246,117.187500
1247,117.187500
1248,117.187500
1249,117.187500
1250,117.187500
1251,117.187500
1252,117.187500
1253,117.187500
1254,117.187500
1255,117.187500
1256,121.093750
1257,121.093750
1258,121.093750
1259,121.093750
1260,121.093750
1261,121.093750
1262,121.093750
1263,121.093750
1264,121.093750
1265,121.093750
1266,121.093750
1267,121.093750
1268,121.093750
1269,121.093750
1270,121.093750
1271,121.093750
1272,121.093750
1273,121.093750
1274,121.093750
1275,121.093750
1276,125.000000
1277,125.000000
1278,125.000000
1279,125.000000
1280,125.000000
1281,125.000000
1282,125.000000
1283,125.000000
1284,125.000000
1285,125.000000
1286,125.000000
1287,125.000000
1288,125.000000
1289,125.000000
1290,125.000000
1291,125.000000
1292,125.000000
1293,125.000000
1294,125.000000
1295,125.000000
1296,125.000000
1297,125.000000
1298,125.000000
1299,125.000000
1300,125.000000
1301,125.000000
1302,125.000000
1303,125.000000
1304,125.000000
1305,125.000000
1306,125.000000
1307,125.000000
1308,125.000000
1309,125.000000
1310,125.000000
1311,125.000000
1312,125.000000
1313,125.000000
1314,125.000000
1315,125.000000
1316,125.000000
1317,125.000000
1318,125.000000
1319,125.000000
1320,125.000000
1321,125.000000
1322,125.000000
1323,125.000000
1324,125.000000
1325,125.000000
1326,125.000000
1327,125.000000
1328,125.000000
1329,125.000000
1330,125.000000
1331,125.000000
1332,125.000000
1333,125.000000
1334,125.000000
1335,125.000000
1336,125.000000
1337,125.000000
1338,125.000000
1339,125.000000
1340,125.000000
1341,125.000000
1342,125.000000
1343,125.000000
1344,125.000000
1345,125.000000
1346,125.000000
1347,125.000000
1348,121.093750
1349,121.093750
1350,121.093750
1351,121.093750
1352,121.093750
1353,121.093750
1354,121.093750
1355,121.093750
1356,121.093750
1357,121.093750
1358,121.093750
1359,121.093750
1360,121.093750
1361,121.093750
1362,121.093750
1363,121.093750
1364,121.093750
1365,121.093750
1366,121.093750
1367,117.187500
1368,117.187500
1369,117.187500
1370,117.187500
1371,117.187500
1372,117.187500
1373,117.187500
1374,117.187500
1375,117.187500
1376,117.187500
1377,117.187500
1378,117.187500
1379,117.187500
1380,113.281250
1381,113.281250
1382,113.281250
1383,113.281250
1384,113.281250
1385,113.281250
1386,113.281250
1387,113.281250
1388,113.281250
1389,113.281250
1390,113.281250
1391,113.281250
1392,113.281250
1393,113.281250
1394,109.375000
1395,109.375000
1396,109.375000
1397,109.375000
1398,109.375000
1399,109.375000
1400,109.375000
1401,109.375000
1402,109.375000
1403,105.468750
1404,105.468750
1405,105.468750
1406,105.468750
1407,105.468750
1408,105.468750
1409,105.468750
1410,105.468750
1411,105.468750
1412,101.562500
1413,101.562500
1414,101.562500
1415,101.562500
1416,101.562500
1417,101.562500
1418,101.562500
1419,101.562500
1420,101.562500
1421,97.656250
1422,97.656250
1423,97.656250
1424,97.656250
1425,97.656250
1426,97.656250
1427,97.656250
1428,93.750000
1429,93.750000
1430,93.750000
1431,93.750000
1432,93.750000
1433,93.750000
1434,89.843750
1435,89.843750
1436,89.843750
1437,89.843750
1438,89.843750
1439,89.843750
1440,89.843750
1441,89.843750
1442,85.937500
1443,85.937500
1444,85.937500
1445,85.937500
1446,85.937500
1447,85.937500
1448,82.031250
1449,82.031250
1450,82.031250
1451,82.031250
1452,82.031250
1453,78.125000
1454,78.125000
1455,78.125000
1456,78.125000
1457,78.125000
1458,78.125000
1459,78.125000
1460,74.218750
1461,74.218750
1462,74.218750
1463,74.218750
1464,74.218750
1465,70.312500
1466,70.312500
1467,70.312500
1468,70.312500
1469,70.312500
1470,70.312500
1471,66.406250
1472,66.406250
1473,66.406250
1474,66.406250
1475,66.406250
1476,66.406250
1477,62.500000
1478,62.500000
1479,62.500000
1480,62.500000
1481,62.500000
1482,58.593750
1483,58.593750
1484,58.593750
1485,58.593750
1486,58.593750
1487,58.593750
1488,54.687500
1489,54.687500
1490,54.687500
1491,54.687500
1492,50.781250
1493,50.781250
1494,50.781250
1495,50.781250
1496,46.875000
1497,46.875000
1498,46.875000
1499,46.875000
1500,46.875000
1501,46.875000
1502,42.968750
1503,42.968750
1504,42.968750
1505,42.968750
1506,42.968750
1507,39.062500
1508,39.062500
1509,39.062500
1510,39.062500
1511,39.062500
1512,35.156250
1513,35.156250
1514,35.156250
1515,35.156250
1516,31.250000
1517,31.250000
1518,31.250000
1519,27.343750
1520,31.250000
1521,27.343750
1522,27.343750
1523,27.343750
1524,27.343750
1525,23.437500
1526,23.437500
1527,23.437500
1528,23.437500
1529,23.437500
1530,19.531250
1531,19.531250
1532,19.531250
1533,15.625000
1534,15.625000
1535,15.625000
1536,15.625000
1537,11.718750
1538,11.718750
1539,11.718750
1540,11.718750
1541,11.718750
1542,7.812500
1543,7.812500
1544,7.812500
1545,7.812500
1546,7.812500
1547,3.906250
1548,3.906250
1549,3.906250
1550,0.000000
1551,0.000000
1552,0.000000
1553,0.000000
1554,0.000000
1555,-3.906250
1556,-3.906250
1557,-3.906250
1558,-7.812500
1559,-7.812500
1560,-7.812500
1561,-7.812500
1562,-11.718750
1563,-11.718750
1564,-11.718750
1565,-11.718750
1566,-11.718750
1567,-15.625000
1568,-15.625000
1569,-15.625000
1570,-15.625000
1571,-19.531250
1572,-19.531250
1573,-19.531250
1574,-19.531250
1575,-23.437500
1576,-23.437500
1577,-23.437500
1578,-23.437500
1579,-27.343750
1580,-27.343750
1581,-27.343750
1582,-27.343750
1583,-31.250000
1584,-31.250000
1585,-31.250000
1586,-31.250000
1587,-35.156250
1588,-35.156250
1589,-35.156250
1590,-35.156250
1591,-39.062500
1592,-39.062500
1593,-39.062500
1594,-39.062500
1595,-39.062500
1596,-42.968750
1597,-42.968750
1598,-42.968750
1599,-46.875000
1600,-46.875000
1601,-46.875000
1602,-46.875000
1603,-46.875000
1604,-50.781250
1605,-50.781250
1606,-50.781250
1607,-50.781250
1608,-54.687500
1609,-54.687500
1610,-54.687500
1611,-54.687500
1612,-58.593750
1613,-58.593750
1614,-58.593750
1615,-58.593750
1616,-62.500000
1617,-62.500000
1618,-62.500000
1619,-66.406250
1620,-66.406250
1621,-66.406250
1622,-66.406250
1623,-66.406250
1624,-66.406250
1625,-70.312500
1626,-70.312500
1627,-70.312500
1628,-74.218750
1629,-74.218750
1630,-74.218750
1631,-74.218750
1632,-78.125000
1633,-78.125000
1634,-78.125000
1635,-78.125000
1636,-78.125000
1637,-82.031250
1638,-82.031250
1639,-82.031250
1640,-82.031250
1641,-85.937500
1642,-85.937500
1643,-85.937500
1644,-85.937500
1645,-85.937500
1646,-89.843750
1647,-89.843750
1648,-89.843750
1649,-89.843750
1650,-89.843750
1651,-93.750000
1652,-93.750000
1653,-93.750000
1654,-93.750000
1655,-97.656250
1656,-97.656250
1657,-97.656250
1658,-97.656250
1659,-97.656250
1660,-101.562500
1661,-101.562500
1662,-101.562500
1663,-101.562500
1664,-101.562500
1665,-105.468750
1666,-105.468750
1667,-105.468750
1668,-105.468750
1669,-105.468750
1670,-109.375000
1671,-109.375000
1672,-109.375000
1673,-109.375000
1674,-113.281250
1675,-113.281250
1676,-113.281250
1677,-113.281250
1678,-113.281250
1679,-113.281250
1680,-117.187500
1681,-117.187500
1682,-117.187500
1683,-117.187500
1684,-121.093750
1685,-121.093750
1686,-121.093750
1687,-121.093750
1688,-121.093750
1689,-121.093750
1690,-125.000000
1691,-125.000000
1692,-125.000000
1693,-125.000000
1694,-125.000000
1695,-125.000000
1696,-125.000000
1697,-128.906250
1698,-128.906250
1699,-128.906250
1700,-128.906250
1701,-128.906250
1702,-132.812500
1703,-132.812500
1704,-132.812500
1705,-132.812500
1706,-132.812500
1707,-132.812500
1708,-136.718750
1709,-136.718750
1710,-136.718750
1711,-136.718750
1712,-136.718750
1713,-136.718750
1714,-140.625000
1715,-140.625000
1716,-140.625000
1717,-140.625000
1718,-140.625000
1719,-140.625000
1720,-140.625000
1721,-140.625000
1722,-144.531250
1723,-144.531250
1724,-144.531250
1725,-144.531250
1726,-144.531250
1727,-144.531250
1728,-148.437500
1729,-148.437500
1730,-148.437500
1731,-148.437500
1732,-148.437500
1733,-148.437500
1734,-148.437500
1735,-148.437500
1736,-148.437500
1737,-148.437500
1738,-152.343750
1739,-152.343750
1740,-152.343750
1741,-152.343750
1742,-152.343750
1743,-152.343750
1744,-152.343750
1745,-152.343750
1746,-156.250000
1747,-156.250000
1748,-156.250000
1749,-156.250000
1750,-156.250000
1751,-156.250000
1752,-156.250000
1753,-156.250000
1754,-156.250000
1755,-156.250000
1756,-156.250000
1757,-156.250000
1758,-160.156250
1759,-156.250000
1760,-160.156250
1761,-160.156250
1762,-160.156250
1763,-160.156250
1764,-160.156250
1765,-160.156250
1766,-160.156250
1767,-160.156250
1768,-160.156250
1769,-160.156250
1770,-160.156250
1771,-160.156250
1772,-160.156250
1773,-164.062500
1774,-164.062500
1775,-164.062500
1776,-160.156250
1777,-164.062500
1778,-164.062500
1779,-164.062500
1780,-164.062500
1781,-164.062500
1782,-164.062500
1783,-164.062500
1784,-164.062500
1785,-164.062500
1786,-164.062500
1787,-164.062500
1788,-164.062500
1789,-164.062500
1790,-164.062500
1791,-164.062500
1792,-164.062500
1793,-164.062500
1794,-164.062500
1795,-164.062500
1796,-164.062500
1797,-164.062500
1798,-164.062500
1799,-164.062500
1800,-164.062500
1801,-164.062500
1802,-164.062500
1803,-164.062500
1804,-164.062500
1805,-164.062500
1806,-164.062500
1807,-164.062500
1808,-164.062500
1809,-164.062500
1810,-164.062500
1811,-164.062500
1812,-164.062500
1813,-164.062500
1814,-164.062500
1815,-164.062500
1816,-164.062500
1817,-164.062500
1818,-164.062500
1819,-164.062500
1820,-164.062500
1821,-164.062500
1822,-164.062500
1823,-164.062500
1824,-164.062500
1825,-164.062500
1826,-164.062500
1827,-164.062500
1828,-164.062500
1829,-164.062500
1830,-164.062500
1831,-164.062500
1832,-164.062500
1833,-164.062500
1834,-164.062500
1835,-164.062500
1836,-160.156250
1837,-160.156250
1838,-160.156250
1839,-160.156250
1840,-160.156250
1841,-160.156250
1842,-160.156250
1843,-160.156250
1844,-160.156250
1845,-160.156250
1846,-160.156250
1847,-160.156250
1848,-160.156250
1849,-160.156250
1850,-160.156250
1851,-156.250000
1852,-156.250000
1853,-156.250000
1854,-156.250000
1855,-156.250000
1856,-156.250000
1857,-156.250000
1858,-156.250000
1859,-156.250000
1860,-156.250000
1861,-156.250000
1862,-152.343750
1863,-152.343750
1864,-152.343750
1865,-152.343750
1866,-152.343750
1867,-152.343750
1868,-152.343750
1869,-152.343750
1870,-152.343750
1871,-148.437500
1872,-148.437500
1873,-148.437500
1874,-148.437500
1875,-148.437500
1876,-148.437500
1877,-148.437500
1878,-148.437500
1879,-148.437500
1880,-148.437500
1881,-144.531250
1882,-144.531250
1883,-144.531250
1884,-144.531250
1885,-144.531250
1886,-144.531250
1887,-144.531250
1888,-144.531250
1889,-140.625000
1890,-140.625000
1891,-140.625000
1892,-140.625000
1893,-140.625000
1894,-140.625000
1895,-140.625000
1896,-136.718750
1897,-136.718750
1898,-136.718750
1899,-136.718750
1900,-136.718750
1901,-132.812500
1902,-132.812500
1903,-132.812500
1904,-132.812500
1905,-132.812500
1906,-132.812500
1907,-132.812500
1908,-128.906250
1909,-128.906250
1910,-128.906250
1911,-128.906250
1912,-128.906250
1913,-128.906250
1914,-125.000000
1915,-125.000000
1916,-125.000000
1917,-125.000000
1918,-125.000000
1919,-125.000000
1920,-121.093750
1921,-121.093750
1922,-121.093750
1923,-121.093750
1924,-121.093750
1925,-117.187500
1926,-117.187500
1927,-117.187500
1928,-117.187500
1929,-117.187500
1930,-113.281250
1931,-113.281250
1932,-113.281250
1933,-113.281250
1934,-113.281250
1935,-113.281250
1936,-109.375000
1937,-109.375000
1938,-109.375000
1939,-109.375000
1940,-105.468750
1941,-105.468750
1942,-105.468750
1943,-105.468750
1944,-105.468750
1945,-101.562500
1946,-101.562500
1947,-101.562500
1948,-101.562500
1949,-101.562500
1950,-97.656250
1951,-97.656250
1952,-97.656250
1953,-97.656250
1954,-97.656250
1955,-93.750000
1956,-93.750000
1957,-93.750000
1958,-93.750000
1959,-89.843750
1960,-89.843750
1961,-89.843750
1962,-89.843750
1963,-89.843750
1964,-85.937500
1965,-85.937500
1966,-85.937500
1967,-85.937500
1968,-85.937500
1969,-82.031250
1970,-82.031250
1971,-82.031250
1972,-82.031250
1973,-78.125000
1974,-78.125000
1975,-78.125000
1976,-78.125000
1977,-74.218750
1978,-74.218750
1979,-74.218750
1980,-74.218750
1981,-74.218750
1982,-70.312500
1983,-70.312500
1984,-70.312500
1985,-70.312500
1986,-66.406250
1987,-66.406250
1988,-66.406250
1989,-66.406250
1990,-62.500000
1991,-62.500000
1992,-62.500000
1993,-62.500000
1994,-62.500000
1995,-58.593750
1996,-58.593750
1997,-58.593750
1998,-58.593750
1999,-54.687500
2000,-54.687500
2001,-54.687500
2002,-54.687500
2003,-54.687500
2004,-50.781250
2005,-50.781250
2006,-50.781250
2007,-46.875000
2008,-46.875000
2009,-46.875000
2010,-46.875000
2011,-46.875000
2012,-42.968750
2013,-42.968750
2014,-42.968750
2015,-39.062500
2016,-39.062500
2017,-39.062500
2018,-39.062500
2019,-39.062500
2020,-35.156250
2021,-35.156250
2022,-35.156250
2023,-35.156250
2024,-31.250000
2025,-31.250000
2026,-31.250000
2027,-27.343750
2028,-27.343750
2029,-27.343750
2030,-27.343750
2031,-27.343750
2032,-23.437500
2033,-23.437500
2034,-23.437500
2035,-23.437500
2036,-19.531250
2037,-19.531250
2038,-19.531250
2039,-19.531250
2040,-15.625000
2041,-15.625000
2042,-15.625000
2043,-15.625000
2044,-15.625000
2045,-11.718750
2046,-11.718750
2047,-11.718750
2048,-7.812500
2049,-7.812500
2050,-7.812500
2051,-7.812500
2052,-7.812500
2053,-3.906250
2054,-3.906250
2055,-3.906250
2056,0.000000
2057,0.000000
2058,0.000000
2059,0.000000
2060,0.000000
2061,3.906250
2062,3.906250
2063,3.906250
2064,7.812500
2065,7.812500
2066,7.812500
2067,7.812500
2068,7.812500
2069,7.812500
2070,11.718750
2071,11.718750
2072,11.718750
2073,11.718750
2074,15.625000
2075,15.625000
2076,15.625000
2077,15.625000
2078,19.531250
2079,19.531250
2080,19.531250
2081,19.531250
2082,19.531250
2083,23.437500
2084,23.437500
2085,23.437500
2086,23.437500
2087,27.343750
2088,27.343750
2089,27.343750
2090,27.343750
2091,27.343750
2092,31.250000
2093,31.250000
2094,31.250000
2095,31.250000
2096,35.156250
2097,35.156250
2098,35.156250
2099,35.156250
2100,39.062500
2101,39.062500
2102,39.062500
2103,39.062500
2104,39.062500
2105,42.968750
2106,42.968750
2107,42.968750
2108,42.968750
2109,42.968750
2110,46.875000
2111,46.875000
2112,46.875000
2113,46.875000
2114,46.875000
2115,50.781250
2116,50.781250
2117,50.781250
2118,50.781250
2119,50.781250
2120,54.687500
2121,54.687500
2122,54.687500
2123,54.687500
2124,54.687500
2125,58.593750
2126,58.593750
2127,58.593750
2128,58.593750
2129,58.593750
2130,62.500000
2131,62.500000
2132,62.500000
2133,62.500000
2134,62.500000
2135,66.406250
2136,66.406250
2137,66.406250
2138,66.406250
2139,66.406250
2140,66.406250
2141,70.312500
2142,70.312500
2143,70.312500
2144,70.312500
2145,70.312500
2146,70.312500
2147,74.218750
2148,74.218750
2149,74.218750
2150,74.218750
2151,74.218750
2152,74.218750
2153,78.125000
2154,78.125000
2155,78.125000
2156,78.125000
2157,78.125000
2158,78.125000
2159,82.031250
2160,82.031250
2161,82.031250
2162,82.031250
2163,82.031250
2164,82.031250
2165,82.031250
2166,85.937500
2167,85.937500
2168,85.937500
2169,85.937500
2170,85.937500
2171,89.843750
2172,85.937500
2173,89.843750
2174,89.843750
2175,89.843750
2176,89.843750
2177,89.843750
2178,89.843750
2179,93.750000
2180,93.750000
2181,93.750000
2182,93.750000
2183,93.750000
2184,93.750000
2185,93.750000
2186,93.750000
2187,97.656250
2188,97.656250
2189,97.656250
2190,97.656250
2191,97.656250
2192,97.656250
2193,97.656250
2194,101.562500
2195,101.562500
2196,101.562500
2197,101.562500
2198,101.562500
2199,101.562500
2200,101.562500
2201,101.562500
2202,105.468750
2203,105.468750
2204,105.468750
2205,105.468750
2206,105.468750
2207,105.468750
2208,105.468750
2209,109.375000
2210,105.468750
2211,105.468750
2212,109.375000
2213,109.375000
2214,109.375000
2215,109.375000
2216,109.375000
2217,109.375000
2218,109.375000
2219,109.375000
2220,109.375000
2221,113.281250
2222,113.281250
2223,113.281250
2224,113.281250
2225,113.281250
2226,113.281250
2227,113.281250
2228,113.281250
2229,113.281250
2230,113.281250
2231,113.281250
2232,117.187500
2233,117.187500
2234,117.187500
2235,117.187500
2236,117.187500
2237,117.187500
2238,117.187500
2239,117.187500
2240,117.187500
2241,117.187500
2242,117.187500
2243,117.187500
2244,117.187500
2245,117.187500
2246,117.187500
2247,121.093750
2248,121.093750
2249,121.093750
2250,121.093750
2251,121.093750
2252,121.093750
2253,121.093750
2254,121.093750
2255,121.093750
2256,121.093750
2257,121.093750
2258,121.093750
2259,121.093750
2260,121.093750
2261,121.093750
2262,125.000000
2263,121.093750
2264,121.093750
2265,121.093750
2266,121.093750
2267,121.093750
2268,125.000000
2269,125.000000
2270,125.000000
2271,125.000000
2272,125.000000
2273,125.000000
2274,125.000000
2275,125.000000
2276,125.000000
2277,125.000000
2278,125.000000
2279,125.000000
2280,125.000000
2281,125.000000
2282,125.000000
2283,125.000000
2284,125.000000
2285,125.000000
2286,125.000000
2287,125.000000
2288,125.000000
2289,125.000000
2290,125.000000
2291,125.000000
2292,125.000000
2293,125.000000
2294,125.000000
2295,125.000000
2296,125.000000
2297,125.000000
2298,125.000000
2299,125.000000
2300,128.906250
2301,125.000000
2302,125.000000
2303,125.000000
2304,125.000000
2305,125.000000
2306,125.000000
2307,125.000000
2308,125.000000
2309,125.000000
2310,125.000000
2311,125.000000
2312,125.000000
2313,125.000000
2314,125.000000
2315,125.000000
2316,125.000000
2317,125.000000
2318,125.000000
2319,125.000000
2320,125.000000
2321,125.000000
2322,125.000000
2323,125.000000
2324,125.000000
2325,125.000000
2326,125.000000
2327,125.000000
2328,125.000000
2329,125.000000
2330,125.000000
2331,125.000000
2332,125.000000
2333,125.000000
2334,125.000000
2335,125.000000
2336,125.000000
2337,125.000000
2338,125.000000
2339,121.093750
2340,121.093750
2341,121.093750
2342,121.093750
2343,121.093750
2344,121.093750
2345,121.093750
2346,121.093750
2347,121.093750
2348,121.093750
2349,121.093750
2350,121.093750
2351,121.093750
2352,121.093750
2353,121.093750
2354,121.093750
2355,121.093750
2356,121.093750
2357,117.187500
2358,117.187500
2359,117.187500
2360,117.187500
2361,117.187500
2362,117.187500
2363,117.187500
2364,117.187500
2365,117.187500
2366,117.187500
2367,117.187500
2368,117.187500
2369,117.187500
2370,113.281250
2371,113.281250
2372,113.281250
2373,113.281250
2374,113.281250
2375,113.281250
2376,113.281250
2377,113.281250
2378,113.281250
2379,113.281250
2380,113.281250
2381,113.281250
2382,113.281250
2383,113.281250
2384,109.375000
2385,109.375000
2386,109.375000
2387,109.375000
2388,109.375000
2389,109.375000
2390,109.375000
2391,109.375000
2392,109.375000
2393,105.468750
2394,105.468750
2395,105.468750
2396,105.468750
2397,105.468750
2398,105.468750
2399,105.468750
2400,105.468750
2401,105.468750
2402,101.562500
2403,101.562500
2404,101.562500
2405,101.562500
2406,101.562500
2407,101.562500
2408,101.562500
2409,97.656250
2410,97.656250
2411,97.656250
2412,97.656250
2413,97.656250
2414,97.656250
2415,97.656250
2416,97.656250
2417,93.750000
2418,93.750000
2419,93.750000
2420,93.750000
2421,93.750000
2422,93.750000
2423,89.843750
2424,89.843750
2425,89.843750
2426,89.843750
2427,89.843750
2428,89.843750
2429,89.843750
2430,89.843750
2431,85.937500
2432,85.937500
2433,85.937500
2434,85.937500
2435,85.937500
2436,85.937500
2437,85.937500
2438,82.031250
2439,82.031250
2440,82.031250
2441,82.031250
2442,82.031250
2443,82.031250
2444,78.125000
2445,78.125000
2446,78.125000
2447,78.125000
2448,78.125000
2449,78.125000
2450,74.218750
2451,74.218750
2452,74.218750
2453,74.218750
2454,74.218750
2455,74.218750
2456,70.312500
2457,70.312500
2458,70.312500
2459,70.312500
2460,70.312500
2461,66.406250
2462,66.406250
2463,66.406250
2464,66.406250
2465,66.406250
2466,66.406250
2467,62.500000
2468,62.500000
2469,62.500000
2470,62.500000
2471,58.593750
2472,58.593750
2473,58.593750
2474,58.593750
2475,58.593750
2476,58.593750
2477,54.687500
2478,54.687500
2479,54.687500
2480,54.687500
2481,54.687500
2482,50.781250
2483,50.781250
2484,50.781250
2485,50.781250
2486,50.781250
2487,46.875000
2488,46.875000
2489,46.875000
2490,46.875000
2491,46.875000
2492,42.968750
2493,42.968750
2494,42.968750
2495,42.968750
2496,42.968750
2497,39.062500
2498,39.062500
2499,39.062500
2500,39.062500
2501,35.156250
2502,35.156250
2503,35.156250
2504,35.156250
2505,31.250000
2506,31.250000
2507,31.250000
2508,31.250000
2509,31.250000
2510,31.250000
2511,27.343750
2512,27.343750
2513,27.343750
2514,23.437500
2515,23.437500
2516,23.437500
2517,23.437500
2518,23.437500
2519,19.531250
2520,19.531250
2521,19.531250
2522,19.531250
2523,15.625000
2524,15.625000
2525,15.625000
2526,15.625000
2527,11.718750
2528,11.718750
2529,11.718750
2530,11.718750
2531,11.718750
2532,7.812500
2533,7.812500
2534,7.812500
2535,7.812500
2536,3.906250
2537,3.906250
2538,3.906250
2539,3.906250
2540,0.000000
2541,0.000000
2542,0.000000
2543,0.000000
2544,0.000000
2545,-3.906250
2546,-3.906250
2547,-3.906250
2548,-3.906250
2549,-7.812500
2550,-7.812500
2551,-7.812500
2552,-11.718750
2553,-11.718750
2554,-11.718750
2555,-11.718750
2556,-11.718750
2557,-15.625000
2558,-15.625000
2559,-15.625000
2560,-15.625000
2561,-19.531250
2562,-19.531250
2563,-19.531250
2564,-19.531250
2565,-23.437500
2566,-23.437500
2567,-23.437500
2568,-23.437500
2569,-27.343750
2570,-27.343750
2571,-27.343750
2572,-27.343750
2573,-31.250000
2574,-31.250000
2575,-31.250000
2576,-31.250000
2577,-35.156250
2578,-35.156250
2579,-35.156250
2580,-35.156250
2581,-39.062500
2582,-39.062500
2583,-39.062500
2584,-39.062500
2585,-42.968750
2586,-42.968750
2587,-42.968750
2588,-42.968750
2589,-42.968750
2590,-46.875000
2591,-46.875000
2592,-46.875000
2593,-50.781250
2594,-50.781250
2595,-50.781250
2596,-50.781250
2597,-50.781250
2598,-54.687500
2599,-54.687500
2600,-54.687500
2601,-54.687500
2602,-58.593750
2603,-58.593750
2604,-58.593750
2605,-62.500000
2606,-62.500000
2607,-62.500000
2608,-62.500000
2609,-62.500000
2610,-66.406250
2611,-66.406250
2612,-66.406250
2613,-66.406250
2614,-70.312500
2615,-70.312500
2616,-70.312500
2617,-70.312500
2618,-74.218750
2619,-74.218750
2620,-74.218750
2621,-74.218750
2622,-74.218750
2623,-78.125000
2624,-78.125000
2625,-78.125000
2626,-78.125000
2627,-82.031250
2628,-82.031250
2629,-82.031250
2630,-82.031250
2631,-85.937500
2632,-85.937500
2633,-85.937500
2634,-85.937500
2635,-85.937500
2636,-89.843750
2637,-89.843750
2638,-89.843750
2639,-89.843750
2640,-93.750000
2641,-93.750000
2642,-93.750000
2643,-93.750000
2644,-93.750000
2645,-97.656250
2646,-97.656250
2647,-97.656250
2648,-97.656250
2649,-97.656250
2650,-101.562500
2651,-101.562500
2652,-101.562500
2653,-101.562500
2654,-101.562500
2655,-105.468750
2656,-105.468750
2657,-105.468750
2658,-105.468750
2659,-109.375000
2660,-109.375000
2661,-109.375000
2662,-109.375000
2663,-109.375000
2664,-109.375000
2665,-113.281250
2666,-113.281250
2667,-113.281250
2668,-113.281250
2669,-117.187500
2670,-117.187500
2671,-117.187500
2672,-117.187500
2673,-117.187500
2674,-117.187500
2675,-117.187500
2676,-121.093750
2677,-121.093750
2678,-121.093750
2679,-121.093750
2680,-121.093750
2681,-125.000000
2682,-125.000000
2683,-125.000000
2684,-125.000000
2685,-125.000000
2686,-125.000000
2687,-128.906250
2688,-128.906250
2689,-128.906250
2690,-128.906250
2691,-128.906250
2692,-132.812500
2693,-132.812500
2694,-132.812500
2695,-132.812500
2696,-132.812500
2697,-132.812500
2698,-132.812500
2699,-132.812500
2700,-136.718750
2701,-136.718750
2702,-136.718750
2703,-136.718750
2704,-136.718750
2705,-140.625000
2706,-140.625000
2707,-140.625000
2708,-140.625000
2709,-140.625000
2710,-140.625000
2711,-140.625000
2712,-144.531250
2713,-144.531250
2714,-144.531250
2715,-144.531250
2716,-144.531250
2717,-144.531250
2718,-144.531250
2719,-144.531250
2720,-144.531250
2721,-148.437500
2722,-148.437500
2723,-148.437500
2724,-148.437500
2725,-148.437500
2726,-148.437500
2727,-148.437500
2728,-148.437500
2729,-152.343750
2730,-152.343750
2731,-152.343750
2732,-152.343750
2733,-152.343750
2734,-152.343750
2735,-152.343750
2736,-152.343750
2737,-152.343750
2738,-156.250000
2739,-156.250000
2740,-156.250000
2741,-156.250000
2742,-156.250000
2743,-156.250000
2744,-156.250000
2745,-156.250000
2746,-156.250000
2747,-156.250000
2748,-160.156250
2749,-156.250000
2750,-160.156250
2751,-160.156250
2752,-160.156250
2753,-160.156250
2754,-160.156250
2755,-160.156250
2756,-160.156250
2757,-160.156250
2758,-160.156250
2759,-160.156250
2760,-160.156250
2761,-160.156250
2762,-160.156250
2763,-160.156250
2764,-160.156250
2765,-160.156250
2766,-164.062500
2767,-164.062500
2768,-164.062500
2769,-164.062500
2770,-164.062500
2771,-164.062500
2772,-164.062500
2773,-164.062500
2774,-164.062500
2775,-164.062500
2776,-164.062500
2777,-164.062500
2778,-164.062500
2779,-164.062500
2780,-164.062500
2781,-164.062500
2782,-164.062500
2783,-164.062500
2784,-164.062500
2785,-164.062500
2786,-164.062500
2787,-164.062500
2788,-164.062500
2789,-164.062500
2790,-164.062500
2791,-164.062500
2792,-164.062500
2793,-164.062500
2794,-164.062500
2795,-164.062500
2796,-167.968750
2797,-164.062500
2798,-164.062500
2799,-164.062500
2800,-164.062500
2801,-164.062500
2802,-164.062500
2803,-164.062500
2804,-164.062500
2805,-164.062500
2806,-164.062500
2807,-164.062500
2808,-164.062500
2809,-164.062500
2810,-164.062500
2811,-164.062500
2812,-164.062500
2813,-164.062500
2814,-164.062500
2815,-164.062500
2816,-164.062500
2817,-164.062500
2818,-164.062500
2819,-164.062500
2820,-164.062500
2821,-164.062500
2822,-164.062500
2823,-164.062500
2824,-164.062500
2825,-164.062500
2826,-160.156250
2827,-160.156250
2828,-160.156250
2829,-160.156250
2830,-160.156250
2831,-160.156250
2832,-160.156250
2833,-160.156250
2834,-160.156250
2835,-160.156250
2836,-160.156250
2837,-160.156250
2838,-160.156250
2839,-156.250000
2840,-160.156250
2841,-156.250000
2842,-156.250000
2843,-156.250000
2844,-156.250000
2845,-156.250000
2846,-156.250000
2847,-156.250000
2848,-156.250000
2849,-156.250000
2850,-156.250000
2851,-156.250000
2852,-152.343750
2853,-152.343750
2854,-152.343750
2855,-152.343750
2856,-152.343750
2857,-152.343750
2858,-152.343750
2859,-152.343750
2860,-152.343750
2861,-152.343750
2862,-148.437500
2863,-148.437500
2864,-148.437500
2865,-148.437500
2866,-148.437500
2867,-148.437500
2868,-148.437500
2869,-144.531250
2870,-144.531250
2871,-144.531250
2872,-144.531250
2873,-144.531250
2874,-144.531250
2875,-144.531250
2876,-144.531250
2877,-140.625000
2878,-140.625000
2879,-140.625000
2880,-140.625000
2881,-140.625000
2882,-140.625000
2883,-140.625000
2884,-136.718750
2885,-136.718750
2886,-136.718750
2887,-136.718750
2888,-136.718750
2889,-136.718750
2890,-136.718750
2891,-136.718750
2892,-132.812500
2893,-132.812500
2894,-132.812500
2895,-132.812500
2896,-132.812500
2897,-132.812500
2898,-132.812500
2899,-128.906250
2900,-128.906250
2901,-128.906250
2902,-128.906250
2903,-125.000000
2904,-125.000000
2905,-125.000000
2906,-125.000000
2907,-125.000000
2908,-125.000000
2909,-121.093750
2910,-121.093750
2911,-121.093750
2912,-121.093750
2913,-121.093750
2914,-121.093750
2915,-117.187500
2916,-117.187500
2917,-117.187500
2918,-117.187500
2919,-117.187500
2920,-113.281250
2921,-113.281250
2922,-113.281250
2923,-113.281250
2924,-113.281250
2925,-113.281250
2926,-109.375000
2927,-109.375000
2928,-109.375000
2929,-109.375000
2930,-105.468750
2931,-105.468750
2932,-105.468750
2933,-105.468750
2934,-105.468750
2935,-105.468750
2936,-101.562500
2937,-101.562500
2938,-101.562500
2939,-101.562500
2940,-97.656250
2941,-97.656250
2942,-97.656250
2943,-97.656250
2944,-97.656250
2945,-93.750000
2946,-93.750000
2947,-93.750000
2948,-93.750000
2949,-93.750000
2950,-89.843750
2951,-89.843750
2952,-89.843750
2953,-89.843750
2954,-85.937500
2955,-85.937500
2956,-85.937500
2957,-85.937500
2958,-85.937500
2959,-82.031250
2960,-82.031250
2961,-82.031250
2962,-82.031250
2963,-78.125000
2964,-78.125000
2965,-78.125000
2966,-78.125000
2967,-78.125000
2968,-74.218750
2969,-74.218750
2970,-74.218750
2971,-70.312500
2972,-70.312500
2973,-70.312500
2974,-70.312500
2975,-70.312500
2976,-66.406250
2977,-66.406250
2978,-66.406250
2979,-66.406250
2980,-62.500000
2981,-62.500000
2982,-62.500000
2983,-62.500000
2984,-58.593750
2985,-58.593750
2986,-58.593750
2987,-58.593750
2988,-58.593750
2989,-54.687500
2990,-54.687500
2991,-54.687500
2992,-54.687500
2993,-50.781250
2994,-50.781250
2995,-50.781250
2996,-50.781250
2997,-46.875000
2998,-46.875000
2999,-46.875000
3000,-46.875000
3001,-42.968750
3002,-42.968750
3003,-42.968750
3004,-42.968750
3005,-39.062500
3006,-39.062500
3007,-39.062500
3008,-39.062500
3009,-39.062500
3010,-35.156250
3011,-35.156250
3012,-35.156250
3013,-35.156250
3014,-31.250000
3015,-31.250000
3016,-31.250000
3017,-31.250000
3018,-27.343750
3019,-27.343750
3020,-27.343750
3021,-27.343750
3022,-23.437500
3023,-23.437500
3024,-23.437500
3025,-23.437500
3026,-19.531250
3027,-19.531250
3028,-19.531250
3029,-19.531250
3030,-15.625000
3031,-15.625000
3032,-15.625000
3033,-15.625000
3034,-11.718750
3035,-11.718750
3036,-11.718750
3037,-11.718750
3038,-11.718750
3039,-7.812500
3040,-7.812500
3041,-7.812500
3042,-7.812500
3043,-3.906250
3044,-3.906250
3045,-3.906250
3046,-3.906250
3047,0.000000
3048,0.000000
3049,0.000000
3050,0.000000
3051,3.906250
3052,3.906250
3053,3.906250
3054,3.906250
3055,7.812500
3056,7.812500
3057,7.812500
3058,7.812500
3059,7.812500
3060,11.718750
3061,11.718750
3062,11.718750
3063,11.718750
3064,15.625000
3065,15.625000
3066,15.625000
3067,15.625000
3068,19.531250
3069,19.531250
3070,19.531250
3071,19.531250
3072,23.437500
3073,23.437500
3074,23.437500
3075,23.437500
3076,23.437500
3077,27.343750
3078,27.343750
3079,27.343750
3080,27.343750
3081,27.343750
3082,31.250000
3083,31.250000
3084,31.250000
3085,31.250000
3086,35.156250
3087,35.156250
3088,35.156250
3089,35.156250
3090,39.062500
3091,39.062500
3092,39.062500
3093,39.062500
3094,39.062500
3095,42.968750
3096,42.968750
3097,42.968750
3098,42.968750
3099,42.968750
3100,46.875000
3101,46.875000
3102,46.875000
3103,46.875000
3104,50.781250
3105,50.781250
3106,50.781250
3107,50.781250
3108,50.781250
3109,50.781250
3110,54.687500
3111,54.687500
3112,54.687500
3113,54.687500
3114,54.687500
3115,54.687500
3116,58.593750
3117,58.593750
3118,58.593750
3119,58.593750
3120,62.500000
3121,62.500000
3122,62.500000
3123,62.500000
3124,62.500000
3125,62.500000
3126,66.406250
3127,66.406250
3128,66.406250
3129,66.406250
3130,66.406250
3131,70.312500
3132,70.312500
3133,70.312500
3134,70.312500
3135,70.312500
3136,74.218750
3137,74.218750
3138,74.218750
3139,74.218750
3140,74.218750
3141,74.218750
3142,74.218750
3143,78.125000
3144,78.125000
3145,78.125000
3146,78.125000
3147,78.125000
3148,78.125000
3149,82.031250
3150,82.031250
3151,82.031250
3152,82.031250
3153,82.031250
3154,85.937500
3155,82.031250
3156,85.937500
3157,85.937500
3158,85.937500
3159,85.937500
3160,85.937500
3161,89.843750
3162,89.843750
3163,89.843750
3164,89.843750
3165,89.843750
3166,89.843750
3167,89.843750
3168,93.750000
3169,93.750000
3170,93.750000
3171,93.750000
3172,93.750000
3173,93.750000
3174,93.750000
3175,93.750000
3176,97.656250
3177,97.656250
3178,97.656250
3179,97.656250
3180,97.656250
3181,97.656250
3182,97.656250
3183,97.656250
3184,97.656250
3185,101.562500
3186,101.562500
3187,101.562500
3188,101.562500
3189,101.562500
3190,101.562500
3191,105.468750
3192,105.468750
3193,105.468750
3194,105.468750
3195,105.468750
3196,105.468750
3197,105.468750
3198,105.468750
3199,105.468750
3200,105.468750
3201,109.375000
3202,109.375000
3203,109.375000
3204,109.375000
3205,109.375000
3206,109.375000
3207,109.375000
3208,109.375000
3209,109.375000
3210,113.281250
3211,113.281250
3212,109.375000
3213,113.281250
3214,113.281250
3215,113.281250
3216,113.281250
3217,113.281250
3218,113.281250
3219,113.281250
3220,113.281250
3221,113.281250
3222,117.187500
3223,113.281250
3224,113.281250
3225,117.187500
3226,117.187500
3227,117.187500
3228,117.187500
3229,117.187500
3230,117.187500
3231,117.187500
3232,117.187500
3233,117.187500
3234,117.187500
3235,117.187500
3236,121.093750
3237,121.093750
3238,121.093750
3239,121.093750
3240,121.093750
3241,121.093750
3242,121.093750
3243,121.093750
3244,121.093750
3245,121.093750
3246,121.093750
3247,121.093750
3248,121.093750
3249,121.093750
3250,121.093750
3251,121.093750
3252,121.093750
3253,125.000000
3254,125.000000
3255,125.000000
3256,125.000000
3257,121.093750
3258,125.000000
3259,125.000000
3260,125.000000
3261,125.000000
3262,125.000000
3263,125.000000
3264,125.000000
3265,125.000000
3266,125.000000
3267,125.000000
3268,125.000000
3269,125.000000
3270,125.000000
3271,125.000000
3272,125.000000
3273,125.000000
3274,125.000000
3275,125.000000
3276,125.000000
3277,125.000000
3278,125.000000
3279,125.000000
3280,125.000000
3281,125.000000
3282,125.000000
3283,125.000000
3284,125.000000
3285,125.000000
3286,128.906250
3287,125.000000
3288,125.000000
3289,125.000000
3290,125.000000
3291,125.000000
3292,125.000000
3293,125.000000
3294,125.000000
3295,125.000000
3296,125.000000
3297,125.000000
3298,125.000000
3299,125.000000
3300,125.000000
3301,125.000000
3302,125.000000
3303,125.000000
3304,125.000000
3305,125.000000
3306,128.906250
3307,125.000000
3308,125.000000
3309,125.000000
3310,125.000000
3311,125.000000
3312,125.000000
3313,125.000000
3314,125.000000
3315,125.000000
3316,125.000000
3317,125.000000
3318,125.000000
3319,125.000000
3320,125.000000
3321,125.000000
3322,125.000000
3323,125.000000
3324,125.000000
3325,125.000000
3326,125.000000
3327,125.000000
3328,125.000000
3329,121.093750
3330,125.000000
3331,121.093750
3332,121.093750
3333,121.093750
3334,125.000000
3335,121.093750
3336,121.093750
3337,121.093750
3338,121.093750
3339,121.093750
3340,121.093750
3341,121.093750
3342,121.093750
3343,121.093750
3344,121.093750
3345,121.093750
3346,121.093750
3347,121.093750
3348,117.187500
3349,117.187500
3350,117.187500
3351,117.187500
3352,117.187500
3353,117.187500
3354,117.187500
3355,117.187500
3356,117.187500
3357,117.187500
3358,117.187500
3359,117.187500
3360,117.187500
3361,117.187500
3362,113.281250
3363,113.281250
3364,113.281250
3365,113.281250
3366,113.281250
3367,113.281250
3368,113.281250
3369,113.281250
3370,113.281250
3371,113.281250
3372,113.281250
3373,113.281250
3374,113.281250
3375,109.375000
3376,109.375000
3377,109.375000
3378,109.375000
3379,109.375000
3380,109.375000
3381,109.375000
3382,109.375000
3383,109.375000
3384,109.375000
3385,105.468750
3386,105.468750
3387,105.468750
3388,105.468750
3389,105.468750
3390,105.468750
3391,105.468750
3392,105.468750
3393,101.562500
3394,105.468750
3395,101.562500
3396,101.562500
3397,101.562500
3398,101.562500
3399,101.562500
3400,101.562500
3401,101.562500
3402,101.562500
3403,97.656250
3404,97.656250
3405,97.656250
3406,97.656250
3407,97.656250
3408,97.656250
3409,93.750000
3410,93.750000
3411,93.750000
3412,93.750000
3413,93.750000
3414,93.750000
3415,93.750000
3416,89.843750
3417,89.843750
3418,89.843750
3419,89.843750
3420,89.843750
3421,89.843750
3422,89.843750
3423,85.937500
3424,85.937500
3425,85.937500
3426,85.937500
3427,85.937500
3428,82.031250
3429,82.031250
3430,82.031250
3431,82.031250
3432,82.031250
3433,82.031250
3434,82.031250
3435,78.125000
3436,78.125000
3437,78.125000
3438,78.125000
3439,78.125000
3440,78.125000
3441,74.218750
3442,74.218750
3443,74.218750
3444,74.218750
3445,74.218750
3446,70.312500
3447,70.312500
3448,70.312500
3449,70.312500
3450,70.312500
3451,70.312500
3452,66.406250
3453,66.406250
3454,66.406250
3455,66.406250
3456,66.406250
3457,66.406250
3458,62.500000
3459,62.500000
3460,62.500000
3461,62.500000
3462,58.593750
3463,62.500000
3464,62.500000
3465,58.593750
3466,58.593750
3467,58.593750
3468,54.687500
3469,54.687500
3470,54.687500
3471,54.687500
3472,54.687500
3473,50.781250
3474,50.781250
3475,50.781250
3476,50.781250
3477,50.781250
3478,46.875000
3479,46.875000
3480,46.875000
3481,46.875000
3482,42.968750
3483,42.968750
3484,42.968750
3485,42.968750
3486,42.968750
3487,42.968750
3488,39.062500
3489,39.062500
3490,39.062500
3491,35.156250
3492,35.156250
3493,35.156250
3494,35.156250
3495,35.156250
3496,35.156250
3497,31.250000
3498,35.156250
3499,31.250000
3500,31.250000
3501,27.343750
3502,27.343750
3503,27.343750
3504,27.343750
3505,27.343750
3506,23.437500
3507,23.437500
3508,23.437500
3509,19.531250
3510,19.531250
3511,19.531250
3512,19.531250
3513,19.531250
3514,19.531250
3515,15.625000
3516,15.625000
3517,15.625000
3518,15.625000
3519,11.718750
3520,11.718750
3521,11.718750
3522,7.812500
3523,7.812500
3524,7.812500
3525,7.812500
3526,3.906250
3527,3.906250
3528,3.906250
3529,3.906250
3530,3.906250
3531,0.000000
3532,0.000000
3533,0.000000
3534,0.000000
3535,-3.906250
3536,-3.906250
3537,-3.906250
3538,-7.812500
3539,-7.812500
3540,-7.812500
3541,-7.812500
3542,-7.812500
3543,-11.718750
3544,-11.718750
3545,-11.718750
3546,-11.718750
3547,-15.625000
3548,-15.625000
3549,-15.625000
3550,-15.625000
3551,-19.531250
3552,-19.531250
3553,-19.531250
3554,-19.531250
3555,-23.437500
3556,-23.437500
3557,-23.437500
3558,-23.437500
3559,-27.343750
3560,-27.343750
3561,-27.343750
3562,-31.250000
3563,-31.250000
3564,-31.250000
3565,-31.250000
3566,-31.250000
3567,-35.156250
3568,-35.156250
3569,-35.156250
3570,-35.156250
3571,-39.062500
3572,-39.062500
3573,-39.062500
3574,-39.062500
3575,-42.968750
3576,-42.968750
3577,-42.968750
3578,-42.968750
3579,-46.875000
3580,-46.875000
3581,-46.875000
3582,-46.875000
3583,-50.781250
3584,-50.781250
3585,-50.781250
3586,-50.781250
3587,-54.687500
3588,-54.687500
3589,-54.687500
3590,-54.687500
3591,-54.687500
3592,-58.593750
3593,-58.593750
3594,-58.593750
3595,-62.500000
3596,-62.500000
3597,-62.500000
3598,-62.500000
3599,-66.406250
3600,-66.406250
3601,-66.406250
3602,-66.406250
3603,-70.312500
3604,-70.312500
3605,-70.312500
3606,-70.312500
3607,-70.312500
3608,-74.218750
3609,-74.218750
3610,-74.218750
3611,-74.218750
3612,-74.218750
3613,-78.125000
3614,-78.125000
3615,-78.125000
3616,-78.125000
3617,-82.031250
3618,-82.031250
3619,-82.031250
3620,-82.031250
3621,-85.937500
3622,-85.937500
3623,-85.937500
3624,-85.937500
3625,-89.843750
3626,-89.843750
3627,-89.843750
3628,-89.843750
3629,-89.843750
3630,-93.750000
3631,-93.750000
3632,-93.750000
3633,-93.750000
3634,-97.656250
3635,-97.656250
3636,-97.656250
3637,-97.656250
3638,-97.656250
3639,-97.656250
3640,-101.562500
3641,-101.562500
3642,-101.562500
3643,-101.562500
3644,-101.562500
3645,-105.468750
3646,-105.468750
3647,-105.468750
3648,-105.468750
3649,-109.375000
3650,-109.375000
3651,-109.375000
3652,-109.375000
3653,-109.375000
3654,-109.375000
3655,-113.281250
3656,-113.281250
3657,-113.281250
3658,-113.281250
3659,-117.187500
3660,-117.187500
3661,-117.187500
3662,-117.187500
3663,-117.187500
3664,-121.093750
3665,-121.093750
3666,-121.093750
3667,-121.093750
3668,-121.093750
3669,-121.093750
3670,-121.093750
3671,-125.000000
3672,-125.000000
3673,-125.000000
3674,-125.000000
3675,-128.906250
3676,-128.906250
3677,-128.906250
3678,-128.906250
3679,-128.906250
3680,-128.906250
3681,-132.812500
3682,-132.812500
3683,-132.812500
3684,-132.812500
3685,-132.812500
3686,-132.812500
3687,-136.718750
3688,-136.718750
3689,-136.718750
3690,-136.718750
3691,-136.718750
3692,-136.718750
3693,-136.718750
3694,-140.625000
3695,-140.625000
3696,-140.625000
3697,-140.625000
3698,-140.625000
3699,-140.625000
3700,-140.625000
3701,-144.531250
3702,-144.531250
3703,-144.531250
3704,-144.531250
3705,-144.531250
3706,-144.531250
3707,-144.531250
3708,-144.531250
3709,-144.531250
3710,-148.437500
3711,-148.437500
3712,-148.437500
3713,-148.437500
3714,-148.437500
3715,-148.437500
3716,-148.437500
3717,-148.437500
3718,-152.343750
3719,-152.343750
3720,-152.343750
3721,-152.343750
3722,-152.343750
3723,-152.343750
3724,-152.343750
3725,-152.343750
3726,-152.343750
3727,-156.250000
3728,-156.250000
3729,-156.250000
3730,-156.250000
3731,-156.250000
3732,-156.250000
3733,-156.250000
3734,-156.250000
3735,-156.250000
3736,-160.156250
3737,-156.250000
3738,-160.156250
3739,-160.156250
3740,-160.156250
3741,-160.156250
3742,-160.156250
3743,-160.156250
3744,-160.156250
3745,-160.156250
3746,-160.156250
3747,-160.156250
3748,-160.156250
3749,-160.156250
3750,-160.156250
3751,-160.156250
3752,-160.156250
3753,-164.062500
3754,-164.062500
3755,-164.062500
3756,-164.062500
3757,-164.062500
3758,-164.062500
3759,-164.062500
3760,-164.062500
3761,-164.062500
3762,-164.062500
3763,-164.062500
3764,-164.062500
3765,-164.062500
3766,-164.062500
3767,-164.062500
3768,-164.062500
3769,-164.062500
3770,-164.062500
3771,-164.062500
3772,-164.062500
3773,-164.062500
3774,-164.062500
3775,-164.062500
3776,-164.062500
3777,-164.062500
3778,-164.062500
3779,-164.062500
3780,-164.062500
3781,-164.062500
3782,-164.062500
3783,-164.062500
3784,-164.062500
3785,-164.062500
3786,-164.062500
3787,-164.062500
3788,-164.062500
3789,-164.062500
3790,-164.062500
3791,-164.062500
3792,-164.062500
3793,-164.062500
3794,-164.062500
3795,-164.062500
3796,-164.062500
3797,-164.062500
3798,-164.062500
3799,-164.062500
3800,-164.062500
3801,-164.062500
3802,-164.062500
3803,-164.062500
3804,-164.062500
3805,-164.062500
3806,-164.062500
3807,-164.062500
3808,-164.062500
3809,-164.062500
3810,-164.062500
3811,-164.062500
3812,-164.062500
3813,-164.062500
3814,-164.062500
3815,-164.062500
3816,-164.062500
3817,-164.062500
3818,-160.156250
3819,-160.156250
3820,-160.156250
3821,-160.156250
3822,-160.156250
3823,-160.156250
3824,-160.156250
3825,-160.156250
3826,-160.156250
3827,-160.156250
3828,-160.156250
3829,-160.156250
3830,-160.156250
3831,-160.156250
3832,-156.250000
3833,-156.250000
3834,-156.250000
3835,-156.250000
3836,-156.250000
3837,-156.250000
3838,-156.250000
3839,-156.250000
3840,-156.250000
3841,-156.250000
3842,-152.343750
3843,-152.343750
3844,-152.343750
3845,-152.343750
3846,-152.343750
3847,-152.343750
3848,-152.343750
3849,-152.343750
3850,-152.343750
3851,-152.343750
3852,-148.437500
3853,-148.437500
3854,-148.437500
3855,-148.437500
3856,-148.437500
3857,-148.437500
3858,-148.437500
3859,-148.437500
3860,-144.531250
3861,-144.531250
3862,-144.531250
3863,-140.625000
3864,-144.531250
3865,-144.531250
3866,-144.531250
3867,-144.531250
3868,-140.625000
3869,-140.625000
3870,-140.625000
3871,-140.625000
3872,-140.625000
3873,-140.625000
3874,-136.718750
3875,-136.718750
3876,-136.718750
3877,-136.718750
3878,-136.718750
3879,-136.718750
3880,-136.718750
3881,-132.812500
3882,-132.812500
3883,-132.812500
3884,-132.812500
3885,-132.812500
3886,-132.812500
3887,-132.812500
3888,-128.906250
3889,-128.906250
3890,-128.906250
3891,-128.906250
3892,-128.906250
3893,-128.906250
3894,-125.000000
3895,-125.000000
3896,-125.000000
3897,-125.000000
3898,-125.000000
3899,-121.093750
3900,-121.093750
3901,-121.093750
3902,-121.093750
3903,-121.093750
3904,-121.093750
3905,-117.187500
3906,-117.187500
3907,-117.187500
3908,-117.187500
3909,-117.187500
3910,-117.187500
3911,-113.281250
3912,-113.281250
3913,-113.281250
3914,-113.281250
3915,-109.375000
3916,-109.375000
3917,-109.375000
3918,-109.375000
3919,-109.375000
3920,-105.468750
3921,-105.468750
3922,-105.468750
3923,-105.468750
3924,-105.468750
3925,-101.562500
3926,-101.562500
3927,-101.562500
3928,-101.562500
3929,-101.562500
3930,-97.656250
3931,-97.656250
3932,-97.656250
3933,-97.656250
3934,-97.656250
3935,-93.750000
3936,-93.750000
3937,-93.750000
3938,-93.750000
3939,-89.843750
3940,-89.843750
3941,-89.843750
3942,-89.843750
3943,-89.843750
3944,-85.937500
3945,-85.937500
3946,-85.937500
3947,-85.937500
3948,-82.031250
3949,-82.031250
3950,-82.031250
3951,-78.125000
3952,-82.031250
3953,-78.125000
3954,-78.125000
3955,-78.125000
3956,-78.125000
3957,-78.125000
3958,-74.218750
3959,-74.218750
3960,-74.218750
3961,-70.312500
3962,-70.312500
3963,-70.312500
3964,-70.312500
3965,-70.312500
3966,-66.406250
3967,-66.406250
3968,-66.406250
3969,-66.406250
3970,-62.500000
3971,-62.500000
3972,-62.500000
3973,-62.500000
3974,-58.593750
3975,-58.593750
3976,-58.593750
3977,-58.593750
3978,-58.593750
3979,-54.687500
3980,-54.687500
3981,-54.687500
3982,-54.687500
3983,-50.781250
3984,-50.781250
3985,-50.781250
3986,-46.875000
3987,-46.875000
3988,-46.875000
3989,-46.875000
3990,-46.875000
3991,-42.968750
3992,-42.968750
3993,-42.968750
3994,-42.968750
3995,-39.062500
3996,-39.062500
3997,-39.062500
3998,-39.062500
3999,-35.156250
4000,-35.156250
4001,-35.156250
4002,-35.156250
4003,-35.156250
4004,-31.250000
4005,-31.250000
4006,-31.250000
4007,-27.343750
4008,-27.343750
4009,-27.343750
4010,-27.343750
4011,-23.437500
4012,-23.437500
4013,-23.437500
4014,-23.437500
4015,-19.531250
4016,-19.531250
4017,-19.531250
4018,-19.531250
4019,-19.531250
4020,-15.625000
4021,-15.625000
4022,-15.625000
4023,-11.718750
4024,-11.718750
4025,-11.718750
4026,-11.718750
4027,-11.718750
4028,-7.812500
4029,-7.812500
4030,-7.812500
4031,-7.812500
4032,-3.906250
4033,-3.906250
4034,-3.906250
4035,-3.906250
4036,0.000000
4037,0.000000
4038,0.000000
4039,0.000000
4040,3.906250
4041,3.906250
4042,3.906250
4043,3.906250
4044,3.906250
4045,7.812500
4046,7.812500
4047,7.812500
4048,7.812500
4049,11.718750
4050,11.718750
4051,11.718750
4052,11.718750
4053,11.718750
4054,15.625000
4055,15.625000
4056,15.625000
4057,15.625000
4058,19.531250
4059,19.531250
4060,19.531250
4061,19.531250
4062,23.437500
4063,23.437500
4064,23.437500
4065,23.437500
4066,23.437500
4067,27.343750
4068,27.343750
4069,27.343750
4070,27.343750
4071,31.250000
4072,31.250000
4073,31.250000
4074,31.250000
4075,35.156250
4076,35.156250
4077,35.156250
4078,35.156250
4079,39.062500
4080,39.062500
4081,39.062500
4082,39.062500
4083,39.062500
4084,39.062500
4085,39.062500
4086,42.968750
4087,42.968750
4088,42.968750
4089,46.875000
4090,46.875000
4091,46.875000
4092,46.875000
4093,46.875000
4094,46.875000
4095,50.781250
4096,50.781250
4097,50.781250
4098,50.781250
4099,54.687500
4100,54.687500
4101,54.687500
4102,54.687500
4103,54.687500
4104,58.593750
4105,58.593750
4106,58.593750
4107,58.593750
4108,58.593750
4109,58.593750
4110,62.500000
4111,62.500000
4112,62.500000
4113,62.500000
4114,62.500000
4115,62.500000
4116,66.406250
4117,66.406250
4118,66.406250
4119,66.406250
4120,70.312500
4121,70.312500
4122,70.312500
4123,70.312500
4124,70.312500
4125,70.312500
4126,74.218750
4127,74.218750
4128,74.218750
4129,74.218750
4130,74.218750
4131,74.218750
4132,78.125000
4133,78.125000
4134,78.125000
4135,78.125000
4136,78.125000
4137,78.125000
4138,82.031250
4139,78.125000
4140,82.031250
4141,82.031250
4142,82.031250
4143,85.937500
4144,85.937500
4145,85.937500
4146,85.937500
4147,85.937500
4148,85.937500
4149,85.937500
4150,85.937500
4151,89.843750
4152,89.843750
4153,89.843750
4154,89.843750
4155,89.843750
4156,89.843750
4157,89.843750
4158,93.750000
4159,93.750000
4160,93.750000
4161,93.750000
4162,93.750000
4163,93.750000
4164,97.656250
4165,97.656250
4166,97.656250
4167,97.656250
4168,97.656250
4169,97.656250
4170,97.656250
4171,97.656250
4172,97.656250
4173,101.562500
4174,101.562500
4175,101.562500
4176,101.562500
4177,101.562500
4178,101.562500
4179,101.562500
4180,101.562500
4181,105.468750
4182,105.468750
4183,105.468750
4184,105.468750
4185,105.468750
4186,105.468750
4187,105.468750
4188,105.468750
4189,105.468750
4190,109.375000
4191,109.375000
4192,109.375000
4193,109.375000
4194,109.375000
4195,109.375000
4196,109.375000
4197,109.375000
4198,109.375000
4199,109.375000
4200,109.375000
4201,109.375000
4202,113.281250
4203,113.281250
4204,113.281250
4205,113.281250
4206,113.281250
4207,113.281250
4208,113.281250
4209,113.281250
4210,113.281250
4211,113.281250
4212,117.187500
4213,117.187500
4214,117.187500
4215,117.187500
4216,117.187500
4217,117.187500
4218,117.187500
4219,117.187500
4220,117.187500
4221,117.187500
4222,117.187500
4223,117.187500
4224,117.187500
4225,117.187500
4226,117.187500
4227,121.093750
4228,121.093750
4229,121.093750
4230,121.093750
4231,121.093750
4232,121.093750
4233,121.093750
4234,121.093750
4235,121.093750
4236,121.093750
4237,121.093750
4238,121.093750
4239,121.093750
4240,121.093750
4241,121.093750
4242,121.093750
4243,121.093750
4244,121.093750
4245,125.000000
4246,125.000000
4247,125.000000
4248,125.000000
4249,125.000000
4250,125.000000
4251,125.000000
4252,125.000000
4253,125.000000
4254,125.000000
4255,125.000000
4256,125.000000
4257,125.000000
4258,125.000000
4259,125.000000
4260,125.000000
4261,125.000000
4262,125.000000
4263,125.000000
4264,125.000000
4265,125.000000
4266,125.000000
4267,125.000000
4268,125.000000
4269,125.000000
4270,125.000000
4271,125.000000
4272,125.000000
4273,125.000000
4274,125.000000
4275,125.000000
4276,125.000000
4277,125.000000
4278,128.906250
4279,125.000000
4280,125.000000
4281,125.000000
4282,125.000000
4283,125.000000
4284,125.000000
4285,125.000000
4286,125.000000
4287,125.000000
4288,125.000000
4289,125.000000
4290,125.000000
4291,125.000000
4292,125.000000
4293,125.000000
4294,125.000000
4295,125.000000
4296,125.000000
4297,125.000000
4298,125.000000
4299,125.000000
4300,125.000000
4301,125.000000
4302,125.000000
4303,125.000000
4304,125.000000
4305,125.000000
4306,125.000000
4307,125.000000
4308,125.000000
4309,125.000000
4310,125.000000
4311,125.000000
4312,125.000000
4313,125.000000
4314,125.000000
4315,125.000000
4316,125.000000
4317,125.000000
4318,125.000000
4319,121.093750
4320,125.000000
4321,121.093750
4322,121.093750
4323,121.093750
4324,121.093750
4325,121.093750
4326,121.093750
4327,121.093750
4328,121.093750
4329,121.093750
4330,121.093750
4331,121.093750
4332,121.093750
4333,121.093750
4334,121.093750
4335,121.093750
4336,121.093750
4337,121.093750
4338,117.187500
4339,117.187500
4340,117.187500
4341,117.187500
4342,117.187500
4343,117.187500
4344,117.187500
4345,117.187500
4346,117.187500
4347,117.187500
4348,117.187500
4349,117.187500
4350,117.187500
4351,117.187500
4352,113.281250
4353,117.187500
4354,113.281250
4355,113.281250
4356,113.281250
4357,113.281250
4358,113.281250
4359,113.281250
4360,113.281250
4361,113.281250
4362,113.281250
4363,109.375000
4364,109.375000
4365,109.375000
4366,109.375000
4367,109.375000
4368,109.375000
4369,109.375000
4370,109.375000
4371,105.468750
4372,109.375000
4373,105.468750
4374,105.468750
4375,105.468750
4376,105.468750
4377,105.468750
4378,105.468750
4379,105.468750
4380,105.468750
4381,101.562500
4382,105.468750
4383,101.562500
4384,101.562500
4385,101.562500
4386,101.562500
4387,101.562500
4388,101.562500
4389,101.562500
4390,97.656250
4391,97.656250
4392,97.656250
4393,97.656250
4394,97.656250
4395,97.656250
4396,97.656250
4397,97.656250
4398,93.750000
4399,93.750000
4400,93.750000
4401,93.750000
4402,93.750000
4403,93.750000
4404,89.843750
4405,89.843750
4406,89.843750
4407,89.843750
4408,89.843750
4409,89.843750
4410,89.843750
4411,89.843750
4412,85.937500
4413,85.937500
4414,85.937500
4415,85.937500
4416,85.937500
4417,85.937500
4418,82.031250
4419,82.031250
4420,82.031250
4421,82.031250
4422,82.031250
4423,82.031250
4424,78.125000
4425,78.125000
4426,78.125000
4427,78.125000
4428,78.125000
4429,78.125000
4430,74.218750
4431,74.218750
4432,74.218750
4433,74.218750
4434,74.218750
4435,74.218750
4436,70.312500
4437,70.312500
4438,70.312500
4439,70.312500
4440,70.312500
4441,66.406250
4442,66.406250
4443,66.406250
4444,66.406250
4445,66.406250
4446,66.406250
4447,62.500000
4448,62.500000
4449,62.500000
4450,62.500000
4451,62.500000
4452,62.500000
4453,58.593750
4454,58.593750
4455,58.593750
4456,58.593750
4457,54.687500
4458,54.687500
4459,54.687500
4460,54.687500
4461,54.687500
4462,50.781250
4463,50.781250
4464,50.781250
4465,50.781250
4466,50.781250
4467,46.875000
4468,46.875000
4469,46.875000
4470,46.875000
4471,46.875000
4472,42.968750
4473,42.968750
4474,42.968750
4475,42.968750
4476,39.062500
4477,39.062500
4478,39.062500
4479,39.062500
4480,39.062500
4481,35.156250
4482,35.156250
4483,35.156250
4484,35.156250
4485,35.156250
4486,31.250000
4487,31.250000
4488,31.250000
4489,31.250000
4490,31.250000
4491,27.343750
4492,27.343750
4493,27.343750
4494,23.437500
4495,23.437500
4496,23.437500
4497,23.437500
4498,23.437500
4499,19.531250
4500,19.531250
4501,19.531250
4502,19.531250
4503,19.531250
4504,15.625000
4505,15.625000
4506,15.625000
4507,15.625000
4508,11.718750
4509,11.718750
4510,11.718750
4511,11.718750
4512,7.812500
4513,7.812500
4514,7.812500
4515,7.812500
4516,7.812500
4517,3.906250
4518,3.906250
4519,3.906250
4520,0.000000
4521,0.000000
4522,0.000000
4523,0.000000
4524,0.000000
4525,-3.906250
4526,-3.906250
4527,-3.906250
4528,-3.906250
4529,-7.812500
4530,-7.812500
4531,-7.812500
4532,-11.718750
4533,-11.718750
4534,-11.718750
4535,-11.718750
4536,-11.718750
4537,-15.625000
4538,-15.625000
4539,-15.625000
4540,-15.625000
4541,-19.531250
4542,-19.531250
4543,-19.531250
4544,-19.531250
4545,-23.437500
4546,-23.437500
4547,-23.437500
4548,-23.437500
4549,-23.437500
4550,-27.343750
4551,-27.343750
4552,-27.343750
4553,-31.250000
4554,-31.250000
4555,-31.250000
4556,-35.156250
4557,-35.156250
4558,-35.156250
4559,-35.156250
4560,-35.156250
4561,-35.156250
4562,-39.062500
4563,-39.062500
4564,-39.062500
4565,-42.968750
4566,-42.968750
4567,-42.968750
4568,-42.968750
4569,-46.875000
4570,-46.875000
4571,-46.875000
4572,-46.875000
4573,-46.875000
4574,-50.781250
4575,-50.781250
4576,-50.781250
4577,-50.781250
4578,-54.687500
4579,-54.687500
4580,-54.687500
4581,-54.687500
4582,-58.593750
4583,-58.593750
4584,-58.593750
4585,-62.500000
4586,-62.500000
4587,-62.500000
4588,-62.500000
4589,-62.500000
4590,-66.406250
4591,-66.406250
4592,-66.406250
4593,-66.406250
4594,-70.312500
4595,-70.312500
4596,-70.312500
4597,-70.312500
4598,-70.312500
4599,-74.218750
4600,-74.218750
4601,-74.218750
4602,-74.218750
4603,-78.125000
4604,-78.125000
4605,-78.125000
4606,-78.125000
4607,-82.031250
4608,-82.031250
4609,-82.031250
4610,-82.031250
4611,-82.031250
4612,-85.937500
4613,-85.937500
4614,-85.937500
4615,-85.937500
4616,-89.843750
4617,-89.843750
4618,-89.843750
4619,-89.843750
4620,-93.750000
4621,-93.750000
4622,-93.750000
4623,-93.750000
4624,-93.750000
4625,-97.656250
4626,-97.656250
4627,-97.656250
4628,-97.656250
4629,-101.562500
4630,-101.562500
4631,-101.562500
4632,-101.562500
4633,-101.562500
4634,-101.562500
4635,-105.468750
4636,-105.468750
4637,-105.468750
4638,-105.468750
4639,-109.375000
4640,-109.375000
4641,-109.375000
4642,-109.375000
4643,-109.375000
4644,-113.281250
4645,-113.281250
4646,-113.281250
4647,-113.281250
4648,-113.281250
4649,-113.281250
4650,-117.187500
4651,-117.187500
4652,-117.187500
4653,-117.187500
4654,-117.187500
4655,-121.093750
4656,-121.093750
4657,-121.093750
4658,-121.093750
4659,-121.093750
4660,-125.000000
4661,-125.000000
4662,-125.000000
4663,-125.000000
4664,-125.000000
4665,-125.000000
4666,-128.906250
4667,-128.906250
4668,-128.906250
4669,-128.906250
4670,-128.906250
4671,-128.906250
4672,-132.812500
4673,-132.812500
4674,-132.812500
4675,-132.812500
4676,-132.812500
4677,-132.812500
4678,-132.812500
4679,-136.718750
4680,-136.718750
4681,-136.718750
4682,-136.718750
4683,-136.718750
4684,-136.718750
4685,-140.625000
4686,-140.625000
4687,-140.625000
4688,-140.625000
4689,-140.625000
4690,-140.625000
4691,-144.531250
4692,-140.625000
4693,-144.531250
4694,-144.531250
4695,-144.531250
4696,-144.531250
4697,-144.531250
4698,-144.531250
4699,-148.437500
4700,-148.437500
4701,-148.437500
4702,-148.437500
4703,-148.437500
4704,-148.437500
4705,-148.437500
4706,-148.437500
4707,-148.437500
4708,-152.343750
4709,-152.343750
4710,-152.343750
4711,-152.343750
4712,-152.343750
4713,-152.343750
4714,-152.343750
4715,-152.343750
4716,-152.343750
4717,-156.250000
4718,-156.250000
4719,-156.250000
4720,-156.250000
4721,-156.250000
4722,-156.250000
4723,-156.250000
4724,-156.250000
4725,-156.250000
4726,-156.250000
4727,-156.250000
4728,-160.156250
4729,-160.156250
4730,-160.156250
4731,-160.156250
4732,-160.156250
4733,-160.156250
4734,-160.156250
4735,-160.156250
4736,-160.156250
4737,-160.156250
4738,-160.156250
4739,-160.156250
4740,-160.156250
4741,-160.156250
4742,-164.062500
4743,-160.156250
4744,-164.062500
4745,-164.062500
4746,-164.062500
4747,-164.062500
4748,-164.062500
4749,-164.062500
4750,-164.062500
4751,-164.062500
4752,-164.062500
4753,-164.062500
4754,-164.062500
4755,-164.062500
4756,-164.062500
4757,-164.062500
4758,-164.062500
4759,-164.062500
4760,-164.062500
4761,-164.062500
4762,-164.062500
4763,-164.062500
4764,-164.062500
4765,-164.062500
4766,-164.062500
4767,-164.062500
4768,-164.062500
4769,-164.062500
4770,-164.062500
4771,-167.968750
4772,-164.062500
4773,-164.062500
4774,-164.062500
4775,-164.062500
4776,-164.062500
4777,-164.062500
4778,-164.062500
4779,-164.062500
4780,-164.062500
4781,-164.062500
4782,-164.062500
4783,-164.062500
4784,-164.062500
4785,-164.062500
4786,-164.062500
4787,-164.062500
4788,-164.062500
4789,-164.062500
4790,-164.062500
4791,-164.062500
4792,-164.062500
4793,-164.062500
4794,-164.062500
4795,-164.062500
4796,-164.062500
4797,-164.062500
4798,-164.062500
4799,-164.062500
4800,-164.062500
4801,-164.062500
4802,-164.062500
4803,-164.062500
4804,-164.062500
4805,-164.062500
4806,-164.062500
4807,-164.062500
4808,-160.156250
4809,-160.156250
4810,-160.156250
4811,-160.156250
4812,-160.156250
4813,-160.156250
4814,-160.156250
4815,-160.156250
4816,-160.156250
4817,-160.156250
4818,-160.156250
4819,-160.156250
4820,-156.250000
4821,-156.250000
4822,-156.250000
4823,-156.250000
4824,-156.250000
4825,-156.250000
4826,-156.250000
4827,-156.250000
4828,-156.250000
4829,-156.250000
4830,-152.343750
4831,-156.250000
4832,-156.250000
4833,-152.343750
4834,-152.343750
4835,-152.343750
4836,-152.343750
4837,-152.343750
4838,-152.343750
4839,-152.343750
4840,-152.343750
4841,-152.343750
4842,-148.437500
4843,-148.437500
4844,-148.437500
4845,-148.437500
4846,-148.437500
4847,-148.437500
4848,-148.437500
4849,-148.437500
4850,-148.437500
4851,-148.437500
4852,-144.531250
4853,-144.531250
4854,-144.531250
4855,-144.531250
4856,-144.531250
4857,-144.531250
4858,-140.625000
4859,-140.625000
4860,-140.625000
4861,-140.625000
4862,-140.625000
4863,-140.625000
4864,-136.718750
4865,-136.718750
4866,-136.718750
4867,-136.718750
4868,-136.718750
4869,-136.718750
4870,-136.718750
4871,-136.718750
4872,-132.812500
4873,-132.812500
4874,-132.812500
4875,-132.812500
4876,-132.812500
4877,-128.906250
4878,-128.906250
4879,-128.906250
4880,-128.906250
4881,-128.906250
4882,-128.906250
4883,-128.906250
4884,-128.906250
4885,-125.000000
4886,-125.000000
4887,-125.000000
4888,-121.093750
4889,-121.093750
4890,-121.093750
4891,-121.093750
4892,-121.093750
4893,-121.093750
4894,-117.187500
4895,-117.187500
4896,-117.187500
4897,-117.187500
4898,-117.187500
4899,-117.187500
4900,-113.281250
4901,-113.281250
4902,-113.281250
4903,-113.281250
4904,-109.375000
4905,-109.375000
4906,-109.375000
4907,-109.375000
4908,-109.375000
4909,-109.375000
4910,-105.468750
4911,-105.468750
4912,-105.468750
4913,-105.468750
4914,-101.562500
4915,-101.562500
4916,-101.562500
4917,-101.562500
4918,-101.562500
4919,-101.562500
4920,-97.656250
4921,-97.656250
4922,-97.656250
4923,-97.656250
4924,-93.750000
4925,-93.750000
4926,-93.750000
4927,-93.750000
4928,-93.750000
4929,-93.750000
4930,-89.843750
4931,-89.843750
4932,-89.843750
4933,-89.843750
4934,-85.937500
4935,-85.937500
4936,-85.937500
4937,-85.937500
4938,-85.937500
4939,-82.031250
4940,-82.031250
4941,-82.031250
4942,-78.125000
4943,-78.125000
4944,-78.125000
4945,-78.125000
4946,-78.125000
4947,-78.125000
4948,-74.218750
4949,-74.218750
4950,-74.218750
4951,-70.312500
4952,-70.312500
4953,-70.312500
4954,-70.312500
4955,-70.312500
4956,-66.406250
4957,-66.406250
4958,-66.406250
4959,-66.406250
4960,-62.500000
4961,-62.500000
4962,-62.500000
4963,-62.500000
4964,-58.593750
4965,-58.593750
4966,-58.593750
4967,-58.593750
4968,-54.687500
4969,-54.687500
4970,-54.687500
4971,-54.687500
4972,-54.687500
4973,-50.781250
4974,-50.781250
4975,-50.781250
4976,-50.781250
4977,-46.875000
4978,-46.875000
4979,-46.875000
4980,-42.968750
4981,-46.875000
4982,-42.968750
4983,-42.968750
4984,-42.968750
4985,-39.062500
4986,-39.062500
4987,-39.062500
4988,-39.062500
4989,-35.156250
4990,-35.156250
4991,-35.156250
4992,-35.156250
4993,-31.250000
4994,-31.250000
4995,-31.250000
4996,-31.250000
4997,-27.343750
4998,-27.343750
4999,-27.343750
5000,-27.343750
5001,-23.437500
5002,-23.437500
5003,-23.437500
5004,-23.437500
5005,-19.531250
5006,-19.531250
5007,-19.531250
5008,-19.531250
5009,-19.531250
5010,-15.625000
5011,-15.625000
5012,-15.625000
5013,-15.625000
5014,-11.718750
5015,-11.718750
5016,-11.718750
5017,-11.718750
5018,-7.812500
5019,-7.812500
5020,-7.812500
5021,-7.812500
5022,-3.906250
5023,-3.906250
5024,-3.906250
5025,-3.906250
5026,0.000000
5027,0.000000
5028,0.000000
5029,0.000000
5030,0.000000
5031,3.906250
5032,3.906250
5033,3.906250
5034,3.906250
5035,7.812500
5036,7.812500
5037,7.812500
5038,7.812500
5039,7.812500
5040,11.718750
5041,11.718750
5042,11.718750
5043,11.718750
5044,15.625000
5045,15.625000
5046,15.625000
5047,19.531250
5048,19.531250
5049,19.531250
5050,19.531250
5051,19.531250
5052,23.437500
5053,23.437500
5054,23.437500
5055,23.437500
5056,27.343750
5057,27.343750
5058,27.343750
5059,27.343750
5060,27.343750
5061,27.343750
5062,31.250000
5063,31.250000
5064,31.250000
5065,35.156250
5066,35.156250
5067,35.156250
5068,35.156250
5069,35.156250
5070,39.062500
5071,39.062500
5072,39.062500
5073,39.062500
5074,39.062500
5075,42.968750
5076,42.968750
5077,42.968750
5078,42.968750
5079,42.968750
5080,46.875000
5081,46.875000
5082,46.875000
5083,46.875000
5084,50.781250
5085,50.781250
5086,50.781250
5087,50.781250
5088,50.781250
5089,54.687500
5090,54.687500
5091,54.687500
5092,54.687500
5093,54.687500
5094,54.687500
5095,58.593750
5096,58.593750
5097,58.593750
5098,58.593750
5099,58.593750
5100,62.500000
5101,62.500000
5102,62.500000
5103,62.500000
5104,62.500000
5105,66.406250
5106,66.406250
5107,66.406250
5108,66.406250
5109,66.406250
5110,66.406250
5111,70.312500
5112,70.312500
5113,70.312500
5114,70.312500
5115,70.312500
5116,74.218750
5117,74.218750
5118,74.218750
5119,74.218750
5120,74.218750
5121,74.218750
5122,78.125000
5123,78.125000
5124,78.125000
5125,78.125000
5126,78.125000
5127,78.125000
5128,82.031250
5129,85.937500
5130,82.031250
5131,82.031250
5132,82.031250
5133,82.031250
5134,85.937500
5135,85.937500
5136,85.937500
5137,85.937500
5138,85.937500
5139,85.937500
5140,85.937500
5141,85.937500
5142,89.843750
5143,89.843750
5144,89.843750
5145,89.843750
5146,89.843750
5147,89.843750
5148,93.750000
5149,93.750000
5150,93.750000
5151,93.750000
5152,93.750000
5153,93.750000
5154,97.656250
5155,97.656250
5156,97.656250
5157,97.656250
5158,97.656250
5159,97.656250
5160,97.656250
5161,97.656250
5162,97.656250
5163,101.562500
5164,101.562500
5165,101.562500
5166,101.562500
5167,101.562500
5168,101.562500
5169,101.562500
5170,105.468750
5171,105.468750
5172,105.468750
5173,105.468750
5174,105.468750
5175,105.468750
5176,105.468750
5177,105.468750
5178,105.468750
5179,109.375000
5180,109.375000
5181,109.375000
5182,109.375000
5183,109.375000
5184,109.375000
5185,109.375000
5186,109.375000
5187,109.375000
5188,113.281250
5189,113.281250
5190,113.281250
5191,113.281250
5192,113.281250
5193,113.281250
5194,113.281250
5195,113.281250
5196,113.281250
5197,113.281250
5198,113.281250
5199,113.281250
5200,117.187500
5201,113.281250
5202,117.187500
5203,117.187500
5204,117.187500
5205,117.187500
5206,117.187500
5207,117.187500
5208,117.187500
5209,117.187500
5210,117.187500
5211,117.187500
5212,117.187500
5213,117.187500
5214,117.187500
5215,117.187500
5216,121.093750
5217,121.093750
5218,121.093750
5219,121.093750
5220,121.093750
5221,121.093750
5222,121.093750
5223,121.093750
5224,121.093750
5225,121.093750
5226,121.093750
5227,121.093750
5228,121.093750
5229,121.093750
5230,121.093750
5231,121.093750
5232,121.093750
5233,125.000000
5234,125.000000
5235,121.093750
5236,125.000000
5237,125.000000
5238,125.000000
5239,125.000000
5240,125.000000
5241,125.000000
5242,125.000000
5243,125.000000
5244,125.000000
5245,125.000000
5246,125.000000
5247,125.000000
5248,125.000000
5249,125.000000
5250,125.000000
5251,125.000000
5252,125.000000
5253,125.000000
5254,125.000000
5255,125.000000
5256,125.000000
5257,125.000000
5258,125.000000
5259,125.000000
5260,125.000000
5261,125.000000
5262,128.906250
5263,125.000000
5264,125.000000
5265,125.000000
5266,125.000000
5267,125.000000
5268,125.000000
5269,125.000000
5270,125.000000
5271,128.906250
5272,128.906250
5273,125.000000
5274,125.000000
5275,125.000000
5276,125.000000
5277,125.000000
5278,128.906250
5279,125.000000
5280,125.000000
5281,125.000000
5282,128.906250
5283,125.000000
5284,125.000000
5285,125.000000
5286,125.000000
5287,125.000000
5288,125.000000
5289,125.000000
5290,125.000000
5291,125.000000
5292,125.000000
5293,125.000000
5294,125.000000
5295,125.000000
5296,125.000000
5297,125.000000
5298,125.000000
5299,125.000000
5300,125.000000
5301,125.000000
5302,125.000000
5303,125.000000
5304,125.000000
5305,125.000000
5306,125.000000
5307,125.000000
5308,125.000000
5309,121.093750
5310,125.000000
5311,125.000000
5312,121.093750
5313,121.093750
5314,121.093750
5315,121.093750
5316,121.093750
5317,121.093750
5318,121.093750
5319,121.093750
5320,121.093750
5321,121.093750
5322,121.093750
5323,121.093750
5324,121.093750
5325,121.093750
5326,121.093750
5327,121.093750
5328,121.093750
5329,117.187500
5330,117.187500
5331,117.187500
5332,117.187500
5333,117.187500
5334,117.187500
5335,117.187500
5336,117.187500
5337,117.187500
5338,117.187500
5339,117.187500
5340,117.187500
5341,117.187500
5342,113.281250
5343,113.281250
5344,113.281250
5345,113.281250
5346,113.281250
5347,113.281250
5348,113.281250
5349,113.281250
5350,113.281250
5351,113.281250
5352,113.281250
5353,113.281250
5354,109.375000
5355,109.375000
5356,109.375000
5357,109.375000
5358,109.375000
5359,109.375000
5360,109.375000
5361,109.375000
5362,109.375000
5363,105.468750
5364,109.375000
5365,105.468750
5366,105.468750
5367,105.468750
5368,105.468750
5369,105.468750
5370,105.468750
5371,105.468750
5372,105.468750
5373,101.562500
5374,101.562500
5375,101.562500
5376,101.562500
5377,101.562500
5378,101.562500
5379,101.562500
5380,101.562500
5381,97.656250
5382,97.656250
5383,97.656250
5384,97.656250
5385,97.656250
5386,97.656250
5387,97.656250
5388,97.656250
5389,93.750000
5390,93.750000
5391,93.750000
5392,93.750000
5393,93.750000
5394,93.750000
5395,89.843750
5396,89.843750
5397,89.843750
5398,89.843750
5399,89.843750
5400,89.843750
5401,89.843750
5402,85.937500
5403,85.937500
5404,85.937500
5405,85.937500
5406,85.937500
5407,82.031250
5408,82.031250
5409,82.031250
5410,82.031250
5411,82.031250
5412,82.031250
5413,82.031250
5414,78.125000
5415,78.125000
5416,78.125000
5417,78.125000
5418,78.125000
5419,74.218750
5420,74.218750
5421,74.218750
5422,74.218750
5423,74.218750
5424,74.218750
5425,74.218750
5426,70.312500
5427,70.312500
5428,70.312500
5429,70.312500
5430,74.218750
5431,66.406250
5432,66.406250
5433,66.406250
5434,66.406250
5435,66.406250
5436,66.406250
5437,62.500000
5438,62.500000
5439,62.500000
5440,62.500000
5441,62.500000
5442,58.593750
5443,58.593750
5444,58.593750
5445,58.593750
5446,58.593750
5447,54.687500
5448,54.687500
5449,54.687500
5450,54.687500
5451,54.687500
5452,50.781250
5453,50.781250
5454,50.781250
5455,50.781250
5456,50.781250
5457,46.875000
5458,46.875000
5459,46.875000
5460,46.875000
5461,46.875000
5462,42.968750
5463,42.968750
5464,42.968750
5465,42.968750
5466,42.968750
5467,39.062500
5468,39.062500
5469,39.062500
5470,39.062500
5471,35.156250
5472,35.156250
5473,35.156250
5474,35.156250
5475,35.156250
5476,31.250000
5477,31.250000
5478,31.250000
5479,31.250000
5480,27.343750
5481,27.343750
5482,27.343750
5483,27.343750
5484,23.437500
5485,23.437500
5486,23.437500
5487,23.437500
5488,23.437500
5489,19.531250
5490,19.531250
5491,19.531250
5492,19.531250
5493,15.625000
5494,15.625000
5495,15.625000
5496,15.625000
5497,11.718750
5498,11.718750
5499,11.718750
5500,11.718750
5501,11.718750
5502,7.812500
5503,7.812500
5504,7.812500
5505,3.906250
5506,3.906250
5507,3.906250
5508,3.906250
5509,3.906250
5510,0.000000
5511,0.000000
5512,0.000000
5513,0.000000
5514,-3.906250
5515,-3.906250
5516,-3.906250
5517,-3.906250
5518,-7.812500
5519,-7.812500
5520,-7.812500
5521,-7.812500
5522,-7.812500
5523,-11.718750
5524,-11.718750
5525,-11.718750
5526,-15.625000
5527,-15.625000
5528,-15.625000
5529,-15.625000
5530,-15.625000
5531,-19.531250
5532,-19.531250
5533,-19.531250
5534,-19.531250
5535,-23.437500
5536,-23.437500
5537,-23.437500
5538,-27.343750
5539,-27.343750
5540,-27.343750
5541,-27.343750
5542,-27.343750
5543,-31.250000
5544,-31.250000
5545,-31.250000
5546,-31.250000
5547,-35.156250
5548,-35.156250
5549,-35.156250
5550,-35.156250
5551,-39.062500
5552,-39.062500
5553,-39.062500
5554,-39.062500
5555,-42.968750
5556,-42.968750
5557,-42.968750
5558,-42.968750
5559,-46.875000
5560,-46.875000
5561,-46.875000
5562,-50.781250
5563,-50.781250
5564,-50.781250
5565,-50.781250
5566,-50.781250
5567,-54.687500
5568,-54.687500
5569,-54.687500
5570,-54.687500
5571,-58.593750
5572,-58.593750
5573,-58.593750
5574,-58.593750
5575,-62.500000
5576,-62.500000
5577,-62.500000
5578,-62.500000
5579,-62.500000
5580,-66.406250
5581,-66.406250
5582,-66.406250
5583,-66.406250
5584,-70.312500
5585,-70.312500
5586,-70.312500
5587,-70.312500
5588,-74.218750
5589,-74.218750
5590,-74.218750
5591,-74.218750
5592,-78.125000
5593,-78.125000
5594,-78.125000
5595,-78.125000
5596,-78.125000
5597,-82.031250
5598,-82.031250
5599,-82.031250
5600,-82.031250
5601,-85.937500
5602,-85.937500
5603,-85.937500
5604,-85.937500
5605,-89.843750
5606,-89.843750
5607,-89.843750
5608,-89.843750
5609,-93.750000
5610,-93.750000
5611,-93.750000
5612,-93.750000
5613,-93.750000
5614,-93.750000
5615,-97.656250
5616,-97.656250
5617,-97.656250
5618,-97.656250
5619,-101.562500
5620,-101.562500
5621,-101.562500
5622,-101.562500
5623,-105.468750
5624,-105.468750
5625,-105.468750
5626,-105.468750
5627,-105.468750
5628,-105.468750
5629,-109.375000
5630,-109.375000
5631,-109.375000
5632,-109.375000
5633,-113.281250
5634,-113.281250
5635,-113.281250
5636,-113.281250
5637,-113.281250
5638,-113.281250
5639,-117.187500
5640,-117.187500
5641,-117.187500
5642,-117.187500
5643,-117.187500
5644,-121.093750
5645,-121.093750
5646,-121.093750
5647,-121.093750
5648,-121.093750
5649,-121.093750
5650,-125.000000
5651,-125.000000
5652,-125.000000
5653,-125.000000
5654,-125.000000
5655,-128.906250
5656,-128.906250
5657,-128.906250
5658,-128.906250
5659,-128.906250
5660,-128.906250
5661,-132.812500
5662,-132.812500
5663,-132.812500
5664,-132.812500
5665,-132.812500
5666,-132.812500
5667,-136.718750
5668,-136.718750
5669,-136.718750
5670,-136.718750
5671,-136.718750
5672,-136.718750
5673,-136.718750
5674,-140.625000
5675,-140.625000
5676,-140.625000
5677,-140.625000
5678,-140.625000
5679,-140.625000
5680,-144.531250
5681,-144.531250
5682,-144.531250
5683,-144.531250
5684,-144.531250
5685,-144.531250
5686,-144.531250
5687,-144.531250
5688,-144.531250
5689,-148.437500
5690,-148.437500
5691,-148.437500
5692,-148.437500
5693,-148.437500
5694,-148.437500
5695,-148.437500
5696,-148.437500
5697,-148.437500
5698,-152.343750
5699,-152.343750
5700,-152.343750
5701,-152.343750
5702,-152.343750
5703,-152.343750
5704,-152.343750
5705,-156.250000
5706,-156.250000
5707,-156.250000
5708,-156.250000
5709,-156.250000
5710,-156.250000
5711,-156.250000
5712,-156.250000
5713,-156.250000
5714,-156.250000
5715,-156.250000
5716,-156.250000
5717,-160.156250
5718,-160.156250
5719,-160.156250
5720,-160.156250
5721,-160.156250
5722,-160.156250
5723,-160.156250
5724,-160.156250
5725,-160.156250
5726,-160.156250
5727,-160.156250
5728,-160.156250
5729,-160.156250
5730,-164.062500
5731,-164.062500
5732,-164.062500
5733,-164.062500
5734,-164.062500
5735,-164.062500
5736,-164.062500
5737,-164.062500
5738,-164.062500
5739,-164.062500
5740,-164.062500
5741,-164.062500
5742,-164.062500
5743,-164.062500
5744,-164.062500
5745,-164.062500
5746,-164.062500
5747,-164.062500
5748,-164.062500
5749,-164.062500
5750,-164.062500
5751,-164.062500
5752,-164.062500
5753,-164.062500
5754,-164.062500
5755,-164.062500
5756,-164.062500
5757,-164.062500
5758,-164.062500
5759,-164.062500
5760,-164.062500
5761,-167.968750
5762,-164.062500
5763,-164.062500
5764,-164.062500
5765,-164.062500
5766,-164.062500
5767,-167.968750
5768,-164.062500
5769,-164.062500
5770,-167.968750
5771,-164.062500
5772,-164.062500
5773,-164.062500
5774,-164.062500
5775,-164.062500
5776,-164.062500
5777,-164.062500
5778,-164.062500
5779,-164.062500
5780,-164.062500
5781,-164.062500
5782,-164.062500
5783,-164.062500
5784,-164.062500
5785,-164.062500
5786,-164.062500
5787,-164.062500
5788,-164.062500
5789,-164.062500
5790,-164.062500
5791,-164.062500
5792,-164.062500
5793,-164.062500
5794,-164.062500
5795,-164.062500
5796,-164.062500
5797,-160.156250
5798,-160.156250
5799,-160.156250
5800,-160.156250
5801,-160.156250
5802,-160.156250
5803,-160.156250
5804,-160.156250
5805,-160.156250
5806,-160.156250
5807,-160.156250
5808,-160.156250
5809,-160.156250
5810,-160.156250
5811,-156.250000
5812,-156.250000
5813,-156.250000
5814,-156.250000
5815,-156.250000
5816,-156.250000
5817,-156.250000
5818,-156.250000
5819,-156.250000
5820,-156.250000
5821,-156.250000
5822,-152.343750
5823,-152.343750
5824,-152.343750
5825,-152.343750
5826,-152.343750
5827,-152.343750
5828,-152.343750
5829,-152.343750
5830,-152.343750
5831,-152.343750
5832,-148.437500
5833,-148.437500
5834,-148.437500
5835,-148.437500
5836,-148.437500
5837,-148.437500
5838,-148.437500
5839,-148.437500
5840,-144.531250
5841,-144.531250
5842,-144.531250
5843,-144.531250
5844,-144.531250
5845,-144.531250
5846,-144.531250
5847,-140.625000
5848,-140.625000
5849,-140.625000
5850,-140.625000
5851,-140.625000
5852,-140.625000
5853,-140.625000
5854,-140.625000
5855,-140.625000
5856,-136.718750
5857,-136.718750
5858,-136.718750
5859,-136.718750
5860,-136.718750
5861,-136.718750
5862,-132.812500
5863,-132.812500
5864,-132.812500
5865,-132.812500
5866,-132.812500
5867,-132.812500
5868,-128.906250
5869,-128.906250
5870,-128.906250
5871,-128.906250
5872,-128.906250
5873,-128.906250
5874,-125.000000
5875,-125.000000
5876,-125.000000
5877,-125.000000
5878,-125.000000
5879,-125.000000
5880,-121.093750
5881,-121.093750
5882,-121.093750
5883,-121.093750
5884,-121.093750
5885,-117.187500
5886,-117.187500
5887,-117.187500
5888,-117.187500
5889,-117.187500
5890,-113.281250
5891,-113.281250
5892,-113.281250
5893,-113.281250
5894,-113.281250
5895,-109.375000
5896,-109.375000
5897,-109.375000
5898,-109.375000
5899,-109.375000
5900,-105.468750
5901,-105.468750
5902,-105.468750
5903,-105.468750
5904,-105.468750
5905,-105.468750
5906,-101.562500
5907,-101.562500
5908,-101.562500
5909,-101.562500
5910,-97.656250
5911,-97.656250
5912,-97.656250
5913,-97.656250
5914,-97.656250
5915,-93.750000
5916,-93.750000
5917,-93.750000
5918,-93.750000
5919,-93.750000
5920,-89.843750
5921,-89.843750
5922,-89.843750
5923,-89.843750
5924,-85.937500
5925,-85.937500
5926,-85.937500
5927,-85.937500
5928,-85.937500
5929,-82.031250
5930,-82.031250
5931,-82.031250
5932,-82.031250
5933,-78.125000
5934,-78.125000
5935,-78.125000
5936,-78.125000
5937,-78.125000
5938,-74.218750
5939,-74.218750
5940,-74.218750
5941,-70.312500
5942,-70.312500
5943,-70.312500
5944,-70.312500
5945,-70.312500
5946,-66.406250
5947,-66.406250
5948,-66.406250
5949,-66.406250
5950,-62.500000
5951,-62.500000
5952,-62.500000
5953,-62.500000
5954,-62.500000
5955,-58.593750
5956,-58.593750
5957,-58.593750
5958,-54.687500
5959,-54.687500
5960,-54.687500
5961,-54.687500
5962,-50.781250
5963,-50.781250
5964,-50.781250
5965,-50.781250
5966,-50.781250
5967,-46.875000
5968,-46.875000
5969,-46.875000
5970,-46.875000
5971,-42.968750
5972,-42.968750
5973,-42.968750
5974,-39.062500
5975,-39.062500
5976,-39.062500
5977,-39.062500
5978,-35.156250
5979,-35.156250
5980,-35.156250
5981,-35.156250
5982,-35.156250
5983,-35.156250
5984,-31.250000
5985,-31.250000
5986,-31.250000
5987,-27.343750
5988,-27.343750
5989,-27.343750
5990,-27.343750
5991,-23.437500
5992,-23.437500
5993,-23.437500
5994,-23.437500
5995,-23.437500
5996,-19.531250
5997,-19.531250
5998,-19.531250
5999,-15.625000
6000,-15.625000
6001,-15.625000
6002,-15.625000
6003,-15.625000
6004,-11.718750
6005,-11.718750
6006,-11.718750
6007,-11.718750
6008,-7.812500
6009,-7.812500
6010,-7.812500
6011,-3.906250
6012,-3.906250
6013,-3.906250
6014,-3.906250
6015,-3.906250
6016,-3.906250
6017,0.000000
6018,0.000000
6019,0.000000
6020,3.906250
6021,3.906250
6022,3.906250
6023,7.812500
6024,7.812500
6025,7.812500
6026,7.812500
6027,7.812500
6028,7.812500
6029,11.718750
6030,11.718750
6031,11.718750
6032,11.718750
6033,15.625000
6034,15.625000
6035,15.625000
6036,15.625000
6037,19.531250
6038,19.531250
6039,19.531250
6040,19.531250
6041,19.531250
6042,23.437500
6043,23.437500
6044,23.437500
6045,23.437500
6046,27.343750
6047,27.343750
6048,27.343750
6049,27.343750
6050,27.343750
6051,31.250000
6052,31.250000
6053,31.250000
6054,31.250000
6055,35.156250
6056,35.156250
6057,35.156250
6058,35.156250
6059,35.156250
6060,39.062500
6061,39.062500
6062,39.062500
6063,39.062500
6064,42.968750
6065,42.968750
6066,42.968750
6067,42.968750
6068,42.968750
6069,46.875000
6070,46.875000
6071,46.875000
6072,46.875000
6073,46.875000
6074,50.781250
6075,50.781250
6076,50.781250
6077,50.781250
6078,50.781250
6079,54.687500
6080,54.687500
6081,54.687500
6082,54.687500
6083,54.687500
6084,58.593750
6085,58.593750
6086,58.593750
6087,58.593750
6088,58.593750
6089,58.593750
6090,62.500000
6091,62.500000
6092,62.500000
6093,66.406250
6094,66.406250
6095,66.406250
6096,66.406250
6097,66.406250
6098,66.406250
6099,66.406250
6100,70.312500
6101,70.312500
6102,70.312500
6103,70.312500
6104,70.312500
6105,70.312500
6106,74.218750
6107,74.218750
6108,74.218750
6109,74.218750
6110,74.218750
6111,78.125000
6112,78.125000
6113,78.125000
6114,78.125000
6115,78.125000
6116,78.125000
6117,82.031250
6118,82.031250
6119,82.031250
6120,82.031250
6121,82.031250
6122,82.031250
6123,82.031250
6124,85.937500
6125,85.937500
6126,85.937500
6127,85.937500
6128,85.937500
6129,85.937500
6130,89.843750
6131,89.843750
6132,89.843750
6133,89.843750
6134,89.843750
6135,89.843750
6136,93.750000
6137,93.750000
6138,93.750000
6139,93.750000
6140,93.750000
6141,93.750000
6142,93.750000
6143,93.750000
6144,97.656250
6145,97.656250
6146,97.656250
6147,97.656250
6148,97.656250
6149,97.656250
6150,97.656250
6151,97.656250
6152,97.656250
6153,101.562500
6154,101.562500
6155,101.562500
6156,101.562500
6157,101.562500
6158,101.562500
6159,105.468750
6160,101.562500
6161,105.468750
6162,105.468750
6163,105.468750
6164,105.468750
6165,105.468750
6166,105.468750
6167,105.468750
6168,105.468750
6169,109.375000
6170,109.375000
6171,109.375000
6172,109.375000
6173,109.375000
6174,109.375000
6175,109.375000
6176,109.375000
6177,109.375000
6178,109.375000
6179,113.281250
6180,113.281250
6181,113.281250
6182,113.281250
6183,113.281250
6184,113.281250
6185,113.281250
6186,113.281250
6187,113.281250
6188,113.281250
6189,117.187500
6190,113.281250
6191,117.187500
6192,117.187500
6193,117.187500
6194,117.187500
6195,117.187500
6196,117.187500
6197,117.187500
6198,117.187500
6199,117.187500
6200,117.187500
6201,117.187500
6202,117.187500
6203,117.187500
6204,121.093750
6205,117.187500
6206,121.093750
6207,121.093750
6208,121.093750
6209,121.093750
6210,121.093750
6211,121.093750
6212,121.093750
6213,121.093750
6214,121.093750
6215,121.093750
6216,121.093750
6217,121.093750
6218,121.093750
6219,121.093750
6220,121.093750
6221,121.093750
6222,125.000000
6223,121.093750
6224,125.000000
6225,121.093750
6226,121.093750
6227,125.000000
6228,125.000000
6229,125.000000
6230,125.000000
6231,125.000000
6232,125.000000
6233,125.000000
6234,125.000000
6235,125.000000
6236,125.000000
6237,125.000000
6238,125.000000
6239,125.000000
6240,125.000000
6241,125.000000
6242,125.000000
6243,125.000000
6244,125.000000
6245,125.000000
6246,125.000000
6247,125.000000
6248,125.000000
6249,125.000000
6250,128.906250
6251,125.000000
6252,125.000000
6253,125.000000
6254,125.000000
6255,125.000000
6256,128.906250
6257,128.906250
6258,125.000000
6259,125.000000
6260,128.906250
6261,128.906250
6262,128.906250
6263,125.000000
6264,128.906250
6265,125.000000
6266,128.906250
6267,125.000000
6268,125.000000
6269,125.000000
6270,125.000000
6271,125.000000
6272,125.000000
6273,125.000000
6274,125.000000
6275,125.000000
6276,125.000000
6277,125.000000
6278,125.000000
6279,125.000000
6280,125.000000
6281,125.000000
6282,125.000000
6283,125.000000
6284,128.906250
6285,125.000000
6286,125.000000
6287,125.000000
6288,125.000000
6289,125.000000
6290,125.000000
6291,125.000000
6292,125.000000
6293,125.000000
6294,125.000000
6295,125.000000
6296,125.000000
6297,121.093750
6298,125.000000
6299,121.093750
6300,121.093750
6301,121.093750
6302,121.093750
6303,121.093750
6304,121.093750
6305,121.093750
6306,125.000000
6307,121.093750
6308,121.093750
6309,121.093750
6310,121.093750
6311,121.093750
6312,121.093750
6313,121.093750
6314,121.093750
6315,121.093750
6316,121.093750
6317,117.187500
6318,121.093750
6319,117.187500
6320,117.187500
6321,117.187500
6322,117.187500
6323,117.187500
6324,117.187500
6325,117.187500
6326,117.187500
6327,117.187500
6328,117.187500
6329,117.187500
6330,117.187500
6331,113.281250
6332,113.281250
6333,113.281250
6334,117.187500
6335,113.281250
6336,113.281250
6337,113.281250
6338,113.281250
6339,113.281250
6340,113.281250
6341,113.281250
6342,113.281250
6343,113.281250
6344,109.375000
6345,109.375000
6346,109.375000
6347,109.375000
6348,109.375000
6349,109.375000
6350,109.375000
6351,109.375000
6352,109.375000
6353,105.468750
6354,105.468750
6355,105.468750
6356,105.468750
6357,105.468750
6358,105.468750
6359,105.468750
6360,105.468750
6361,105.468750
6362,101.562500
6363,101.562500
6364,101.562500
6365,101.562500
6366,101.562500
6367,101.562500
6368,101.562500
6369,101.562500
6370,101.562500
6371,97.656250
6372,97.656250
6373,97.656250
6374,97.656250
6375,97.656250
6376,97.656250
6377,93.750000
6378,93.750000
6379,93.750000
6380,93.750000
6381,93.750000
6382,93.750000
6383,93.750000
6384,89.843750
6385,89.843750
6386,89.843750
6387,89.843750
6388,89.843750
6389,89.843750
6390,89.843750
6391,89.843750
6392,85.937500
6393,85.937500
6394,85.937500
6395,85.937500
6396,85.937500
6397,85.937500
6398,82.031250
6399,82.031250
6400,82.031250
6401,82.031250
6402,82.031250
6403,82.031250
6404,82.031250
6405,78.125000
6406,78.125000
6407,78.125000
6408,78.125000
6409,78.125000
6410,74.218750
6411,74.218750
6412,74.218750
6413,74.218750
6414,74.218750
6415,74.218750
6416,70.312500
6417,70.312500
6418,70.312500
6419,70.312500
6420,70.312500
6421,66.406250
6422,66.406250
6423,66.406250
6424,66.406250
6425,66.406250
6426,66.406250
6427,66.406250
6428,62.500000
6429,62.500000
6430,62.500000
6431,62.500000
6432,58.593750
6433,58.593750
6434,58.593750
6435,58.593750
6436,58.593750
6437,54.687500
6438,54.687500
6439,54.687500
6440,54.687500
6441,54.687500
6442,54.687500
6443,50.781250
6444,50.781250
6445,50.781250
6446,50.781250
6447,46.875000
6448,46.875000
6449,46.875000
6450,46.875000
6451,46.875000
6452,42.968750
6453,42.968750
6454,42.968750
6455,42.968750
6456,39.062500
6457,39.062500
6458,39.062500
6459,39.062500
6460,39.062500
6461,35.156250
6462,35.156250
6463,35.156250
6464,35.156250
6465,35.156250
6466,31.250000
6467,31.250000
6468,31.250000
6469,31.250000
6470,27.343750
6471,27.343750
6472,27.343750
6473,27.343750
6474,27.343750
6475,23.437500
6476,23.437500
6477,23.437500
6478,23.437500
6479,19.531250
6480,19.531250
6481,19.531250
6482,19.531250
6483,15.625000
6484,15.625000
6485,15.625000
6486,15.625000
6487,11.718750
6488,11.718750
6489,11.718750
6490,11.718750
6491,11.718750
6492,7.812500
6493,7.812500
6494,7.812500
6495,7.812500
6496,7.812500
6497,3.906250
6498,3.906250
6499,3.906250
6500,3.906250
6501,0.000000
6502,-3.906250
6503,0.000000
6504,0.000000
6505,-3.906250
6506,-3.906250
6507,-3.906250
6508,-7.812500
6509,-7.812500
6510,-7.812500
6511,-7.812500
6512,-7.812500
6513,-11.718750
6514,-11.718750
6515,-11.718750
6516,-11.718750
6517,-15.625000
6518,-15.625000
6519,-15.625000
6520,-19.531250
6521,-19.531250
6522,-19.531250
6523,-19.531250
6524,-19.531250
6525,-23.437500
6526,-23.437500
6527,-23.437500
6528,-27.343750
6529,-27.343750
6530,-27.343750
6531,-27.343750
6532,-31.250000
6533,-31.250000
6534,-31.250000
6535,-31.250000
6536,-31.250000
6537,-35.156250
6538,-35.156250
6539,-35.156250
6540,-35.156250
6541,-39.062500
6542,-39.062500
6543,-39.062500
6544,-42.968750
6545,-42.968750
6546,-42.968750
6547,-42.968750
6548,-46.875000
6549,-46.875000
6550,-46.875000
6551,-46.875000
6552,-46.875000
6553,-50.781250
6554,-54.687500
6555,-50.781250
6556,-54.687500
6557,-54.687500
6558,-54.687500
6559,-54.687500
6560,-54.687500
6561,-58.593750
6562,-58.593750
6563,-54.687500
6564,-58.593750
6565,-62.500000
6566,-62.500000
6567,-62.500000
6568,-62.500000
6569,-66.406250
6570,-66.406250
6571,-66.406250
6572,-66.406250
6573,-70.312500
6574,-70.312500
6575,-66.406250
6576,-70.312500
6577,-74.218750
6578,-74.218750
6579,-74.218750
6580,-74.218750
6581,-74.218750
6582,-78.125000
6583,-78.125000
6584,-78.125000
6585,-78.125000
6586,-78.125000
6587,-82.031250
6588,-82.031250
6589,-82.031250
6590,-82.031250
6591,-85.937500
6592,-85.937500
6593,-85.937500
6594,-85.937500
6595,-89.843750
6596,-89.843750
6597,-89.843750
6598,-89.843750
6599,-89.843750
6600,-93.750000
6601,-93.750000
6602,-93.750000
6603,-93.750000
6604,-93.750000
6605,-97.656250
6606,-97.656250
6607,-97.656250
6608,-97.656250
6609,-101.562500
6610,-101.562500
6611,-101.562500
6612,-101.562500
6613,-101.562500
6614,-105.468750
6615,-105.468750
6616,-105.468750
6617,-105.468750
6618,-109.375000
6619,-109.375000
6620,-109.375000
6621,-109.375000
6622,-109.375000
6623,-109.375000
6624,-113.281250
6625,-113.281250
6626,-113.281250
6627,-113.281250
6628,-117.187500
6629,-117.187500
6630,-117.187500
6631,-117.187500
6632,-117.187500
6633,-117.187500
6634,-121.093750
6635,-121.093750
6636,-121.093750
6637,-121.093750
6638,-121.093750
6639,-125.000000
6640,-125.000000
6641,-125.000000
6642,-125.000000
6643,-128.906250
6644,-125.000000
6645,-128.906250
6646,-128.906250
6647,-128.906250
6648,-128.906250
6649,-128.906250
6650,-128.906250
6651,-132.812500
6652,-132.812500
6653,-132.812500
6654,-132.812500
6655,-132.812500
6656,-132.812500
6657,-136.718750
6658,-136.718750
6659,-136.718750
6660,-136.718750
6661,-136.718750
6662,-136.718750
6663,-140.625000
6664,-140.625000
6665,-140.625000
6666,-140.625000
6667,-140.625000
6668,-140.625000
6669,-140.625000
6670,-140.625000
6671,-144.531250
6672,-144.531250
6673,-144.531250
6674,-144.531250
6675,-144.531250
6676,-144.531250
6677,-148.437500
6678,-148.437500
6679,-148.437500
6680,-148.437500
6681,-148.437500
6682,-148.437500
6683,-148.437500
6684,-148.437500
6685,-148.437500
6686,-148.437500
6687,-152.343750
6688,-152.343750
6689,-152.343750
6690,-152.343750
6691,-152.343750
6692,-152.343750
6693,-152.343750
6694,-156.250000
6695,-156.250000
6696,-156.250000
6697,-156.250000
6698,-156.250000
6699,-156.250000
6700,-156.250000
6701,-156.250000
6702,-160.156250
6703,-156.250000
6704,-160.156250
6705,-160.156250
6706,-160.156250
6707,-160.156250
6708,-160.156250
6709,-160.156250
6710,-160.156250
6711,-160.156250
6712,-160.156250
6713,-160.156250
6714,-160.156250
6715,-160.156250
6716,-160.156250
6717,-160.156250
6718,-160.156250
6719,-160.156250
6720,-160.156250
6721,-164.062500
6722,-164.062500
6723,-164.062500
6724,-164.062500
6725,-164.062500
6726,-164.062500
6727,-164.062500
6728,-164.062500
6729,-164.062500
6730,-164.062500
6731,-164.062500
6732,-164.062500
6733,-164.062500
6734,-164.062500
6735,-164.062500
6736,-164.062500
6737,-164.062500
6738,-164.062500
6739,-164.062500
6740,-164.062500
6741,-164.062500
6742,-164.062500
6743,-164.062500
6744,-164.062500
6745,-164.062500
6746,-164.062500
6747,-164.062500
6748,-164.062500
6749,-164.062500
6750,-164.062500
6751,-164.062500
6752,-167.968750
6753,-164.062500
6754,-167.968750
6755,-164.062500
6756,-164.062500
6757,-164.062500
6758,-164.062500
6759,-164.062500
6760,-164.062500
6761,-164.062500
6762,-164.062500
6763,-164.062500
6764,-164.062500
6765,-164.062500
6766,-164.062500
6767,-164.062500
6768,-164.062500
6769,-164.062500
6770,-164.062500
6771,-164.062500
6772,-164.062500
6773,-164.062500
6774,-164.062500
6775,-164.062500
6776,-164.062500
6777,-164.062500
6778,-164.062500
6779,-164.062500
6780,-164.062500
6781,-164.062500
6782,-164.062500
6783,-164.062500
6784,-164.062500
6785,-164.062500
6786,-164.062500
6787,-160.156250
6788,-160.156250
6789,-160.156250
6790,-160.156250
6791,-160.156250
6792,-160.156250
6793,-160.156250
6794,-160.156250
6795,-160.156250
6796,-160.156250
6797,-160.156250
6798,-160.156250
6799,-160.156250
6800,-156.250000
6801,-156.250000
6802,-156.250000
6803,-156.250000
6804,-156.250000
6805,-156.250000
6806,-156.250000
6807,-156.250000
6808,-156.250000
6809,-156.250000
6810,-156.250000
6811,-156.250000
6812,-152.343750
6813,-152.343750
6814,-152.343750
6815,-152.343750
6816,-152.343750
6817,-152.343750
6818,-152.343750
6819,-152.343750
6820,-152.343750
6821,-152.343750
6822,-148.437500
6823,-148.437500
6824,-148.437500
6825,-148.437500
6826,-148.437500
6827,-148.437500
6828,-148.437500
6829,-148.437500
6830,-144.531250
6831,-144.531250
6832,-144.531250
6833,-144.531250
6834,-144.531250
6835,-140.625000
6836,-144.531250
6837,-144.531250
6838,-140.625000
6839,-140.625000
6840,-140.625000
6841,-140.625000
6842,-140.625000
6843,-140.625000
6844,-136.718750
6845,-136.718750
6846,-136.718750
6847,-136.718750
6848,-136.718750
6849,-136.718750
6850,-136.718750
6851,-132.812500
6852,-132.812500
6853,-132.812500
6854,-132.812500
6855,-132.812500
6856,-132.812500
6857,-128.906250
6858,-128.906250
6859,-128.906250
6860,-128.906250
6861,-128.906250
6862,-128.906250
6863,-125.000000
6864,-125.000000
6865,-125.000000
6866,-125.000000
6867,-125.000000
6868,-121.093750
6869,-121.093750
6870,-121.093750
6871,-121.093750
6872,-121.093750
6873,-121.093750
6874,-117.187500
6875,-117.187500
6876,-117.187500
6877,-117.187500
6878,-117.187500
6879,-113.281250
6880,-113.281250
6881,-113.281250
6882,-113.281250
6883,-113.281250
6884,-113.281250
6885,-109.375000
6886,-109.375000
6887,-109.375000
6888,-109.375000
6889,-109.375000
6890,-105.468750
6891,-105.468750
6892,-105.468750
6893,-105.468750
6894,-105.468750
6895,-101.562500
6896,-101.562500
6897,-101.562500
6898,-101.562500
6899,-101.562500
6900,-97.656250
6901,-97.656250
6902,-97.656250
6903,-97.656250
6904,-93.750000
6905,-93.750000
6906,-93.750000
6907,-93.750000
6908,-93.750000
6909,-89.843750
6910,-89.843750
6911,-89.843750
6912,-89.843750
6913,-85.937500
6914,-85.937500
6915,-85.937500
6916,-85.937500
6917,-85.937500
6918,-82.031250
6919,-82.031250
6920,-82.031250
6921,-82.031250
6922,-78.125000
6923,-78.125000
6924,-78.125000
6925,-78.125000
6926,-78.125000
6927,-74.218750
6928,-74.218750
6929,-74.218750
6930,-74.218750
6931,-70.312500
6932,-70.312500
6933,-70.312500
6934,-70.312500
6935,-70.312500
6936,-66.406250
6937,-66.406250
6938,-66.406250
6939,-66.406250
6940,-62.500000
6941,-62.500000
6942,-62.500000
6943,-62.500000
6944,-58.593750
6945,-58.593750
6946,-58.593750
6947,-58.593750
6948,-54.687500
6949,-54.687500
6950,-54.687500
6951,-54.687500
6952,-50.781250
6953,-50.781250
6954,-50.781250
6955,-50.781250
6956,-46.875000
6957,-46.875000
6958,-46.875000
6959,-46.875000
6960,-46.875000
6961,-42.968750
6962,-42.968750
6963,-42.968750
6964,-39.062500
6965,-39.062500
6966,-39.062500
6967,-39.062500
6968,-35.156250
6969,-35.156250
6970,-35.156250
6971,-35.156250
6972,-31.250000
6973,-31.250000
6974,-31.250000
6975,-31.250000
6976,-31.250000
6977,-27.343750
6978,-27.343750
6979,-27.343750
6980,-27.343750
6981,-23.437500
6982,-23.437500
6983,-23.437500
6984,-19.531250
6985,-19.531250
6986,-19.531250
6987,-19.531250
6988,-19.531250
6989,-15.625000
6990,-15.625000
6991,-15.625000
6992,-15.625000
6993,-11.718750
6994,-11.718750
6995,-11.718750
6996,-11.718750
6997,-7.812500
6998,-7.812500
6999,-7.812500
7000,-7.812500
7001,-3.906250
7002,-3.906250
7003,-3.906250
7004,-3.906250
7005,-3.906250
7006,0.000000
7007,0.000000
7008,0.000000
7009,0.000000
7010,0.000000
7011,3.906250
7012,3.906250
7013,3.906250
7014,7.812500
7015,7.812500
7016,7.812500
7017,7.812500
7018,11.718750
7019,11.718750
7020,11.718750
7021,11.718750
7022,15.625000
7023,15.625000
7024,15.625000
7025,15.625000
7026,15.625000
7027,19.531250
7028,19.531250
7029,19.531250
7030,19.531250
7031,23.437500
7032,23.437500
7033,23.437500
7034,23.437500
7035,23.437500
7036,27.343750
7037,27.343750
7038,27.343750
7039,27.343750
7040,31.250000
7041,31.250000
7042,31.250000
7043,31.250000
7044,35.156250
7045,35.156250
7046,35.156250
7047,35.156250
7048,35.156250
7049,35.156250
7050,39.062500
7051,39.062500
7052,39.062500
7053,39.062500
7054,42.968750
7055,42.968750
7056,42.968750
7057,42.968750
7058,42.968750
7059,46.875000
7060,46.875000
7061,46.875000
7062,46.875000
7063,50.781250
7064,50.781250
7065,50.781250
7066,50.781250
7067,50.781250
7068,50.781250
7069,54.687500
7070,54.687500
7071,54.687500
7072,54.687500
7073,54.687500
7074,58.593750
7075,58.593750
7076,58.593750
7077,58.593750
7078,58.593750
7079,62.500000
7080,62.500000
7081,62.500000
7082,62.500000
7083,62.500000
7084,62.500000
7085,66.406250
7086,66.406250
7087,66.406250
7088,66.406250
7089,66.406250
7090,70.312500
7091,70.312500
7092,70.312500
7093,70.312500
7094,70.312500
7095,70.312500
7096,74.218750
7097,74.218750
7098,74.218750
7099,74.218750
7100,74.218750
7101,78.125000
7102,78.125000
7103,78.125000
7104,78.125000
7105,78.125000
7106,82.031250
7107,82.031250
7108,82.031250
7109,82.031250
7110,82.031250
7111,82.031250
7112,82.031250
7113,82.031250
7114,85.937500
7115,85.937500
7116,85.937500
7117,85.937500
7118,85.937500
7119,85.937500
7120,89.843750
7121,89.843750
7122,89.843750
7123,89.843750
7124,89.843750
7125,89.843750
7126,93.750000
7127,93.750000
7128,93.750000
7129,93.750000
7130,93.750000
7131,93.750000
7132,93.750000
7133,93.750000
7134,93.750000
7135,97.656250
7136,97.656250
7137,97.656250
7138,97.656250
7139,97.656250
7140,97.656250
7141,97.656250
7142,101.562500
7143,101.562500
7144,101.562500
7145,101.562500
7146,101.562500
7147,101.562500
7148,101.562500
7149,101.562500
7150,105.468750
7151,105.468750
7152,105.468750
7153,105.468750
7154,105.468750
7155,105.468750
7156,105.468750
7157,105.468750
7158,105.468750
7159,109.375000
7160,109.375000
7161,109.375000
7162,109.375000
7163,109.375000
7164,109.375000
7165,109.375000
7166,109.375000
7167,109.375000
7168,109.375000
7169,109.375000
7170,113.281250
7171,113.281250
7172,113.281250
7173,113.281250
7174,113.281250
7175,113.281250
7176,113.281250
7177,113.281250
7178,113.281250
7179,113.281250
7180,117.187500
7181,117.187500
7182,117.187500
7183,117.187500
7184,117.187500
7185,117.187500
7186,117.187500
7187,117.187500
7188,117.187500
7189,117.187500
7190,117.187500
7191,117.187500
7192,117.187500
7193,117.187500
7194,121.093750
7195,121.093750
7196,121.093750
7197,121.093750
7198,121.093750
7199,121.093750
7200,121.093750
7201,121.093750
7202,121.093750
7203,121.093750
7204,121.093750
7205,121.093750
7206,121.093750
7207,121.093750
7208,121.093750
7209,121.093750
7210,125.000000
7211,121.093750
7212,125.000000
7213,125.000000
7214,125.000000
7215,125.000000
7216,125.000000
7217,125.000000
7218,125.000000
7219,125.000000
7220,125.000000
7221,125.000000
7222,125.000000
7223,125.000000
7224,125.000000
7225,125.000000
7226,125.000000
7227,125.000000
7228,125.000000
7229,125.000000
7230,125.000000
7231,125.000000
7232,125.000000
7233,125.000000
7234,125.000000
7235,125.000000
7236,125.000000
7237,125.000000
7238,128.906250
7239,125.000000
7240,128.906250
7241,125.000000
7242,125.000000
7243,125.000000
7244,125.000000
7245,125.000000
7246,125.000000
7247,125.000000
7248,128.906250
7249,125.000000
7250,128.906250
7251,125.000000
7252,128.906250
7253,125.000000
7254,128.906250
7255,125.000000
7256,125.000000
7257,125.000000
7258,125.000000
7259,125.000000
7260,128.906250
7261,125.000000
7262,125.000000
7263,128.906250
7264,125.000000
7265,125.000000
7266,125.000000
7267,125.000000
7268,125.000000
7269,125.000000
7270,125.000000
7271,125.000000
7272,125.000000
7273,125.000000
7274,125.000000
7275,125.000000
7276,125.000000
7277,125.000000
7278,125.000000
7279,125.000000
7280,125.000000
7281,125.000000
7282,125.000000
7283,125.000000
7284,125.000000
7285,125.000000
7286,125.000000
7287,125.000000
7288,125.000000
7289,125.000000
7290,125.000000
7291,125.000000
7292,125.000000
7293,121.093750
7294,121.093750
7295,121.093750
7296,121.093750
7297,121.093750
7298,121.093750
7299,121.093750
7300,121.093750
7301,121.093750
7302,121.093750
7303,121.093750
7304,121.093750
7305,121.093750
7306,121.093750
7307,121.093750
7308,121.093750
7309,117.187500
7310,121.093750
7311,117.187500
7312,117.187500
7313,117.187500
7314,117.187500
7315,117.187500
7316,117.187500
7317,117.187500
7318,117.187500
7319,117.187500
7320,117.187500
7321,117.187500
7322,117.187500
7323,113.281250
7324,113.281250
7325,113.281250
7326,113.281250
7327,113.281250
7328,113.281250
7329,113.281250
7330,113.281250
7331,113.281250
7332,113.281250
7333,113.281250
7334,109.375000
7335,109.375000
7336,109.375000
7337,109.375000
7338,109.375000
7339,109.375000
7340,109.375000
7341,109.375000
7342,109.375000
7343,105.468750
7344,105.468750
7345,109.375000
7346,105.468750
7347,105.468750
7348,105.468750
7349,105.468750
7350,105.468750
7351,101.562500
7352,101.562500
7353,101.562500
7354,101.562500
7355,101.562500
7356,101.562500
7357,101.562500
7358,101.562500
7359,101.562500
7360,97.656250
7361,97.656250
7362,97.656250
7363,97.656250
7364,97.656250
7365,97.656250
7366,97.656250
7367,93.750000
7368,93.750000
7369,93.750000
7370,93.750000
7371,93.750000
7372,93.750000
7373,93.750000
7374,93.750000
7375,89.843750
7376,89.843750
7377,89.843750
7378,89.843750
7379,93.750000
7380,89.843750
7381,85.937500
7382,85.937500
7383,85.937500
7384,85.937500
7385,85.937500
7386,85.937500
7387,85.937500
7388,82.031250
7389,82.031250
7390,82.031250
7391,82.031250
7392,82.031250
7393,82.031250
7394,82.031250
7395,78.125000
7396,78.125000
7397,78.125000
7398,78.125000
7399,78.125000
7400,78.125000
7401,74.218750
7402,74.218750
7403,74.218750
7404,74.218750
7405,74.218750
7406,74.218750
7407,70.312500
7408,70.312500
7409,70.312500
7410,70.312500
7411,66.406250
7412,66.406250
7413,66.406250
7414,66.406250
7415,66.406250
7416,66.406250
7417,62.500000
7418,62.500000
7419,62.500000
7420,62.500000
7421,62.500000
7422,58.593750
7423,58.593750
7424,58.593750
7425,58.593750
7426,58.593750
7427,54.687500
7428,54.687500
7429,54.687500
7430,54.687500
7431,54.687500
7432,50.781250
7433,50.781250
7434,50.781250
7435,50.781250
7436,50.781250
7437,46.875000
7438,46.875000
7439,46.875000
7440,46.875000
7441,46.875000
7442,42.968750
7443,42.968750
7444,42.968750
7445,42.968750
7446,42.968750
7447,42.968750
7448,39.062500
7449,39.062500
7450,39.062500
7451,35.156250
7452,35.156250
7453,35.156250
7454,35.156250
7455,31.250000
7456,31.250000
7457,31.250000
7458,31.250000
7459,31.250000
7460,27.343750
7461,23.437500
7462,27.343750
7463,27.343750
7464,23.437500
7465,23.437500
7466,23.437500
7467,23.437500
7468,23.437500
7469,19.531250
7470,19.531250
7471,19.531250
7472,19.531250
7473,15.625000
7474,15.625000
7475,15.625000
7476,15.625000
7477,11.718750
7478,11.718750
7479,11.718750
7480,11.718750
7481,7.812500
7482,7.812500
7483,7.812500
7484,7.812500
7485,7.812500
7486,3.906250
7487,3.906250
7488,3.906250
7489,3.906250
7490,0.000000
7491,0.000000
7492,0.000000
7493,-3.906250
7494,-3.906250
7495,-3.906250
7496,-3.906250
7497,-3.906250
7498,-7.812500
7499,-7.812500
7500,-7.812500
7501,-7.812500
7502,-11.718750
7503,-11.718750
7504,-11.718750
7505,-11.718750
7506,-15.625000
7507,-15.625000
7508,-15.625000
7509,-15.625000
7510,-15.625000
7511,-19.531250
7512,-19.531250
7513,-19.531250
7514,-23.437500
7515,-23.437500
7516,-23.437500
7517,-23.437500
7518,-23.437500
7519,-27.343750
7520,-27.343750
7521,-27.343750
7522,-31.250000
7523,-31.250000
7524,-31.250000
7525,-31.250000
7526,-31.250000
7527,-35.156250
7528,-35.156250
7529,-35.156250
7530,-39.062500
7531,-39.062500
7532,-39.062500
7533,-39.062500
7534,-39.062500
7535,-42.968750
7536,-42.968750
7537,-42.968750
7538,-42.968750
7539,-46.875000
7540,-46.875000
7541,-46.875000
7542,-50.781250
7543,-50.781250
7544,-50.781250
7545,-50.781250
7546,-50.781250
7547,-54.687500
7548,-54.687500
7549,-54.687500
7550,-54.687500
7551,-58.593750
7552,-58.593750
7553,-58.593750
7554,-58.593750
7555,-62.500000
7556,-62.500000
7557,-62.500000
7558,-62.500000
7559,-66.406250
7560,-66.406250
7561,-66.406250
7562,-66.406250
7563,-70.312500
7564,-70.312500
7565,-70.312500
7566,-70.312500
7567,-70.312500
7568,-74.218750
7569,-74.218750
7570,-74.218750
7571,-74.218750
7572,-78.125000
7573,-78.125000
7574,-78.125000
7575,-78.125000
7576,-82.031250
7577,-82.031250
7578,-82.031250
7579,-82.031250
7580,-82.031250
7581,-85.937500
7582,-85.937500
7583,-85.937500
7584,-85.937500
7585,-89.843750
7586,-89.843750
7587,-89.843750
7588,-89.843750
7589,-93.750000
7590,-93.750000
7591,-93.750000
7592,-93.750000
7593,-93.750000
7594,-97.656250
7595,-97.656250
7596,-97.656250
7597,-97.656250
7598,-97.656250
7599,-101.562500
7600,-101.562500
7601,-101.562500
7602,-101.562500
7603,-105.468750
7604,-101.562500
7605,-105.468750
7606,-105.468750
7607,-105.468750
7608,-105.468750
7609,-105.468750
7610,-109.375000
7611,-109.375000
7612,-109.375000
7613,-113.281250
7614,-113.281250
7615,-113.281250
7616,-113.281250
7617,-113.281250
7618,-113.281250
7619,-117.187500
7620,-117.187500
7621,-117.187500
7622,-117.187500
7623,-121.093750
7624,-121.093750
7625,-121.093750
7626,-121.093750
7627,-121.093750
7628,-121.093750
7629,-121.093750
7630,-125.000000
7631,-125.000000
7632,-125.000000
7633,-125.000000
7634,-125.000000
7635,-128.906250
7636,-128.906250
7637,-128.906250
7638,-128.906250
7639,-128.906250
7640,-128.906250
7641,-132.812500
7642,-132.812500
7643,-132.812500
7644,-132.812500
7645,-132.812500
7646,-132.812500
7647,-132.812500
7648,-136.718750
7649,-136.718750
7650,-136.718750
7651,-136.718750
7652,-136.718750
7653,-136.718750
7654,-140.625000
7655,-140.625000
7656,-140.625000
7657,-140.625000
7658,-140.625000
7659,-140.625000
7660,-144.531250
7661,-144.531250
7662,-144.531250
7663,-144.531250
7664,-144.531250
7665,-144.531250
7666,-144.531250
7667,-144.531250
7668,-144.531250
7669,-148.437500
7670,-148.437500
7671,-148.437500
7672,-148.437500
7673,-148.437500
7674,-148.437500
7675,-148.437500
7676,-152.343750
7677,-152.343750
7678,-152.343750
7679,-152.343750
7680,-152.343750
7681,-152.343750
7682,-152.343750
7683,-152.343750
7684,-152.343750
7685,-156.250000
7686,-156.250000
7687,-156.250000
7688,-156.250000
7689,-156.250000
7690,-156.250000
7691,-156.250000
7692,-156.250000
7693,-156.250000
7694,-156.250000
7695,-156.250000
7696,-156.250000
7697,-160.156250
7698,-160.156250
7699,-160.156250
7700,-160.156250
7701,-160.156250
7702,-160.156250
7703,-160.156250
7704,-160.156250
7705,-160.156250
7706,-160.156250
7707,-160.156250
7708,-160.156250
7709,-160.156250
7710,-164.062500
7711,-164.062500
7712,-160.156250
7713,-164.062500
7714,-164.062500
7715,-164.062500
7716,-164.062500
7717,-164.062500
7718,-164.062500
7719,-164.062500
7720,-164.062500
7721,-164.062500
7722,-164.062500
7723,-164.062500
7724,-164.062500
7725,-164.062500
7726,-164.062500
7727,-164.062500
7728,-164.062500
7729,-164.062500
7730,-164.062500
7731,-164.062500
7732,-164.062500
7733,-164.062500
7734,-164.062500
7735,-164.062500
7736,-164.062500
7737,-164.062500
7738,-164.062500
7739,-164.062500
7740,-164.062500
7741,-164.062500
7742,-167.968750
7743,-164.062500
7744,-164.062500
7745,-164.062500
7746,-164.062500
7747,-164.062500
7748,-164.062500
7749,-167.968750
7750,-164.062500
7751,-167.968750
7752,-164.062500
7753,-164.062500
7754,-164.062500
7755,-164.062500
7756,-164.062500
7757,-164.062500
7758,-164.062500
7759,-164.062500
7760,-164.062500
7761,-164.062500
7762,-164.062500
7763,-164.062500
7764,-164.062500
7765,-164.062500
7766,-164.062500
7767,-164.062500
7768,-164.062500
7769,-164.062500
7770,-164.062500
7771,-164.062500
7772,-164.062500
7773,-160.156250
7774,-164.062500
7775,-160.156250
7776,-160.156250
7777,-160.156250
7778,-160.156250
7779,-160.156250
7780,-160.156250
7781,-160.156250
7782,-160.156250
7783,-160.156250
7784,-160.156250
7785,-160.156250
7786,-160.156250
7787,-160.156250
7788,-160.156250
7789,-160.156250
7790,-160.156250
7791,-160.156250
7792,-156.250000
7793,-156.250000
7794,-156.250000
7795,-156.250000
7796,-156.250000
7797,-156.250000
7798,-156.250000
7799,-156.250000
7800,-156.250000
7801,-152.343750
7802,-156.250000
7803,-152.343750
7804,-152.343750
7805,-152.343750
7806,-152.343750
7807,-152.343750
7808,-152.343750
7809,-152.343750
7810,-148.437500
7811,-148.437500
7812,-148.437500
7813,-148.437500
7814,-148.437500
7815,-148.437500
7816,-148.437500
7817,-148.437500
7818,-148.437500
7819,-148.437500
7820,-144.531250
7821,-144.531250
7822,-144.531250
7823,-144.531250
7824,-144.531250
7825,-144.531250
7826,-144.531250
7827,-140.625000
7828,-144.531250
7829,-140.625000
7830,-140.625000
7831,-140.625000
7832,-140.625000
7833,-140.625000
7834,-140.625000
7835,-140.625000
7836,-136.718750
7837,-136.718750
7838,-136.718750
7839,-136.718750
7840,-136.718750
7841,-132.812500
7842,-132.812500
7843,-132.812500
7844,-132.812500
7845,-132.812500
7846,-132.812500
7847,-132.812500
7848,-128.906250
7849,-128.906250
7850,-128.906250
7851,-128.906250
7852,-128.906250
7853,-128.906250
7854,-125.000000
7855,-125.000000
7856,-125.000000
7857,-125.000000
7858,-125.000000
7859,-121.093750
7860,-121.093750
7861,-121.093750
7862,-121.093750
7863,-121.093750
7864,-121.093750
7865,-117.187500
7866,-117.187500
7867,-117.187500
7868,-117.187500
7869,-117.187500
7870,-113.281250
7871,-113.281250
7872,-113.281250
7873,-113.281250
7874,-113.281250
7875,-109.375000
7876,-109.375000
7877,-109.375000
7878,-109.375000
7879,-109.375000
7880,-105.468750
7881,-105.468750
7882,-105.468750
7883,-105.468750
7884,-101.562500
7885,-101.562500
7886,-101.562500
7887,-101.562500
7888,-101.562500
7889,-101.562500
7890,-101.562500
7891,-97.656250
7892,-97.656250
7893,-97.656250
7894,-97.656250
7895,-93.750000
7896,-93.750000
7897,-93.750000
7898,-93.750000
7899,-89.843750
7900,-89.843750
7901,-89.843750
7902,-89.843750
7903,-89.843750
7904,-85.937500
7905,-85.937500
7906,-85.937500
7907,-85.937500
7908,-82.031250
7909,-82.031250
7910,-82.031250
7911,-82.031250
7912,-78.125000
7913,-78.125000
7914,-78.125000
7915,-78.125000
7916,-74.218750
7917,-74.218750
7918,-74.218750
7919,-74.218750
7920,-74.218750
7921,-74.218750
7922,-70.312500
7923,-70.312500
7924,-70.312500
7925,-66.406250
7926,-66.406250
7927,-66.406250
7928,-66.406250
7929,-66.406250
7930,-62.500000
7931,-62.500000
7932,-62.500000
7933,-62.500000
7934,-58.593750
7935,-58.593750
7936,-58.593750
7937,-58.593750
7938,-54.687500
7939,-54.687500
7940,-54.687500
7941,-54.687500
7942,-50.781250
7943,-50.781250
7944,-50.781250
7945,-50.781250
7946,-50.781250
7947,-46.875000
7948,-46.875000
7949,-46.875000
7950,-42.968750
7951,-42.968750
7952,-42.968750
7953,-42.968750
7954,-42.968750
7955,-39.062500
7956,-39.062500
7957,-39.062500
7958,-39.062500
7959,-35.156250
7960,-35.156250
7961,-35.156250
7962,-31.250000
7963,-31.250000
7964,-31.250000
7965,-31.250000
7966,-31.250000
7967,-27.343750
7968,-27.343750
7969,-27.343750
7970,-23.437500
7971,-23.437500
7972,-23.437500
7973,-23.437500
7974,-23.437500
7975,-23.437500
7976,-19.531250
7977,-19.531250
7978,-19.531250
7979,-15.625000
7980,-15.625000
7981,-15.625000
7982,-15.625000
7983,-15.625000
7984,-11.718750
7985,-11.718750
7986,-11.718750
7987,-11.718750
7988,-7.812500
7989,-7.812500
7990,-7.812500
7991,-7.812500
7992,-3.906250
7993,-3.906250
7994,-3.906250
7995,-3.906250
7996,0.000000
7997,0.000000
7998,0.000000
7999,0.000000
8000,3.906250
8001,3.906250
8002,3.906250
8003,3.906250
8004,7.812500
8005,7.812500
8006,7.812500
8007,7.812500
8008,11.718750
8009,11.718750
8010,11.718750
8011,11.718750
8012,11.718750
8013,15.625000
8014,15.625000
8015,15.625000
8016,15.625000
8017,19.531250
8018,19.531250
8019,19.531250
8020,19.531250
8021,23.437500
8022,23.437500
8023,23.437500
8024,23.437500
8025,27.343750
8026,27.343750
8027,27.343750
8028,27.343750
8029,27.343750
8030,27.343750
8031,31.250000
8032,31.250000
8033,31.250000
8034,31.250000
8035,35.156250
8036,35.156250
8037,35.156250
8038,35.156250
8039,35.156250
8040,39.062500
8041,39.062500
8042,39.062500
8043,39.062500
8044,42.968750
8045,42.968750
8046,42.968750
8047,42.968750
8048,42.968750
8049,46.875000
8050,46.875000
8051,46.875000
8052,46.875000
8053,50.781250
8054,46.875000
8055,50.781250
8056,50.781250
8057,50.781250
8058,54.687500
8059,54.687500
8060,54.687500
8061,54.687500
8062,54.687500
8063,54.687500
8064,58.593750
8065,58.593750
8066,58.593750
8067,58.593750
8068,58.593750
8069,62.500000
8070,62.500000
8071,62.500000
8072,62.500000
8073,62.500000
8074,62.500000
8075,66.406250
8076,66.406250
8077,66.406250
8078,70.312500
8079,70.312500
8080,70.312500
8081,70.312500
8082,70.312500
8083,70.312500
8084,70.312500
8085,70.312500
8086,74.218750
8087,74.218750
8088,74.218750
8089,74.218750
8090,78.125000
8091,74.218750
8092,78.125000
8093,78.125000
8094,78.125000
8095,78.125000
8096,78.125000
8097,82.031250
8098,82.031250
8099,82.031250
8100,82.031250
8101,82.031250
8102,82.031250
8103,82.031250
8104,85.937500
8105,85.937500
8106,85.937500
8107,85.937500
8108,85.937500
8109,85.937500
8110,89.843750
8111,89.843750
8112,89.843750
8113,89.843750
8114,89.843750
8115,89.843750
8116,89.843750
8117,89.843750
8118,93.750000
8119,93.750000
8120,93.750000
8121,93.750000
8122,93.750000
8123,97.656250
8124,97.656250
8125,97.656250
8126,97.656250
8127,97.656250
8128,97.656250
8129,97.656250
8130,97.656250
8131,97.656250
8132,101.562500
8133,101.562500
8134,101.562500
8135,101.562500
8136,101.562500
8137,101.562500
8138,101.562500
8139,101.562500
8140,105.468750
8141,101.562500
8142,105.468750
8143,105.468750
8144,109.375000
8145,105.468750
8146,105.468750
8147,109.375000
8148,105.468750
8149,109.375000
8150,109.375000
8151,109.375000
8152,109.375000
8153,109.375000
8154,109.375000
8155,109.375000
8156,113.281250
8157,109.375000
8158,113.281250
8159,113.281250
8160,113.281250
8161,113.281250
8162,113.281250
8163,113.281250
8164,113.281250
8165,113.281250
8166,113.281250
8167,113.281250
8168,117.187500
8169,117.187500
8170,117.187500
8171,117.187500
8172,117.187500
8173,117.187500
8174,117.187500
8175,117.187500
8176,117.187500
8177,117.187500
8178,117.187500
8179,117.187500
8180,117.187500
8181,117.187500
8182,117.187500
8183,117.187500
8184,121.093750
8185,121.093750
8186,121.093750
8187,121.093750
8188,121.093750
8189,121.093750
8190,121.093750
8191,121.093750
8192,121.093750
8193,121.093750
8194,121.093750
8195,121.093750
8196,121.093750
8197,121.093750
8198,125.000000
8199,121.093750
8200,121.093750
8201,121.093750
8202,125.000000
8203,125.000000
8204,125.000000
8205,125.000000
8206,125.000000
8207,125.000000
8208,125.000000
8209,125.000000
8210,121.093750
8211,125.000000
8212,125.000000
8213,125.000000
8214,125.000000
8215,125.000000
8216,125.000000
8217,125.000000
8218,125.000000
8219,125.000000
8220,125.000000
8221,125.000000
8222,125.000000
8223,125.000000
8224,125.000000
8225,125.000000
8226,125.000000
8227,125.000000
8228,125.000000
8229,125.000000
8230,125.000000
8231,125.000000
8232,125.000000
8233,125.000000
8234,125.000000
8235,125.000000
8236,125.000000
8237,125.000000
8238,125.000000
8239,128.906250
8240,128.906250
8241,125.000000
8242,125.000000
8243,125.000000
8244,125.000000
8245,125.000000
8246,125.000000
8247,125.000000
8248,125.000000
8249,125.000000
8250,125.000000
8251,125.000000
8252,125.000000
8253,125.000000
8254,125.000000
8255,125.000000
8256,125.000000
8257,125.000000
8258,125.000000
8259,125.000000
8260,125.000000
8261,125.000000
8262,125.000000
8263,125.000000
8264,125.000000
8265,125.000000
8266,125.000000
8267,125.000000
8268,125.000000
8269,125.000000
8270,125.000000
8271,125.000000
8272,125.000000
8273,125.000000
8274,125.000000
8275,125.000000
8276,125.000000
8277,125.000000
8278,125.000000
8279,125.000000
8280,125.000000
8281,121.093750
8282,125.000000
8283,121.093750
8284,121.093750
8285,121.093750
8286,121.093750
8287,121.093750
8288,121.093750
8289,121.093750
8290,121.093750
8291,121.093750
8292,121.093750
8293,121.093750
8294,121.093750
8295,121.093750
8296,121.093750
8297,121.093750
8298,121.093750
8299,117.187500
8300,121.093750
8301,117.187500
8302,117.187500
8303,117.187500
8304,117.187500
8305,117.187500
8306,117.187500
8307,117.187500
8308,117.187500
8309,117.187500
8310,117.187500
8311,117.187500
8312,117.187500
8313,113.281250
8314,113.281250
8315,113.281250
8316,113.281250
8317,113.281250
8318,113.281250
8319,113.281250
8320,113.281250
8321,113.281250
8322,113.281250
8323,109.375000
8324,109.375000
8325,109.375000
8326,109.375000
8327,109.375000
8328,109.375000
8329,109.375000
8330,109.375000
8331,109.375000
8332,109.375000
8333,109.375000
8334,109.375000
8335,105.468750
8336,105.468750
8337,105.468750
8338,105.468750
8339,105.468750
8340,105.468750
8341,101.562500
8342,101.562500
8343,101.562500
8344,101.562500
8345,101.562500
8346,101.562500
8347,101.562500
8348,101.562500
8349,97.656250
8350,97.656250
8351,97.656250
8352,97.656250
8353,97.656250
8354,97.656250
8355,93.750000
8356,93.750000
8357,93.750000
8358,93.750000
8359,93.750000
8360,93.750000
8361,93.750000
8362,93.750000
8363,93.750000
8364,93.750000
8365,89.843750
8366,89.843750
8367,89.843750
8368,89.843750
8369,89.843750
8370,89.843750
8371,85.937500
8372,85.937500
8373,85.937500
8374,85.937500
8375,85.937500
8376,85.937500
8377,85.937500
8378,82.031250
8379,82.031250
8380,82.031250
8381,78.125000
8382,82.031250
8383,82.031250
8384,78.125000
8385,78.125000
8386,78.125000
8387,78.125000
8388,78.125000
8389,78.125000
8390,74.218750
8391,74.218750
8392,74.218750
8393,74.218750
8394,74.218750
8395,74.218750
8396,70.312500
8397,70.312500
8398,70.312500
8399,70.312500
8400,70.312500
8401,70.312500
8402,66.406250
8403,66.406250
8404,66.406250
8405,66.406250
8406,66.406250
8407,66.406250
8408,62.500000
8409,62.500000
8410,62.500000
8411,58.593750
8412,58.593750
8413,58.593750
8414,58.593750
8415,58.593750
8416,58.593750
8417,54.687500
8418,54.687500
8419,54.687500
8420,54.687500
8421,50.781250
8422,50.781250
8423,50.781250
8424,50.781250
8425,50.781250
8426,50.781250
8427,46.875000
8428,46.875000
8429,46.875000
8430,46.875000
8431,42.968750
8432,42.968750
8433,42.968750
8434,42.968750
8435,42.968750
8436,42.968750
8437,39.062500
8438,39.062500
8439,39.062500
8440,39.062500
8441,35.156250
8442,35.156250
8443,35.156250
8444,35.156250
8445,35.156250
8446,31.250000
8447,31.250000
8448,31.250000
8449,31.250000
8450,27.343750
8451,27.343750
8452,27.343750
8453,27.343750
8454,23.437500
8455,23.437500
8456,23.437500
8457,23.437500
8458,19.531250
8459,19.531250
8460,19.531250
8461,19.531250
8462,19.531250
8463,15.625000
8464,15.625000
8465,15.625000
8466,15.625000
8467,11.718750
8468,11.718750
8469,11.718750
8470,11.718750
8471,11.718750
8472,7.812500
8473,7.812500
8474,7.812500
8475,3.906250
8476,3.906250
8477,3.906250
8478,3.906250
8479,0.000000
8480,0.000000
8481,0.000000
8482,0.000000
8483,-3.906250
8484,-3.906250
8485,-3.906250
8486,-3.906250
8487,-3.906250
8488,-7.812500
8489,-7.812500
8490,-7.812500
8491,-11.718750
8492,-11.718750
8493,-11.718750
8494,-11.718750
8495,-11.718750
8496,-11.718750
8497,-15.625000
8498,-15.625000
8499,-19.531250
8500,-19.531250
8501,-19.531250
8502,-19.531250
8503,-19.531250
8504,-23.437500
8505,-23.437500
8506,-23.437500
8507,-23.437500
8508,-23.437500
8509,-27.343750
8510,-27.343750
8511,-27.343750
8512,-27.343750
8513,-31.250000
8514,-31.250000
8515,-31.250000
8516,-31.250000
8517,-35.156250
8518,-35.156250
8519,-35.156250
8520,-39.062500
8521,-39.062500
8522,-39.062500
8523,-39.062500
8524,-42.968750
8525,-42.968750
8526,-42.968750
8527,-42.968750
8528,-46.875000
8529,-46.875000
8530,-46.875000
8531,-46.875000
8532,-46.875000
8533,-50.781250
8534,-50.781250
8535,-50.781250
8536,-50.781250
8537,-54.687500
8538,-54.687500
8539,-54.687500
8540,-54.687500
8541,-58.593750
8542,-58.593750
8543,-58.593750
8544,-62.500000
8545,-62.500000
8546,-62.500000
8547,-62.500000
8548,-62.500000
8549,-62.500000
8550,-66.406250
8551,-66.406250
8552,-66.406250
8553,-70.312500
8554,-70.312500
8555,-70.312500
8556,-70.312500
8557,-74.218750
8558,-74.218750
8559,-74.218750
8560,-74.218750
8561,-74.218750
8562,-78.125000
8563,-78.125000
8564,-78.125000
8565,-78.125000
8566,-82.031250
8567,-82.031250
8568,-82.031250
8569,-82.031250
8570,-85.937500
8571,-85.937500
8572,-85.937500
8573,-85.937500
8574,-85.937500
8575,-89.843750
8576,-89.843750
8577,-89.843750
8578,-89.843750
8579,-89.843750
8580,-93.750000
8581,-93.750000
8582,-93.750000
8583,-93.750000
8584,-97.656250
8585,-97.656250
8586,-97.656250
8587,-97.656250
8588,-101.562500
8589,-101.562500
8590,-101.562500
8591,-101.562500
8592,-101.562500
8593,-101.562500
8594,-105.468750
8595,-105.468750
8596,-105.468750
8597,-105.468750
8598,-109.375000
8599,-109.375000
8600,-109.375000
8601,-109.375000
8602,-109.375000
8603,-113.281250
8604,-113.281250
8605,-113.281250
8606,-113.281250
8607,-113.281250
8608,-117.187500
8609,-117.187500
8610,-117.187500
8611,-117.187500
8612,-117.187500
8613,-117.187500
8614,-117.187500
8615,-121.093750
8616,-121.093750
8617,-121.093750
8618,-121.093750
8619,-125.000000
8620,-125.000000
8621,-125.000000
8622,-125.000000
8623,-125.000000
8624,-125.000000
8625,-128.906250
8626,-128.906250
8627,-128.906250
8628,-128.906250
8629,-128.906250
8630,-128.906250
8631,-132.812500
8632,-132.812500
8633,-132.812500
8634,-132.812500
8635,-132.812500
8636,-132.812500
8637,-136.718750
8638,-136.718750
8639,-136.718750
8640,-136.718750
8641,-136.718750
8642,-136.718750
8643,-140.625000
8644,-140.625000
8645,-140.625000
8646,-140.625000
8647,-140.625000
8648,-140.625000
8649,-140.625000
8650,-140.625000
8651,-144.531250
8652,-144.531250
8653,-144.531250
8654,-144.531250
8655,-144.531250
8656,-144.531250
8657,-144.531250
8658,-144.531250
8659,-148.437500
8660,-148.437500
8661,-148.437500
8662,-148.437500
8663,-148.437500
8664,-148.437500
8665,-148.437500
8666,-148.437500
8667,-152.343750
8668,-152.343750
8669,-152.343750
8670,-152.343750
8671,-152.343750
8672,-152.343750
8673,-152.343750
8674,-152.343750
8675,-156.250000
8676,-156.250000
8677,-156.250000
8678,-156.250000
8679,-156.250000
8680,-156.250000
8681,-156.250000
8682,-156.250000
8683,-156.250000
8684,-156.250000
8685,-156.250000
8686,-156.250000
8687,-156.250000
8688,-160.156250
8689,-160.156250
8690,-160.156250
8691,-160.156250
8692,-160.156250
8693,-160.156250
8694,-160.156250
8695,-160.156250
8696,-160.156250
8697,-160.156250
8698,-160.156250
8699,-160.156250
8700,-160.156250
8701,-160.156250
8702,-160.156250
8703,-164.062500
8704,-164.062500
8705,-164.062500
8706,-164.062500
8707,-164.062500
8708,-164.062500
8709,-164.062500
8710,-164.062500
8711,-164.062500
8712,-164.062500
8713,-164.062500
8714,-164.062500
8715,-164.062500
8716,-164.062500
8717,-164.062500
8718,-164.062500
8719,-164.062500
8720,-164.062500
8721,-164.062500
8722,-164.062500
8723,-164.062500
8724,-164.062500
8725,-167.968750
8726,-167.968750
8727,-164.062500
8728,-164.062500
8729,-164.062500
8730,-164.062500
8731,-167.968750
8732,-167.968750
8733,-164.062500
8734,-164.062500
8735,-164.062500
8736,-164.062500
8737,-167.968750
8738,-164.062500
8739,-164.062500
8740,-164.062500
8741,-164.062500
8742,-167.968750
8743,-167.968750
8744,-164.062500
8745,-164.062500
8746,-164.062500
8747,-164.062500
8748,-164.062500
8749,-164.062500
8750,-164.062500
8751,-164.062500
8752,-164.062500
8753,-164.062500
8754,-164.062500
8755,-164.062500
8756,-164.062500
8757,-164.062500
8758,-164.062500
8759,-164.062500
8760,-164.062500
8761,-164.062500
8762,-164.062500
8763,-164.062500
8764,-160.156250
8765,-160.156250
8766,-164.062500
8767,-160.156250
8768,-160.156250
8769,-160.156250
8770,-160.156250
8771,-160.156250
8772,-160.156250
8773,-160.156250
8774,-160.156250
8775,-160.156250
8776,-160.156250
8777,-160.156250
8778,-160.156250
8779,-160.156250
8780,-160.156250
8781,-160.156250
8782,-160.156250
8783,-156.250000
8784,-156.250000
8785,-156.250000
8786,-156.250000
8787,-156.250000
8788,-156.250000
8789,-156.250000
8790,-156.250000
8791,-156.250000
8792,-152.343750
8793,-152.343750
8794,-152.343750
8795,-152.343750
8796,-152.343750
8797,-152.343750
8798,-152.343750
8799,-152.343750
8800,-152.343750
8801,-148.437500
8802,-148.437500
8803,-148.437500
8804,-148.437500
8805,-148.437500
8806,-148.437500
8807,-148.437500
8808,-148.437500
8809,-144.531250
8810,-144.531250
8811,-144.531250
8812,-144.531250
8813,-144.531250
8814,-144.531250
8815,-144.531250
8816,-144.531250
8817,-140.625000
8818,-140.625000
8819,-140.625000
8820,-140.625000
8821,-140.625000
8822,-140.625000
8823,-140.625000
8824,-140.625000
8825,-136.718750
8826,-136.718750
8827,-136.718750
8828,-136.718750
8829,-136.718750
8830,-136.718750
8831,-132.812500
8832,-132.812500
8833,-132.812500
8834,-132.812500
8835,-132.812500
8836,-132.812500
8837,-128.906250
8838,-128.906250
8839,-128.906250
8840,-128.906250
8841,-128.906250
8842,-128.906250
8843,-125.000000
8844,-125.000000
8845,-125.000000
8846,-125.000000
8847,-125.000000
8848,-125.000000
8849,-121.093750
8850,-121.093750
8851,-121.093750
8852,-121.093750
8853,-121.093750
8854,-121.093750
8855,-117.187500
8856,-117.187500
8857,-117.187500
8858,-117.187500
8859,-113.281250
8860,-113.281250
8861,-113.281250
8862,-113.281250
8863,-113.281250
8864,-113.281250
8865,-109.375000
8866,-109.375000
8867,-109.375000
8868,-109.375000
8869,-109.375000
8870,-105.468750
8871,-105.468750
8872,-105.468750
8873,-105.468750
8874,-101.562500
8875,-101.562500
8876,-101.562500
8877,-101.562500
8878,-101.562500
8879,-101.562500
8880,-97.656250
8881,-97.656250
8882,-97.656250
8883,-97.656250
8884,-93.750000
8885,-93.750000
8886,-93.750000
8887,-93.750000
8888,-89.843750
8889,-89.843750
8890,-89.843750
8891,-89.843750
8892,-89.843750
8893,-85.937500
8894,-85.937500
8895,-85.937500
8896,-85.937500
8897,-85.937500
8898,-82.031250
8899,-82.031250
8900,-82.031250
8901,-82.031250
8902,-78.125000
8903,-78.125000
8904,-78.125000
8905,-78.125000
8906,-74.218750
8907,-74.218750
8908,-74.218750
8909,-74.218750
8910,-74.218750
8911,-70.312500
8912,-70.312500
8913,-70.312500
8914,-70.312500
8915,-70.312500
8916,-66.406250
8917,-66.406250
8918,-66.406250
8919,-66.406250
8920,-62.500000
8921,-62.500000
8922,-62.500000
8923,-62.500000
8924,-62.500000
8925,-58.593750
8926,-58.593750
8927,-58.593750
8928,-54.687500
8929,-54.687500
8930,-54.687500
8931,-54.687500
8932,-50.781250
8933,-50.781250
8934,-50.781250
8935,-50.781250
8936,-46.875000
8937,-46.875000
8938,-46.875000
8939,-46.875000
8940,-46.875000
8941,-42.968750
8942,-42.968750
8943,-42.968750
8944,-39.062500
8945,-39.062500
8946,-39.062500
8947,-39.062500
8948,-35.156250
8949,-35.156250
8950,-35.156250
8951,-35.156250
8952,-35.156250
8953,-31.250000
8954,-31.250000
8955,-31.250000
8956,-27.343750
8957,-27.343750
8958,-27.343750
8959,-27.343750
8960,-27.343750
8961,-23.437500
8962,-23.437500
8963,-23.437500
8964,-23.437500
8965,-19.531250
8966,-19.531250
8967,-19.531250
8968,-19.531250
8969,-15.625000
8970,-15.625000
8971,-15.625000
8972,-15.625000
8973,-11.718750
8974,-11.718750
8975,-11.718750
8976,-11.718750
8977,-7.812500
8978,-7.812500
8979,-7.812500
8980,-7.812500
8981,-7.812500
8982,-3.906250
8983,-3.906250
8984,-3.906250
8985,-3.906250
8986,0.000000
8987,0.000000
8988,0.000000
8989,0.000000
8990,0.000000
8991,3.906250
8992,3.906250
8993,3.906250
8994,7.812500
8995,7.812500
8996,7.812500
8997,7.812500
8998,7.812500
8999,11.718750
9000,11.718750
9001,11.718750
9002,15.625000
9003,15.625000
9004,15.625000
9005,15.625000
9006,15.625000
9007,19.531250
9008,19.531250
9009,19.531250
9010,19.531250
9011,23.437500
9012,23.437500
9013,23.437500
9014,23.437500
9015,23.437500
9016,23.437500
9017,27.343750
9018,27.343750
9019,27.343750
9020,27.343750
9021,31.250000
9022,31.250000
9023,31.250000
9024,31.250000
9025,35.156250
9026,35.156250
9027,35.156250
9028,35.156250
9029,35.156250
9030,39.062500
9031,39.062500
9032,39.062500
9033,39.062500
9034,42.968750
9035,42.968750
9036,42.968750
9037,42.968750
9038,46.875000
9039,46.875000
9040,46.875000
9041,46.875000
9042,46.875000
9043,46.875000
9044,50.781250
9045,50.781250
9046,50.781250
9047,50.781250
9048,50.781250
9049,54.687500
9050,54.687500
9051,54.687500
9052,54.687500
9053,54.687500
9054,58.593750
9055,58.593750
9056,58.593750
9057,58.593750
9058,62.500000
9059,58.593750
9060,62.500000
9061,62.500000
9062,62.500000
9063,62.500000
9064,66.406250
9065,66.406250
9066,66.406250
9067,66.406250
9068,66.406250
9069,66.406250
9070,70.312500
9071,70.312500
9072,70.312500
9073,70.312500
9074,70.312500
9075,70.312500
9076,74.218750
9077,74.218750
9078,74.218750
9079,74.218750
9080,74.218750
9081,74.218750
9082,78.125000
9083,78.125000
9084,78.125000
9085,78.125000
9086,78.125000
9087,82.031250
9088,82.031250
9089,82.031250
9090,82.031250
9091,82.031250
9092,85.937500
9093,85.937500
9094,85.937500
9095,85.937500
9096,85.937500
9097,85.937500
9098,85.937500
9099,85.937500
9100,89.843750
9101,89.843750
9102,89.843750
9103,89.843750
9104,89.843750
9105,89.843750
9106,89.843750
9107,89.843750
9108,93.750000
9109,93.750000
9110,93.750000
9111,93.750000
9112,93.750000
9113,93.750000
9114,97.656250
9115,97.656250
9116,97.656250
9117,97.656250
9118,97.656250
9119,97.656250
9120,97.656250
9121,97.656250
9122,101.562500
9123,101.562500
9124,101.562500
9125,101.562500
9126,101.562500
9127,101.562500
9128,101.562500
9129,105.468750
9130,105.468750
9131,105.468750
9132,105.468750
9133,105.468750
9134,105.468750
9135,105.468750
9136,105.468750
9137,105.468750
9138,105.468750
9139,105.468750
9140,109.375000
9141,109.375000
9142,109.375000
9143,109.375000
9144,109.375000
9145,109.375000
9146,109.375000
9147,109.375000
9148,109.375000
9149,113.281250
9150,113.281250
9151,113.281250
9152,113.281250
9153,113.281250
9154,113.281250
9155,113.281250
9156,113.281250
9157,113.281250
9158,113.281250
9159,117.187500
9160,117.187500
9161,113.281250
9162,113.281250
9163,117.187500
9164,117.187500
9165,117.187500
9166,117.187500
9167,117.187500
9168,117.187500
9169,117.187500
9170,117.187500
9171,117.187500
9172,117.187500
9173,117.187500
9174,117.187500
9175,121.093750
9176,121.093750
9177,121.093750
9178,121.093750
9179,121.093750
9180,121.093750
9181,121.093750
9182,121.093750
9183,121.093750
9184,121.093750
9185,121.093750
9186,121.093750
9187,121.093750
9188,121.093750
9189,121.093750
9190,125.000000
9191,125.000000
9192,121.093750
9193,125.000000
9194,125.000000
9195,125.000000
9196,125.000000
9197,125.000000
9198,125.000000
9199,125.000000
9200,125.000000
9201,125.000000
9202,125.000000
9203,125.000000
9204,125.000000
9205,125.000000
9206,125.000000
9207,125.000000
9208,125.000000
9209,125.000000
9210,125.000000
9211,125.000000
9212,125.000000
9213,125.000000
9214,125.000000
9215,125.000000
9216,128.906250
9217,125.000000
9218,125.000000
9219,125.000000
9220,125.000000
9221,125.000000
9222,125.000000
9223,125.000000
9224,125.000000
9225,125.000000
9226,128.906250
9227,125.000000
9228,128.906250
9229,125.000000
9230,125.000000
9231,125.000000
9232,128.906250
9233,125.000000
9234,128.906250
9235,125.000000
9236,128.906250
9237,125.000000
9238,128.906250
9239,125.000000
9240,125.000000
9241,125.000000
9242,125.000000
9243,125.000000
9244,125.000000
9245,125.000000
9246,125.000000
9247,125.000000
9248,125.000000
9249,125.000000
9250,125.000000
9251,125.000000
9252,125.000000
9253,125.000000
9254,125.000000
9255,125.000000
9256,125.000000
9257,125.000000
9258,125.000000
9259,125.000000
9260,125.000000
9261,125.000000
9262,125.000000
9263,125.000000
9264,125.000000
9265,125.000000
9266,125.000000
9267,125.000000
9268,125.000000
9269,125.000000
9270,121.093750
9271,121.093750
9272,121.093750
9273,121.093750
9274,121.093750
9275,121.093750
9276,121.093750
9277,121.093750
9278,121.093750
9279,121.093750
9280,121.093750
9281,121.093750
9282,121.093750
9283,121.093750
9284,121.093750
9285,121.093750
9286,121.093750
9287,121.093750
9288,121.093750
9289,117.187500
9290,117.187500
9291,117.187500
9292,117.187500
9293,117.187500
9294,117.187500
9295,117.187500
9296,117.187500
9297,117.187500
9298,117.187500
9299,117.187500
9300,117.187500
9301,113.281250
9302,113.281250
9303,113.281250
9304,113.281250
9305,113.281250
9306,113.281250
9307,113.281250
9308,113.281250
9309,113.281250
9310,109.375000
9311,113.281250
9312,113.281250
9313,109.375000
9314,113.281250
9315,109.375000
9316,109.375000
9317,109.375000
9318,109.375000
9319,109.375000
9320,109.375000
9321,109.375000
9322,109.375000
9323,109.375000
9324,105.468750
9325,105.468750
9326,105.468750
9327,105.468750
9328,105.468750
9329,105.468750
9330,105.468750
9331,105.468750
9332,101.562500
9333,101.562500
9334,101.562500
9335,101.562500
9336,101.562500
9337,101.562500
9338,101.562500
9339,97.656250
9340,97.656250
9341,97.656250
9342,97.656250
9343,97.656250
9344,97.656250
9345,97.656250
9346,97.656250
9347,97.656250
9348,93.750000
9349,93.750000
9350,93.750000
9351,93.750000
9352,93.750000
9353,93.750000
9354,93.750000
9355,93.750000
9356,89.843750
9357,89.843750
9358,89.843750
9359,89.843750
9360,89.843750
9361,89.843750
9362,85.937500
9363,85.937500
9364,85.937500
9365,85.937500
9366,85.937500
9367,82.031250
9368,82.031250
9369,82.031250
9370,82.031250
9371,82.031250
9372,82.031250
9373,82.031250
9374,82.031250
9375,78.125000
9376,78.125000
9377,78.125000
9378,78.125000
9379,78.125000
9380,74.218750
9381,74.218750
9382,78.125000
9383,74.218750
9384,74.218750
9385,74.218750
9386,70.312500
9387,70.312500
9388,70.312500
9389,70.312500
9390,70.312500
9391,70.312500
9392,66.406250
9393,66.406250
9394,66.406250
9395,66.406250
9396,66.406250
9397,62.500000
9398,62.500000
9399,62.500000
9400,62.500000
9401,62.500000
9402,58.593750
9403,58.593750
9404,58.593750
9405,58.593750
9406,54.687500
9407,54.687500
9408,54.687500
9409,54.687500
9410,54.687500
9411,54.687500
9412,54.687500
9413,50.781250
9414,50.781250
9415,50.781250
9416,50.781250
9417,46.875000
9418,46.875000
9419,46.875000
9420,46.875000
9421,42.968750
9422,42.968750
9423,42.968750
9424,42.968750
9425,42.968750
9426,39.062500
9427,39.062500
9428,39.062500
9429,39.062500
9430,39.062500
9431,35.156250
9432,35.156250
9433,35.156250
9434,35.156250
9435,31.250000
9436,31.250000
9437,31.250000
9438,31.250000
9439,31.250000
9440,27.343750
9441,27.343750
9442,27.343750
9443,27.343750
9444,27.343750
9445,23.437500
9446,23.437500
9447,23.437500
9448,19.531250
9449,19.531250
9450,19.531250
9451,19.531250
9452,19.531250
9453,15.625000
9454,15.625000
9455,15.625000
9456,15.625000
9457,11.718750
9458,11.718750
9459,11.718750
9460,11.718750
9461,7.812500
9462,7.812500
9463,7.812500
9464,7.812500
9465,3.906250
9466,3.906250
9467,3.906250
9468,3.906250
9469,3.906250
9470,0.000000
9471,0.000000
9472,0.000000
9473,-3.906250
9474,-3.906250
9475,-3.906250
9476,-3.906250
9477,-3.906250
9478,-7.812500
9479,-7.812500
9480,-7.812500
9481,-7.812500
9482,-11.718750
9483,-11.718750
9484,-11.718750
9485,-15.625000
9486,-15.625000
9487,-15.625000
9488,-15.625000
9489,-15.625000
9490,-19.531250
9491,-19.531250
9492,-19.531250
9493,-19.531250
9494,-23.437500
9495,-23.437500
9496,-23.437500
9497,-23.437500
9498,-27.343750
9499,-27.343750
9500,-27.343750
9501,-27.343750
9502,-31.250000
9503,-31.250000
9504,-31.250000
9505,-31.250000
9506,-35.156250
9507,-35.156250
9508,-35.156250
9509,-35.156250
9510,-35.156250
9511,-39.062500
9512,-39.062500
9513,-39.062500
9514,-42.968750
9515,-42.968750
9516,-42.968750
9517,-42.968750
9518,-46.875000
9519,-46.875000
9520,-46.875000
9521,-46.875000
9522,-46.875000
9523,-50.781250
9524,-50.781250
9525,-50.781250
9526,-54.687500
9527,-54.687500
9528,-54.687500
9529,-54.687500
9530,-54.687500
9531,-58.593750
9532,-58.593750
9533,-58.593750
9534,-62.500000
9535,-62.500000
9536,-62.500000
9537,-62.500000
9538,-62.500000
9539,-66.406250
9540,-66.406250
9541,-66.406250
9542,-70.312500
9543,-70.312500
9544,-70.312500
9545,-70.312500
9546,-70.312500
9547,-74.218750
9548,-74.218750
9549,-74.218750
9550,-74.218750
9551,-78.125000
9552,-78.125000
9553,-78.125000
9554,-78.125000
9555,-82.031250
9556,-82.031250
9557,-82.031250
9558,-82.031250
9559,-82.031250
9560,-82.031250
9561,-85.937500
9562,-85.937500
9563,-85.937500
9564,-89.843750
9565,-89.843750
9566,-89.843750
9567,-89.843750
9568,-89.843750
9569,-89.843750
9570,-93.750000
9571,-93.750000
9572,-93.750000
9573,-97.656250
9574,-97.656250
9575,-97.656250
9576,-97.656250
9577,-97.656250
9578,-97.656250
9579,-101.562500
9580,-101.562500
9581,-101.562500
9582,-101.562500
9583,-105.468750
9584,-105.468750
9585,-105.468750
9586,-105.468750
9587,-105.468750
9588,-109.375000
9589,-109.375000
9590,-109.375000
9591,-109.375000
9592,-109.375000
9593,-113.281250
9594,-113.281250
9595,-113.281250
9596,-113.281250
9597,-113.281250
9598,-113.281250
9599,-117.187500
9600,-117.187500
9601,-117.187500
9602,-117.187500
9603,-121.093750
9604,-121.093750
9605,-121.093750
9606,-121.093750
9607,-121.093750
9608,-121.093750
9609,-125.000000
9610,-125.000000
9611,-125.000000
9612,-125.000000
9613,-125.000000
9614,-128.906250
9615,-128.906250
9616,-128.906250
9617,-128.906250
9618,-128.906250
9619,-128.906250
9620,-128.906250
9621,-132.812500
9622,-132.812500
9623,-132.812500
9624,-132.812500
9625,-132.812500
9626,-132.812500
9627,-136.718750
9628,-136.718750
9629,-136.718750
9630,-136.718750
9631,-136.718750
9632,-140.625000
9633,-140.625000
9634,-140.625000
9635,-140.625000
9636,-140.625000
9637,-140.625000
9638,-140.625000
9639,-144.531250
9640,-144.531250
9641,-144.531250
9642,-144.531250
9643,-144.531250
9644,-144.531250
9645,-144.531250
9646,-144.531250
9647,-148.437500
9648,-148.437500
9649,-148.437500
9650,-148.437500
9651,-148.437500
9652,-148.437500
9653,-148.437500
9654,-152.343750
9655,-148.437500
9656,-152.343750
9657,-152.343750
9658,-152.343750
9659,-152.343750
9660,-152.343750
9661,-152.343750
9662,-152.343750
9663,-156.250000
9664,-152.343750
9665,-156.250000
9666,-156.250000
9667,-156.250000
9668,-156.250000
9669,-156.250000
9670,-156.250000
9671,-156.250000
9672,-156.250000
9673,-156.250000
9674,-160.156250
9675,-160.156250
9676,-160.156250
9677,-160.156250
9678,-160.156250
9679,-160.156250
9680,-160.156250
9681,-160.156250
9682,-160.156250
9683,-160.156250
9684,-160.156250
9685,-160.156250
9686,-160.156250
9687,-164.062500
9688,-160.156250
9689,-160.156250
9690,-160.156250
9691,-164.062500
9692,-164.062500
9693,-164.062500
9694,-164.062500
9695,-164.062500
9696,-164.062500
9697,-164.062500
9698,-164.062500
9699,-164.062500
9700,-164.062500
9701,-164.062500
9702,-164.062500
9703,-164.062500
9704,-164.062500
9705,-164.062500
9706,-164.062500
9707,-164.062500
9708,-164.062500
9709,-164.062500
9710,-164.062500
9711,-164.062500
9712,-164.062500
9713,-164.062500
9714,-164.062500
9715,-167.968750
9716,-167.968750
9717,-167.968750
9718,-167.968750
9719,-164.062500
9720,-164.062500
9721,-164.062500
9722,-164.062500
9723,-164.062500
9724,-167.968750
9725,-167.968750
9726,-167.968750
9727,-167.968750
9728,-167.968750
9729,-164.062500
9730,-164.062500
9731,-164.062500
9732,-164.062500
9733,-164.062500
9734,-164.062500
9735,-164.062500
9736,-164.062500
9737,-164.062500
9738,-164.062500
9739,-164.062500
9740,-164.062500
9741,-164.062500
9742,-164.062500
9743,-164.062500
9744,-164.062500
9745,-164.062500
9746,-164.062500
9747,-164.062500
9748,-164.062500
9749,-164.062500
9750,-164.062500
9751,-164.062500
9752,-164.062500
9753,-164.062500
9754,-164.062500
9755,-164.062500
9756,-164.062500
9757,-164.062500
9758,-160.156250
9759,-164.062500
9760,-164.062500
9761,-160.156250
9762,-160.156250
9763,-160.156250
9764,-160.156250
9765,-160.156250
9766,-160.156250
9767,-160.156250
9768,-160.156250
9769,-160.156250
9770,-160.156250
9771,-160.156250
9772,-160.156250
9773,-156.250000
9774,-156.250000
9775,-156.250000
9776,-156.250000
9777,-156.250000
9778,-156.250000
9779,-156.250000
9780,-156.250000
9781,-156.250000
9782,-156.250000
9783,-156.250000
9784,-152.343750
9785,-152.343750
9786,-152.343750
9787,-152.343750
9788,-152.343750
9789,-152.343750
9790,-152.343750
9791,-152.343750
9792,-152.343750
9793,-148.437500
9794,-148.437500
9795,-148.437500
9796,-148.437500
9797,-148.437500
9798,-148.437500
9799,-148.437500
9800,-148.437500
9801,-148.437500
9802,-144.531250
9803,-144.531250
9804,-144.531250
9805,-144.531250
9806,-144.531250
9807,-144.531250
9808,-140.625000
9809,-140.625000
9810,-140.625000
9811,-140.625000
9812,-140.625000
9813,-140.625000
9814,-140.625000
9815,-136.718750
9816,-136.718750
9817,-136.718750
9818,-136.718750
9819,-136.718750
9820,-136.718750
9821,-136.718750
9822,-132.812500
9823,-132.812500
9824,-132.812500
9825,-132.812500
9826,-132.812500
9827,-132.812500
9828,-128.906250
9829,-128.906250
9830,-128.906250
9831,-128.906250
9832,-128.906250
9833,-128.906250
9834,-125.000000
9835,-125.000000
9836,-125.000000
9837,-125.000000
9838,-121.093750
9839,-121.093750
9840,-121.093750
9841,-121.093750
9842,-121.093750
9843,-121.093750
9844,-121.093750
9845,-117.187500
9846,-117.187500
9847,-117.187500
9848,-117.187500
9849,-117.187500
9850,-113.281250
9851,-113.281250
9852,-113.281250
9853,-113.281250
9854,-113.281250
9855,-113.281250
9856,-109.375000
9857,-109.375000
9858,-109.375000
9859,-105.468750
9860,-105.468750
9861,-105.468750
9862,-105.468750
9863,-105.468750
9864,-105.468750
9865,-101.562500
9866,-101.562500
9867,-101.562500
9868,-101.562500
9869,-97.656250
9870,-97.656250
9871,-97.656250
9872,-97.656250
9873,-97.656250
9874,-93.750000
9875,-93.750000
9876,-93.750000
9877,-93.750000
9878,-89.843750
9879,-89.843750
9880,-89.843750
9881,-89.843750
9882,-89.843750
9883,-89.843750
9884,-85.937500
9885,-85.937500
9886,-85.937500
9887,-85.937500
9888,-82.031250
9889,-82.031250
9890,-82.031250
9891,-82.031250
9892,-78.125000
9893,-78.125000
9894,-78.125000
9895,-78.125000
9896,-78.125000
9897,-74.218750
9898,-74.218750
9899,-74.218750
9900,-74.218750
9901,-70.312500
9902,-70.312500
9903,-70.312500
9904,-70.312500
9905,-70.312500
9906,-66.406250
9907,-66.406250
9908,-66.406250
9909,-62.500000
9910,-62.500000
9911,-62.500000
9912,-62.500000
9913,-58.593750
9914,-58.593750
9915,-58.593750
9916,-58.593750
9917,-58.593750
9918,-54.687500
9919,-54.687500
9920,-54.687500
9921,-54.687500
9922,-50.781250
9923,-50.781250
9924,-50.781250
9925,-50.781250
9926,-46.875000
9927,-46.875000
9928,-46.875000
9929,-46.875000
9930,-42.968750
9931,-42.968750
9932,-42.968750
9933,-42.968750
9934,-42.968750
9935,-39.062500
9936,-39.062500
9937,-39.062500
9938,-39.062500
9939,-35.156250
9940,-35.156250
9941,-35.156250
9942,-31.250000
9943,-31.250000
9944,-31.250000
9945,-31.250000
9946,-31.250000
9947,-27.343750
9948,-27.343750
9949,-27.343750
9950,-23.437500
9951,-23.437500
9952,-23.437500
9953,-23.437500
9954,-23.437500
9955,-19.531250
9956,-19.531250
9957,-19.531250
9958,-19.531250
9959,-19.531250
9960,-15.625000
9961,-15.625000
9962,-15.625000
9963,-11.718750
9964,-11.718750
9965,-11.718750
9966,-11.718750
9967,-7.812500
9968,-7.812500
9969,-7.812500
9970,-7.812500
9971,-7.812500
9972,-3.906250
9973,-3.906250
9974,-3.906250
9975,0.000000
9976,0.000000
9977,0.000000
9978,0.000000
9979,0.000000
9980,3.906250
9981,3.906250
9982,3.906250
9983,7.812500
9984,7.812500
9985,7.812500
9986,7.812500
9987,11.718750
9988,11.718750
9989,11.718750
9990,11.718750
9991,11.718750
9992,11.718750
9993,15.625000
9994,15.625000
9995,15.625000
9996,19.531250
9997,19.531250
9998,19.531250
9999,19.531250
10000,19.531250
