Channel              :,CH1
Frequency            :,1.013kHz
Period               :,0.987ms
PK-PK                :,42.97mV
Probe attenuation    :,1X
Voltage per ADC value:,0.244141mV
Time interval        :,1.00000us

index,CH1_Voltage(mV)
1,-31.250000
2,-31.250000
3,-31.250000
4,-31.250000
5,-31.250000
6,-31.250000
7,-31.250000
8,-31.250000
9,-31.250000
10,-31.250000
11,-31.250000
12,-31.250000
13,-31.250000
14,-31.250000
15,-31.250000
16,-31.250000
17,-31.250000
18,-31.250000
19,-31.250000
20,-31.250000
21,-31.250000
22,-31.250000
23,-31.250000
24,-31.250000
25,-31.250000
26,-31.250000
27,-31.250000
28,-31.250000
29,-31.250000
30,-31.250000
31,-31.250000
32,-31.250000
33,-31.250000
34,-31.250000
35,-31.250000
36,-31.250000
37,-31.250000
38,-31.250000
39,-31.250000
40,-31.250000
41,-31.250000
42,-35.156250
43,-31.250000
44,-31.250000
45,-31.250000
46,-31.250000
47,-31.250000
48,-31.250000
49,-31.250000
50,-31.250000
51,-31.250000
52,-31.250000
53,-31.250000
54,-31.250000
55,-31.250000
56,-31.250000
57,-31.250000
58,-31.250000
59,-31.250000
60,-31.250000
61,-31.250000
62,-31.250000
63,-31.250000
64,-31.250000
65,-31.250000
66,-31.250000
67,-31.250000
68,-35.156250
69,-31.250000
70,-31.250000
71,-27.343750
72,-31.250000
73,-31.250000
74,-31.250000
75,-31.250000
76,-31.250000
77,-31.250000
78,-31.250000
79,-31.250000
80,-31.250000
81,-31.250000
82,-31.250000
83,-31.250000
84,-31.250000
85,-31.250000
86,-31.250000
87,-31.250000
88,-31.250000
89,-31.250000
90,-27.343750
91,-31.250000
92,-31.250000
93,-31.250000
94,-31.250000
95,-31.250000
96,-27.343750
97,-27.343750
98,-27.343750
99,-27.343750
100,-27.343750
101,-31.250000
102,-27.343750
103,-31.250000
104,-27.343750
105,-27.343750
106,-27.343750
107,-27.343750
108,-27.343750
109,-27.343750
110,-31.250000
111,-27.343750
112,-27.343750
113,-27.343750
114,-27.343750
115,-27.343750
116,-27.343750
117,-27.343750
118,-27.343750
119,-27.343750
120,-27.343750
121,-27.343750
122,-27.343750
123,-27.343750
124,-27.343750
125,-27.343750
126,-27.343750
127,-27.343750
128,-27.343750
129,-27.343750
130,-27.343750
131,-27.343750
132,-27.343750
133,-27.343750
134,-27.343750
135,-27.343750
136,-27.343750
137,-27.343750
138,-27.343750
139,-27.343750
140,-27.343750
141,-27.343750
142,-27.343750
143,-27.343750
144,-27.343750
145,-27.343750
146,-27.343750
147,-27.343750
148,-27.343750
149,-27.343750
150,-27.343750
151,-27.343750
152,-27.343750
153,-27.343750
154,-27.343750
155,-27.343750
156,-27.343750
157,-27.343750
158,-27.343750
159,-27.343750
160,-23.437500
161,-27.343750
162,-27.343750
163,-27.343750
164,-23.437500
165,-27.343750
166,-23.437500
167,-23.437500
168,-19.531250
169,-27.343750
170,-23.437500
171,-23.437500
172,-23.437500
173,-23.437500
174,-23.437500
175,-23.437500
176,-23.437500
177,-27.343750
178,-23.437500
179,-23.437500
180,-23.437500
181,-23.437500
182,-23.437500
183,-23.437500
184,-23.437500
185,-23.437500
186,-23.437500
187,-23.437500
188,-23.437500
189,-23.437500
190,-23.437500
191,-23.437500
192,-23.437500
193,-23.437500
194,-23.437500
195,-23.437500
196,-23.437500
197,-23.437500
198,-23.437500
199,-19.531250
200,-19.531250
201,-23.437500
202,-19.531250
203,-23.437500
204,-19.531250
205,-19.531250
206,-19.531250
207,-19.531250
208,-19.531250
209,-19.531250
210,-19.531250
211,-19.531250
212,-19.531250
213,-19.531250
214,-19.531250
215,-19.531250
216,-19.531250
217,-19.531250
218,-19.531250
219,-19.531250
220,-19.531250
221,-19.531250
222,-19.531250
223,-19.531250
224,-19.531250
225,-19.531250
226,-19.531250
227,-19.531250
228,-19.531250
229,-19.531250
230,-19.531250
231,-19.531250
232,-19.531250
233,-19.531250
234,-15.625000
235,-15.625000
236,-15.625000
237,-15.625000
238,-15.625000
239,-15.625000
240,-15.625000
241,-15.625000
242,-15.625000
243,-15.625000
244,-15.625000
245,-15.625000
246,-15.625000
247,-15.625000
248,-15.625000
249,-15.625000
250,-15.625000
251,-15.625000
252,-15.625000
253,-15.625000
254,-15.625000
255,-15.625000
256,-15.625000
257,-15.625000
258,-15.625000
259,-15.625000
260,-15.625000
261,-15.625000
262,-15.625000
263,-15.625000
264,-15.625000
265,-15.625000
266,-15.625000
267,-15.625000
268,-11.718750
269,-11.718750
270,-15.625000
271,-11.718750
272,-11.718750
273,-15.625000
274,-11.718750
275,-11.718750
276,-11.718750
277,-11.718750
278,-11.718750
279,-11.718750
280,-11.718750
281,-11.718750
282,-11.718750
283,-11.718750
284,-11.718750
285,-11.718750
286,-11.718750
287,-11.718750
288,-11.718750
289,-11.718750
290,-11.718750
291,-11.718750
292,-11.718750
293,-11.718750
294,-11.718750
295,-11.718750
296,-11.718750
297,-11.718750
298,-11.718750
299,-11.718750
300,-7.812500
301,-7.812500
302,-7.812500
303,-7.812500
304,-7.812500
305,-7.812500
306,-7.812500
307,-7.812500
308,-7.812500
309,-7.812500
310,-7.812500
311,-7.812500
312,-7.812500
313,-7.812500
314,-7.812500
315,-7.812500
316,-7.812500
317,-7.812500
318,-7.812500
319,-7.812500
320,-7.812500
321,-7.812500
322,-7.812500
323,-7.812500
324,-7.812500
325,-7.812500
326,-7.812500
327,-7.812500
328,-7.812500
329,-7.812500
330,-7.812500
331,-7.812500
332,-7.812500
333,-7.812500
334,-3.906250
335,-3.906250
336,-3.906250
337,-7.812500
338,-3.906250
339,-3.906250
340,-3.906250
341,-3.906250
342,-3.906250
343,-3.906250
344,-3.906250
345,-3.906250
346,-3.906250
347,-3.906250
348,-3.906250
349,-3.906250
350,-3.906250
351,-3.906250
352,-3.906250
353,-3.906250
354,-3.906250
355,-3.906250
356,-3.906250
357,-3.906250
358,-3.906250
359,-3.906250
360,-3.906250
361,-3.906250
362,-3.906250
363,-3.906250
364,-3.906250
365,-3.906250
366,0.000000
367,0.000000
368,0.000000
369,0.000000
370,0.000000
371,0.000000
372,0.000000
373,0.000000
374,-3.906250
375,0.000000
376,0.000000
377,0.000000
378,0.000000
379,0.000000
380,0.000000
381,0.000000
382,0.000000
383,0.000000
384,0.000000
385,0.000000
386,0.000000
387,0.000000
388,0.000000
389,0.000000
390,0.000000
391,0.000000
392,0.000000
393,0.000000
394,0.000000
395,0.000000
396,0.000000
397,0.000000
398,0.000000
399,0.000000
400,0.000000
401,0.000000
402,0.000000
403,0.000000
404,0.000000
405,0.000000
406,0.000000
407,0.000000
408,0.000000
409,0.000000
410,3.906250
411,0.000000
412,0.000000
413,0.000000
414,3.906250
415,0.000000
416,0.000000
417,3.906250
418,3.906250
419,3.906250
420,3.906250
421,3.906250
422,0.000000
423,3.906250
424,3.906250
425,3.906250
426,3.906250
427,3.906250
428,3.906250
429,3.906250
430,3.906250
431,3.906250
432,3.906250
433,3.906250
434,3.906250
435,3.906250
436,3.906250
437,3.906250
438,3.906250
439,3.906250
440,3.906250
441,3.906250
442,3.906250
443,3.906250
444,3.906250
445,7.812500
446,3.906250
447,3.906250
448,3.906250
449,3.906250
450,3.906250
451,3.906250
452,3.906250
453,3.906250
454,3.906250
455,3.906250
456,3.906250
457,3.906250
458,3.906250
459,3.906250
460,3.906250
461,3.906250
462,3.906250
463,3.906250
464,3.906250
465,3.906250
466,3.906250
467,3.906250
468,3.906250
469,3.906250
470,3.906250
471,3.906250
472,3.906250
473,3.906250
474,3.906250
475,3.906250
476,3.906250
477,3.906250
478,3.906250
479,3.906250
480,3.906250
481,3.906250
482,3.906250
483,3.906250
484,3.906250
485,3.906250
486,3.906250
487,3.906250
488,3.906250
489,3.906250
490,3.906250
491,3.906250
492,3.906250
493,3.906250
494,3.906250
495,3.906250
496,3.906250
497,3.906250
498,3.906250
499,3.906250
500,3.906250
501,3.906250
502,3.906250
503,3.906250
504,3.906250
505,3.906250
506,7.812500
507,3.906250
508,3.906250
509,3.906250
510,3.906250
511,3.906250
512,3.906250
513,3.906250
514,3.906250
515,3.906250
516,7.812500
517,3.906250
518,3.906250
519,3.906250
520,3.906250
521,3.906250
522,3.906250
523,3.906250
524,3.906250
525,3.906250
526,3.906250
527,3.906250
528,3.906250
529,3.906250
530,3.906250
531,3.906250
532,3.906250
533,3.906250
534,3.906250
535,3.906250
536,3.906250
537,3.906250
538,3.906250
539,3.906250
540,3.906250
541,3.906250
542,3.906250
543,3.906250
544,3.906250
545,3.906250
546,3.906250
547,3.906250
548,3.906250
549,3.906250
550,3.906250
551,3.906250
552,3.906250
553,3.906250
554,3.906250
555,3.906250
556,3.906250
557,3.906250
558,3.906250
559,3.906250
560,3.906250
561,3.906250
562,3.906250
563,3.906250
564,3.906250
565,3.906250
566,3.906250
567,3.906250
568,3.906250
569,3.906250
570,3.906250
571,3.906250
572,3.906250
573,3.906250
574,3.906250
575,3.906250
576,3.906250
577,3.906250
578,3.906250
579,3.906250
580,3.906250
581,3.906250
582,3.906250
583,3.906250
584,3.906250
585,3.906250
586,3.906250
587,3.906250
588,3.906250
589,3.906250
590,0.000000
591,0.000000
592,0.000000
593,3.906250
594,3.906250
595,3.906250
596,0.000000
597,0.000000
598,0.000000
599,0.000000
600,0.000000
601,0.000000
602,0.000000
603,0.000000
604,0.000000
605,0.000000
606,0.000000
607,0.000000
608,0.000000
609,0.000000
610,0.000000
611,0.000000
612,0.000000
613,0.000000
614,0.000000
615,0.000000
616,0.000000
617,0.000000
618,0.000000
619,0.000000
620,0.000000
621,0.000000
622,0.000000
623,0.000000
624,0.000000
625,0.000000
626,0.000000
627,0.000000
628,0.000000
629,0.000000
630,0.000000
631,0.000000
632,0.000000
633,0.000000
634,0.000000
635,0.000000
636,0.000000
637,0.000000
638,0.000000
639,0.000000
640,0.000000
641,0.000000
642,0.000000
643,0.000000
644,0.000000
645,0.000000
646,0.000000
647,0.000000
648,-3.906250
649,-3.906250
650,-3.906250
651,-3.906250
652,-3.906250
653,0.000000
654,-3.906250
655,-3.906250
656,-3.906250
657,-3.906250
658,-3.906250
659,-3.906250
660,-3.906250
661,-3.906250
662,-3.906250
663,-3.906250
664,-3.906250
665,-3.906250
666,-3.906250
667,-3.906250
668,-3.906250
669,-3.906250
670,-3.906250
671,-3.906250
672,-3.906250
673,-3.906250
674,-3.906250
675,-3.906250
676,-3.906250
677,-3.906250
678,-3.906250
679,-3.906250
680,-3.906250
681,-3.906250
682,-3.906250
683,-3.906250
684,-3.906250
685,-3.906250
686,-3.906250
687,-3.906250
688,-3.906250
689,-7.812500
690,-7.812500
691,-7.812500
692,-7.812500
693,-7.812500
694,-7.812500
695,-7.812500
696,-7.812500
697,-7.812500
698,-7.812500
699,-7.812500
700,-7.812500
701,-7.812500
702,-7.812500
703,-7.812500
704,-7.812500
705,-7.812500
706,-7.812500
707,-7.812500
708,-7.812500
709,-7.812500
710,-7.812500
711,-7.812500
712,-7.812500
713,-7.812500
714,-7.812500
715,-7.812500
716,-7.812500
717,-7.812500
718,-7.812500
719,-7.812500
720,-7.812500
721,-7.812500
722,-7.812500
723,-7.812500
724,-7.812500
725,-7.812500
726,-7.812500
727,-11.718750
728,-7.812500
729,-7.812500
730,-7.812500
731,-7.812500
732,-11.718750
733,-11.718750
734,-11.718750
735,-11.718750
736,-11.718750
737,-11.718750
738,-11.718750
739,-11.718750
740,-11.718750
741,-11.718750
742,-11.718750
743,-11.718750
744,-11.718750
745,-11.718750
746,-11.718750
747,-11.718750
748,-11.718750
749,-11.718750
750,-11.718750
751,-11.718750
752,-11.718750
753,-11.718750
754,-11.718750
755,-11.718750
756,-11.718750
757,-11.718750
758,-11.718750
759,-11.718750
760,-11.718750
761,-11.718750
762,-11.718750
763,-11.718750
764,-11.718750
765,-11.718750
766,-15.625000
767,-15.625000
768,-15.625000
769,-15.625000
770,-15.625000
771,-15.625000
772,-15.625000
773,-15.625000
774,-11.718750
775,-15.625000
776,-15.625000
777,-15.625000
778,-15.625000
779,-15.625000
780,-15.625000
781,-15.625000
782,-15.625000
783,-15.625000
784,-15.625000
785,-15.625000
786,-15.625000
787,-15.625000
788,-15.625000
789,-15.625000
790,-15.625000
791,-15.625000
792,-15.625000
793,-15.625000
794,-15.625000
795,-15.625000
796,-15.625000
797,-15.625000
798,-15.625000
799,-15.625000
800,-15.625000
801,-15.625000
802,-19.531250
803,-19.531250
804,-19.531250
805,-19.531250
806,-19.531250
807,-19.531250
808,-19.531250
809,-19.531250
810,-19.531250
811,-19.531250
812,-19.531250
813,-19.531250
814,-19.531250
815,-19.531250
816,-19.531250
817,-19.531250
818,-19.531250
819,-19.531250
820,-19.531250
821,-19.531250
822,-19.531250
823,-19.531250
824,-19.531250
825,-19.531250
826,-19.531250
827,-19.531250
828,-19.531250
829,-19.531250
830,-19.531250
831,-19.531250
832,-19.531250
833,-19.531250
834,-19.531250
835,-19.531250
836,-19.531250
837,-23.437500
838,-19.531250
839,-23.437500
840,-19.531250
841,-23.437500
842,-19.531250
843,-19.531250
844,-19.531250
845,-19.531250
846,-23.437500
847,-23.437500
848,-23.437500
849,-23.437500
850,-23.437500
851,-23.437500
852,-23.437500
853,-23.437500
854,-23.437500
855,-23.437500
856,-23.437500
857,-23.437500
858,-23.437500
859,-23.437500
860,-23.437500
861,-23.437500
862,-23.437500
863,-23.437500
864,-23.437500
865,-23.437500
866,-23.437500
867,-23.437500
868,-23.437500
869,-23.437500
870,-23.437500
871,-23.437500
872,-23.437500
873,-23.437500
874,-23.437500
875,-23.437500
876,-23.437500
877,-23.437500
878,-23.437500
879,-23.437500
880,-23.437500
881,-23.437500
882,-23.437500
883,-23.437500
884,-23.437500
885,-23.437500
886,-23.437500
887,-23.437500
888,-23.437500
889,-23.437500
890,-23.437500
891,-27.343750
892,-23.437500
893,-27.343750
894,-27.343750
895,-27.343750
896,-27.343750
897,-27.343750
898,-27.343750
899,-27.343750
900,-27.343750
901,-27.343750
902,-27.343750
903,-27.343750
904,-27.343750
905,-27.343750
906,-27.343750
907,-27.343750
908,-27.343750
909,-27.343750
910,-27.343750
911,-27.343750
912,-27.343750
913,-27.343750
914,-27.343750
915,-27.343750
916,-27.343750
917,-27.343750
918,-27.343750
919,-27.343750
920,-27.343750
921,-27.343750
922,-27.343750
923,-27.343750
924,-27.343750
925,-27.343750
926,-27.343750
927,-27.343750
928,-27.343750
929,-27.343750
930,-27.343750
931,-27.343750
932,-27.343750
933,-27.343750
934,-27.343750
935,-27.343750
936,-27.343750
937,-27.343750
938,-27.343750
939,-27.343750
940,-27.343750
941,-27.343750
942,-27.343750
943,-27.343750
944,-31.250000
945,-27.343750
946,-27.343750
947,-27.343750
948,-27.343750
949,-27.343750
950,-31.250000
951,-31.250000
952,-31.250000
953,-31.250000
954,-27.343750
955,-31.250000
956,-31.250000
957,-27.343750
958,-31.250000
959,-31.250000
960,-31.250000
961,-31.250000
962,-31.250000
963,-31.250000
964,-31.250000
965,-31.250000
966,-31.250000
967,-31.250000
968,-31.250000
969,-31.250000
970,-31.250000
971,-31.250000
972,-31.250000
973,-31.250000
974,-31.250000
975,-31.250000
976,-31.250000
977,-31.250000
978,-31.250000
979,-31.250000
980,-31.250000
981,-31.250000
982,-31.250000
983,-31.250000
984,-31.250000
985,-31.250000
986,-31.250000
987,-31.250000
988,-31.250000
989,-31.250000
990,-31.250000
991,-31.250000
992,-31.250000
993,-31.250000
994,-31.250000
995,-31.250000
996,-31.250000
997,-31.250000
998,-31.250000
999,-31.250000
1000,-31.250000
1001,-31.250000
1002,-31.250000
1003,-31.250000
1004,-31.250000
1005,-31.250000
1006,-31.250000
1007,-31.250000
1008,-31.250000
1009,-31.250000
1010,-31.250000
1011,-31.250000
1012,-31.250000
1013,-31.250000
1014,-31.250000
1015,-31.250000
1016,-31.250000
1017,-31.250000
1018,-31.250000
1019,-31.250000
1020,-31.250000
1021,-31.250000
1022,-31.250000
1023,-31.250000
1024,-31.250000
1025,-31.250000
1026,-31.250000
1027,-31.250000
1028,-31.250000
1029,-31.250000
1030,-31.250000
1031,-31.250000
1032,-31.250000
1033,-31.250000
1034,-31.250000
1035,-31.250000
1036,-31.250000
1037,-31.250000
1038,-31.250000
1039,-31.250000
1040,-31.250000
1041,-31.250000
1042,-31.250000
1043,-31.250000
1044,-31.250000
1045,-31.250000
1046,-31.250000
1047,-31.250000
1048,-31.250000
1049,-31.250000
1050,-31.250000
1051,-31.250000
1052,-31.250000
1053,-31.250000
1054,-31.250000
1055,-31.250000
1056,-31.250000
1057,-31.250000
1058,-31.250000
1059,-31.250000
1060,-31.250000
1061,-31.250000
1062,-31.250000
1063,-31.250000
1064,-31.250000
1065,-31.250000
1066,-31.250000
1067,-31.250000
1068,-31.250000
1069,-31.250000
1070,-31.250000
1071,-31.250000
1072,-31.250000
1073,-31.250000
1074,-31.250000
1075,-31.250000
1076,-31.250000
1077,-31.250000
1078,-31.250000
1079,-31.250000
1080,-31.250000
1081,-31.250000
1082,-31.250000
1083,-31.250000
1084,-31.250000
1085,-31.250000
1086,-27.343750
1087,-31.250000
1088,-31.250000
1089,-31.250000
1090,-31.250000
1091,-31.250000
1092,-31.250000
1093,-27.343750
1094,-27.343750
1095,-27.343750
1096,-27.343750
1097,-27.343750
1098,-27.343750
1099,-31.250000
1100,-31.250000
1101,-31.250000
1102,-27.343750
1103,-27.343750
1104,-27.343750
1105,-27.343750
1106,-27.343750
1107,-27.343750
1108,-27.343750
1109,-27.343750
1110,-27.343750
1111,-27.343750
1112,-27.343750
1113,-27.343750
1114,-27.343750
1115,-27.343750
1116,-27.343750
1117,-27.343750
1118,-27.343750
1119,-27.343750
1120,-27.343750
1121,-27.343750
1122,-27.343750
1123,-27.343750
1124,-27.343750
1125,-27.343750
1126,-27.343750
1127,-27.343750
1128,-27.343750
1129,-27.343750
1130,-27.343750
1131,-27.343750
1132,-27.343750
1133,-27.343750
1134,-27.343750
1135,-27.343750
1136,-27.343750
1137,-27.343750
1138,-27.343750
1139,-23.437500
1140,-27.343750
1141,-27.343750
1142,-27.343750
1143,-27.343750
1144,-27.343750
1145,-27.343750
1146,-27.343750
1147,-23.437500
1148,-27.343750
1149,-23.437500
1150,-23.437500
1151,-23.437500
1152,-23.437500
1153,-27.343750
1154,-23.437500
1155,-23.437500
1156,-23.437500
1157,-23.437500
1158,-23.437500
1159,-23.437500
1160,-23.437500
1161,-23.437500
1162,-23.437500
1163,-23.437500
1164,-23.437500
1165,-23.437500
1166,-23.437500
1167,-23.437500
1168,-23.437500
1169,-23.437500
1170,-23.437500
1171,-23.437500
1172,-23.437500
1173,-23.437500
1174,-23.437500
1175,-23.437500
1176,-23.437500
1177,-23.437500
1178,-23.437500
1179,-23.437500
1180,-23.437500
1181,-23.437500
1182,-23.437500
1183,-23.437500
1184,-23.437500
1185,-23.437500
1186,-23.437500
1187,-23.437500
1188,-23.437500
1189,-23.437500
1190,-23.437500
1191,-23.437500
1192,-23.437500
1193,-19.531250
1194,-19.531250
1195,-19.531250
1196,-19.531250
1197,-23.437500
1198,-19.531250
1199,-19.531250
1200,-19.531250
1201,-19.531250
1202,-19.531250
1203,-19.531250
1204,-19.531250
1205,-19.531250
1206,-19.531250
1207,-19.531250
1208,-19.531250
1209,-19.531250
1210,-19.531250
1211,-19.531250
1212,-19.531250
1213,-19.531250
1214,-19.531250
1215,-19.531250
1216,-19.531250
1217,-19.531250
1218,-19.531250
1219,-19.531250
1220,-19.531250
1221,-19.531250
1222,-19.531250
1223,-19.531250
1224,-15.625000
1225,-15.625000
1226,-15.625000
1227,-15.625000
1228,-15.625000
1229,-15.625000
1230,-15.625000
1231,-15.625000
1232,-15.625000
1233,-15.625000
1234,-15.625000
1235,-15.625000
1236,-15.625000
1237,-15.625000
1238,-15.625000
1239,-15.625000
1240,-15.625000
1241,-15.625000
1242,-15.625000
1243,-15.625000
1244,-15.625000
1245,-15.625000
1246,-15.625000
1247,-15.625000
1248,-15.625000
1249,-15.625000
1250,-15.625000
1251,-15.625000
1252,-15.625000
1253,-15.625000
1254,-15.625000
1255,-15.625000
1256,-11.718750
1257,-11.718750
1258,-11.718750
1259,-11.718750
1260,-11.718750
1261,-11.718750
1262,-11.718750
1263,-11.718750
1264,-11.718750
1265,-11.718750
1266,-11.718750
1267,-11.718750
1268,-11.718750
1269,-11.718750
1270,-11.718750
1271,-11.718750
1272,-11.718750
1273,-11.718750
1274,-11.718750
1275,-11.718750
1276,-11.718750
1277,-11.718750
1278,-11.718750
1279,-11.718750
1280,-11.718750
1281,-11.718750
1282,-11.718750
1283,-11.718750
1284,-11.718750
1285,-11.718750
1286,-7.812500
1287,-11.718750
1288,-7.812500
1289,-11.718750
1290,-7.812500
1291,-7.812500
1292,-7.812500
1293,-7.812500
1294,-7.812500
1295,-7.812500
1296,-7.812500
1297,-7.812500
1298,-7.812500
1299,-7.812500
1300,-7.812500
1301,-7.812500
1302,-7.812500
1303,-7.812500
1304,-7.812500
1305,-7.812500
1306,-7.812500
1307,-7.812500
1308,-7.812500
1309,-7.812500
1310,-7.812500
1311,-7.812500
1312,-7.812500
1313,-7.812500
1314,-7.812500
1315,-7.812500
1316,-7.812500
1317,-7.812500
1318,-3.906250
1319,-7.812500
1320,-7.812500
1321,-7.812500
1322,-3.906250
1323,-3.906250
1324,-3.906250
1325,-3.906250
1326,-7.812500
1327,-3.906250
1328,-3.906250
1329,-3.906250
1330,-3.906250
1331,-3.906250
1332,-3.906250
1333,-3.906250
1334,-3.906250
1335,-3.906250
1336,-3.906250
1337,-3.906250
1338,-3.906250
1339,-3.906250
1340,-3.906250
1341,-3.906250
1342,-3.906250
1343,-3.906250
1344,-3.906250
1345,-3.906250
1346,-3.906250
1347,-3.906250
1348,-3.906250
1349,-3.906250
1350,-3.906250
1351,-3.906250
1352,-3.906250
1353,-3.906250
1354,-3.906250
1355,-3.906250
1356,0.000000
1357,0.000000
1358,0.000000
1359,-3.906250
1360,0.000000
1361,0.000000
1362,0.000000
1363,0.000000
1364,0.000000
1365,0.000000
1366,0.000000
1367,0.000000
1368,0.000000
1369,0.000000
1370,0.000000
1371,0.000000
1372,0.000000
1373,0.000000
1374,0.000000
1375,0.000000
1376,0.000000
1377,0.000000
1378,0.000000
1379,0.000000
1380,0.000000
1381,0.000000
1382,0.000000
1383,0.000000
1384,0.000000
1385,0.000000
1386,0.000000
1387,0.000000
1388,0.000000
1389,0.000000
1390,0.000000
1391,0.000000
1392,0.000000
1393,0.000000
1394,0.000000
1395,0.000000
1396,0.000000
1397,3.906250
1398,0.000000
1399,3.906250
1400,3.906250
1401,0.000000
1402,3.906250
1403,0.000000
1404,3.906250
1405,0.000000
1406,3.906250
1407,3.906250
1408,3.906250
1409,3.906250
1410,3.906250
1411,0.000000
1412,3.906250
1413,3.906250
1414,3.906250
1415,3.906250
1416,3.906250
1417,3.906250
1418,3.906250
1419,3.906250
1420,3.906250
1421,3.906250
1422,3.906250
1423,3.906250
1424,3.906250
1425,3.906250
1426,3.906250
1427,3.906250
1428,3.906250
1429,3.906250
1430,3.906250
1431,3.906250
1432,3.906250
1433,3.906250
1434,3.906250
1435,3.906250
1436,3.906250
1437,3.906250
1438,3.906250
1439,3.906250
1440,3.906250
1441,3.906250
1442,3.906250
1443,3.906250
1444,3.906250
1445,3.906250
1446,3.906250
1447,3.906250
1448,3.906250
1449,3.906250
1450,3.906250
1451,3.906250
1452,3.906250
1453,3.906250
1454,3.906250
1455,3.906250
1456,3.906250
1457,3.906250
1458,3.906250
1459,3.906250
1460,3.906250
1461,3.906250
1462,3.906250
1463,3.906250
1464,3.906250
1465,3.906250
1466,3.906250
1467,3.906250
1468,3.906250
1469,3.906250
1470,3.906250
1471,3.906250
1472,3.906250
1473,3.906250
1474,3.906250
1475,3.906250
1476,3.906250
1477,3.906250
1478,3.906250
1479,3.906250
1480,3.906250
1481,3.906250
1482,7.812500
1483,3.906250
1484,3.906250
1485,3.906250
1486,3.906250
1487,3.906250
1488,3.906250
1489,3.906250
1490,3.906250
1491,3.906250
1492,7.812500
1493,3.906250
1494,3.906250
1495,3.906250
1496,3.906250
1497,3.906250
1498,3.906250
1499,3.906250
1500,3.906250
1501,3.906250
1502,3.906250
1503,3.906250
1504,3.906250
1505,3.906250
1506,3.906250
1507,3.906250
1508,3.906250
1509,3.906250
1510,3.906250
1511,3.906250
1512,3.906250
1513,3.906250
1514,3.906250
1515,3.906250
1516,7.812500
1517,3.906250
1518,3.906250
1519,7.812500
1520,3.906250
1521,3.906250
1522,7.812500
1523,3.906250
1524,3.906250
1525,3.906250
1526,3.906250
1527,3.906250
1528,3.906250
1529,3.906250
1530,3.906250
1531,3.906250
1532,3.906250
1533,3.906250
1534,3.906250
1535,3.906250
1536,3.906250
1537,3.906250
1538,3.906250
1539,3.906250
1540,3.906250
1541,3.906250
1542,3.906250
1543,3.906250
1544,3.906250
1545,3.906250
1546,3.906250
1547,3.906250
1548,3.906250
1549,3.906250
1550,3.906250
1551,3.906250
1552,3.906250
1553,3.906250
1554,3.906250
1555,3.906250
1556,3.906250
1557,3.906250
1558,3.906250
1559,3.906250
1560,3.906250
1561,3.906250
1562,3.906250
1563,3.906250
1564,3.906250
1565,3.906250
1566,3.906250
1567,3.906250
1568,3.906250
1569,3.906250
1570,3.906250
1571,3.906250
1572,3.906250
1573,3.906250
1574,3.906250
1575,3.906250
1576,3.906250
1577,3.906250
1578,3.906250
1579,3.906250
1580,0.000000
1581,0.000000
1582,3.906250
1583,3.906250
1584,3.906250
1585,0.000000
1586,3.906250
1587,0.000000
1588,3.906250
1589,0.000000
1590,3.906250
1591,0.000000
1592,0.000000
1593,0.000000
1594,0.000000
1595,0.000000
1596,0.000000
1597,0.000000
1598,0.000000
1599,0.000000
1600,0.000000
1601,0.000000
1602,0.000000
1603,0.000000
1604,0.000000
1605,0.000000
1606,0.000000
1607,0.000000
1608,0.000000
1609,0.000000
1610,0.000000
1611,0.000000
1612,0.000000
1613,0.000000
1614,0.000000
1615,0.000000
1616,0.000000
1617,3.906250
1618,0.000000
1619,0.000000
1620,0.000000
1621,0.000000
1622,0.000000
1623,0.000000
1624,0.000000
1625,0.000000
1626,0.000000
1627,0.000000
1628,0.000000
1629,0.000000
1630,0.000000
1631,0.000000
1632,-3.906250
1633,0.000000
1634,-3.906250
1635,0.000000
1636,0.000000
1637,0.000000
1638,-3.906250
1639,0.000000
1640,-3.906250
1641,-3.906250
1642,-3.906250
1643,-3.906250
1644,-3.906250
1645,-3.906250
1646,-3.906250
1647,-3.906250
1648,-3.906250
1649,-3.906250
1650,-3.906250
1651,-3.906250
1652,-3.906250
1653,-3.906250
1654,-3.906250
1655,-3.906250
1656,-3.906250
1657,-3.906250
1658,-3.906250
1659,-3.906250
1660,-3.906250
1661,-3.906250
1662,-3.906250
1663,-3.906250
1664,-3.906250
1665,-3.906250
1666,-3.906250
1667,-3.906250
1668,-3.906250
1669,-3.906250
1670,-3.906250
1671,-3.906250
1672,-3.906250
1673,-3.906250
1674,-3.906250
1675,-3.906250
1676,-3.906250
1677,-3.906250
1678,-3.906250
1679,-3.906250
1680,-7.812500
1681,-7.812500
1682,-3.906250
1683,-7.812500
1684,-7.812500
1685,-7.812500
1686,-7.812500
1687,-7.812500
1688,-7.812500
1689,-7.812500
1690,-7.812500
1691,-7.812500
1692,-7.812500
1693,-7.812500
1694,-7.812500
1695,-7.812500
1696,-7.812500
1697,-7.812500
1698,-7.812500
1699,-7.812500
1700,-7.812500
1701,-7.812500
1702,-7.812500
1703,-7.812500
1704,-7.812500
1705,-7.812500
1706,-7.812500
1707,-7.812500
1708,-7.812500
1709,-7.812500
1710,-7.812500
1711,-7.812500
1712,-7.812500
1713,-7.812500
1714,-7.812500
1715,-11.718750
1716,-11.718750
1717,-11.718750
1718,-11.718750
1719,-11.718750
1720,-11.718750
1721,-11.718750
1722,-11.718750
1723,-11.718750
1724,-11.718750
1725,-11.718750
1726,-11.718750
1727,-11.718750
1728,-11.718750
1729,-11.718750
1730,-11.718750
1731,-11.718750
1732,-11.718750
1733,-11.718750
1734,-11.718750
1735,-11.718750
1736,-11.718750
1737,-11.718750
1738,-11.718750
1739,-11.718750
1740,-11.718750
1741,-11.718750
1742,-11.718750
1743,-11.718750
1744,-11.718750
1745,-11.718750
1746,-11.718750
1747,-11.718750
1748,-11.718750
1749,-15.625000
1750,-15.625000
1751,-15.625000
1752,-15.625000
1753,-11.718750
1754,-15.625000
1755,-11.718750
1756,-15.625000
1757,-15.625000
1758,-15.625000
1759,-15.625000
1760,-15.625000
1761,-15.625000
1762,-15.625000
1763,-15.625000
1764,-15.625000
1765,-15.625000
1766,-15.625000
1767,-15.625000
1768,-15.625000
1769,-15.625000
1770,-15.625000
1771,-15.625000
1772,-15.625000
1773,-15.625000
1774,-15.625000
1775,-15.625000
1776,-15.625000
1777,-15.625000
1778,-15.625000
1779,-15.625000
1780,-19.531250
1781,-15.625000
1782,-15.625000
1783,-15.625000
1784,-15.625000
1785,-15.625000
1786,-15.625000
1787,-19.531250
1788,-15.625000
1789,-19.531250
1790,-19.531250
1791,-19.531250
1792,-19.531250
1793,-19.531250
1794,-19.531250
1795,-19.531250
1796,-19.531250
1797,-19.531250
1798,-19.531250
1799,-19.531250
1800,-19.531250
1801,-19.531250
1802,-19.531250
1803,-19.531250
1804,-19.531250
1805,-19.531250
1806,-19.531250
1807,-19.531250
1808,-19.531250
1809,-19.531250
1810,-19.531250
1811,-19.531250
1812,-19.531250
1813,-19.531250
1814,-19.531250
1815,-19.531250
1816,-19.531250
1817,-19.531250
1818,-19.531250
1819,-19.531250
1820,-19.531250
1821,-19.531250
1822,-19.531250
1823,-19.531250
1824,-23.437500
1825,-23.437500
1826,-23.437500
1827,-23.437500
1828,-23.437500
1829,-23.437500
1830,-23.437500
1831,-23.437500
1832,-23.437500
1833,-23.437500
1834,-23.437500
1835,-23.437500
1836,-23.437500
1837,-23.437500
1838,-23.437500
1839,-23.437500
1840,-23.437500
1841,-23.437500
1842,-23.437500
1843,-23.437500
1844,-23.437500
1845,-23.437500
1846,-23.437500
1847,-23.437500
1848,-23.437500
1849,-23.437500
1850,-23.437500
1851,-23.437500
1852,-23.437500
1853,-23.437500
1854,-23.437500
1855,-23.437500
1856,-23.437500
1857,-23.437500
1858,-23.437500
1859,-23.437500
1860,-23.437500
1861,-23.437500
1862,-23.437500
1863,-23.437500
1864,-23.437500
1865,-27.343750
1866,-27.343750
1867,-27.343750
1868,-27.343750
1869,-27.343750
1870,-23.437500
1871,-23.437500
1872,-27.343750
1873,-27.343750
1874,-27.343750
1875,-27.343750
1876,-27.343750
1877,-27.343750
1878,-27.343750
1879,-27.343750
1880,-27.343750
1881,-27.343750
1882,-27.343750
1883,-27.343750
1884,-27.343750
1885,-27.343750
1886,-27.343750
1887,-27.343750
1888,-27.343750
1889,-27.343750
1890,-27.343750
1891,-27.343750
1892,-27.343750
1893,-27.343750
1894,-27.343750
1895,-27.343750
1896,-27.343750
1897,-27.343750
1898,-27.343750
1899,-27.343750
1900,-27.343750
1901,-27.343750
1902,-27.343750
1903,-27.343750
1904,-27.343750
1905,-27.343750
1906,-27.343750
1907,-27.343750
1908,-27.343750
1909,-27.343750
1910,-27.343750
1911,-27.343750
1912,-27.343750
1913,-27.343750
1914,-27.343750
1915,-27.343750
1916,-27.343750
1917,-27.343750
1918,-27.343750
1919,-27.343750
1920,-27.343750
1921,-27.343750
1922,-27.343750
1923,-27.343750
1924,-27.343750
1925,-27.343750
1926,-27.343750
1927,-27.343750
1928,-27.343750
1929,-27.343750
1930,-27.343750
1931,-27.343750
1932,-27.343750
1933,-27.343750
1934,-27.343750
1935,-27.343750
1936,-27.343750
1937,-27.343750
1938,-31.250000
1939,-27.343750
1940,-31.250000
1941,-31.250000
1942,-31.250000
1943,-31.250000
1944,-31.250000
1945,-31.250000
1946,-31.250000
1947,-31.250000
1948,-31.250000
1949,-31.250000
1950,-31.250000
1951,-31.250000
1952,-31.250000
1953,-31.250000
1954,-31.250000
1955,-31.250000
1956,-31.250000
1957,-31.250000
1958,-31.250000
1959,-31.250000
1960,-31.250000
1961,-31.250000
1962,-31.250000
1963,-31.250000
1964,-31.250000
1965,-31.250000
1966,-31.250000
1967,-31.250000
1968,-31.250000
1969,-31.250000
1970,-31.250000
1971,-31.250000
1972,-31.250000
1973,-31.250000
1974,-31.250000
1975,-31.250000
1976,-31.250000
1977,-31.250000
1978,-31.250000
1979,-31.250000
1980,-31.250000
1981,-31.250000
1982,-31.250000
1983,-31.250000
1984,-31.250000
1985,-31.250000
1986,-31.250000
1987,-31.250000
1988,-31.250000
1989,-31.250000
1990,-31.250000
1991,-31.250000
1992,-31.250000
1993,-31.250000
1994,-31.250000
1995,-31.250000
1996,-31.250000
1997,-31.250000
1998,-31.250000
1999,-31.250000
2000,-31.250000
2001,-31.250000
2002,-31.250000
2003,-31.250000
2004,-31.250000
2005,-31.250000
2006,-31.250000
2007,-31.250000
2008,-31.250000
2009,-31.250000
2010,-31.250000
2011,-31.250000
2012,-31.250000
2013,-31.250000
2014,-31.250000
2015,-31.250000
2016,-31.250000
2017,-31.250000
2018,-31.250000
2019,-31.250000
2020,-31.250000
2021,-31.250000
2022,-31.250000
2023,-31.250000
2024,-31.250000
2025,-31.250000
2026,-31.250000
2027,-31.250000
2028,-31.250000
2029,-31.250000
2030,-31.250000
2031,-31.250000
2032,-31.250000
2033,-31.250000
2034,-31.250000
2035,-31.250000
2036,-31.250000
2037,-31.250000
2038,-31.250000
2039,-31.250000
2040,-31.250000
2041,-31.250000
2042,-31.250000
2043,-31.250000
2044,-31.250000
2045,-31.250000
2046,-31.250000
2047,-31.250000
2048,-31.250000
2049,-31.250000
2050,-31.250000
2051,-31.250000
2052,-31.250000
2053,-31.250000
2054,-31.250000
2055,-31.250000
2056,-31.250000
2057,-31.250000
2058,-31.250000
2059,-31.250000
2060,-31.250000
2061,-31.250000
2062,-31.250000
2063,-31.250000
2064,-31.250000
2065,-31.250000
2066,-31.250000
2067,-31.250000
2068,-31.250000
2069,-31.250000
2070,-31.250000
2071,-31.250000
2072,-31.250000
2073,-31.250000
2074,-31.250000
2075,-27.343750
2076,-27.343750
2077,-31.250000
2078,-31.250000
2079,-31.250000
2080,-31.250000
2081,-31.250000
2082,-31.250000
2083,-27.343750
2084,-27.343750
2085,-31.250000
2086,-27.343750
2087,-27.343750
2088,-27.343750
2089,-31.250000
2090,-27.343750
2091,-31.250000
2092,-27.343750
2093,-27.343750
2094,-27.343750
2095,-31.250000
2096,-27.343750
2097,-27.343750
2098,-27.343750
2099,-27.343750
2100,-27.343750
2101,-31.250000
2102,-27.343750
2103,-27.343750
2104,-27.343750
2105,-27.343750
2106,-27.343750
2107,-27.343750
2108,-27.343750
2109,-27.343750
2110,-27.343750
2111,-27.343750
2112,-27.343750
2113,-27.343750
2114,-27.343750
2115,-27.343750
2116,-27.343750
2117,-27.343750
2118,-27.343750
2119,-27.343750
2120,-27.343750
2121,-27.343750
2122,-27.343750
2123,-27.343750
2124,-27.343750
2125,-27.343750
2126,-27.343750
2127,-27.343750
2128,-27.343750
2129,-27.343750
2130,-27.343750
2131,-27.343750
2132,-27.343750
2133,-27.343750
2134,-27.343750
2135,-27.343750
2136,-27.343750
2137,-23.437500
2138,-27.343750
2139,-27.343750
2140,-27.343750
2141,-27.343750
2142,-23.437500
2143,-23.437500
2144,-23.437500
2145,-23.437500
2146,-23.437500
2147,-23.437500
2148,-23.437500
2149,-23.437500
2150,-23.437500
2151,-23.437500
2152,-23.437500
2153,-23.437500
2154,-23.437500
2155,-23.437500
2156,-23.437500
2157,-23.437500
2158,-23.437500
2159,-23.437500
2160,-23.437500
2161,-23.437500
2162,-23.437500
2163,-23.437500
2164,-23.437500
2165,-23.437500
2166,-23.437500
2167,-23.437500
2168,-23.437500
2169,-23.437500
2170,-23.437500
2171,-23.437500
2172,-23.437500
2173,-23.437500
2174,-23.437500
2175,-23.437500
2176,-23.437500
2177,-23.437500
2178,-23.437500
2179,-23.437500
2180,-19.531250
2181,-19.531250
2182,-19.531250
2183,-19.531250
2184,-19.531250
2185,-19.531250
2186,-19.531250
2187,-19.531250
2188,-19.531250
2189,-19.531250
2190,-19.531250
2191,-19.531250
2192,-19.531250
2193,-19.531250
2194,-19.531250
2195,-19.531250
2196,-19.531250
2197,-19.531250
2198,-19.531250
2199,-19.531250
2200,-19.531250
2201,-19.531250
2202,-19.531250
2203,-19.531250
2204,-19.531250
2205,-19.531250
2206,-19.531250
2207,-19.531250
2208,-19.531250
2209,-19.531250
2210,-19.531250
2211,-19.531250
2212,-19.531250
2213,-19.531250
2214,-19.531250
2215,-19.531250
2216,-15.625000
2217,-15.625000
2218,-15.625000
2219,-15.625000
2220,-15.625000
2221,-19.531250
2222,-15.625000
2223,-15.625000
2224,-15.625000
2225,-15.625000
2226,-15.625000
2227,-15.625000
2228,-15.625000
2229,-15.625000
2230,-15.625000
2231,-15.625000
2232,-15.625000
2233,-15.625000
2234,-15.625000
2235,-15.625000
2236,-15.625000
2237,-15.625000
2238,-15.625000
2239,-15.625000
2240,-15.625000
2241,-11.718750
2242,-15.625000
2243,-15.625000
2244,-15.625000
2245,-15.625000
2246,-15.625000
2247,-15.625000
2248,-15.625000
2249,-11.718750
2250,-11.718750
2251,-11.718750
2252,-11.718750
2253,-11.718750
2254,-11.718750
2255,-11.718750
2256,-11.718750
2257,-11.718750
2258,-11.718750
2259,-11.718750
2260,-11.718750
2261,-11.718750
2262,-11.718750
2263,-11.718750
2264,-11.718750
2265,-11.718750
2266,-11.718750
2267,-11.718750
2268,-11.718750
2269,-11.718750
2270,-11.718750
2271,-11.718750
2272,-11.718750
2273,-11.718750
2274,-11.718750
2275,-11.718750
2276,-11.718750
2277,-7.812500
2278,-7.812500
2279,-7.812500
2280,-7.812500
2281,-7.812500
2282,-7.812500
2283,-7.812500
2284,-7.812500
2285,-7.812500
2286,-7.812500
2287,-7.812500
2288,-7.812500
2289,-7.812500
2290,-7.812500
2291,-7.812500
2292,-7.812500
2293,-7.812500
2294,-7.812500
2295,-7.812500
2296,-7.812500
2297,-7.812500
2298,-7.812500
2299,-7.812500
2300,-7.812500
2301,-7.812500
2302,-7.812500
2303,-7.812500
2304,-7.812500
2305,-7.812500
2306,-7.812500
2307,-7.812500
2308,-3.906250
2309,-3.906250
2310,-3.906250
2311,-7.812500
2312,-7.812500
2313,-7.812500
2314,-3.906250
2315,-3.906250
2316,-3.906250
2317,-3.906250
2318,-3.906250
2319,-3.906250
2320,-3.906250
2321,-3.906250
2322,-3.906250
2323,-3.906250
2324,-3.906250
2325,-3.906250
2326,-3.906250
2327,-3.906250
2328,-3.906250
2329,-3.906250
2330,-3.906250
2331,-3.906250
2332,-3.906250
2333,-3.906250
2334,-3.906250
2335,-3.906250
2336,-3.906250
2337,-3.906250
2338,-3.906250
2339,-3.906250
2340,-3.906250
2341,-3.906250
2342,-3.906250
2343,-3.906250
2344,-3.906250
2345,0.000000
2346,0.000000
2347,-3.906250
2348,-3.906250
2349,0.000000
2350,0.000000
2351,0.000000
2352,-3.906250
2353,0.000000
2354,0.000000
2355,0.000000
2356,0.000000
2357,0.000000
2358,0.000000
2359,0.000000
2360,0.000000
2361,0.000000
2362,0.000000
2363,0.000000
2364,0.000000
2365,0.000000
2366,0.000000
2367,0.000000
2368,0.000000
2369,0.000000
2370,0.000000
2371,0.000000
2372,0.000000
2373,0.000000
2374,0.000000
2375,0.000000
2376,0.000000
2377,0.000000
2378,0.000000
2379,0.000000
2380,0.000000
2381,0.000000
2382,0.000000
2383,0.000000
2384,0.000000
2385,0.000000
2386,0.000000
2387,0.000000
2388,0.000000
2389,0.000000
2390,0.000000
2391,0.000000
2392,0.000000
2393,0.000000
2394,0.000000
2395,3.906250
2396,3.906250
2397,0.000000
2398,3.906250
2399,3.906250
2400,3.906250
2401,3.906250
2402,3.906250
2403,3.906250
2404,3.906250
2405,3.906250
2406,3.906250
2407,3.906250
2408,3.906250
2409,3.906250
2410,3.906250
2411,3.906250
2412,3.906250
2413,3.906250
2414,3.906250
2415,3.906250
2416,3.906250
2417,3.906250
2418,3.906250
2419,3.906250
2420,3.906250
2421,3.906250
2422,3.906250
2423,3.906250
2424,3.906250
2425,3.906250
2426,3.906250
2427,3.906250
2428,3.906250
2429,3.906250
2430,3.906250
2431,3.906250
2432,3.906250
2433,3.906250
2434,3.906250
2435,3.906250
2436,3.906250
2437,3.906250
2438,3.906250
2439,3.906250
2440,3.906250
2441,3.906250
2442,3.906250
2443,3.906250
2444,3.906250
2445,3.906250
2446,3.906250
2447,3.906250
2448,3.906250
2449,3.906250
2450,3.906250
2451,3.906250
2452,3.906250
2453,3.906250
2454,3.906250
2455,3.906250
2456,3.906250
2457,3.906250
2458,3.906250
2459,3.906250
2460,3.906250
2461,3.906250
2462,3.906250
2463,3.906250
2464,3.906250
2465,3.906250
2466,3.906250
2467,3.906250
2468,3.906250
2469,3.906250
2470,3.906250
2471,3.906250
2472,3.906250
2473,3.906250
2474,3.906250
2475,3.906250
2476,3.906250
2477,3.906250
2478,3.906250
2479,3.906250
2480,3.906250
2481,3.906250
2482,3.906250
2483,3.906250
2484,3.906250
2485,3.906250
2486,3.906250
2487,3.906250
2488,3.906250
2489,3.906250
2490,3.906250
2491,3.906250
2492,3.906250
2493,3.906250
2494,3.906250
2495,3.906250
2496,3.906250
2497,3.906250
2498,3.906250
2499,3.906250
2500,3.906250
2501,3.906250
2502,3.906250
2503,3.906250
2504,3.906250
2505,3.906250
2506,3.906250
2507,3.906250
2508,3.906250
2509,3.906250
2510,3.906250
2511,3.906250
2512,3.906250
2513,3.906250
2514,3.906250
2515,3.906250
2516,3.906250
2517,3.906250
2518,3.906250
2519,3.906250
2520,3.906250
2521,3.906250
2522,3.906250
2523,3.906250
2524,3.906250
2525,3.906250
2526,3.906250
2527,3.906250
2528,3.906250
2529,3.906250
2530,3.906250
2531,3.906250
2532,3.906250
2533,3.906250
2534,3.906250
2535,3.906250
2536,3.906250
2537,3.906250
2538,3.906250
2539,3.906250
2540,3.906250
2541,3.906250
2542,3.906250
2543,3.906250
2544,3.906250
2545,3.906250
2546,3.906250
2547,3.906250
2548,3.906250
2549,3.906250
2550,3.906250
2551,3.906250
2552,3.906250
2553,3.906250
2554,3.906250
2555,3.906250
2556,3.906250
2557,3.906250
2558,3.906250
2559,3.906250
2560,3.906250
2561,3.906250
2562,3.906250
2563,0.000000
2564,3.906250
2565,3.906250
2566,3.906250
2567,3.906250
2568,3.906250
2569,3.906250
2570,3.906250
2571,3.906250
2572,3.906250
2573,3.906250
2574,3.906250
2575,3.906250
2576,3.906250
2577,0.000000
2578,0.000000
2579,3.906250
2580,0.000000
2581,0.000000
2582,3.906250
2583,0.000000
2584,3.906250
2585,0.000000
2586,0.000000
2587,0.000000
2588,0.000000
2589,0.000000
2590,0.000000
2591,0.000000
2592,0.000000
2593,0.000000
2594,0.000000
2595,0.000000
2596,0.000000
2597,0.000000
2598,0.000000
2599,0.000000
2600,0.000000
2601,0.000000
2602,0.000000
2603,0.000000
2604,0.000000
2605,0.000000
2606,0.000000
2607,0.000000
2608,0.000000
2609,0.000000
2610,0.000000
2611,0.000000
2612,0.000000
2613,0.000000
2614,0.000000
2615,0.000000
2616,0.000000
2617,-3.906250
2618,0.000000
2619,0.000000
2620,-3.906250
2621,0.000000
2622,0.000000
2623,-3.906250
2624,-3.906250
2625,-3.906250
2626,0.000000
2627,0.000000
2628,0.000000
2629,-3.906250
2630,-3.906250
2631,-3.906250
2632,-3.906250
2633,-3.906250
2634,-3.906250
2635,-3.906250
2636,-3.906250
2637,-3.906250
2638,-3.906250
2639,-3.906250
2640,-3.906250
2641,-3.906250
2642,-3.906250
2643,-3.906250
2644,-3.906250
2645,-3.906250
2646,-3.906250
2647,-3.906250
2648,-3.906250
2649,-3.906250
2650,-3.906250
2651,-3.906250
2652,-3.906250
2653,-3.906250
2654,-3.906250
2655,-3.906250
2656,-3.906250
2657,-3.906250
2658,-3.906250
2659,-3.906250
2660,-3.906250
2661,-3.906250
2662,-3.906250
2663,-3.906250
2664,-7.812500
2665,-7.812500
2666,-7.812500
2667,-3.906250
2668,-7.812500
2669,-7.812500
2670,-3.906250
2671,-7.812500
2672,-7.812500
2673,-7.812500
2674,-7.812500
2675,-7.812500
2676,-7.812500
2677,-7.812500
2678,-7.812500
2679,-7.812500
2680,-7.812500
2681,-7.812500
2682,-7.812500
2683,-7.812500
2684,-7.812500
2685,-7.812500
2686,-7.812500
2687,-7.812500
2688,-7.812500
2689,-7.812500
2690,-7.812500
2691,-7.812500
2692,-7.812500
2693,-7.812500
2694,-7.812500
2695,-7.812500
2696,-7.812500
2697,-7.812500
2698,-7.812500
2699,-7.812500
2700,-7.812500
2701,-11.718750
2702,-7.812500
2703,-11.718750
2704,-7.812500
2705,-11.718750
2706,-11.718750
2707,-7.812500
2708,-11.718750
2709,-11.718750
2710,-11.718750
2711,-11.718750
2712,-11.718750
2713,-11.718750
2714,-11.718750
2715,-11.718750
2716,-11.718750
2717,-11.718750
2718,-11.718750
2719,-11.718750
2720,-11.718750
2721,-11.718750
2722,-11.718750
2723,-11.718750
2724,-11.718750
2725,-11.718750
2726,-11.718750
2727,-11.718750
2728,-11.718750
2729,-11.718750
2730,-11.718750
2731,-11.718750
2732,-11.718750
2733,-11.718750
2734,-11.718750
2735,-11.718750
2736,-11.718750
2737,-11.718750
2738,-11.718750
2739,-15.625000
2740,-15.625000
2741,-11.718750
2742,-15.625000
2743,-11.718750
2744,-15.625000
2745,-15.625000
2746,-15.625000
2747,-15.625000
2748,-15.625000
2749,-15.625000
2750,-15.625000
2751,-15.625000
2752,-15.625000
2753,-15.625000
2754,-15.625000
2755,-15.625000
2756,-15.625000
2757,-15.625000
2758,-15.625000
2759,-15.625000
2760,-15.625000
2761,-15.625000
2762,-15.625000
2763,-15.625000
2764,-15.625000
2765,-15.625000
2766,-15.625000
2767,-15.625000
2768,-15.625000
2769,-15.625000
2770,-15.625000
2771,-15.625000
2772,-15.625000
2773,-15.625000
2774,-15.625000
2775,-19.531250
2776,-15.625000
2777,-15.625000
2778,-19.531250
2779,-19.531250
2780,-19.531250
2781,-15.625000
2782,-19.531250
2783,-19.531250
2784,-19.531250
2785,-19.531250
2786,-19.531250
2787,-19.531250
2788,-19.531250
2789,-19.531250
2790,-19.531250
2791,-19.531250
2792,-19.531250
2793,-19.531250
2794,-19.531250
2795,-19.531250
2796,-19.531250
2797,-19.531250
2798,-19.531250
2799,-19.531250
2800,-19.531250
2801,-19.531250
2802,-19.531250
2803,-19.531250
2804,-19.531250
2805,-19.531250
2806,-19.531250
2807,-19.531250
2808,-19.531250
2809,-19.531250
2810,-19.531250
2811,-19.531250
2812,-19.531250
2813,-19.531250
2814,-19.531250
2815,-23.437500
2816,-23.437500
2817,-23.437500
2818,-19.531250
2819,-19.531250
2820,-19.531250
2821,-19.531250
2822,-19.531250
2823,-23.437500
2824,-23.437500
2825,-23.437500
2826,-23.437500
2827,-23.437500
2828,-23.437500
2829,-23.437500
2830,-23.437500
2831,-23.437500
2832,-23.437500
2833,-23.437500
2834,-23.437500
2835,-23.437500
2836,-23.437500
2837,-23.437500
2838,-23.437500
2839,-23.437500
2840,-23.437500
2841,-23.437500
2842,-23.437500
2843,-23.437500
2844,-23.437500
2845,-23.437500
2846,-23.437500
2847,-23.437500
2848,-23.437500
2849,-23.437500
2850,-23.437500
2851,-23.437500
2852,-23.437500
2853,-23.437500
2854,-23.437500
2855,-23.437500
2856,-23.437500
2857,-23.437500
2858,-23.437500
2859,-23.437500
2860,-23.437500
2861,-23.437500
2862,-23.437500
2863,-23.437500
2864,-23.437500
2865,-27.343750
2866,-27.343750
2867,-27.343750
2868,-27.343750
2869,-27.343750
2870,-27.343750
2871,-27.343750
2872,-27.343750
2873,-27.343750
2874,-27.343750
2875,-27.343750
2876,-27.343750
2877,-27.343750
2878,-27.343750
2879,-27.343750
2880,-27.343750
2881,-27.343750
2882,-27.343750
2883,-27.343750
2884,-27.343750
2885,-27.343750
2886,-27.343750
2887,-27.343750
2888,-27.343750
2889,-27.343750
2890,-27.343750
2891,-27.343750
2892,-27.343750
2893,-27.343750
2894,-27.343750
2895,-27.343750
2896,-27.343750
2897,-27.343750
2898,-27.343750
2899,-27.343750
2900,-27.343750
2901,-27.343750
2902,-27.343750
2903,-27.343750
2904,-27.343750
2905,-27.343750
2906,-27.343750
2907,-27.343750
2908,-27.343750
2909,-27.343750
2910,-27.343750
2911,-27.343750
2912,-27.343750
2913,-31.250000
2914,-27.343750
2915,-27.343750
2916,-27.343750
2917,-27.343750
2918,-27.343750
2919,-27.343750
2920,-27.343750
2921,-27.343750
2922,-27.343750
2923,-27.343750
2924,-27.343750
2925,-27.343750
2926,-27.343750
2927,-27.343750
2928,-27.343750
2929,-27.343750
2930,-27.343750
2931,-31.250000
2932,-27.343750
2933,-27.343750
2934,-31.250000
2935,-31.250000
2936,-31.250000
2937,-31.250000
2938,-31.250000
2939,-31.250000
2940,-31.250000
2941,-27.343750
2942,-31.250000
2943,-27.343750
2944,-31.250000
2945,-31.250000
2946,-31.250000
2947,-31.250000
2948,-31.250000
2949,-31.250000
2950,-31.250000
2951,-31.250000
2952,-31.250000
2953,-31.250000
2954,-31.250000
2955,-31.250000
2956,-31.250000
2957,-31.250000
2958,-31.250000
2959,-31.250000
2960,-31.250000
2961,-31.250000
2962,-31.250000
2963,-31.250000
2964,-31.250000
2965,-31.250000
2966,-31.250000
2967,-31.250000
2968,-31.250000
2969,-31.250000
2970,-31.250000
2971,-31.250000
2972,-31.250000
2973,-31.250000
2974,-31.250000
2975,-31.250000
2976,-31.250000
2977,-31.250000
2978,-31.250000
2979,-31.250000
2980,-31.250000
2981,-31.250000
2982,-31.250000
2983,-31.250000
2984,-31.250000
2985,-31.250000
2986,-31.250000
2987,-31.250000
2988,-31.250000
2989,-31.250000
2990,-31.250000
2991,-31.250000
2992,-31.250000
2993,-31.250000
2994,-31.250000
2995,-31.250000
2996,-31.250000
2997,-31.250000
2998,-31.250000
2999,-31.250000
3000,-31.250000
3001,-31.250000
3002,-31.250000
3003,-31.250000
3004,-31.250000
3005,-31.250000
3006,-31.250000
3007,-31.250000
3008,-31.250000
3009,-31.250000
3010,-31.250000
3011,-31.250000
3012,-31.250000
3013,-31.250000
3014,-31.250000
3015,-31.250000
3016,-31.250000
3017,-31.250000
3018,-31.250000
3019,-31.250000
3020,-31.250000
3021,-31.250000
3022,-31.250000
3023,-31.250000
3024,-31.250000
3025,-31.250000
3026,-31.250000
3027,-31.250000
3028,-31.250000
3029,-31.250000
3030,-31.250000
3031,-31.250000
3032,-31.250000
3033,-31.250000
3034,-31.250000
3035,-31.250000
3036,-31.250000
3037,-31.250000
3038,-31.250000
3039,-31.250000
3040,-31.250000
3041,-31.250000
3042,-31.250000
3043,-31.250000
3044,-31.250000
3045,-31.250000
3046,-31.250000
3047,-31.250000
3048,-31.250000
3049,-31.250000
3050,-31.250000
3051,-31.250000
3052,-31.250000
3053,-31.250000
3054,-31.250000
3055,-31.250000
3056,-31.250000
3057,-31.250000
3058,-31.250000
3059,-31.250000
3060,-31.250000
3061,-31.250000
3062,-27.343750
3063,-31.250000
3064,-31.250000
3065,-31.250000
3066,-31.250000
3067,-31.250000
3068,-31.250000
3069,-31.250000
3070,-27.343750
3071,-31.250000
3072,-27.343750
3073,-31.250000
3074,-27.343750
3075,-31.250000
3076,-27.343750
3077,-27.343750
3078,-27.343750
3079,-27.343750
3080,-27.343750
3081,-27.343750
3082,-27.343750
3083,-27.343750
3084,-27.343750
3085,-27.343750
3086,-27.343750
3087,-27.343750
3088,-27.343750
3089,-27.343750
3090,-27.343750
3091,-27.343750
3092,-27.343750
3093,-27.343750
3094,-27.343750
3095,-27.343750
3096,-27.343750
3097,-27.343750
3098,-27.343750
3099,-27.343750
3100,-27.343750
3101,-27.343750
3102,-27.343750
3103,-27.343750
3104,-27.343750
3105,-27.343750
3106,-27.343750
3107,-27.343750
3108,-27.343750
3109,-27.343750
3110,-27.343750
3111,-27.343750
3112,-27.343750
3113,-27.343750
3114,-27.343750
3115,-27.343750
3116,-27.343750
3117,-27.343750
3118,-27.343750
3119,-27.343750
3120,-27.343750
3121,-27.343750
3122,-27.343750
3123,-27.343750
3124,-27.343750
3125,-27.343750
3126,-27.343750
3127,-27.343750
3128,-27.343750
3129,-27.343750
3130,-23.437500
3131,-23.437500
3132,-27.343750
3133,-23.437500
3134,-23.437500
3135,-23.437500
3136,-23.437500
3137,-23.437500
3138,-23.437500
3139,-23.437500
3140,-23.437500
3141,-23.437500
3142,-23.437500
3143,-23.437500
3144,-23.437500
3145,-23.437500
3146,-23.437500
3147,-23.437500
3148,-23.437500
3149,-23.437500
3150,-23.437500
3151,-23.437500
3152,-23.437500
3153,-23.437500
3154,-23.437500
3155,-23.437500
3156,-23.437500
3157,-23.437500
3158,-23.437500
3159,-23.437500
3160,-23.437500
3161,-23.437500
3162,-23.437500
3163,-23.437500
3164,-23.437500
3165,-23.437500
3166,-23.437500
3167,-23.437500
3168,-19.531250
3169,-23.437500
3170,-23.437500
3171,-19.531250
3172,-23.437500
3173,-19.531250
3174,-19.531250
3175,-19.531250
3176,-19.531250
3177,-19.531250
3178,-19.531250
3179,-19.531250
3180,-19.531250
3181,-19.531250
3182,-19.531250
3183,-19.531250
3184,-19.531250
3185,-19.531250
3186,-19.531250
3187,-19.531250
3188,-19.531250
3189,-19.531250
3190,-19.531250
3191,-19.531250
3192,-19.531250
3193,-19.531250
3194,-19.531250
3195,-19.531250
3196,-19.531250
3197,-19.531250
3198,-19.531250
3199,-19.531250
3200,-19.531250
3201,-19.531250
3202,-15.625000
3203,-19.531250
3204,-19.531250
3205,-19.531250
3206,-15.625000
3207,-19.531250
3208,-15.625000
3209,-15.625000
3210,-15.625000
3211,-15.625000
3212,-15.625000
3213,-15.625000
3214,-15.625000
3215,-15.625000
3216,-15.625000
3217,-15.625000
3218,-15.625000
3219,-15.625000
3220,-15.625000
3221,-15.625000
3222,-15.625000
3223,-15.625000
3224,-15.625000
3225,-15.625000
3226,-15.625000
3227,-15.625000
3228,-15.625000
3229,-15.625000
3230,-15.625000
3231,-15.625000
3232,-15.625000
3233,-15.625000
3234,-15.625000
3235,-11.718750
3236,-11.718750
3237,-11.718750
3238,-11.718750
3239,-11.718750
3240,-11.718750
3241,-11.718750
3242,-11.718750
3243,-11.718750
3244,-11.718750
3245,-11.718750
3246,-11.718750
3247,-11.718750
3248,-11.718750
3249,-11.718750
3250,-11.718750
3251,-11.718750
3252,-11.718750
3253,-11.718750
3254,-11.718750
3255,-11.718750
3256,-11.718750
3257,-11.718750
3258,-11.718750
3259,-11.718750
3260,-11.718750
3261,-11.718750
3262,-11.718750
3263,-11.718750
3264,-11.718750
3265,-11.718750
3266,-11.718750
3267,-7.812500
3268,-11.718750
3269,-11.718750
3270,-11.718750
3271,-11.718750
3272,-7.812500
3273,-11.718750
3274,-7.812500
3275,-7.812500
3276,-7.812500
3277,-7.812500
3278,-7.812500
3279,-7.812500
3280,-7.812500
3281,-7.812500
3282,-7.812500
3283,-7.812500
3284,-7.812500
3285,-7.812500
3286,-7.812500
3287,-7.812500
3288,-7.812500
3289,-7.812500
3290,-7.812500
3291,-7.812500
3292,-7.812500
3293,-7.812500
3294,-7.812500
3295,-7.812500
3296,-7.812500
3297,-7.812500
3298,-7.812500
3299,-3.906250
3300,-7.812500
3301,-7.812500
3302,-3.906250
3303,-7.812500
3304,-3.906250
3305,-7.812500
3306,-3.906250
3307,-3.906250
3308,-3.906250
3309,-3.906250
3310,-3.906250
3311,-3.906250
3312,-3.906250
3313,-3.906250
3314,-3.906250
3315,-3.906250
3316,-3.906250
3317,-3.906250
3318,-3.906250
3319,-3.906250
3320,-3.906250
3321,-3.906250
3322,-3.906250
3323,-3.906250
3324,-3.906250
3325,-3.906250
3326,-3.906250
3327,-3.906250
3328,-3.906250
3329,-3.906250
3330,-3.906250
3331,-3.906250
3332,-3.906250
3333,-3.906250
3334,-3.906250
3335,-3.906250
3336,-3.906250
3337,-3.906250
3338,-3.906250
3339,-3.906250
3340,0.000000
3341,0.000000
3342,0.000000
3343,0.000000
3344,0.000000
3345,0.000000
3346,0.000000
3347,0.000000
3348,0.000000
3349,0.000000
3350,0.000000
3351,0.000000
3352,0.000000
3353,0.000000
3354,0.000000
3355,0.000000
3356,0.000000
3357,0.000000
3358,0.000000
3359,0.000000
3360,0.000000
3361,0.000000
3362,0.000000
3363,0.000000
3364,0.000000
3365,0.000000
3366,0.000000
3367,0.000000
3368,0.000000
3369,0.000000
3370,0.000000
3371,0.000000
3372,0.000000
3373,0.000000
3374,0.000000
3375,0.000000
3376,0.000000
3377,0.000000
3378,0.000000
3379,0.000000
3380,0.000000
3381,0.000000
3382,3.906250
3383,0.000000
3384,0.000000
3385,0.000000
3386,3.906250
3387,0.000000
3388,0.000000
3389,3.906250
3390,3.906250
3391,3.906250
3392,3.906250
3393,3.906250
3394,3.906250
3395,3.906250
3396,0.000000
3397,3.906250
3398,3.906250
3399,3.906250
3400,3.906250
3401,3.906250
3402,3.906250
3403,3.906250
3404,3.906250
3405,3.906250
3406,3.906250
3407,3.906250
3408,3.906250
3409,3.906250
3410,3.906250
3411,3.906250
3412,3.906250
3413,3.906250
3414,3.906250
3415,3.906250
3416,3.906250
3417,3.906250
3418,3.906250
3419,3.906250
3420,3.906250
3421,3.906250
3422,3.906250
3423,3.906250
3424,3.906250
3425,3.906250
3426,3.906250
3427,3.906250
3428,3.906250
3429,3.906250
3430,3.906250
3431,3.906250
3432,3.906250
3433,3.906250
3434,3.906250
3435,3.906250
3436,3.906250
3437,3.906250
3438,3.906250
3439,3.906250
3440,3.906250
3441,3.906250
3442,3.906250
3443,3.906250
3444,3.906250
3445,3.906250
3446,3.906250
3447,3.906250
3448,3.906250
3449,3.906250
3450,3.906250
3451,3.906250
3452,3.906250
3453,3.906250
3454,3.906250
3455,3.906250
3456,3.906250
3457,3.906250
3458,3.906250
3459,3.906250
3460,3.906250
3461,3.906250
3462,3.906250
3463,3.906250
3464,7.812500
3465,3.906250
3466,3.906250
3467,3.906250
3468,3.906250
3469,3.906250
3470,3.906250
3471,3.906250
3472,3.906250
3473,3.906250
3474,3.906250
3475,3.906250
3476,3.906250
3477,3.906250
3478,3.906250
3479,3.906250
3480,3.906250
3481,3.906250
3482,3.906250
3483,3.906250
3484,3.906250
3485,3.906250
3486,3.906250
3487,3.906250
3488,3.906250
3489,3.906250
3490,3.906250
3491,3.906250
3492,3.906250
3493,3.906250
3494,3.906250
3495,3.906250
3496,3.906250
3497,3.906250
3498,3.906250
3499,3.906250
3500,3.906250
3501,7.812500
3502,3.906250
3503,3.906250
3504,3.906250
3505,7.812500
3506,3.906250
3507,3.906250
3508,3.906250
3509,3.906250
3510,3.906250
3511,3.906250
3512,3.906250
3513,3.906250
3514,3.906250
3515,3.906250
3516,3.906250
3517,3.906250
3518,3.906250
3519,3.906250
3520,3.906250
3521,3.906250
3522,3.906250
3523,3.906250
3524,3.906250
3525,3.906250
3526,3.906250
3527,3.906250
3528,3.906250
3529,3.906250
3530,3.906250
3531,3.906250
3532,3.906250
3533,3.906250
3534,3.906250
3535,3.906250
3536,3.906250
3537,3.906250
3538,3.906250
3539,3.906250
3540,3.906250
3541,3.906250
3542,3.906250
3543,3.906250
3544,3.906250
3545,3.906250
3546,3.906250
3547,3.906250
3548,3.906250
3549,3.906250
3550,3.906250
3551,3.906250
3552,3.906250
3553,3.906250
3554,3.906250
3555,3.906250
3556,3.906250
3557,3.906250
3558,3.906250
3559,3.906250
3560,3.906250
3561,3.906250
3562,3.906250
3563,0.000000
3564,0.000000
3565,0.000000
3566,0.000000
3567,0.000000
3568,0.000000
3569,3.906250
3570,3.906250
3571,-3.906250
3572,0.000000
3573,0.000000
3574,0.000000
3575,0.000000
3576,0.000000
3577,0.000000
3578,0.000000
3579,0.000000
3580,0.000000
3581,3.906250
3582,0.000000
3583,0.000000
3584,0.000000
3585,0.000000
3586,0.000000
3587,3.906250
3588,0.000000
3589,0.000000
3590,0.000000
3591,0.000000
3592,0.000000
3593,0.000000
3594,0.000000
3595,0.000000
3596,0.000000
3597,0.000000
3598,0.000000
3599,0.000000
3600,0.000000
3601,0.000000
3602,0.000000
3603,0.000000
3604,0.000000
3605,0.000000
3606,0.000000
3607,0.000000
3608,0.000000
3609,0.000000
3610,0.000000
3611,0.000000
3612,0.000000
3613,-3.906250
3614,-3.906250
3615,-3.906250
3616,0.000000
3617,-3.906250
3618,-3.906250
3619,-3.906250
3620,-3.906250
3621,-3.906250
3622,-3.906250
3623,-3.906250
3624,-3.906250
3625,-3.906250
3626,-3.906250
3627,-3.906250
3628,-3.906250
3629,-3.906250
3630,-3.906250
3631,-3.906250
3632,-3.906250
3633,-3.906250
3634,-3.906250
3635,-3.906250
3636,-3.906250
3637,-3.906250
3638,-3.906250
3639,-3.906250
3640,-3.906250
3641,-3.906250
3642,-3.906250
3643,-3.906250
3644,-3.906250
3645,-3.906250
3646,-3.906250
3647,-3.906250
3648,-7.812500
3649,-3.906250
3650,-3.906250
3651,-3.906250
3652,-3.906250
3653,-3.906250
3654,-7.812500
3655,-3.906250
3656,-7.812500
3657,-7.812500
3658,-7.812500
3659,-7.812500
3660,-7.812500
3661,-7.812500
3662,-7.812500
3663,-7.812500
3664,-7.812500
3665,-7.812500
3666,-7.812500
3667,-7.812500
3668,-7.812500
3669,-3.906250
3670,-7.812500
3671,-7.812500
3672,-7.812500
3673,-7.812500
3674,-7.812500
3675,-7.812500
3676,-7.812500
3677,-7.812500
3678,-7.812500
3679,-7.812500
3680,-7.812500
3681,-7.812500
3682,-7.812500
3683,-11.718750
3684,-7.812500
3685,-7.812500
3686,-7.812500
3687,-7.812500
3688,-7.812500
3689,-11.718750
3690,-11.718750
3691,-7.812500
3692,-11.718750
3693,-11.718750
3694,-11.718750
3695,-11.718750
3696,-11.718750
3697,-11.718750
3698,-11.718750
3699,-11.718750
3700,-11.718750
3701,-11.718750
3702,-11.718750
3703,-11.718750
3704,-11.718750
3705,-11.718750
3706,-11.718750
3707,-11.718750
3708,-11.718750
3709,-11.718750
3710,-11.718750
3711,-11.718750
3712,-11.718750
3713,-11.718750
3714,-11.718750
3715,-11.718750
3716,-11.718750
3717,-11.718750
3718,-11.718750
3719,-11.718750
3720,-11.718750
3721,-11.718750
3722,-11.718750
3723,-11.718750
3724,-11.718750
3725,-11.718750
3726,-11.718750
3727,-11.718750
3728,-11.718750
3729,-15.625000
3730,-15.625000
3731,-15.625000
3732,-11.718750
3733,-11.718750
3734,-15.625000
3735,-15.625000
3736,-15.625000
3737,-15.625000
3738,-15.625000
3739,-15.625000
3740,-15.625000
3741,-15.625000
3742,-15.625000
3743,-15.625000
3744,-15.625000
3745,-15.625000
3746,-15.625000
3747,-15.625000
3748,-15.625000
3749,-15.625000
3750,-15.625000
3751,-15.625000
3752,-15.625000
3753,-15.625000
3754,-15.625000
3755,-15.625000
3756,-15.625000
3757,-15.625000
3758,-15.625000
3759,-15.625000
3760,-15.625000
3761,-15.625000
3762,-15.625000
3763,-15.625000
3764,-19.531250
3765,-19.531250
3766,-19.531250
3767,-19.531250
3768,-19.531250
3769,-19.531250
3770,-15.625000
3771,-19.531250
3772,-19.531250
3773,-19.531250
3774,-19.531250
3775,-19.531250
3776,-19.531250
3777,-19.531250
3778,-19.531250
3779,-19.531250
3780,-19.531250
3781,-19.531250
3782,-19.531250
3783,-19.531250
3784,-19.531250
3785,-19.531250
3786,-19.531250
3787,-19.531250
3788,-19.531250
3789,-19.531250
3790,-19.531250
3791,-19.531250
3792,-19.531250
3793,-19.531250
3794,-19.531250
3795,-19.531250
3796,-19.531250
3797,-19.531250
3798,-19.531250
3799,-19.531250
3800,-19.531250
3801,-19.531250
3802,-23.437500
3803,-23.437500
3804,-19.531250
3805,-19.531250
3806,-19.531250
3807,-23.437500
3808,-19.531250
3809,-19.531250
3810,-19.531250
3811,-23.437500
3812,-23.437500
3813,-23.437500
3814,-23.437500
3815,-23.437500
3816,-23.437500
3817,-23.437500
3818,-23.437500
3819,-23.437500
3820,-23.437500
3821,-23.437500
3822,-23.437500
3823,-23.437500
3824,-23.437500
3825,-23.437500
3826,-23.437500
3827,-23.437500
3828,-23.437500
3829,-23.437500
3830,-23.437500
3831,-23.437500
3832,-23.437500
3833,-23.437500
3834,-23.437500
3835,-23.437500
3836,-23.437500
3837,-23.437500
3838,-23.437500
3839,-23.437500
3840,-23.437500
3841,-23.437500
3842,-23.437500
3843,-23.437500
3844,-23.437500
3845,-23.437500
3846,-23.437500
3847,-23.437500
3848,-27.343750
3849,-23.437500
3850,-23.437500
3851,-23.437500
3852,-23.437500
3853,-23.437500
3854,-27.343750
3855,-27.343750
3856,-27.343750
3857,-27.343750
3858,-27.343750
3859,-27.343750
3860,-27.343750
3861,-27.343750
3862,-27.343750
3863,-27.343750
3864,-27.343750
3865,-27.343750
3866,-27.343750
3867,-27.343750
3868,-27.343750
3869,-27.343750
3870,-27.343750
3871,-27.343750
3872,-27.343750
3873,-27.343750
3874,-27.343750
3875,-27.343750
3876,-27.343750
3877,-27.343750
3878,-27.343750
3879,-27.343750
3880,-27.343750
3881,-27.343750
3882,-27.343750
3883,-27.343750
3884,-27.343750
3885,-27.343750
3886,-27.343750
3887,-27.343750
3888,-27.343750
3889,-27.343750
3890,-27.343750
3891,-27.343750
3892,-27.343750
3893,-27.343750
3894,-27.343750
3895,-27.343750
3896,-27.343750
3897,-27.343750
3898,-27.343750
3899,-27.343750
3900,-27.343750
3901,-27.343750
3902,-27.343750
3903,-27.343750
3904,-27.343750
3905,-27.343750
3906,-27.343750
3907,-27.343750
3908,-27.343750
3909,-27.343750
3910,-27.343750
3911,-27.343750
3912,-27.343750
3913,-31.250000
3914,-27.343750
3915,-31.250000
3916,-31.250000
3917,-31.250000
3918,-31.250000
3919,-31.250000
3920,-27.343750
3921,-31.250000
3922,-31.250000
3923,-31.250000
3924,-31.250000
3925,-31.250000
3926,-31.250000
3927,-31.250000
3928,-31.250000
3929,-31.250000
3930,-31.250000
3931,-27.343750
3932,-31.250000
3933,-31.250000
3934,-31.250000
3935,-31.250000
3936,-31.250000
3937,-31.250000
3938,-31.250000
3939,-31.250000
3940,-31.250000
3941,-31.250000
3942,-31.250000
3943,-31.250000
3944,-31.250000
3945,-31.250000
3946,-31.250000
3947,-31.250000
3948,-31.250000
3949,-31.250000
3950,-27.343750
3951,-31.250000
3952,-31.250000
3953,-31.250000
3954,-31.250000
3955,-31.250000
3956,-31.250000
3957,-31.250000
3958,-31.250000
3959,-31.250000
3960,-31.250000
3961,-31.250000
3962,-31.250000
3963,-31.250000
3964,-31.250000
3965,-31.250000
3966,-31.250000
3967,-31.250000
3968,-31.250000
3969,-31.250000
3970,-31.250000
3971,-31.250000
3972,-31.250000
3973,-31.250000
3974,-31.250000
3975,-31.250000
3976,-31.250000
3977,-31.250000
3978,-31.250000
3979,-31.250000
3980,-31.250000
3981,-31.250000
3982,-31.250000
3983,-31.250000
3984,-31.250000
3985,-31.250000
3986,-31.250000
3987,-31.250000
3988,-31.250000
3989,-31.250000
3990,-31.250000
3991,-31.250000
3992,-31.250000
3993,-31.250000
3994,-31.250000
3995,-31.250000
3996,-31.250000
3997,-31.250000
3998,-31.250000
3999,-31.250000
4000,-31.250000
4001,-31.250000
4002,-31.250000
4003,-31.250000
4004,-31.250000
4005,-31.250000
4006,-31.250000
4007,-31.250000
4008,-31.250000
4009,-31.250000
4010,-31.250000
4011,-31.250000
4012,-31.250000
4013,-31.250000
4014,-31.250000
4015,-31.250000
4016,-31.250000
4017,-31.250000
4018,-31.250000
4019,-31.250000
4020,-31.250000
4021,-31.250000
4022,-31.250000
4023,-31.250000
4024,-31.250000
4025,-31.250000
4026,-31.250000
4027,-31.250000
4028,-31.250000
4029,-31.250000
4030,-31.250000
4031,-31.250000
4032,-31.250000
4033,-31.250000
4034,-31.250000
4035,-31.250000
4036,-31.250000
4037,-27.343750
4038,-31.250000
4039,-31.250000
4040,-31.250000
4041,-31.250000
4042,-27.343750
4043,-31.250000
4044,-31.250000
4045,-31.250000
4046,-31.250000
4047,-27.343750
4048,-31.250000
4049,-31.250000
4050,-31.250000
4051,-31.250000
4052,-27.343750
4053,-31.250000
4054,-31.250000
4055,-31.250000
4056,-31.250000
4057,-27.343750
4058,-31.250000
4059,-31.250000
4060,-31.250000
4061,-31.250000
4062,-27.343750
4063,-27.343750
4064,-31.250000
4065,-31.250000
4066,-31.250000
4067,-31.250000
4068,-31.250000
4069,-27.343750
4070,-27.343750
4071,-27.343750
4072,-31.250000
4073,-27.343750
4074,-27.343750
4075,-27.343750
4076,-27.343750
4077,-27.343750
4078,-27.343750
4079,-27.343750
4080,-27.343750
4081,-27.343750
4082,-27.343750
4083,-27.343750
4084,-27.343750
4085,-27.343750
4086,-27.343750
4087,-27.343750
4088,-27.343750
4089,-27.343750
4090,-27.343750
4091,-27.343750
4092,-27.343750
4093,-27.343750
4094,-27.343750
4095,-27.343750
4096,-27.343750
4097,-27.343750
4098,-27.343750
4099,-27.343750
4100,-27.343750
4101,-27.343750
4102,-27.343750
4103,-27.343750
4104,-27.343750
4105,-27.343750
4106,-27.343750
4107,-27.343750
4108,-27.343750
4109,-27.343750
4110,-27.343750
4111,-27.343750
4112,-27.343750
4113,-27.343750
4114,-23.437500
4115,-23.437500
4116,-27.343750
4117,-27.343750
4118,-27.343750
4119,-27.343750
4120,-27.343750
4121,-27.343750
4122,-23.437500
4123,-23.437500
4124,-23.437500
4125,-23.437500
4126,-23.437500
4127,-23.437500
4128,-23.437500
4129,-23.437500
4130,-23.437500
4131,-23.437500
4132,-23.437500
4133,-23.437500
4134,-23.437500
4135,-23.437500
4136,-23.437500
4137,-23.437500
4138,-23.437500
4139,-23.437500
4140,-23.437500
4141,-23.437500
4142,-23.437500
4143,-23.437500
4144,-23.437500
4145,-23.437500
4146,-23.437500
4147,-23.437500
4148,-23.437500
4149,-23.437500
4150,-23.437500
4151,-23.437500
4152,-23.437500
4153,-23.437500
4154,-23.437500
4155,-23.437500
4156,-19.531250
4157,-23.437500
4158,-23.437500
4159,-23.437500
4160,-23.437500
4161,-19.531250
4162,-19.531250
4163,-19.531250
4164,-23.437500
4165,-23.437500
4166,-19.531250
4167,-19.531250
4168,-19.531250
4169,-19.531250
4170,-19.531250
4171,-19.531250
4172,-19.531250
4173,-19.531250
4174,-19.531250
4175,-19.531250
4176,-19.531250
4177,-19.531250
4178,-19.531250
4179,-19.531250
4180,-19.531250
4181,-19.531250
4182,-19.531250
4183,-19.531250
4184,-19.531250
4185,-19.531250
4186,-19.531250
4187,-19.531250
4188,-19.531250
4189,-19.531250
4190,-19.531250
4191,-19.531250
4192,-19.531250
4193,-19.531250
4194,-19.531250
4195,-19.531250
4196,-19.531250
4197,-19.531250
4198,-19.531250
4199,-15.625000
4200,-15.625000
4201,-15.625000
4202,-15.625000
4203,-15.625000
4204,-15.625000
4205,-15.625000
4206,-15.625000
4207,-15.625000
4208,-15.625000
4209,-15.625000
4210,-15.625000
4211,-15.625000
4212,-15.625000
4213,-15.625000
4214,-15.625000
4215,-15.625000
4216,-15.625000
4217,-15.625000
4218,-15.625000
4219,-15.625000
4220,-15.625000
4221,-15.625000
4222,-15.625000
4223,-15.625000
4224,-15.625000
4225,-15.625000
4226,-11.718750
4227,-11.718750
4228,-15.625000
4229,-11.718750
4230,-11.718750
4231,-11.718750
4232,-11.718750
4233,-11.718750
4234,-11.718750
4235,-11.718750
4236,-11.718750
4237,-11.718750
4238,-11.718750
4239,-11.718750
4240,-11.718750
4241,-11.718750
4242,-11.718750
4243,-11.718750
4244,-11.718750
4245,-11.718750
4246,-11.718750
4247,-11.718750
4248,-11.718750
4249,-11.718750
4250,-11.718750
4251,-11.718750
4252,-11.718750
4253,-11.718750
4254,-11.718750
4255,-11.718750
4256,-11.718750
4257,-11.718750
4258,-11.718750
4259,-11.718750
4260,-7.812500
4261,-7.812500
4262,-7.812500
4263,-7.812500
4264,-7.812500
4265,-7.812500
4266,-7.812500
4267,-7.812500
4268,-7.812500
4269,-7.812500
4270,-7.812500
4271,-7.812500
4272,-7.812500
4273,-7.812500
4274,-7.812500
4275,-7.812500
4276,-7.812500
4277,-7.812500
4278,-7.812500
4279,-7.812500
4280,-7.812500
4281,-7.812500
4282,-7.812500
4283,-7.812500
4284,-7.812500
4285,-7.812500
4286,-7.812500
4287,-7.812500
4288,-7.812500
4289,-7.812500
4290,-7.812500
4291,-7.812500
4292,-7.812500
4293,-7.812500
4294,-3.906250
4295,-3.906250
4296,-3.906250
4297,-3.906250
4298,-3.906250
4299,-3.906250
4300,-3.906250
4301,-3.906250
4302,-3.906250
4303,-3.906250
4304,-3.906250
4305,-3.906250
4306,-3.906250
4307,-3.906250
4308,-3.906250
4309,-3.906250
4310,-3.906250
4311,-3.906250
4312,-3.906250
4313,-3.906250
4314,-3.906250
4315,-3.906250
4316,-3.906250
4317,-3.906250
4318,-3.906250
4319,-3.906250
4320,0.000000
4321,-3.906250
4322,-3.906250
4323,-3.906250
4324,-3.906250
4325,-3.906250
4326,-3.906250
4327,-3.906250
4328,-3.906250
4329,-3.906250
4330,0.000000
4331,0.000000
4332,0.000000
4333,0.000000
4334,-3.906250
4335,0.000000
4336,0.000000
4337,0.000000
4338,0.000000
4339,0.000000
4340,0.000000
4341,0.000000
4342,0.000000
4343,0.000000
4344,0.000000
4345,0.000000
4346,0.000000
4347,0.000000
4348,0.000000
4349,0.000000
4350,0.000000
4351,0.000000
4352,0.000000
4353,0.000000
4354,0.000000
4355,0.000000
4356,0.000000
4357,0.000000
4358,0.000000
4359,0.000000
4360,0.000000
4361,0.000000
4362,0.000000
4363,0.000000
4364,0.000000
4365,0.000000
4366,3.906250
4367,0.000000
4368,0.000000
4369,0.000000
4370,0.000000
4371,0.000000
4372,0.000000
4373,0.000000
4374,0.000000
4375,0.000000
4376,0.000000
4377,0.000000
4378,0.000000
4379,3.906250
4380,3.906250
4381,3.906250
4382,3.906250
4383,3.906250
4384,3.906250
4385,3.906250
4386,3.906250
4387,3.906250
4388,3.906250
4389,3.906250
4390,3.906250
4391,3.906250
4392,3.906250
4393,3.906250
4394,3.906250
4395,3.906250
4396,3.906250
4397,3.906250
4398,3.906250
4399,3.906250
4400,3.906250
4401,3.906250
4402,3.906250
4403,3.906250
4404,3.906250
4405,3.906250
4406,3.906250
4407,3.906250
4408,3.906250
4409,3.906250
4410,3.906250
4411,3.906250
4412,3.906250
4413,3.906250
4414,3.906250
4415,3.906250
4416,3.906250
4417,3.906250
4418,3.906250
4419,3.906250
4420,3.906250
4421,3.906250
4422,3.906250
4423,3.906250
4424,3.906250
4425,3.906250
4426,3.906250
4427,3.906250
4428,3.906250
4429,3.906250
4430,3.906250
4431,3.906250
4432,3.906250
4433,3.906250
4434,3.906250
4435,3.906250
4436,3.906250
4437,3.906250
4438,3.906250
4439,3.906250
4440,3.906250
4441,3.906250
4442,3.906250
4443,3.906250
4444,3.906250
4445,3.906250
4446,3.906250
4447,3.906250
4448,3.906250
4449,3.906250
4450,3.906250
4451,3.906250
4452,3.906250
4453,3.906250
4454,3.906250
4455,3.906250
4456,3.906250
4457,3.906250
4458,3.906250
4459,3.906250
4460,3.906250
4461,3.906250
4462,3.906250
4463,3.906250
4464,3.906250
4465,3.906250
4466,3.906250
4467,3.906250
4468,3.906250
4469,3.906250
4470,3.906250
4471,3.906250
4472,3.906250
4473,3.906250
4474,3.906250
4475,3.906250
4476,3.906250
4477,3.906250
4478,3.906250
4479,3.906250
4480,3.906250
4481,3.906250
4482,3.906250
4483,3.906250
4484,3.906250
4485,3.906250
4486,3.906250
4487,3.906250
4488,3.906250
4489,3.906250
4490,3.906250
4491,3.906250
4492,3.906250
4493,3.906250
4494,3.906250
4495,3.906250
4496,3.906250
4497,3.906250
4498,3.906250
4499,3.906250
4500,3.906250
4501,3.906250
4502,3.906250
4503,3.906250
4504,3.906250
4505,3.906250
4506,3.906250
4507,3.906250
4508,3.906250
4509,3.906250
4510,3.906250
4511,3.906250
4512,3.906250
4513,3.906250
4514,3.906250
4515,3.906250
4516,3.906250
4517,3.906250
4518,3.906250
4519,3.906250
4520,3.906250
4521,3.906250
4522,3.906250
4523,3.906250
4524,3.906250
4525,3.906250
4526,3.906250
4527,3.906250
4528,3.906250
4529,3.906250
4530,3.906250
4531,3.906250
4532,3.906250
4533,3.906250
4534,3.906250
4535,3.906250
4536,3.906250
4537,3.906250
4538,3.906250
4539,3.906250
4540,3.906250
4541,3.906250
4542,3.906250
4543,3.906250
4544,3.906250
4545,3.906250
4546,3.906250
4547,0.000000
4548,0.000000
4549,0.000000
4550,0.000000
4551,3.906250
4552,0.000000
4553,0.000000
4554,3.906250
4555,0.000000
4556,0.000000
4557,0.000000
4558,0.000000
4559,0.000000
4560,0.000000
4561,0.000000
4562,0.000000
4563,0.000000
4564,0.000000
4565,0.000000
4566,0.000000
4567,0.000000
4568,0.000000
4569,0.000000
4570,0.000000
4571,0.000000
4572,0.000000
4573,0.000000
4574,0.000000
4575,0.000000
4576,0.000000
4577,0.000000
4578,0.000000
4579,0.000000
4580,0.000000
4581,0.000000
4582,0.000000
4583,0.000000
4584,0.000000
4585,0.000000
4586,0.000000
4587,0.000000
4588,0.000000
4589,0.000000
4590,0.000000
4591,0.000000
4592,0.000000
4593,0.000000
4594,0.000000
4595,0.000000
4596,0.000000
4597,0.000000
4598,0.000000
4599,-3.906250
4600,0.000000
4601,0.000000
4602,0.000000
4603,0.000000
4604,0.000000
4605,0.000000
4606,0.000000
4607,-3.906250
4608,0.000000
4609,-3.906250
4610,-3.906250
4611,-3.906250
4612,-3.906250
4613,-3.906250
4614,-3.906250
4615,-3.906250
4616,-3.906250
4617,-3.906250
4618,-3.906250
4619,-3.906250
4620,-3.906250
4621,-3.906250
4622,-3.906250
4623,-3.906250
4624,-3.906250
4625,-3.906250
4626,-3.906250
4627,-3.906250
4628,-3.906250
4629,-3.906250
4630,-3.906250
4631,-3.906250
4632,-3.906250
4633,-3.906250
4634,-3.906250
4635,-3.906250
4636,-3.906250
4637,-3.906250
4638,-3.906250
4639,-3.906250
4640,-3.906250
4641,-3.906250
4642,-3.906250
4643,-3.906250
4644,-3.906250
4645,-3.906250
4646,-3.906250
4647,-7.812500
4648,-7.812500
4649,-7.812500
4650,-3.906250
4651,-7.812500
4652,-7.812500
4653,-7.812500
4654,-7.812500
4655,-7.812500
4656,-7.812500
4657,-7.812500
4658,-7.812500
4659,-7.812500
4660,-7.812500
4661,-7.812500
4662,-7.812500
4663,-7.812500
4664,-7.812500
4665,-7.812500
4666,-7.812500
4667,-7.812500
4668,-7.812500
4669,-7.812500
4670,-7.812500
4671,-7.812500
4672,-7.812500
4673,-7.812500
4674,-7.812500
4675,-7.812500
4676,-7.812500
4677,-11.718750
4678,-7.812500
4679,-7.812500
4680,-7.812500
4681,-7.812500
4682,-7.812500
4683,-11.718750
4684,-11.718750
4685,-11.718750
4686,-11.718750
4687,-11.718750
4688,-11.718750
4689,-11.718750
4690,-11.718750
4691,-11.718750
4692,-11.718750
4693,-11.718750
4694,-11.718750
4695,-11.718750
4696,-11.718750
4697,-11.718750
4698,-11.718750
4699,-11.718750
4700,-11.718750
4701,-11.718750
4702,-11.718750
4703,-11.718750
4704,-11.718750
4705,-11.718750
4706,-11.718750
4707,-11.718750
4708,-11.718750
4709,-11.718750
4710,-11.718750
4711,-11.718750
4712,-11.718750
4713,-11.718750
4714,-11.718750
4715,-11.718750
4716,-11.718750
4717,-11.718750
4718,-15.625000
4719,-15.625000
4720,-15.625000
4721,-15.625000
4722,-11.718750
4723,-15.625000
4724,-15.625000
4725,-15.625000
4726,-15.625000
4727,-15.625000
4728,-15.625000
4729,-15.625000
4730,-15.625000
4731,-15.625000
4732,-15.625000
4733,-15.625000
4734,-15.625000
4735,-15.625000
4736,-15.625000
4737,-15.625000
4738,-15.625000
4739,-15.625000
4740,-15.625000
4741,-15.625000
4742,-15.625000
4743,-15.625000
4744,-15.625000
4745,-15.625000
4746,-15.625000
4747,-15.625000
4748,-15.625000
4749,-15.625000
4750,-15.625000
4751,-15.625000
4752,-15.625000
4753,-19.531250
4754,-19.531250
4755,-15.625000
4756,-15.625000
4757,-15.625000
4758,-15.625000
4759,-19.531250
4760,-15.625000
4761,-19.531250
4762,-19.531250
4763,-19.531250
4764,-19.531250
4765,-19.531250
4766,-19.531250
4767,-19.531250
4768,-19.531250
4769,-19.531250
4770,-19.531250
4771,-19.531250
4772,-19.531250
4773,-19.531250
4774,-19.531250
4775,-19.531250
4776,-19.531250
4777,-19.531250
4778,-19.531250
4779,-19.531250
4780,-19.531250
4781,-19.531250
4782,-19.531250
4783,-19.531250
4784,-19.531250
4785,-19.531250
4786,-19.531250
4787,-19.531250
4788,-19.531250
4789,-19.531250
4790,-19.531250
4791,-19.531250
4792,-19.531250
4793,-23.437500
4794,-23.437500
4795,-23.437500
4796,-23.437500
4797,-19.531250
4798,-23.437500
4799,-23.437500
4800,-23.437500
4801,-23.437500
4802,-23.437500
4803,-23.437500
4804,-23.437500
4805,-23.437500
4806,-23.437500
4807,-23.437500
4808,-23.437500
4809,-23.437500
4810,-23.437500
4811,-23.437500
4812,-23.437500
4813,-23.437500
4814,-23.437500
4815,-23.437500
4816,-23.437500
4817,-23.437500
4818,-23.437500
4819,-23.437500
4820,-23.437500
4821,-23.437500
4822,-23.437500
4823,-23.437500
4824,-23.437500
4825,-23.437500
4826,-23.437500
4827,-23.437500
4828,-23.437500
4829,-23.437500
4830,-23.437500
4831,-23.437500
4832,-23.437500
4833,-23.437500
4834,-27.343750
4835,-23.437500
4836,-23.437500
4837,-23.437500
4838,-23.437500
4839,-27.343750
4840,-27.343750
4841,-27.343750
4842,-23.437500
4843,-27.343750
4844,-23.437500
4845,-27.343750
4846,-27.343750
4847,-27.343750
4848,-27.343750
4849,-27.343750
4850,-27.343750
4851,-27.343750
4852,-27.343750
4853,-27.343750
4854,-27.343750
4855,-27.343750
4856,-27.343750
4857,-27.343750
4858,-27.343750
4859,-27.343750
4860,-27.343750
4861,-27.343750
4862,-27.343750
4863,-27.343750
4864,-27.343750
4865,-27.343750
4866,-27.343750
4867,-27.343750
4868,-27.343750
4869,-27.343750
4870,-27.343750
4871,-27.343750
4872,-27.343750
4873,-27.343750
4874,-27.343750
4875,-27.343750
4876,-27.343750
4877,-27.343750
4878,-27.343750
4879,-27.343750
4880,-27.343750
4881,-27.343750
4882,-27.343750
4883,-27.343750
4884,-27.343750
4885,-27.343750
4886,-27.343750
4887,-27.343750
4888,-27.343750
4889,-27.343750
4890,-27.343750
4891,-27.343750
4892,-27.343750
4893,-27.343750
4894,-27.343750
4895,-27.343750
4896,-27.343750
4897,-27.343750
4898,-31.250000
4899,-27.343750
4900,-31.250000
4901,-27.343750
4902,-31.250000
4903,-31.250000
4904,-31.250000
4905,-31.250000
4906,-31.250000
4907,-31.250000
4908,-27.343750
4909,-31.250000
4910,-31.250000
4911,-27.343750
4912,-31.250000
4913,-31.250000
4914,-31.250000
4915,-31.250000
4916,-31.250000
4917,-31.250000
4918,-31.250000
4919,-31.250000
4920,-31.250000
4921,-31.250000
4922,-31.250000
4923,-31.250000
4924,-31.250000
4925,-31.250000
4926,-31.250000
4927,-31.250000
4928,-31.250000
4929,-31.250000
4930,-31.250000
4931,-31.250000
4932,-31.250000
4933,-31.250000
4934,-31.250000
4935,-31.250000
4936,-31.250000
4937,-31.250000
4938,-31.250000
4939,-31.250000
4940,-31.250000
4941,-31.250000
4942,-31.250000
4943,-31.250000
4944,-31.250000
4945,-31.250000
4946,-31.250000
4947,-31.250000
4948,-31.250000
4949,-31.250000
4950,-31.250000
4951,-31.250000
4952,-31.250000
4953,-31.250000
4954,-31.250000
4955,-31.250000
4956,-31.250000
4957,-31.250000
4958,-31.250000
4959,-31.250000
4960,-31.250000
4961,-31.250000
4962,-31.250000
4963,-31.250000
4964,-31.250000
4965,-31.250000
4966,-31.250000
4967,-31.250000
4968,-31.250000
4969,-31.250000
4970,-31.250000
4971,-31.250000
4972,-31.250000
4973,-31.250000
4974,-31.250000
4975,-31.250000
4976,-31.250000
4977,-31.250000
4978,-31.250000
4979,-31.250000
4980,-31.250000
4981,-31.250000
4982,-31.250000
4983,-31.250000
4984,-31.250000
4985,-31.250000
4986,-31.250000
4987,-31.250000
4988,-31.250000
4989,-31.250000
4990,-31.250000
4991,-31.250000
4992,-31.250000
4993,-31.250000
4994,-31.250000
4995,-31.250000
4996,-31.250000
4997,-31.250000
4998,-31.250000
4999,-31.250000
5000,-31.250000
5001,-31.250000
5002,-31.250000
5003,-31.250000
5004,-31.250000
5005,-31.250000
5006,-31.250000
5007,-31.250000
5008,-31.250000
5009,-31.250000
5010,-31.250000
5011,-31.250000
5012,-31.250000
5013,-31.250000
5014,-31.250000
5015,-31.250000
5016,-31.250000
5017,-31.250000
5018,-31.250000
5019,-31.250000
5020,-31.250000
5021,-31.250000
5022,-31.250000
5023,-31.250000
5024,-31.250000
5025,-31.250000
5026,-31.250000
5027,-31.250000
5028,-31.250000
5029,-31.250000
5030,-31.250000
5031,-31.250000
5032,-31.250000
5033,-31.250000
5034,-31.250000
5035,-31.250000
5036,-31.250000
5037,-31.250000
5038,-27.343750
5039,-31.250000
5040,-31.250000
5041,-31.250000
5042,-31.250000
5043,-31.250000
5044,-31.250000
5045,-31.250000
5046,-31.250000
5047,-31.250000
5048,-31.250000
5049,-31.250000
5050,-31.250000
5051,-31.250000
5052,-31.250000
5053,-27.343750
5054,-27.343750
5055,-31.250000
5056,-27.343750
5057,-27.343750
5058,-31.250000
5059,-27.343750
5060,-27.343750
5061,-27.343750
5062,-27.343750
5063,-27.343750
5064,-27.343750
5065,-27.343750
5066,-27.343750
5067,-27.343750
5068,-27.343750
5069,-31.250000
5070,-27.343750
5071,-27.343750
5072,-27.343750
5073,-27.343750
5074,-27.343750
5075,-27.343750
5076,-27.343750
5077,-27.343750
5078,-27.343750
5079,-27.343750
5080,-27.343750
5081,-27.343750
5082,-27.343750
5083,-27.343750
5084,-27.343750
5085,-27.343750
5086,-27.343750
5087,-27.343750
5088,-27.343750
5089,-27.343750
5090,-27.343750
5091,-27.343750
5092,-27.343750
5093,-27.343750
5094,-27.343750
5095,-27.343750
5096,-27.343750
5097,-27.343750
5098,-27.343750
5099,-27.343750
5100,-27.343750
5101,-27.343750
5102,-23.437500
5103,-27.343750
5104,-27.343750
5105,-23.437500
5106,-27.343750
5107,-23.437500
5108,-23.437500
5109,-27.343750
5110,-27.343750
5111,-27.343750
5112,-27.343750
5113,-23.437500
5114,-23.437500
5115,-23.437500
5116,-23.437500
5117,-23.437500
5118,-23.437500
5119,-23.437500
5120,-23.437500
5121,-23.437500
5122,-23.437500
5123,-23.437500
5124,-23.437500
5125,-23.437500
5126,-23.437500
5127,-23.437500
5128,-23.437500
5129,-23.437500
5130,-23.437500
5131,-23.437500
5132,-23.437500
5133,-23.437500
5134,-23.437500
5135,-23.437500
5136,-23.437500
5137,-23.437500
5138,-23.437500
5139,-23.437500
5140,-23.437500
5141,-23.437500
5142,-23.437500
5143,-19.531250
5144,-23.437500
5145,-23.437500
5146,-23.437500
5147,-23.437500
5148,-19.531250
5149,-19.531250
5150,-19.531250
5151,-19.531250
5152,-19.531250
5153,-23.437500
5154,-19.531250
5155,-19.531250
5156,-19.531250
5157,-19.531250
5158,-19.531250
5159,-19.531250
5160,-19.531250
5161,-19.531250
5162,-19.531250
5163,-19.531250
5164,-19.531250
5165,-19.531250
5166,-19.531250
5167,-19.531250
5168,-19.531250
5169,-19.531250
5170,-19.531250
5171,-19.531250
5172,-19.531250
5173,-19.531250
5174,-19.531250
5175,-19.531250
5176,-19.531250
5177,-19.531250
5178,-19.531250
5179,-19.531250
5180,-19.531250
5181,-19.531250
5182,-19.531250
5183,-19.531250
5184,-19.531250
5185,-19.531250
5186,-15.625000
5187,-15.625000
5188,-15.625000
5189,-15.625000
5190,-15.625000
5191,-15.625000
5192,-15.625000
5193,-15.625000
5194,-15.625000
5195,-15.625000
5196,-15.625000
5197,-15.625000
5198,-15.625000
5199,-15.625000
5200,-15.625000
5201,-15.625000
5202,-15.625000
5203,-15.625000
5204,-15.625000
5205,-15.625000
5206,-15.625000
5207,-15.625000
5208,-15.625000
5209,-15.625000
5210,-15.625000
5211,-15.625000
5212,-15.625000
5213,-15.625000
5214,-15.625000
5215,-15.625000
5216,-15.625000
5217,-15.625000
5218,-11.718750
5219,-11.718750
5220,-15.625000
5221,-11.718750
5222,-11.718750
5223,-15.625000
5224,-11.718750
5225,-11.718750
5226,-11.718750
5227,-11.718750
5228,-11.718750
5229,-11.718750
5230,-11.718750
5231,-11.718750
5232,-11.718750
5233,-11.718750
5234,-11.718750
5235,-11.718750
5236,-11.718750
5237,-11.718750
5238,-11.718750
5239,-11.718750
5240,-11.718750
5241,-11.718750
5242,-11.718750
5243,-11.718750
5244,-11.718750
5245,-11.718750
5246,-7.812500
5247,-11.718750
5248,-11.718750
5249,-7.812500
5250,-7.812500
5251,-7.812500
5252,-7.812500
5253,-7.812500
5254,-7.812500
5255,-7.812500
5256,-7.812500
5257,-7.812500
5258,-7.812500
5259,-7.812500
5260,-7.812500
5261,-7.812500
5262,-7.812500
5263,-7.812500
5264,-7.812500
5265,-7.812500
5266,-7.812500
5267,-7.812500
5268,-7.812500
5269,-7.812500
5270,-7.812500
5271,-7.812500
5272,-7.812500
5273,-7.812500
5274,-7.812500
5275,-7.812500
5276,-7.812500
5277,-7.812500
5278,-7.812500
5279,-3.906250
5280,-3.906250
5281,-3.906250
5282,-7.812500
5283,-7.812500
5284,-3.906250
5285,-3.906250
5286,-3.906250
5287,-3.906250
5288,-3.906250
5289,-3.906250
5290,-3.906250
5291,-3.906250
5292,-3.906250
5293,-3.906250
5294,-3.906250
5295,-3.906250
5296,-3.906250
5297,-3.906250
5298,-3.906250
5299,-3.906250
5300,-3.906250
5301,-3.906250
5302,-3.906250
5303,-3.906250
5304,-3.906250
5305,-3.906250
5306,-3.906250
5307,-3.906250
5308,-3.906250
5309,-3.906250
5310,-3.906250
5311,-3.906250
5312,-3.906250
5313,-3.906250
5314,-3.906250
5315,-3.906250
5316,0.000000
5317,-3.906250
5318,0.000000
5319,-3.906250
5320,-3.906250
5321,0.000000
5322,0.000000
5323,-3.906250
5324,0.000000
5325,0.000000
5326,-3.906250
5327,-3.906250
5328,0.000000
5329,0.000000
5330,0.000000
5331,0.000000
5332,0.000000
5333,0.000000
5334,0.000000
5335,0.000000
5336,0.000000
5337,0.000000
5338,0.000000
5339,0.000000
5340,0.000000
5341,0.000000
5342,0.000000
5343,0.000000
5344,0.000000
5345,0.000000
5346,0.000000
5347,0.000000
5348,0.000000
5349,0.000000
5350,0.000000
5351,0.000000
5352,0.000000
5353,0.000000
5354,0.000000
5355,0.000000
5356,0.000000
5357,0.000000
5358,0.000000
5359,0.000000
5360,0.000000
5361,0.000000
5362,0.000000
5363,0.000000
5364,0.000000
5365,0.000000
5366,3.906250
5367,3.906250
5368,3.906250
5369,3.906250
5370,3.906250
5371,3.906250
5372,3.906250
5373,3.906250
5374,3.906250
5375,3.906250
5376,3.906250
5377,3.906250
5378,3.906250
5379,3.906250
5380,3.906250
5381,3.906250
5382,3.906250
5383,3.906250
5384,3.906250
5385,3.906250
5386,3.906250
5387,3.906250
5388,3.906250
5389,3.906250
5390,3.906250
5391,3.906250
5392,3.906250
5393,3.906250
5394,3.906250
5395,3.906250
5396,3.906250
5397,3.906250
5398,3.906250
5399,3.906250
5400,3.906250
5401,3.906250
5402,3.906250
5403,3.906250
5404,3.906250
5405,3.906250
5406,3.906250
5407,3.906250
5408,3.906250
5409,3.906250
5410,3.906250
5411,3.906250
5412,3.906250
5413,3.906250
5414,3.906250
5415,3.906250
5416,3.906250
5417,3.906250
5418,3.906250
5419,3.906250
5420,3.906250
5421,3.906250
5422,3.906250
5423,3.906250
5424,3.906250
5425,3.906250
5426,3.906250
5427,3.906250
5428,3.906250
5429,3.906250
5430,3.906250
5431,3.906250
5432,3.906250
5433,3.906250
5434,3.906250
5435,3.906250
5436,3.906250
5437,3.906250
5438,3.906250
5439,3.906250
5440,3.906250
5441,3.906250
5442,3.906250
5443,3.906250
5444,3.906250
5445,3.906250
5446,3.906250
5447,3.906250
5448,3.906250
5449,3.906250
5450,3.906250
5451,3.906250
5452,3.906250
5453,3.906250
5454,3.906250
5455,3.906250
5456,3.906250
5457,3.906250
5458,3.906250
5459,3.906250
5460,3.906250
5461,3.906250
5462,3.906250
5463,3.906250
5464,3.906250
5465,3.906250
5466,3.906250
5467,3.906250
5468,3.906250
5469,3.906250
5470,3.906250
5471,3.906250
5472,3.906250
5473,3.906250
5474,3.906250
5475,3.906250
5476,3.906250
5477,3.906250
5478,3.906250
5479,3.906250
5480,3.906250
5481,3.906250
5482,3.906250
5483,3.906250
5484,3.906250
5485,3.906250
5486,3.906250
5487,3.906250
5488,3.906250
5489,3.906250
5490,3.906250
5491,3.906250
5492,3.906250
5493,3.906250
5494,3.906250
5495,3.906250
5496,3.906250
5497,3.906250
5498,3.906250
5499,3.906250
5500,3.906250
5501,3.906250
5502,3.906250
5503,3.906250
5504,3.906250
5505,3.906250
5506,3.906250
5507,3.906250
5508,3.906250
5509,3.906250
5510,3.906250
5511,3.906250
5512,3.906250
5513,3.906250
5514,3.906250
5515,3.906250
5516,3.906250
5517,3.906250
5518,3.906250
5519,3.906250
5520,3.906250
5521,3.906250
5522,3.906250
5523,3.906250
5524,3.906250
5525,3.906250
5526,3.906250
5527,3.906250
5528,3.906250
5529,3.906250
5530,3.906250
5531,3.906250
5532,3.906250
5533,3.906250
5534,3.906250
5535,3.906250
5536,3.906250
5537,3.906250
5538,3.906250
5539,3.906250
5540,3.906250
5541,3.906250
5542,3.906250
5543,0.000000
5544,0.000000
5545,0.000000
5546,0.000000
5547,0.000000
5548,0.000000
5549,0.000000
5550,0.000000
5551,3.906250
5552,3.906250
5553,3.906250
5554,0.000000
5555,0.000000
5556,0.000000
5557,0.000000
5558,0.000000
5559,0.000000
5560,0.000000
5561,0.000000
5562,0.000000
5563,0.000000
5564,0.000000
5565,0.000000
5566,0.000000
5567,0.000000
5568,0.000000
5569,0.000000
5570,0.000000
5571,0.000000
5572,0.000000
5573,0.000000
5574,0.000000
5575,0.000000
5576,0.000000
5577,0.000000
5578,0.000000
5579,0.000000
5580,0.000000
5581,0.000000
5582,0.000000
5583,0.000000
5584,0.000000
5585,0.000000
5586,0.000000
5587,0.000000
5588,0.000000
5589,0.000000
5590,0.000000
5591,0.000000
5592,-3.906250
5593,0.000000
5594,0.000000
5595,0.000000
5596,0.000000
5597,-3.906250
5598,-3.906250
5599,-3.906250
5600,-3.906250
5601,-3.906250
5602,-3.906250
5603,-3.906250
5604,-3.906250
5605,-3.906250
5606,-3.906250
5607,-3.906250
5608,-3.906250
5609,-3.906250
5610,-3.906250
5611,-3.906250
5612,-3.906250
5613,-3.906250
5614,-3.906250
5615,-3.906250
5616,-3.906250
5617,-3.906250
5618,-3.906250
5619,-3.906250
5620,-3.906250
5621,-3.906250
5622,-3.906250
5623,-3.906250
5624,-3.906250
5625,-3.906250
5626,-3.906250
5627,-3.906250
5628,-3.906250
5629,-3.906250
5630,-3.906250
5631,-3.906250
5632,-3.906250
5633,-3.906250
5634,-3.906250
5635,-3.906250
5636,-7.812500
5637,-3.906250
5638,-3.906250
5639,-7.812500
5640,-7.812500
5641,-3.906250
5642,-3.906250
5643,-7.812500
5644,-7.812500
5645,-7.812500
5646,-7.812500
5647,-7.812500
5648,-7.812500
5649,-7.812500
5650,-7.812500
5651,-7.812500
5652,-7.812500
5653,-7.812500
5654,-7.812500
5655,-7.812500
5656,-7.812500
5657,-7.812500
5658,-7.812500
5659,-7.812500
5660,-7.812500
5661,-7.812500
5662,-7.812500
5663,-7.812500
5664,-7.812500
5665,-7.812500
5666,-7.812500
5667,-7.812500
5668,-7.812500
5669,-7.812500
5670,-7.812500
5671,-7.812500
5672,-7.812500
5673,-7.812500
5674,-7.812500
5675,-7.812500
5676,-11.718750
5677,-11.718750
5678,-11.718750
5679,-11.718750
5680,-11.718750
5681,-11.718750
5682,-11.718750
5683,-11.718750
5684,-11.718750
5685,-11.718750
5686,-11.718750
5687,-11.718750
5688,-11.718750
5689,-11.718750
5690,-11.718750
5691,-11.718750
5692,-11.718750
5693,-11.718750
5694,-11.718750
5695,-11.718750
5696,-11.718750
5697,-11.718750
5698,-11.718750
5699,-11.718750
5700,-11.718750
5701,-11.718750
5702,-11.718750
5703,-11.718750
5704,-11.718750
5705,-11.718750
5706,-15.625000
5707,-11.718750
5708,-11.718750
5709,-11.718750
5710,-11.718750
5711,-11.718750
5712,-11.718750
5713,-11.718750
5714,-15.625000
5715,-11.718750
5716,-15.625000
5717,-15.625000
5718,-15.625000
5719,-15.625000
5720,-15.625000
5721,-15.625000
5722,-15.625000
5723,-15.625000
5724,-15.625000
5725,-15.625000
5726,-15.625000
5727,-15.625000
5728,-15.625000
5729,-15.625000
5730,-15.625000
5731,-15.625000
5732,-15.625000
5733,-15.625000
5734,-15.625000
5735,-15.625000
5736,-15.625000
5737,-15.625000
5738,-15.625000
5739,-15.625000
5740,-15.625000
5741,-15.625000
5742,-15.625000
5743,-15.625000
5744,-15.625000
5745,-15.625000
5746,-15.625000
5747,-15.625000
5748,-15.625000
5749,-19.531250
5750,-15.625000
5751,-19.531250
5752,-19.531250
5753,-19.531250
5754,-19.531250
5755,-19.531250
5756,-19.531250
5757,-19.531250
5758,-19.531250
5759,-19.531250
5760,-19.531250
5761,-19.531250
5762,-19.531250
5763,-19.531250
5764,-19.531250
5765,-19.531250
5766,-19.531250
5767,-19.531250
5768,-19.531250
5769,-19.531250
5770,-19.531250
5771,-19.531250
5772,-19.531250
5773,-19.531250
5774,-19.531250
5775,-19.531250
5776,-19.531250
5777,-19.531250
5778,-19.531250
5779,-19.531250
5780,-19.531250
5781,-19.531250
5782,-19.531250
5783,-23.437500
5784,-23.437500
5785,-19.531250
5786,-19.531250
5787,-19.531250
5788,-19.531250
5789,-19.531250
5790,-23.437500
5791,-23.437500
5792,-23.437500
5793,-23.437500
5794,-23.437500
5795,-23.437500
5796,-23.437500
5797,-23.437500
5798,-23.437500
5799,-23.437500
5800,-23.437500
5801,-23.437500
5802,-23.437500
5803,-23.437500
5804,-23.437500
5805,-23.437500
5806,-23.437500
5807,-23.437500
5808,-23.437500
5809,-23.437500
5810,-23.437500
5811,-23.437500
5812,-23.437500
5813,-23.437500
5814,-23.437500
5815,-23.437500
5816,-23.437500
5817,-23.437500
5818,-23.437500
5819,-23.437500
5820,-23.437500
5821,-23.437500
5822,-23.437500
5823,-23.437500
5824,-23.437500
5825,-23.437500
5826,-23.437500
5827,-23.437500
5828,-23.437500
5829,-23.437500
5830,-27.343750
5831,-23.437500
5832,-27.343750
5833,-27.343750
5834,-23.437500
5835,-23.437500
5836,-23.437500
5837,-27.343750
5838,-23.437500
5839,-27.343750
5840,-27.343750
5841,-27.343750
5842,-27.343750
5843,-27.343750
5844,-27.343750
5845,-27.343750
5846,-27.343750
5847,-27.343750
5848,-27.343750
5849,-27.343750
5850,-27.343750
5851,-27.343750
5852,-27.343750
5853,-27.343750
5854,-27.343750
5855,-27.343750
5856,-27.343750
5857,-27.343750
5858,-27.343750
5859,-27.343750
5860,-27.343750
5861,-27.343750
5862,-27.343750
5863,-27.343750
5864,-27.343750
5865,-27.343750
5866,-27.343750
5867,-27.343750
5868,-27.343750
5869,-27.343750
5870,-27.343750
5871,-27.343750
5872,-27.343750
5873,-27.343750
5874,-27.343750
5875,-27.343750
5876,-27.343750
5877,-27.343750
5878,-27.343750
5879,-27.343750
5880,-27.343750
5881,-27.343750
5882,-27.343750
5883,-27.343750
5884,-27.343750
5885,-31.250000
5886,-31.250000
5887,-27.343750
5888,-27.343750
5889,-27.343750
5890,-27.343750
5891,-27.343750
5892,-27.343750
5893,-31.250000
5894,-27.343750
5895,-31.250000
5896,-31.250000
5897,-27.343750
5898,-27.343750
5899,-27.343750
5900,-31.250000
5901,-31.250000
5902,-31.250000
5903,-31.250000
5904,-31.250000
5905,-31.250000
5906,-31.250000
5907,-31.250000
5908,-31.250000
5909,-31.250000
5910,-31.250000
5911,-31.250000
5912,-31.250000
5913,-31.250000
5914,-31.250000
5915,-31.250000
5916,-31.250000
5917,-31.250000
5918,-31.250000
5919,-31.250000
5920,-31.250000
5921,-31.250000
5922,-31.250000
5923,-31.250000
5924,-31.250000
5925,-31.250000
5926,-31.250000
5927,-31.250000
5928,-31.250000
5929,-31.250000
5930,-31.250000
5931,-31.250000
5932,-31.250000
5933,-31.250000
5934,-31.250000
5935,-31.250000
5936,-31.250000
5937,-31.250000
5938,-31.250000
5939,-31.250000
5940,-31.250000
5941,-31.250000
5942,-31.250000
5943,-31.250000
5944,-31.250000
5945,-31.250000
5946,-31.250000
5947,-31.250000
5948,-31.250000
5949,-31.250000
5950,-31.250000
5951,-31.250000
5952,-31.250000
5953,-31.250000
5954,-31.250000
5955,-31.250000
5956,-31.250000
5957,-31.250000
5958,-31.250000
5959,-31.250000
5960,-31.250000
5961,-31.250000
5962,-31.250000
5963,-31.250000
5964,-31.250000
5965,-31.250000
5966,-31.250000
5967,-31.250000
5968,-31.250000
5969,-31.250000
5970,-31.250000
5971,-31.250000
5972,-31.250000
5973,-31.250000
5974,-31.250000
5975,-31.250000
5976,-31.250000
5977,-31.250000
5978,-31.250000
5979,-31.250000
5980,-31.250000
5981,-31.250000
5982,-31.250000
5983,-31.250000
5984,-31.250000
5985,-31.250000
5986,-31.250000
5987,-31.250000
5988,-31.250000
5989,-31.250000
5990,-31.250000
5991,-31.250000
5992,-31.250000
5993,-31.250000
5994,-31.250000
5995,-31.250000
5996,-31.250000
5997,-31.250000
5998,-31.250000
5999,-31.250000
6000,-31.250000
6001,-31.250000
6002,-31.250000
6003,-31.250000
6004,-31.250000
6005,-31.250000
6006,-31.250000
6007,-31.250000
6008,-31.250000
6009,-31.250000
6010,-31.250000
6011,-31.250000
6012,-31.250000
6013,-31.250000
6014,-31.250000
6015,-31.250000
6016,-31.250000
6017,-31.250000
6018,-31.250000
6019,-31.250000
6020,-31.250000
6021,-31.250000
6022,-31.250000
6023,-31.250000
6024,-31.250000
6025,-31.250000
6026,-31.250000
6027,-31.250000
6028,-31.250000
6029,-31.250000
6030,-31.250000
6031,-31.250000
6032,-31.250000
6033,-31.250000
6034,-31.250000
6035,-31.250000
6036,-31.250000
6037,-31.250000
6038,-31.250000
6039,-31.250000
6040,-31.250000
6041,-31.250000
6042,-31.250000
6043,-31.250000
6044,-31.250000
6045,-31.250000
6046,-31.250000
6047,-31.250000
6048,-31.250000
6049,-31.250000
6050,-27.343750
6051,-31.250000
6052,-27.343750
6053,-27.343750
6054,-27.343750
6055,-27.343750
6056,-27.343750
6057,-27.343750
6058,-27.343750
6059,-31.250000
6060,-31.250000
6061,-31.250000
6062,-27.343750
6063,-27.343750
6064,-27.343750
6065,-27.343750
6066,-27.343750
6067,-27.343750
6068,-27.343750
6069,-27.343750
6070,-27.343750
6071,-27.343750
6072,-27.343750
6073,-27.343750
6074,-27.343750
6075,-27.343750
6076,-27.343750
6077,-27.343750
6078,-27.343750
6079,-27.343750
6080,-27.343750
6081,-27.343750
6082,-27.343750
6083,-27.343750
6084,-27.343750
6085,-27.343750
6086,-27.343750
6087,-27.343750
6088,-27.343750
6089,-27.343750
6090,-27.343750
6091,-27.343750
6092,-27.343750
6093,-27.343750
6094,-27.343750
6095,-27.343750
6096,-27.343750
6097,-27.343750
6098,-27.343750
6099,-27.343750
6100,-27.343750
6101,-27.343750
6102,-27.343750
6103,-27.343750
6104,-27.343750
6105,-23.437500
6106,-23.437500
6107,-27.343750
6108,-23.437500
6109,-23.437500
6110,-27.343750
6111,-23.437500
6112,-23.437500
6113,-23.437500
6114,-23.437500
6115,-23.437500
6116,-23.437500
6117,-23.437500
6118,-23.437500
6119,-23.437500
6120,-23.437500
6121,-23.437500
6122,-23.437500
6123,-23.437500
6124,-23.437500
6125,-23.437500
6126,-23.437500
6127,-23.437500
6128,-23.437500
6129,-23.437500
6130,-23.437500
6131,-23.437500
6132,-23.437500
6133,-23.437500
6134,-23.437500
6135,-23.437500
6136,-23.437500
6137,-23.437500
6138,-23.437500
6139,-23.437500
6140,-23.437500
6141,-23.437500
6142,-19.531250
6143,-19.531250
6144,-23.437500
6145,-19.531250
6146,-19.531250
6147,-19.531250
6148,-23.437500
6149,-19.531250
6150,-19.531250
6151,-23.437500
6152,-19.531250
6153,-19.531250
6154,-19.531250
6155,-19.531250
6156,-19.531250
6157,-19.531250
6158,-19.531250
6159,-19.531250
6160,-19.531250
6161,-19.531250
6162,-19.531250
6163,-19.531250
6164,-19.531250
6165,-19.531250
6166,-19.531250
6167,-19.531250
6168,-19.531250
6169,-19.531250
6170,-19.531250
6171,-19.531250
6172,-19.531250
6173,-19.531250
6174,-19.531250
6175,-19.531250
6176,-19.531250
6177,-15.625000
6178,-15.625000
6179,-15.625000
6180,-15.625000
6181,-15.625000
6182,-15.625000
6183,-15.625000
6184,-15.625000
6185,-15.625000
6186,-15.625000
6187,-15.625000
6188,-15.625000
6189,-15.625000
6190,-15.625000
6191,-15.625000
6192,-15.625000
6193,-15.625000
6194,-15.625000
6195,-15.625000
6196,-15.625000
6197,-15.625000
6198,-15.625000
6199,-15.625000
6200,-15.625000
6201,-15.625000
6202,-15.625000
6203,-15.625000
6204,-15.625000
6205,-15.625000
6206,-11.718750
6207,-15.625000
6208,-15.625000
6209,-11.718750
6210,-11.718750
6211,-11.718750
6212,-11.718750
6213,-11.718750
6214,-11.718750
6215,-11.718750
6216,-11.718750
6217,-11.718750
6218,-11.718750
6219,-11.718750
6220,-11.718750
6221,-11.718750
6222,-11.718750
6223,-11.718750
6224,-11.718750
6225,-11.718750
6226,-11.718750
6227,-11.718750
6228,-11.718750
6229,-11.718750
6230,-11.718750
6231,-11.718750
6232,-11.718750
6233,-11.718750
6234,-11.718750
6235,-11.718750
6236,-11.718750
6237,-11.718750
6238,-7.812500
6239,-11.718750
6240,-7.812500
6241,-7.812500
6242,-7.812500
6243,-11.718750
6244,-7.812500
6245,-11.718750
6246,-7.812500
6247,-7.812500
6248,-7.812500
6249,-7.812500
6250,-7.812500
6251,-7.812500
6252,-7.812500
6253,-7.812500
6254,-7.812500
6255,-7.812500
6256,-7.812500
6257,-7.812500
6258,-7.812500
6259,-7.812500
6260,-7.812500
6261,-7.812500
6262,-7.812500
6263,-7.812500
6264,-7.812500
6265,-7.812500
6266,-7.812500
6267,-7.812500
6268,-7.812500
6269,-3.906250
6270,-7.812500
6271,-3.906250
6272,-7.812500
6273,-3.906250
6274,-7.812500
6275,-7.812500
6276,-7.812500
6277,-3.906250
6278,-3.906250
6279,-3.906250
6280,-3.906250
6281,-3.906250
6282,-3.906250
6283,-3.906250
6284,-3.906250
6285,-3.906250
6286,-3.906250
6287,-3.906250
6288,-3.906250
6289,-3.906250
6290,-3.906250
6291,-3.906250
6292,-3.906250
6293,-3.906250
6294,-3.906250
6295,-3.906250
6296,-3.906250
6297,-3.906250
6298,-3.906250
6299,-3.906250
6300,-3.906250
6301,-3.906250
6302,-3.906250
6303,-3.906250
6304,-3.906250
6305,-3.906250
6306,0.000000
6307,0.000000
6308,0.000000
6309,-3.906250
6310,-3.906250
6311,0.000000
6312,0.000000
6313,0.000000
6314,0.000000
6315,0.000000
6316,0.000000
6317,0.000000
6318,0.000000
6319,0.000000
6320,0.000000
6321,0.000000
6322,0.000000
6323,0.000000
6324,0.000000
6325,0.000000
6326,0.000000
6327,0.000000
6328,0.000000
6329,0.000000
6330,0.000000
6331,0.000000
6332,0.000000
6333,0.000000
6334,0.000000
6335,0.000000
6336,0.000000
6337,0.000000
6338,0.000000
6339,0.000000
6340,0.000000
6341,0.000000
6342,0.000000
6343,0.000000
6344,0.000000
6345,0.000000
6346,0.000000
6347,0.000000
6348,0.000000
6349,0.000000
6350,3.906250
6351,0.000000
6352,3.906250
6353,0.000000
6354,0.000000
6355,0.000000
6356,0.000000
6357,0.000000
6358,3.906250
6359,3.906250
6360,3.906250
6361,3.906250
6362,0.000000
6363,3.906250
6364,3.906250
6365,3.906250
6366,3.906250
6367,3.906250
6368,3.906250
6369,3.906250
6370,3.906250
6371,3.906250
6372,3.906250
6373,3.906250
6374,3.906250
6375,3.906250
6376,3.906250
6377,3.906250
6378,3.906250
6379,3.906250
6380,3.906250
6381,3.906250
6382,3.906250
6383,3.906250
6384,3.906250
6385,3.906250
6386,3.906250
6387,3.906250
6388,3.906250
6389,3.906250
6390,3.906250
6391,3.906250
6392,3.906250
6393,3.906250
6394,3.906250
6395,3.906250
6396,3.906250
6397,3.906250
6398,3.906250
6399,3.906250
6400,3.906250
6401,3.906250
6402,3.906250
6403,3.906250
6404,3.906250
6405,3.906250
6406,3.906250
6407,3.906250
6408,3.906250
6409,3.906250
6410,3.906250
6411,3.906250
6412,3.906250
6413,3.906250
6414,3.906250
6415,3.906250
6416,3.906250
6417,3.906250
6418,3.906250
6419,3.906250
6420,3.906250
6421,3.906250
6422,3.906250
6423,3.906250
6424,3.906250
6425,3.906250
6426,3.906250
6427,3.906250
6428,3.906250
6429,3.906250
6430,3.906250
6431,3.906250
6432,3.906250
6433,3.906250
6434,3.906250
6435,3.906250
6436,3.906250
6437,3.906250
6438,3.906250
6439,3.906250
6440,3.906250
6441,3.906250
6442,3.906250
6443,3.906250
6444,3.906250
6445,7.812500
6446,3.906250
6447,3.906250
6448,3.906250
6449,3.906250
6450,3.906250
6451,3.906250
6452,3.906250
6453,7.812500
6454,7.812500
6455,7.812500
6456,7.812500
6457,3.906250
6458,3.906250
6459,3.906250
6460,3.906250
6461,3.906250
6462,3.906250
6463,3.906250
6464,3.906250
6465,3.906250
6466,3.906250
6467,3.906250
6468,3.906250
6469,3.906250
6470,3.906250
6471,3.906250
6472,3.906250
6473,3.906250
6474,3.906250
6475,3.906250
6476,3.906250
6477,3.906250
6478,3.906250
6479,3.906250
6480,3.906250
6481,3.906250
6482,3.906250
6483,3.906250
6484,3.906250
6485,3.906250
6486,7.812500
6487,3.906250
6488,3.906250
6489,3.906250
6490,3.906250
6491,3.906250
6492,3.906250
6493,3.906250
6494,3.906250
6495,3.906250
6496,3.906250
6497,3.906250
6498,3.906250
6499,3.906250
6500,3.906250
6501,3.906250
6502,3.906250
6503,3.906250
6504,3.906250
6505,3.906250
6506,3.906250
6507,3.906250
6508,3.906250
6509,3.906250
6510,3.906250
6511,3.906250
6512,3.906250
6513,3.906250
6514,3.906250
6515,3.906250
6516,3.906250
6517,3.906250
6518,3.906250
6519,3.906250
6520,3.906250
6521,3.906250
6522,3.906250
6523,3.906250
6524,3.906250
6525,3.906250
6526,3.906250
6527,3.906250
6528,3.906250
6529,3.906250
6530,3.906250
6531,3.906250
6532,3.906250
6533,0.000000
6534,3.906250
6535,0.000000
6536,0.000000
6537,3.906250
6538,0.000000
6539,3.906250
6540,3.906250
6541,0.000000
6542,0.000000
6543,0.000000
6544,0.000000
6545,0.000000
6546,0.000000
6547,0.000000
6548,0.000000
6549,0.000000
6550,0.000000
6551,0.000000
6552,0.000000
6553,0.000000
6554,0.000000
6555,0.000000
6556,3.906250
6557,0.000000
6558,0.000000
6559,0.000000
6560,0.000000
6561,0.000000
6562,0.000000
6563,0.000000
6564,0.000000
6565,0.000000
6566,0.000000
6567,0.000000
6568,0.000000
6569,0.000000
6570,0.000000
6571,0.000000
6572,0.000000
6573,0.000000
6574,0.000000
6575,0.000000
6576,0.000000
6577,0.000000
6578,0.000000
6579,0.000000
6580,0.000000
6581,0.000000
6582,0.000000
6583,0.000000
6584,0.000000
6585,0.000000
6586,0.000000
6587,0.000000
6588,0.000000
6589,0.000000
6590,0.000000
6591,0.000000
6592,0.000000
6593,0.000000
6594,-3.906250
6595,-3.906250
6596,-3.906250
6597,0.000000
6598,-3.906250
6599,-3.906250
6600,-3.906250
6601,-3.906250
6602,-3.906250
6603,-3.906250
6604,-3.906250
6605,-3.906250
6606,-3.906250
6607,-3.906250
6608,-3.906250
6609,-3.906250
6610,-3.906250
6611,-3.906250
6612,-3.906250
6613,-3.906250
6614,-3.906250
6615,-3.906250
6616,-3.906250
6617,-3.906250
6618,-3.906250
6619,-3.906250
6620,-3.906250
6621,-3.906250
6622,-3.906250
6623,-3.906250
6624,-3.906250
6625,-3.906250
6626,-3.906250
6627,-3.906250
6628,-3.906250
6629,-3.906250
6630,-7.812500
6631,-7.812500
6632,-7.812500
6633,-3.906250
6634,-7.812500
6635,-7.812500
6636,-7.812500
6637,-7.812500
6638,-7.812500
6639,-7.812500
6640,-7.812500
6641,-7.812500
6642,-7.812500
6643,-7.812500
6644,-7.812500
6645,-7.812500
6646,-7.812500
6647,-7.812500
6648,-7.812500
6649,-7.812500
6650,-7.812500
6651,-7.812500
6652,-7.812500
6653,-7.812500
6654,-7.812500
6655,-7.812500
6656,-7.812500
6657,-7.812500
6658,-7.812500
6659,-7.812500
6660,-7.812500
6661,-7.812500
6662,-7.812500
6663,-11.718750
6664,-7.812500
6665,-7.812500
6666,-7.812500
6667,-7.812500
6668,-11.718750
6669,-7.812500
6670,-11.718750
6671,-11.718750
6672,-7.812500
6673,-11.718750
6674,-11.718750
6675,-11.718750
6676,-11.718750
6677,-11.718750
6678,-11.718750
6679,-11.718750
6680,-11.718750
6681,-11.718750
6682,-11.718750
6683,-11.718750
6684,-11.718750
6685,-11.718750
6686,-11.718750
6687,-11.718750
6688,-11.718750
6689,-11.718750
6690,-11.718750
6691,-11.718750
6692,-11.718750
6693,-11.718750
6694,-15.625000
6695,-11.718750
6696,-11.718750
6697,-11.718750
6698,-11.718750
6699,-11.718750
6700,-11.718750
6701,-11.718750
6702,-15.625000
6703,-11.718750
6704,-15.625000
6705,-15.625000
6706,-15.625000
6707,-11.718750
6708,-15.625000
6709,-15.625000
6710,-15.625000
6711,-15.625000
6712,-15.625000
6713,-15.625000
6714,-15.625000
6715,-15.625000
6716,-15.625000
6717,-15.625000
6718,-15.625000
6719,-15.625000
6720,-15.625000
6721,-15.625000
6722,-15.625000
6723,-15.625000
6724,-15.625000
6725,-15.625000
6726,-15.625000
6727,-15.625000
6728,-15.625000
6729,-15.625000
6730,-15.625000
6731,-15.625000
6732,-15.625000
6733,-19.531250
6734,-19.531250
6735,-15.625000
6736,-19.531250
6737,-15.625000
6738,-15.625000
6739,-19.531250
6740,-19.531250
6741,-19.531250
6742,-19.531250
6743,-19.531250
6744,-19.531250
6745,-19.531250
6746,-19.531250
6747,-19.531250
6748,-19.531250
6749,-19.531250
6750,-19.531250
6751,-19.531250
6752,-19.531250
6753,-19.531250
6754,-19.531250
6755,-19.531250
6756,-19.531250
6757,-19.531250
6758,-19.531250
6759,-19.531250
6760,-19.531250
6761,-19.531250
6762,-19.531250
6763,-19.531250
6764,-19.531250
6765,-19.531250
6766,-19.531250
6767,-19.531250
6768,-19.531250
6769,-19.531250
6770,-23.437500
6771,-23.437500
6772,-19.531250
6773,-19.531250
6774,-23.437500
6775,-19.531250
6776,-23.437500
6777,-23.437500
6778,-23.437500
6779,-23.437500
6780,-23.437500
6781,-19.531250
6782,-23.437500
6783,-23.437500
6784,-23.437500
6785,-23.437500
6786,-23.437500
6787,-23.437500
6788,-23.437500
6789,-23.437500
6790,-23.437500
6791,-23.437500
6792,-23.437500
6793,-23.437500
6794,-23.437500
6795,-23.437500
6796,-23.437500
6797,-23.437500
6798,-23.437500
6799,-23.437500
6800,-23.437500
6801,-23.437500
6802,-23.437500
6803,-23.437500
6804,-23.437500
6805,-23.437500
6806,-23.437500
6807,-23.437500
6808,-23.437500
6809,-23.437500
6810,-23.437500
6811,-23.437500
6812,-23.437500
6813,-23.437500
6814,-23.437500
6815,-23.437500
6816,-23.437500
6817,-23.437500
6818,-27.343750
6819,-23.437500
6820,-27.343750
6821,-27.343750
6822,-23.437500
6823,-27.343750
6824,-27.343750
6825,-27.343750
6826,-27.343750
6827,-27.343750
6828,-27.343750
6829,-27.343750
6830,-27.343750
6831,-27.343750
6832,-27.343750
6833,-27.343750
6834,-27.343750
6835,-27.343750
6836,-27.343750
6837,-27.343750
6838,-27.343750
6839,-27.343750
6840,-27.343750
6841,-27.343750
6842,-27.343750
6843,-27.343750
6844,-27.343750
6845,-27.343750
6846,-27.343750
6847,-27.343750
6848,-27.343750
6849,-27.343750
6850,-27.343750
6851,-27.343750
6852,-27.343750
6853,-27.343750
6854,-27.343750
6855,-27.343750
6856,-27.343750
6857,-27.343750
6858,-27.343750
6859,-27.343750
6860,-27.343750
6861,-27.343750
6862,-27.343750
6863,-27.343750
6864,-27.343750
6865,-27.343750
6866,-27.343750
6867,-27.343750
6868,-27.343750
6869,-27.343750
6870,-27.343750
6871,-31.250000
6872,-27.343750
6873,-27.343750
6874,-27.343750
6875,-27.343750
6876,-27.343750
6877,-27.343750
6878,-31.250000
6879,-31.250000
6880,-31.250000
6881,-31.250000
6882,-31.250000
6883,-27.343750
6884,-27.343750
6885,-31.250000
6886,-31.250000
6887,-27.343750
6888,-31.250000
6889,-31.250000
6890,-31.250000
6891,-27.343750
6892,-31.250000
6893,-31.250000
6894,-31.250000
6895,-31.250000
6896,-31.250000
6897,-31.250000
6898,-31.250000
6899,-31.250000
6900,-27.343750
6901,-31.250000
6902,-31.250000
6903,-31.250000
6904,-31.250000
6905,-31.250000
6906,-31.250000
6907,-31.250000
6908,-31.250000
6909,-31.250000
6910,-31.250000
6911,-31.250000
6912,-31.250000
6913,-31.250000
6914,-31.250000
6915,-31.250000
6916,-31.250000
6917,-31.250000
6918,-31.250000
6919,-31.250000
6920,-31.250000
6921,-31.250000
6922,-31.250000
6923,-31.250000
6924,-31.250000
6925,-31.250000
6926,-31.250000
6927,-31.250000
6928,-31.250000
6929,-31.250000
6930,-31.250000
6931,-31.250000
6932,-31.250000
6933,-31.250000
6934,-31.250000
6935,-31.250000
6936,-31.250000
6937,-31.250000
6938,-31.250000
6939,-31.250000
6940,-31.250000
6941,-31.250000
6942,-31.250000
6943,-31.250000
6944,-31.250000
6945,-31.250000
6946,-31.250000
6947,-31.250000
6948,-31.250000
6949,-31.250000
6950,-31.250000
6951,-31.250000
6952,-31.250000
6953,-31.250000
6954,-31.250000
6955,-31.250000
6956,-31.250000
6957,-31.250000
6958,-31.250000
6959,-31.250000
6960,-31.250000
6961,-31.250000
6962,-31.250000
6963,-31.250000
6964,-31.250000
6965,-31.250000
6966,-31.250000
6967,-31.250000
6968,-31.250000
6969,-31.250000
6970,-31.250000
6971,-31.250000
6972,-31.250000
6973,-31.250000
6974,-31.250000
6975,-31.250000
6976,-31.250000
6977,-31.250000
6978,-31.250000
6979,-31.250000
6980,-31.250000
6981,-31.250000
6982,-31.250000
6983,-31.250000
6984,-31.250000
6985,-31.250000
6986,-31.250000
6987,-31.250000
6988,-31.250000
6989,-31.250000
6990,-31.250000
6991,-31.250000
6992,-31.250000
6993,-31.250000
6994,-31.250000
6995,-31.250000
6996,-31.250000
6997,-31.250000
6998,-31.250000
6999,-31.250000
7000,-31.250000
7001,-31.250000
7002,-31.250000
7003,-31.250000
7004,-31.250000
7005,-31.250000
7006,-31.250000
7007,-31.250000
7008,-31.250000
7009,-31.250000
7010,-31.250000
7011,-31.250000
7012,-31.250000
7013,-31.250000
7014,-31.250000
7015,-31.250000
7016,-31.250000
7017,-31.250000
7018,-31.250000
7019,-31.250000
7020,-31.250000
7021,-31.250000
7022,-31.250000
7023,-31.250000
7024,-31.250000
7025,-31.250000
7026,-31.250000
7027,-31.250000
7028,-31.250000
7029,-31.250000
7030,-31.250000
7031,-31.250000
7032,-31.250000
7033,-31.250000
7034,-31.250000
7035,-31.250000
7036,-31.250000
7037,-27.343750
7038,-27.343750
7039,-27.343750
7040,-27.343750
7041,-27.343750
7042,-27.343750
7043,-27.343750
7044,-27.343750
7045,-31.250000
7046,-27.343750
7047,-31.250000
7048,-27.343750
7049,-27.343750
7050,-27.343750
7051,-27.343750
7052,-27.343750
7053,-27.343750
7054,-27.343750
7055,-27.343750
7056,-27.343750
7057,-27.343750
7058,-27.343750
7059,-27.343750
7060,-27.343750
7061,-27.343750
7062,-27.343750
7063,-27.343750
7064,-27.343750
7065,-27.343750
7066,-27.343750
7067,-27.343750
7068,-27.343750
7069,-27.343750
7070,-27.343750
7071,-27.343750
7072,-27.343750
7073,-27.343750
7074,-27.343750
7075,-27.343750
7076,-27.343750
7077,-27.343750
7078,-27.343750
7079,-27.343750
7080,-27.343750
7081,-27.343750
7082,-27.343750
7083,-27.343750
7084,-27.343750
7085,-27.343750
7086,-27.343750
7087,-27.343750
7088,-23.437500
7089,-23.437500
7090,-23.437500
7091,-27.343750
7092,-27.343750
7093,-23.437500
7094,-23.437500
7095,-23.437500
7096,-23.437500
7097,-23.437500
7098,-23.437500
7099,-23.437500
7100,-23.437500
7101,-23.437500
7102,-23.437500
7103,-23.437500
7104,-23.437500
7105,-23.437500
7106,-23.437500
7107,-23.437500
7108,-23.437500
7109,-23.437500
7110,-23.437500
7111,-23.437500
7112,-23.437500
7113,-23.437500
7114,-23.437500
7115,-23.437500
7116,-23.437500
7117,-23.437500
7118,-23.437500
7119,-23.437500
7120,-23.437500
7121,-23.437500
7122,-23.437500
7123,-23.437500
7124,-19.531250
7125,-23.437500
7126,-23.437500
7127,-23.437500
7128,-23.437500
7129,-19.531250
7130,-19.531250
7131,-19.531250
7132,-19.531250
7133,-23.437500
7134,-19.531250
7135,-19.531250
7136,-19.531250
7137,-19.531250
7138,-19.531250
7139,-19.531250
7140,-19.531250
7141,-19.531250
7142,-19.531250
7143,-19.531250
7144,-19.531250
7145,-19.531250
7146,-19.531250
7147,-19.531250
7148,-19.531250
7149,-15.625000
7150,-19.531250
7151,-19.531250
7152,-19.531250
7153,-19.531250
7154,-19.531250
7155,-19.531250
7156,-19.531250
7157,-19.531250
7158,-19.531250
7159,-15.625000
7160,-19.531250
7161,-19.531250
7162,-19.531250
7163,-19.531250
7164,-15.625000
7165,-15.625000
7166,-15.625000
7167,-15.625000
7168,-15.625000
7169,-15.625000
7170,-15.625000
7171,-15.625000
7172,-15.625000
7173,-15.625000
7174,-15.625000
7175,-15.625000
7176,-15.625000
7177,-15.625000
7178,-15.625000
7179,-15.625000
7180,-15.625000
7181,-15.625000
7182,-15.625000
7183,-15.625000
7184,-15.625000
7185,-15.625000
7186,-15.625000
7187,-15.625000
7188,-15.625000
7189,-15.625000
7190,-15.625000
7191,-15.625000
7192,-15.625000
7193,-15.625000
7194,-15.625000
7195,-11.718750
7196,-11.718750
7197,-15.625000
7198,-11.718750
7199,-11.718750
7200,-11.718750
7201,-11.718750
7202,-11.718750
7203,-11.718750
7204,-11.718750
7205,-11.718750
7206,-11.718750
7207,-11.718750
7208,-11.718750
7209,-11.718750
7210,-11.718750
7211,-11.718750
7212,-11.718750
7213,-11.718750
7214,-11.718750
7215,-11.718750
7216,-11.718750
7217,-11.718750
7218,-11.718750
7219,-11.718750
7220,-11.718750
7221,-11.718750
7222,-11.718750
7223,-11.718750
7224,-11.718750
7225,-11.718750
7226,-7.812500
7227,-11.718750
7228,-7.812500
7229,-11.718750
7230,-11.718750
7231,-7.812500
7232,-7.812500
7233,-7.812500
7234,-7.812500
7235,-7.812500
7236,-7.812500
7237,-7.812500
7238,-7.812500
7239,-7.812500
7240,-7.812500
7241,-7.812500
7242,-7.812500
7243,-7.812500
7244,-7.812500
7245,-7.812500
7246,-7.812500
7247,-7.812500
7248,-7.812500
7249,-7.812500
7250,-7.812500
7251,-7.812500
7252,-7.812500
7253,-7.812500
7254,-7.812500
7255,-3.906250
7256,-7.812500
7257,-7.812500
7258,-7.812500
7259,-7.812500
7260,-7.812500
7261,-7.812500
7262,-3.906250
7263,-3.906250
7264,-3.906250
7265,-3.906250
7266,-3.906250
7267,-3.906250
7268,-3.906250
7269,-3.906250
7270,-3.906250
7271,-3.906250
7272,-3.906250
7273,-3.906250
7274,-3.906250
7275,-3.906250
7276,-3.906250
7277,-3.906250
7278,-3.906250
7279,-3.906250
7280,-3.906250
7281,-3.906250
7282,-3.906250
7283,-3.906250
7284,-3.906250
7285,-3.906250
7286,-3.906250
7287,-3.906250
7288,-3.906250
7289,-3.906250
7290,-3.906250
7291,-3.906250
7292,0.000000
7293,-3.906250
7294,-3.906250
7295,-3.906250
7296,-3.906250
7297,0.000000
7298,0.000000
7299,0.000000
7300,0.000000
7301,0.000000
7302,0.000000
7303,0.000000
7304,0.000000
7305,0.000000
7306,0.000000
7307,0.000000
7308,0.000000
7309,0.000000
7310,0.000000
7311,0.000000
7312,0.000000
7313,0.000000
7314,0.000000
7315,0.000000
7316,0.000000
7317,0.000000
7318,0.000000
7319,0.000000
7320,0.000000
7321,0.000000
7322,0.000000
7323,0.000000
7324,0.000000
7325,0.000000
7326,0.000000
7327,0.000000
7328,0.000000
7329,0.000000
7330,0.000000
7331,0.000000
7332,0.000000
7333,0.000000
7334,0.000000
7335,0.000000
7336,3.906250
7337,0.000000
7338,0.000000
7339,3.906250
7340,3.906250
7341,0.000000
7342,3.906250
7343,3.906250
7344,3.906250
7345,3.906250
7346,3.906250
7347,3.906250
7348,3.906250
7349,3.906250
7350,3.906250
7351,3.906250
7352,3.906250
7353,3.906250
7354,3.906250
7355,3.906250
7356,3.906250
7357,3.906250
7358,3.906250
7359,3.906250
7360,3.906250
7361,3.906250
7362,3.906250
7363,3.906250
7364,3.906250
7365,3.906250
7366,3.906250
7367,3.906250
7368,3.906250
7369,3.906250
7370,3.906250
7371,3.906250
7372,3.906250
7373,3.906250
7374,3.906250
7375,3.906250
7376,3.906250
7377,3.906250
7378,3.906250
7379,3.906250
7380,3.906250
7381,3.906250
7382,3.906250
7383,3.906250
7384,3.906250
7385,3.906250
7386,3.906250
7387,3.906250
7388,3.906250
7389,3.906250
7390,3.906250
7391,3.906250
7392,3.906250
7393,3.906250
7394,3.906250
7395,3.906250
7396,3.906250
7397,3.906250
7398,3.906250
7399,3.906250
7400,3.906250
7401,3.906250
7402,3.906250
7403,3.906250
7404,3.906250
7405,3.906250
7406,3.906250
7407,3.906250
7408,3.906250
7409,3.906250
7410,3.906250
7411,3.906250
7412,3.906250
7413,3.906250
7414,3.906250
7415,3.906250
7416,3.906250
7417,3.906250
7418,3.906250
7419,3.906250
7420,3.906250
7421,7.812500
7422,3.906250
7423,3.906250
7424,3.906250
7425,3.906250
7426,3.906250
7427,3.906250
7428,3.906250
7429,7.812500
7430,3.906250
7431,3.906250
7432,3.906250
7433,3.906250
7434,3.906250
7435,3.906250
7436,3.906250
7437,3.906250
7438,3.906250
7439,3.906250
7440,3.906250
7441,7.812500
7442,7.812500
7443,7.812500
7444,3.906250
7445,7.812500
7446,3.906250
7447,3.906250
7448,3.906250
7449,3.906250
7450,7.812500
7451,3.906250
7452,3.906250
7453,3.906250
7454,3.906250
7455,7.812500
7456,3.906250
7457,3.906250
7458,3.906250
7459,7.812500
7460,3.906250
7461,3.906250
7462,3.906250
7463,3.906250
7464,3.906250
7465,3.906250
7466,3.906250
7467,3.906250
7468,7.812500
7469,3.906250
7470,3.906250
7471,7.812500
7472,3.906250
7473,3.906250
7474,3.906250
7475,3.906250
7476,3.906250
7477,3.906250
7478,3.906250
7479,3.906250
7480,3.906250
7481,3.906250
7482,3.906250
7483,3.906250
7484,3.906250
7485,3.906250
7486,3.906250
7487,3.906250
7488,3.906250
7489,3.906250
7490,3.906250
7491,3.906250
7492,3.906250
7493,3.906250
7494,3.906250
7495,3.906250
7496,3.906250
7497,3.906250
7498,3.906250
7499,3.906250
7500,3.906250
7501,3.906250
7502,3.906250
7503,3.906250
7504,3.906250
7505,3.906250
7506,3.906250
7507,3.906250
7508,3.906250
7509,3.906250
7510,3.906250
7511,0.000000
7512,3.906250
7513,3.906250
7514,3.906250
7515,3.906250
7516,3.906250
7517,3.906250
7518,3.906250
7519,3.906250
7520,3.906250
7521,3.906250
7522,3.906250
7523,3.906250
7524,3.906250
7525,0.000000
7526,0.000000
7527,0.000000
7528,3.906250
7529,0.000000
7530,0.000000
7531,0.000000
7532,0.000000
7533,0.000000
7534,0.000000
7535,0.000000
7536,0.000000
7537,0.000000
7538,0.000000
7539,0.000000
7540,0.000000
7541,0.000000
7542,0.000000
7543,0.000000
7544,0.000000
7545,0.000000
7546,0.000000
7547,0.000000
7548,0.000000
7549,0.000000
7550,0.000000
7551,0.000000
7552,0.000000
7553,0.000000
7554,0.000000
7555,0.000000
7556,0.000000
7557,0.000000
7558,0.000000
7559,0.000000
7560,0.000000
7561,0.000000
7562,0.000000
7563,0.000000
7564,0.000000
7565,0.000000
7566,0.000000
7567,0.000000
7568,0.000000
7569,0.000000
7570,0.000000
7571,0.000000
7572,0.000000
7573,0.000000
7574,0.000000
7575,0.000000
7576,0.000000
7577,-3.906250
7578,-3.906250
7579,-3.906250
7580,-3.906250
7581,-3.906250
7582,-3.906250
7583,-3.906250
7584,-3.906250
7585,-3.906250
7586,-3.906250
7587,-3.906250
7588,-3.906250
7589,-3.906250
7590,-3.906250
7591,-3.906250
7592,-3.906250
7593,-3.906250
7594,-3.906250
7595,-3.906250
7596,-3.906250
7597,-3.906250
7598,-3.906250
7599,-3.906250
7600,-3.906250
7601,-3.906250
7602,-3.906250
7603,-3.906250
7604,-3.906250
7605,-3.906250
7606,-3.906250
7607,-3.906250
7608,-3.906250
7609,-3.906250
7610,-3.906250
7611,-3.906250
7612,-3.906250
7613,-3.906250
7614,-3.906250
7615,-3.906250
7616,-3.906250
7617,-3.906250
7618,-3.906250
7619,-7.812500
7620,-7.812500
7621,-7.812500
7622,-3.906250
7623,-7.812500
7624,-7.812500
7625,-7.812500
7626,-7.812500
7627,-7.812500
7628,-7.812500
7629,-7.812500
7630,-7.812500
7631,-7.812500
7632,-7.812500
7633,-7.812500
7634,-7.812500
7635,-7.812500
7636,-7.812500
7637,-7.812500
7638,-7.812500
7639,-7.812500
7640,-7.812500
7641,-7.812500
7642,-7.812500
7643,-7.812500
7644,-7.812500
7645,-7.812500
7646,-7.812500
7647,-7.812500
7648,-7.812500
7649,-11.718750
7650,-11.718750
7651,-7.812500
7652,-11.718750
7653,-11.718750
7654,-11.718750
7655,-11.718750
7656,-11.718750
7657,-7.812500
7658,-11.718750
7659,-11.718750
7660,-11.718750
7661,-11.718750
7662,-11.718750
7663,-11.718750
7664,-11.718750
7665,-11.718750
7666,-11.718750
7667,-11.718750
7668,-11.718750
7669,-11.718750
7670,-11.718750
7671,-11.718750
7672,-11.718750
7673,-11.718750
7674,-11.718750
7675,-11.718750
7676,-11.718750
7677,-11.718750
7678,-11.718750
7679,-11.718750
7680,-11.718750
7681,-11.718750
7682,-11.718750
7683,-11.718750
7684,-11.718750
7685,-11.718750
7686,-11.718750
7687,-15.625000
7688,-15.625000
7689,-15.625000
7690,-15.625000
7691,-15.625000
7692,-15.625000
7693,-15.625000
7694,-15.625000
7695,-15.625000
7696,-15.625000
7697,-15.625000
7698,-15.625000
7699,-15.625000
7700,-15.625000
7701,-15.625000
7702,-15.625000
7703,-15.625000
7704,-15.625000
7705,-15.625000
7706,-15.625000
7707,-15.625000
7708,-15.625000
7709,-15.625000
7710,-15.625000
7711,-15.625000
7712,-15.625000
7713,-15.625000
7714,-15.625000
7715,-15.625000
7716,-15.625000
7717,-15.625000
7718,-15.625000
7719,-15.625000
7720,-15.625000
7721,-15.625000
7722,-15.625000
7723,-15.625000
7724,-19.531250
7725,-19.531250
7726,-19.531250
7727,-19.531250
7728,-15.625000
7729,-19.531250
7730,-19.531250
7731,-19.531250
7732,-19.531250
7733,-19.531250
7734,-19.531250
7735,-19.531250
7736,-19.531250
7737,-19.531250
7738,-19.531250
7739,-19.531250
7740,-19.531250
7741,-19.531250
7742,-19.531250
7743,-19.531250
7744,-19.531250
7745,-19.531250
7746,-19.531250
7747,-19.531250
7748,-19.531250
7749,-19.531250
7750,-19.531250
7751,-19.531250
7752,-19.531250
7753,-19.531250
7754,-19.531250
7755,-19.531250
7756,-19.531250
7757,-19.531250
7758,-19.531250
7759,-19.531250
7760,-19.531250
7761,-19.531250
7762,-23.437500
7763,-19.531250
7764,-23.437500
7765,-23.437500
7766,-19.531250
7767,-19.531250
7768,-23.437500
7769,-23.437500
7770,-23.437500
7771,-23.437500
7772,-23.437500
7773,-23.437500
7774,-23.437500
7775,-23.437500
7776,-23.437500
7777,-23.437500
7778,-23.437500
7779,-23.437500
7780,-23.437500
7781,-23.437500
7782,-23.437500
7783,-23.437500
7784,-23.437500
7785,-23.437500
7786,-23.437500
7787,-23.437500
7788,-23.437500
7789,-23.437500
7790,-23.437500
7791,-23.437500
7792,-23.437500
7793,-23.437500
7794,-23.437500
7795,-23.437500
7796,-23.437500
7797,-23.437500
7798,-23.437500
7799,-23.437500
7800,-23.437500
7801,-23.437500
7802,-23.437500
7803,-23.437500
7804,-23.437500
7805,-23.437500
7806,-27.343750
7807,-23.437500
7808,-23.437500
7809,-23.437500
7810,-27.343750
7811,-23.437500
7812,-27.343750
7813,-27.343750
7814,-27.343750
7815,-27.343750
7816,-27.343750
7817,-27.343750
7818,-27.343750
7819,-27.343750
7820,-27.343750
7821,-27.343750
7822,-27.343750
7823,-27.343750
7824,-27.343750
7825,-27.343750
7826,-27.343750
7827,-27.343750
7828,-27.343750
7829,-27.343750
7830,-27.343750
7831,-27.343750
7832,-27.343750
7833,-27.343750
7834,-27.343750
7835,-27.343750
7836,-27.343750
7837,-27.343750
7838,-27.343750
7839,-27.343750
7840,-27.343750
7841,-27.343750
7842,-27.343750
7843,-27.343750
7844,-27.343750
7845,-27.343750
7846,-27.343750
7847,-27.343750
7848,-27.343750
7849,-27.343750
7850,-27.343750
7851,-27.343750
7852,-27.343750
7853,-27.343750
7854,-27.343750
7855,-27.343750
7856,-27.343750
7857,-27.343750
7858,-27.343750
7859,-27.343750
7860,-27.343750
7861,-27.343750
7862,-27.343750
7863,-27.343750
7864,-27.343750
7865,-31.250000
7866,-27.343750
7867,-27.343750
7868,-27.343750
7869,-27.343750
7870,-31.250000
7871,-27.343750
7872,-31.250000
7873,-31.250000
7874,-27.343750
7875,-27.343750
7876,-27.343750
7877,-31.250000
7878,-27.343750
7879,-31.250000
7880,-31.250000
7881,-31.250000
7882,-31.250000
7883,-31.250000
7884,-31.250000
7885,-31.250000
7886,-31.250000
7887,-31.250000
7888,-31.250000
7889,-31.250000
7890,-31.250000
7891,-31.250000
7892,-31.250000
7893,-31.250000
7894,-31.250000
7895,-31.250000
7896,-31.250000
7897,-31.250000
7898,-31.250000
7899,-31.250000
7900,-31.250000
7901,-31.250000
7902,-31.250000
7903,-31.250000
7904,-31.250000
7905,-31.250000
7906,-31.250000
7907,-31.250000
7908,-31.250000
7909,-31.250000
7910,-31.250000
7911,-31.250000
7912,-31.250000
7913,-31.250000
7914,-31.250000
7915,-31.250000
7916,-31.250000
7917,-31.250000
7918,-31.250000
7919,-31.250000
7920,-31.250000
7921,-31.250000
7922,-31.250000
7923,-31.250000
7924,-31.250000
7925,-31.250000
7926,-31.250000
7927,-31.250000
7928,-31.250000
7929,-31.250000
7930,-31.250000
7931,-31.250000
7932,-31.250000
7933,-31.250000
7934,-31.250000
7935,-31.250000
7936,-31.250000
7937,-31.250000
7938,-31.250000
7939,-31.250000
7940,-31.250000
7941,-31.250000
7942,-31.250000
7943,-31.250000
7944,-31.250000
7945,-31.250000
7946,-31.250000
7947,-31.250000
7948,-31.250000
7949,-31.250000
7950,-31.250000
7951,-31.250000
7952,-31.250000
7953,-31.250000
7954,-31.250000
7955,-31.250000
7956,-31.250000
7957,-31.250000
7958,-31.250000
7959,-31.250000
7960,-31.250000
7961,-31.250000
7962,-31.250000
7963,-31.250000
7964,-31.250000
7965,-31.250000
7966,-31.250000
7967,-31.250000
7968,-31.250000
7969,-31.250000
7970,-31.250000
7971,-31.250000
7972,-31.250000
7973,-31.250000
7974,-31.250000
7975,-31.250000
7976,-31.250000
7977,-31.250000
7978,-31.250000
7979,-31.250000
7980,-31.250000
7981,-31.250000
7982,-31.250000
7983,-31.250000
7984,-31.250000
7985,-31.250000
7986,-31.250000
7987,-31.250000
7988,-31.250000
7989,-31.250000
7990,-31.250000
7991,-31.250000
7992,-31.250000
7993,-31.250000
7994,-31.250000
7995,-31.250000
7996,-31.250000
7997,-31.250000
7998,-31.250000
7999,-31.250000
8000,-31.250000
8001,-31.250000
8002,-31.250000
8003,-31.250000
8004,-31.250000
8005,-31.250000
8006,-31.250000
8007,-31.250000
8008,-31.250000
8009,-31.250000
8010,-31.250000
8011,-31.250000
8012,-31.250000
8013,-31.250000
8014,-31.250000
8015,-31.250000
8016,-31.250000
8017,-31.250000
8018,-31.250000
8019,-31.250000
8020,-27.343750
8021,-27.343750
8022,-31.250000
8023,-27.343750
8024,-27.343750
8025,-31.250000
8026,-27.343750
8027,-27.343750
8028,-27.343750
8029,-27.343750
8030,-27.343750
8031,-27.343750
8032,-31.250000
8033,-27.343750
8034,-27.343750
8035,-27.343750
8036,-27.343750
8037,-27.343750
8038,-27.343750
8039,-27.343750
8040,-27.343750
8041,-27.343750
8042,-27.343750
8043,-27.343750
8044,-27.343750
8045,-27.343750
8046,-27.343750
8047,-27.343750
8048,-27.343750
8049,-27.343750
8050,-27.343750
8051,-27.343750
8052,-27.343750
8053,-27.343750
8054,-27.343750
8055,-27.343750
8056,-27.343750
8057,-27.343750
8058,-27.343750
8059,-27.343750
8060,-27.343750
8061,-27.343750
8062,-27.343750
8063,-27.343750
8064,-27.343750
8065,-27.343750
8066,-27.343750
8067,-27.343750
8068,-27.343750
8069,-27.343750
8070,-27.343750
8071,-27.343750
8072,-27.343750
8073,-27.343750
8074,-27.343750
8075,-27.343750
8076,-27.343750
8077,-27.343750
8078,-27.343750
8079,-23.437500
8080,-23.437500
8081,-27.343750
8082,-27.343750
8083,-23.437500
8084,-23.437500
8085,-23.437500
8086,-23.437500
8087,-23.437500
8088,-23.437500
8089,-23.437500
8090,-23.437500
8091,-23.437500
8092,-23.437500
8093,-23.437500
8094,-23.437500
8095,-23.437500
8096,-23.437500
8097,-23.437500
8098,-23.437500
8099,-23.437500
8100,-23.437500
8101,-23.437500
8102,-23.437500
8103,-23.437500
8104,-23.437500
8105,-23.437500
8106,-23.437500
8107,-23.437500
8108,-23.437500
8109,-23.437500
8110,-23.437500
8111,-23.437500
8112,-23.437500
8113,-23.437500
8114,-23.437500
8115,-23.437500
8116,-23.437500
8117,-23.437500
8118,-19.531250
8119,-23.437500
8120,-19.531250
8121,-23.437500
8122,-19.531250
8123,-23.437500
8124,-19.531250
8125,-19.531250
8126,-19.531250
8127,-19.531250
8128,-19.531250
8129,-19.531250
8130,-19.531250
8131,-19.531250
8132,-19.531250
8133,-19.531250
8134,-19.531250
8135,-19.531250
8136,-19.531250
8137,-19.531250
8138,-19.531250
8139,-19.531250
8140,-19.531250
8141,-19.531250
8142,-19.531250
8143,-19.531250
8144,-19.531250
8145,-19.531250
8146,-19.531250
8147,-19.531250
8148,-15.625000
8149,-19.531250
8150,-19.531250
8151,-19.531250
8152,-15.625000
8153,-19.531250
8154,-15.625000
8155,-15.625000
8156,-15.625000
8157,-15.625000
8158,-15.625000
8159,-15.625000
8160,-15.625000
8161,-15.625000
8162,-15.625000
8163,-15.625000
8164,-15.625000
8165,-15.625000
8166,-15.625000
8167,-15.625000
8168,-15.625000
8169,-15.625000
8170,-15.625000
8171,-15.625000
8172,-15.625000
8173,-15.625000
8174,-15.625000
8175,-15.625000
8176,-15.625000
8177,-15.625000
8178,-15.625000
8179,-15.625000
8180,-15.625000
8181,-15.625000
8182,-15.625000
8183,-11.718750
8184,-11.718750
8185,-11.718750
8186,-15.625000
8187,-15.625000
8188,-11.718750
8189,-11.718750
8190,-11.718750
8191,-11.718750
8192,-11.718750
8193,-11.718750
8194,-11.718750
8195,-11.718750
8196,-11.718750
8197,-11.718750
8198,-11.718750
8199,-11.718750
8200,-11.718750
8201,-11.718750
8202,-11.718750
8203,-11.718750
8204,-11.718750
8205,-11.718750
8206,-11.718750
8207,-11.718750
8208,-11.718750
8209,-11.718750
8210,-11.718750
8211,-11.718750
8212,-11.718750
8213,-11.718750
8214,-11.718750
8215,-11.718750
8216,-11.718750
8217,-7.812500
8218,-7.812500
8219,-7.812500
8220,-7.812500
8221,-7.812500
8222,-7.812500
8223,-7.812500
8224,-7.812500
8225,-7.812500
8226,-7.812500
8227,-7.812500
8228,-7.812500
8229,-7.812500
8230,-7.812500
8231,-7.812500
8232,-7.812500
8233,-7.812500
8234,-7.812500
8235,-7.812500
8236,-7.812500
8237,-7.812500
8238,-7.812500
8239,-7.812500
8240,-7.812500
8241,-7.812500
8242,-7.812500
8243,-7.812500
8244,-7.812500
8245,-7.812500
8246,-7.812500
8247,-3.906250
8248,-7.812500
8249,-7.812500
8250,-3.906250
8251,-3.906250
8252,-3.906250
8253,-3.906250
8254,-3.906250
8255,-3.906250
8256,-3.906250
8257,-3.906250
8258,-3.906250
8259,-3.906250
8260,-3.906250
8261,-3.906250
8262,-3.906250
8263,-3.906250
8264,-3.906250
8265,-3.906250
8266,-3.906250
8267,-3.906250
8268,-3.906250
8269,-3.906250
8270,-3.906250
8271,-3.906250
8272,-3.906250
8273,-3.906250
8274,-3.906250
8275,-3.906250
8276,-3.906250
8277,-3.906250
8278,-3.906250
8279,-3.906250
8280,-3.906250
8281,-3.906250
8282,-3.906250
8283,-3.906250
8284,-3.906250
8285,0.000000
8286,0.000000
8287,0.000000
8288,0.000000
8289,0.000000
8290,0.000000
8291,0.000000
8292,0.000000
8293,0.000000
8294,0.000000
8295,0.000000
8296,0.000000
8297,0.000000
8298,0.000000
8299,0.000000
8300,0.000000
8301,0.000000
8302,0.000000
8303,0.000000
8304,0.000000
8305,0.000000
8306,0.000000
8307,0.000000
8308,0.000000
8309,0.000000
8310,0.000000
8311,0.000000
8312,0.000000
8313,0.000000
8314,0.000000
8315,0.000000
8316,0.000000
8317,0.000000
8318,0.000000
8319,0.000000
8320,0.000000
8321,0.000000
8322,0.000000
8323,0.000000
8324,0.000000
8325,0.000000
8326,0.000000
8327,3.906250
8328,0.000000
8329,3.906250
8330,3.906250
8331,3.906250
8332,0.000000
8333,0.000000
8334,3.906250
8335,3.906250
8336,3.906250
8337,3.906250
8338,3.906250
8339,3.906250
8340,3.906250
8341,0.000000
8342,3.906250
8343,3.906250
8344,3.906250
8345,3.906250
8346,3.906250
8347,3.906250
8348,3.906250
8349,3.906250
8350,3.906250
8351,3.906250
8352,3.906250
8353,3.906250
8354,3.906250
8355,3.906250
8356,3.906250
8357,3.906250
8358,3.906250
8359,3.906250
8360,3.906250
8361,3.906250
8362,3.906250
8363,3.906250
8364,3.906250
8365,3.906250
8366,3.906250
8367,3.906250
8368,3.906250
8369,3.906250
8370,3.906250
8371,3.906250
8372,3.906250
8373,3.906250
8374,3.906250
8375,3.906250
8376,3.906250
8377,3.906250
8378,3.906250
8379,3.906250
8380,3.906250
8381,3.906250
8382,3.906250
8383,3.906250
8384,3.906250
8385,3.906250
8386,3.906250
8387,3.906250
8388,3.906250
8389,3.906250
8390,3.906250
8391,3.906250
8392,3.906250
8393,3.906250
8394,3.906250
8395,3.906250
8396,3.906250
8397,3.906250
8398,3.906250
8399,3.906250
8400,3.906250
8401,3.906250
8402,3.906250
8403,3.906250
8404,3.906250
8405,3.906250
8406,3.906250
8407,3.906250
8408,3.906250
8409,3.906250
8410,3.906250
8411,3.906250
8412,3.906250
8413,3.906250
8414,3.906250
8415,3.906250
8416,3.906250
8417,3.906250
8418,3.906250
8419,3.906250
8420,3.906250
8421,3.906250
8422,3.906250
8423,3.906250
8424,3.906250
8425,3.906250
8426,3.906250
8427,3.906250
8428,3.906250
8429,3.906250
8430,3.906250
8431,3.906250
8432,7.812500
8433,3.906250
8434,3.906250
8435,3.906250
8436,3.906250
8437,3.906250
8438,3.906250
8439,3.906250
8440,3.906250
8441,3.906250
8442,3.906250
8443,3.906250
8444,3.906250
8445,3.906250
8446,3.906250
8447,3.906250
8448,3.906250
8449,3.906250
8450,3.906250
8451,3.906250
8452,3.906250
8453,3.906250
8454,3.906250
8455,3.906250
8456,3.906250
8457,3.906250
8458,3.906250
8459,3.906250
8460,3.906250
8461,3.906250
8462,3.906250
8463,3.906250
8464,3.906250
8465,3.906250
8466,3.906250
8467,3.906250
8468,3.906250
8469,3.906250
8470,3.906250
8471,3.906250
8472,3.906250
8473,3.906250
8474,3.906250
8475,3.906250
8476,3.906250
8477,3.906250
8478,3.906250
8479,3.906250
8480,3.906250
8481,3.906250
8482,3.906250
8483,3.906250
8484,3.906250
8485,3.906250
8486,3.906250
8487,3.906250
8488,3.906250
8489,3.906250
8490,3.906250
8491,3.906250
8492,3.906250
8493,3.906250
8494,3.906250
8495,3.906250
8496,3.906250
8497,3.906250
8498,3.906250
8499,3.906250
8500,3.906250
8501,3.906250
8502,3.906250
8503,3.906250
8504,3.906250
8505,3.906250
8506,3.906250
8507,3.906250
8508,0.000000
8509,3.906250
8510,3.906250
8511,3.906250
8512,3.906250
8513,0.000000
8514,3.906250
8515,3.906250
8516,3.906250
8517,3.906250
8518,0.000000
8519,0.000000
8520,0.000000
8521,3.906250
8522,0.000000
8523,0.000000
8524,0.000000
8525,0.000000
8526,0.000000
8527,0.000000
8528,0.000000
8529,0.000000
8530,0.000000
8531,0.000000
8532,0.000000
8533,0.000000
8534,0.000000
8535,0.000000
8536,0.000000
8537,0.000000
8538,0.000000
8539,0.000000
8540,0.000000
8541,0.000000
8542,0.000000
8543,0.000000
8544,0.000000
8545,0.000000
8546,0.000000
8547,0.000000
8548,0.000000
8549,0.000000
8550,0.000000
8551,0.000000
8552,0.000000
8553,0.000000
8554,0.000000
8555,0.000000
8556,0.000000
8557,0.000000
8558,0.000000
8559,0.000000
8560,0.000000
8561,0.000000
8562,-3.906250
8563,-3.906250
8564,-3.906250
8565,-3.906250
8566,-3.906250
8567,-3.906250
8568,-3.906250
8569,-3.906250
8570,-3.906250
8571,-3.906250
8572,-3.906250
8573,-3.906250
8574,-3.906250
8575,-3.906250
8576,-3.906250
8577,-3.906250
8578,-3.906250
8579,-3.906250
8580,-3.906250
8581,-3.906250
8582,-3.906250
8583,-3.906250
8584,-3.906250
8585,-3.906250
8586,-3.906250
8587,-3.906250
8588,-3.906250
8589,-3.906250
8590,-3.906250
8591,-3.906250
8592,-3.906250
8593,-3.906250
8594,-3.906250
8595,-3.906250
8596,-3.906250
8597,-3.906250
8598,-3.906250
8599,-3.906250
8600,-7.812500
8601,-3.906250
8602,-3.906250
8603,-3.906250
8604,-7.812500
8605,-3.906250
8606,-7.812500
8607,-7.812500
8608,-7.812500
8609,-7.812500
8610,-7.812500
8611,-7.812500
8612,-7.812500
8613,-7.812500
8614,-7.812500
8615,-7.812500
8616,-7.812500
8617,-7.812500
8618,-7.812500
8619,-7.812500
8620,-7.812500
8621,-7.812500
8622,-7.812500
8623,-7.812500
8624,-7.812500
8625,-7.812500
8626,-7.812500
8627,-7.812500
8628,-7.812500
8629,-7.812500
8630,-7.812500
8631,-7.812500
8632,-7.812500
8633,-7.812500
8634,-7.812500
8635,-7.812500
8636,-7.812500
8637,-7.812500
8638,-7.812500
8639,-7.812500
8640,-7.812500
8641,-7.812500
8642,-7.812500
8643,-11.718750
8644,-11.718750
8645,-7.812500
8646,-11.718750
8647,-11.718750
8648,-11.718750
8649,-11.718750
8650,-11.718750
8651,-11.718750
8652,-11.718750
8653,-11.718750
8654,-11.718750
8655,-11.718750
8656,-11.718750
8657,-11.718750
8658,-11.718750
8659,-11.718750
8660,-11.718750
8661,-11.718750
8662,-11.718750
8663,-11.718750
8664,-11.718750
8665,-11.718750
8666,-11.718750
8667,-11.718750
8668,-11.718750
8669,-11.718750
8670,-11.718750
8671,-11.718750
8672,-11.718750
8673,-11.718750
8674,-11.718750
8675,-11.718750
8676,-11.718750
8677,-11.718750
8678,-11.718750
8679,-11.718750
8680,-11.718750
8681,-11.718750
8682,-15.625000
8683,-15.625000
8684,-15.625000
8685,-15.625000
8686,-15.625000
8687,-15.625000
8688,-15.625000
8689,-15.625000
8690,-15.625000
8691,-15.625000
8692,-15.625000
8693,-15.625000
8694,-15.625000
8695,-15.625000
8696,-15.625000
8697,-15.625000
8698,-15.625000
8699,-15.625000
8700,-15.625000
8701,-15.625000
8702,-15.625000
8703,-15.625000
8704,-15.625000
8705,-15.625000
8706,-15.625000
8707,-15.625000
8708,-15.625000
8709,-15.625000
8710,-15.625000
8711,-15.625000
8712,-15.625000
8713,-15.625000
8714,-19.531250
8715,-19.531250
8716,-19.531250
8717,-19.531250
8718,-19.531250
8719,-19.531250
8720,-19.531250
8721,-19.531250
8722,-19.531250
8723,-19.531250
8724,-19.531250
8725,-19.531250
8726,-19.531250
8727,-19.531250
8728,-19.531250
8729,-19.531250
8730,-19.531250
8731,-19.531250
8732,-19.531250
8733,-19.531250
8734,-19.531250
8735,-19.531250
8736,-19.531250
8737,-19.531250
8738,-19.531250
8739,-19.531250
8740,-19.531250
8741,-19.531250
8742,-19.531250
8743,-19.531250
8744,-19.531250
8745,-19.531250
8746,-19.531250
8747,-19.531250
8748,-19.531250
8749,-19.531250
8750,-19.531250
8751,-23.437500
8752,-19.531250
8753,-23.437500
8754,-19.531250
8755,-23.437500
8756,-19.531250
8757,-23.437500
8758,-19.531250
8759,-23.437500
8760,-23.437500
8761,-19.531250
8762,-23.437500
8763,-23.437500
8764,-23.437500
8765,-23.437500
8766,-23.437500
8767,-23.437500
8768,-23.437500
8769,-23.437500
8770,-23.437500
8771,-23.437500
8772,-23.437500
8773,-23.437500
8774,-23.437500
8775,-23.437500
8776,-23.437500
8777,-23.437500
8778,-23.437500
8779,-23.437500
8780,-23.437500
8781,-23.437500
8782,-23.437500
8783,-23.437500
8784,-23.437500
8785,-23.437500
8786,-23.437500
8787,-23.437500
8788,-23.437500
8789,-23.437500
8790,-23.437500
8791,-23.437500
8792,-23.437500
8793,-23.437500
8794,-23.437500
8795,-23.437500
8796,-23.437500
8797,-23.437500
8798,-23.437500
8799,-27.343750
8800,-27.343750
8801,-23.437500
8802,-23.437500
8803,-23.437500
8804,-27.343750
8805,-23.437500
8806,-27.343750
8807,-27.343750
8808,-27.343750
8809,-27.343750
8810,-23.437500
8811,-27.343750
8812,-27.343750
8813,-27.343750
8814,-27.343750
8815,-27.343750
8816,-27.343750
8817,-27.343750
8818,-27.343750
8819,-27.343750
8820,-27.343750
8821,-27.343750
8822,-27.343750
8823,-27.343750
8824,-27.343750
8825,-27.343750
8826,-27.343750
8827,-27.343750
8828,-27.343750
8829,-27.343750
8830,-27.343750
8831,-27.343750
8832,-27.343750
8833,-27.343750
8834,-27.343750
8835,-27.343750
8836,-27.343750
8837,-27.343750
8838,-27.343750
8839,-27.343750
8840,-27.343750
8841,-27.343750
8842,-27.343750
8843,-27.343750
8844,-27.343750
8845,-27.343750
8846,-27.343750
8847,-27.343750
8848,-27.343750
8849,-27.343750
8850,-27.343750
8851,-27.343750
8852,-27.343750
8853,-27.343750
8854,-27.343750
8855,-27.343750
8856,-27.343750
8857,-27.343750
8858,-27.343750
8859,-31.250000
8860,-27.343750
8861,-31.250000
8862,-31.250000
8863,-31.250000
8864,-31.250000
8865,-31.250000
8866,-31.250000
8867,-31.250000
8868,-31.250000
8869,-27.343750
8870,-27.343750
8871,-27.343750
8872,-31.250000
8873,-31.250000
8874,-31.250000
8875,-31.250000
8876,-31.250000
8877,-31.250000
8878,-31.250000
8879,-31.250000
8880,-31.250000
8881,-31.250000
8882,-31.250000
8883,-31.250000
8884,-31.250000
8885,-31.250000
8886,-31.250000
8887,-31.250000
8888,-31.250000
8889,-31.250000
8890,-31.250000
8891,-31.250000
8892,-31.250000
8893,-31.250000
8894,-31.250000
8895,-31.250000
8896,-31.250000
8897,-31.250000
8898,-31.250000
8899,-31.250000
8900,-31.250000
8901,-31.250000
8902,-31.250000
8903,-31.250000
8904,-31.250000
8905,-31.250000
8906,-31.250000
8907,-31.250000
8908,-31.250000
8909,-31.250000
8910,-31.250000
8911,-31.250000
8912,-27.343750
8913,-31.250000
8914,-31.250000
8915,-27.343750
8916,-31.250000
8917,-31.250000
8918,-31.250000
8919,-31.250000
8920,-31.250000
8921,-31.250000
8922,-31.250000
8923,-31.250000
8924,-31.250000
8925,-31.250000
8926,-31.250000
8927,-31.250000
8928,-31.250000
8929,-31.250000
8930,-31.250000
8931,-31.250000
8932,-31.250000
8933,-31.250000
8934,-31.250000
8935,-31.250000
8936,-31.250000
8937,-31.250000
8938,-31.250000
8939,-31.250000
8940,-31.250000
8941,-31.250000
8942,-31.250000
8943,-31.250000
8944,-31.250000
8945,-31.250000
8946,-31.250000
8947,-31.250000
8948,-31.250000
8949,-31.250000
8950,-31.250000
8951,-31.250000
8952,-31.250000
8953,-31.250000
8954,-31.250000
8955,-31.250000
8956,-31.250000
8957,-31.250000
8958,-31.250000
8959,-31.250000
8960,-31.250000
8961,-31.250000
8962,-31.250000
8963,-31.250000
8964,-31.250000
8965,-31.250000
8966,-31.250000
8967,-31.250000
8968,-31.250000
8969,-31.250000
8970,-31.250000
8971,-31.250000
8972,-31.250000
8973,-31.250000
8974,-31.250000
8975,-31.250000
8976,-31.250000
8977,-31.250000
8978,-31.250000
8979,-31.250000
8980,-31.250000
8981,-31.250000
8982,-31.250000
8983,-31.250000
8984,-31.250000
8985,-31.250000
8986,-31.250000
8987,-31.250000
8988,-31.250000
8989,-31.250000
8990,-31.250000
8991,-31.250000
8992,-31.250000
8993,-31.250000
8994,-31.250000
8995,-31.250000
8996,-31.250000
8997,-31.250000
8998,-31.250000
8999,-31.250000
9000,-31.250000
9001,-31.250000
9002,-31.250000
9003,-31.250000
9004,-31.250000
9005,-31.250000
9006,-31.250000
9007,-31.250000
9008,-31.250000
9009,-31.250000
9010,-31.250000
9011,-27.343750
9012,-27.343750
9013,-23.437500
9014,-27.343750
9015,-27.343750
9016,-31.250000
9017,-31.250000
9018,-27.343750
9019,-27.343750
9020,-27.343750
9021,-27.343750
9022,-27.343750
9023,-27.343750
9024,-27.343750
9025,-27.343750
9026,-27.343750
9027,-27.343750
9028,-27.343750
9029,-31.250000
9030,-27.343750
9031,-27.343750
9032,-27.343750
9033,-27.343750
9034,-27.343750
9035,-27.343750
9036,-27.343750
9037,-27.343750
9038,-27.343750
9039,-27.343750
9040,-27.343750
9041,-27.343750
9042,-27.343750
9043,-27.343750
9044,-27.343750
9045,-27.343750
9046,-27.343750
9047,-27.343750
9048,-27.343750
9049,-27.343750
9050,-27.343750
9051,-27.343750
9052,-27.343750
9053,-27.343750
9054,-27.343750
9055,-27.343750
9056,-27.343750
9057,-27.343750
9058,-27.343750
9059,-27.343750
9060,-27.343750
9061,-27.343750
9062,-23.437500
9063,-27.343750
9064,-23.437500
9065,-23.437500
9066,-27.343750
9067,-27.343750
9068,-23.437500
9069,-23.437500
9070,-23.437500
9071,-23.437500
9072,-23.437500
9073,-23.437500
9074,-23.437500
9075,-23.437500
9076,-23.437500
9077,-23.437500
9078,-23.437500
9079,-23.437500
9080,-23.437500
9081,-19.531250
9082,-23.437500
9083,-23.437500
9084,-23.437500
9085,-23.437500
9086,-23.437500
9087,-23.437500
9088,-23.437500
9089,-23.437500
9090,-23.437500
9091,-23.437500
9092,-23.437500
9093,-23.437500
9094,-23.437500
9095,-23.437500
9096,-23.437500
9097,-23.437500
9098,-23.437500
9099,-23.437500
9100,-23.437500
9101,-23.437500
9102,-23.437500
9103,-23.437500
9104,-23.437500
9105,-23.437500
9106,-23.437500
9107,-23.437500
9108,-19.531250
9109,-19.531250
9110,-23.437500
9111,-19.531250
9112,-19.531250
9113,-23.437500
9114,-19.531250
9115,-19.531250
9116,-19.531250
9117,-19.531250
9118,-19.531250
9119,-19.531250
9120,-19.531250
9121,-19.531250
9122,-19.531250
9123,-19.531250
9124,-19.531250
9125,-19.531250
9126,-19.531250
9127,-19.531250
9128,-19.531250
9129,-19.531250
9130,-19.531250
9131,-19.531250
9132,-19.531250
9133,-19.531250
9134,-19.531250
9135,-19.531250
9136,-19.531250
9137,-19.531250
9138,-19.531250
9139,-15.625000
9140,-19.531250
9141,-19.531250
9142,-15.625000
9143,-19.531250
9144,-19.531250
9145,-19.531250
9146,-15.625000
9147,-15.625000
9148,-15.625000
9149,-15.625000
9150,-15.625000
9151,-15.625000
9152,-15.625000
9153,-15.625000
9154,-15.625000
9155,-15.625000
9156,-15.625000
9157,-15.625000
9158,-15.625000
9159,-15.625000
9160,-15.625000
9161,-15.625000
9162,-15.625000
9163,-15.625000
9164,-15.625000
9165,-15.625000
9166,-15.625000
9167,-15.625000
9168,-15.625000
9169,-15.625000
9170,-15.625000
9171,-15.625000
9172,-15.625000
9173,-15.625000
9174,-15.625000
9175,-15.625000
9176,-11.718750
9177,-11.718750
9178,-11.718750
9179,-11.718750
9180,-11.718750
9181,-11.718750
9182,-11.718750
9183,-11.718750
9184,-11.718750
9185,-11.718750
9186,-11.718750
9187,-11.718750
9188,-11.718750
9189,-11.718750
9190,-11.718750
9191,-11.718750
9192,-11.718750
9193,-11.718750
9194,-11.718750
9195,-11.718750
9196,-11.718750
9197,-11.718750
9198,-11.718750
9199,-11.718750
9200,-11.718750
9201,-11.718750
9202,-7.812500
9203,-7.812500
9204,-11.718750
9205,-7.812500
9206,-11.718750
9207,-11.718750
9208,-7.812500
9209,-11.718750
9210,-7.812500
9211,-7.812500
9212,-7.812500
9213,-7.812500
9214,-7.812500
9215,-7.812500
9216,-7.812500
9217,-7.812500
9218,-7.812500
9219,-7.812500
9220,-7.812500
9221,-7.812500
9222,-7.812500
9223,-7.812500
9224,-7.812500
9225,-7.812500
9226,-7.812500
9227,-7.812500
9228,-7.812500
9229,-7.812500
9230,-7.812500
9231,-7.812500
9232,-7.812500
9233,-7.812500
9234,-7.812500
9235,-7.812500
9236,-7.812500
9237,-3.906250
9238,-3.906250
9239,-7.812500
9240,-3.906250
9241,-3.906250
9242,-7.812500
9243,-3.906250
9244,-7.812500
9245,-7.812500
9246,-3.906250
9247,-3.906250
9248,-3.906250
9249,-3.906250
9250,-3.906250
9251,-3.906250
9252,-3.906250
9253,-3.906250
9254,-3.906250
9255,-3.906250
9256,-3.906250
9257,-3.906250
9258,-3.906250
9259,-3.906250
9260,-3.906250
9261,-3.906250
9262,-3.906250
9263,-3.906250
9264,-3.906250
9265,-3.906250
9266,-3.906250
9267,-3.906250
9268,-3.906250
9269,-3.906250
9270,-3.906250
9271,-3.906250
9272,-3.906250
9273,0.000000
9274,-3.906250
9275,0.000000
9276,0.000000
9277,0.000000
9278,0.000000
9279,0.000000
9280,0.000000
9281,0.000000
9282,0.000000
9283,0.000000
9284,0.000000
9285,0.000000
9286,0.000000
9287,0.000000
9288,0.000000
9289,0.000000
9290,0.000000
9291,0.000000
9292,0.000000
9293,0.000000
9294,0.000000
9295,0.000000
9296,0.000000
9297,0.000000
9298,0.000000
9299,0.000000
9300,0.000000
9301,0.000000
9302,0.000000
9303,0.000000
9304,0.000000
9305,0.000000
9306,0.000000
9307,0.000000
9308,0.000000
9309,0.000000
9310,0.000000
9311,0.000000
9312,0.000000
9313,0.000000
9314,0.000000
9315,0.000000
9316,0.000000
9317,3.906250
9318,3.906250
9319,0.000000
9320,3.906250
9321,3.906250
9322,3.906250
9323,3.906250
9324,3.906250
9325,3.906250
9326,3.906250
9327,3.906250
9328,3.906250
9329,3.906250
9330,3.906250
9331,3.906250
9332,3.906250
9333,3.906250
9334,3.906250
9335,3.906250
9336,3.906250
9337,3.906250
9338,3.906250
9339,3.906250
9340,3.906250
9341,3.906250
9342,3.906250
9343,3.906250
9344,3.906250
9345,3.906250
9346,3.906250
9347,3.906250
9348,3.906250
9349,3.906250
9350,3.906250
9351,3.906250
9352,3.906250
9353,3.906250
9354,3.906250
9355,3.906250
9356,3.906250
9357,3.906250
9358,3.906250
9359,3.906250
9360,3.906250
9361,3.906250
9362,3.906250
9363,3.906250
9364,3.906250
9365,3.906250
9366,3.906250
9367,3.906250
9368,3.906250
9369,3.906250
9370,3.906250
9371,3.906250
9372,3.906250
9373,3.906250
9374,3.906250
9375,3.906250
9376,3.906250
9377,3.906250
9378,3.906250
9379,3.906250
9380,3.906250
9381,3.906250
9382,3.906250
9383,3.906250
9384,3.906250
9385,3.906250
9386,3.906250
9387,3.906250
9388,3.906250
9389,3.906250
9390,3.906250
9391,3.906250
9392,3.906250
9393,3.906250
9394,3.906250
9395,3.906250
9396,3.906250
9397,3.906250
9398,3.906250
9399,7.812500
9400,3.906250
9401,7.812500
9402,3.906250
9403,3.906250
9404,3.906250
9405,3.906250
9406,3.906250
9407,3.906250
9408,7.812500
9409,7.812500
9410,7.812500
9411,7.812500
9412,7.812500
9413,7.812500
9414,3.906250
9415,3.906250
9416,7.812500
9417,3.906250
9418,7.812500
9419,3.906250
9420,7.812500
9421,3.906250
9422,7.812500
9423,3.906250
9424,3.906250
9425,3.906250
9426,3.906250
9427,3.906250
9428,3.906250
9429,3.906250
9430,7.812500
9431,7.812500
9432,3.906250
9433,3.906250
9434,3.906250
9435,3.906250
9436,3.906250
9437,3.906250
9438,3.906250
9439,3.906250
9440,3.906250
9441,3.906250
9442,3.906250
9443,3.906250
9444,3.906250
9445,3.906250
9446,3.906250
9447,3.906250
9448,3.906250
9449,3.906250
9450,3.906250
9451,3.906250
9452,3.906250
9453,3.906250
9454,3.906250
9455,3.906250
9456,3.906250
9457,3.906250
9458,3.906250
9459,3.906250
9460,3.906250
9461,3.906250
9462,3.906250
9463,3.906250
9464,3.906250
9465,3.906250
9466,3.906250
9467,3.906250
9468,3.906250
9469,3.906250
9470,3.906250
9471,3.906250
9472,3.906250
9473,3.906250
9474,3.906250
9475,3.906250
9476,3.906250
9477,3.906250
9478,3.906250
9479,3.906250
9480,3.906250
9481,3.906250
9482,3.906250
9483,3.906250
9484,3.906250
9485,3.906250
9486,3.906250
9487,3.906250
9488,3.906250
9489,3.906250
9490,3.906250
9491,3.906250
9492,3.906250
9493,3.906250
9494,3.906250
9495,3.906250
9496,3.906250
9497,3.906250
9498,0.000000
9499,0.000000
9500,3.906250
9501,3.906250
9502,3.906250
9503,3.906250
9504,3.906250
9505,3.906250
9506,3.906250
9507,0.000000
9508,0.000000
9509,0.000000
9510,0.000000
9511,0.000000
9512,0.000000
9513,0.000000
9514,0.000000
9515,0.000000
9516,0.000000
9517,0.000000
9518,0.000000
9519,0.000000
9520,0.000000
9521,0.000000
9522,0.000000
9523,0.000000
9524,0.000000
9525,0.000000
9526,0.000000
9527,0.000000
9528,0.000000
9529,0.000000
9530,0.000000
9531,0.000000
9532,0.000000
9533,0.000000
9534,0.000000
9535,0.000000
9536,0.000000
9537,0.000000
9538,0.000000
9539,0.000000
9540,0.000000
9541,0.000000
9542,0.000000
9543,0.000000
9544,0.000000
9545,0.000000
9546,0.000000
9547,0.000000
9548,0.000000
9549,0.000000
9550,0.000000
9551,0.000000
9552,0.000000
9553,-3.906250
9554,0.000000
9555,-3.906250
9556,0.000000
9557,-3.906250
9558,0.000000
9559,-3.906250
9560,-3.906250
9561,-3.906250
9562,-3.906250
9563,-3.906250
9564,-3.906250
9565,-3.906250
9566,-3.906250
9567,-3.906250
9568,-3.906250
9569,-3.906250
9570,-3.906250
9571,-3.906250
9572,-3.906250
9573,-3.906250
9574,-3.906250
9575,-3.906250
9576,-3.906250
9577,-3.906250
9578,-3.906250
9579,-3.906250
9580,-3.906250
9581,-3.906250
9582,-3.906250
9583,-3.906250
9584,-3.906250
9585,-3.906250
9586,-3.906250
9587,-3.906250
9588,-3.906250
9589,-3.906250
9590,-3.906250
9591,-3.906250
9592,-3.906250
9593,-7.812500
9594,-3.906250
9595,-7.812500
9596,-7.812500
9597,-3.906250
9598,-3.906250
9599,-7.812500
9600,-7.812500
9601,-7.812500
9602,-7.812500
9603,-7.812500
9604,-7.812500
9605,-7.812500
9606,-7.812500
9607,-7.812500
9608,-7.812500
9609,-7.812500
9610,-7.812500
9611,-7.812500
9612,-7.812500
9613,-7.812500
9614,-7.812500
9615,-7.812500
9616,-7.812500
9617,-7.812500
9618,-7.812500
9619,-7.812500
9620,-7.812500
9621,-7.812500
9622,-7.812500
9623,-7.812500
9624,-7.812500
9625,-7.812500
9626,-7.812500
9627,-7.812500
9628,-7.812500
9629,-7.812500
9630,-7.812500
9631,-7.812500
9632,-7.812500
9633,-11.718750
9634,-7.812500
9635,-11.718750
9636,-11.718750
9637,-11.718750
9638,-11.718750
9639,-11.718750
9640,-11.718750
9641,-11.718750
9642,-11.718750
9643,-11.718750
9644,-11.718750
9645,-11.718750
9646,-11.718750
9647,-11.718750
9648,-11.718750
9649,-11.718750
9650,-11.718750
9651,-11.718750
9652,-11.718750
9653,-11.718750
9654,-11.718750
9655,-11.718750
9656,-11.718750
9657,-11.718750
9658,-11.718750
9659,-11.718750
9660,-11.718750
9661,-11.718750
9662,-11.718750
9663,-11.718750
9664,-11.718750
9665,-11.718750
9666,-11.718750
9667,-11.718750
9668,-11.718750
9669,-11.718750
9670,-11.718750
9671,-15.625000
9672,-11.718750
9673,-15.625000
9674,-15.625000
9675,-15.625000
9676,-15.625000
9677,-15.625000
9678,-15.625000
9679,-15.625000
9680,-15.625000
9681,-15.625000
9682,-15.625000
9683,-15.625000
9684,-15.625000
9685,-15.625000
9686,-15.625000
9687,-15.625000
9688,-15.625000
9689,-15.625000
9690,-15.625000
9691,-15.625000
9692,-15.625000
9693,-15.625000
9694,-15.625000
9695,-15.625000
9696,-15.625000
9697,-15.625000
9698,-15.625000
9699,-15.625000
9700,-15.625000
9701,-15.625000
9702,-15.625000
9703,-15.625000
9704,-15.625000
9705,-19.531250
9706,-15.625000
9707,-15.625000
9708,-15.625000
9709,-15.625000
9710,-19.531250
9711,-15.625000
9712,-19.531250
9713,-19.531250
9714,-19.531250
9715,-19.531250
9716,-19.531250
9717,-19.531250
9718,-19.531250
9719,-19.531250
9720,-19.531250
9721,-19.531250
9722,-19.531250
9723,-19.531250
9724,-19.531250
9725,-19.531250
9726,-19.531250
9727,-19.531250
9728,-19.531250
9729,-19.531250
9730,-19.531250
9731,-19.531250
9732,-19.531250
9733,-19.531250
9734,-19.531250
9735,-19.531250
9736,-19.531250
9737,-19.531250
9738,-19.531250
9739,-19.531250
9740,-19.531250
9741,-19.531250
9742,-19.531250
9743,-19.531250
9744,-23.437500
9745,-23.437500
9746,-23.437500
9747,-23.437500
9748,-23.437500
9749,-23.437500
9750,-23.437500
9751,-23.437500
9752,-23.437500
9753,-23.437500
9754,-23.437500
9755,-23.437500
9756,-23.437500
9757,-23.437500
9758,-23.437500
9759,-23.437500
9760,-23.437500
9761,-23.437500
9762,-23.437500
9763,-23.437500
9764,-23.437500
9765,-23.437500
9766,-23.437500
9767,-23.437500
9768,-23.437500
9769,-23.437500
9770,-27.343750
9771,-23.437500
9772,-23.437500
9773,-23.437500
9774,-23.437500
9775,-23.437500
9776,-23.437500
9777,-23.437500
9778,-23.437500
9779,-23.437500
9780,-23.437500
9781,-23.437500
9782,-23.437500
9783,-27.343750
9784,-23.437500
9785,-23.437500
9786,-23.437500
9787,-23.437500
9788,-23.437500
9789,-23.437500
9790,-23.437500
9791,-27.343750
9792,-27.343750
9793,-27.343750
9794,-27.343750
9795,-23.437500
9796,-23.437500
9797,-27.343750
9798,-27.343750
9799,-27.343750
9800,-27.343750
9801,-27.343750
9802,-27.343750
9803,-27.343750
9804,-27.343750
9805,-27.343750
9806,-27.343750
9807,-27.343750
9808,-27.343750
9809,-27.343750
9810,-27.343750
9811,-27.343750
9812,-27.343750
9813,-27.343750
9814,-27.343750
9815,-27.343750
9816,-27.343750
9817,-27.343750
9818,-27.343750
9819,-27.343750
9820,-27.343750
9821,-27.343750
9822,-27.343750
9823,-27.343750
9824,-27.343750
9825,-27.343750
9826,-27.343750
9827,-27.343750
9828,-27.343750
9829,-27.343750
9830,-27.343750
9831,-27.343750
9832,-27.343750
9833,-27.343750
9834,-27.343750
9835,-27.343750
9836,-27.343750
9837,-27.343750
9838,-27.343750
9839,-27.343750
9840,-27.343750
9841,-27.343750
9842,-27.343750
9843,-27.343750
9844,-27.343750
9845,-31.250000
9846,-27.343750
9847,-27.343750
9848,-27.343750
9849,-31.250000
9850,-31.250000
9851,-31.250000
9852,-27.343750
9853,-31.250000
9854,-31.250000
9855,-27.343750
9856,-31.250000
9857,-27.343750
9858,-31.250000
9859,-31.250000
9860,-31.250000
9861,-31.250000
9862,-31.250000
9863,-31.250000
9864,-31.250000
9865,-31.250000
9866,-31.250000
9867,-27.343750
9868,-31.250000
9869,-31.250000
9870,-31.250000
9871,-31.250000
9872,-31.250000
9873,-31.250000
9874,-31.250000
9875,-31.250000
9876,-31.250000
9877,-31.250000
9878,-31.250000
9879,-31.250000
9880,-31.250000
9881,-31.250000
9882,-31.250000
9883,-31.250000
9884,-31.250000
9885,-31.250000
9886,-31.250000
9887,-31.250000
9888,-31.250000
9889,-31.250000
9890,-31.250000
9891,-31.250000
9892,-31.250000
9893,-31.250000
9894,-31.250000
9895,-31.250000
9896,-31.250000
9897,-31.250000
9898,-31.250000
9899,-31.250000
9900,-31.250000
9901,-31.250000
9902,-31.250000
9903,-31.250000
9904,-31.250000
9905,-31.250000
9906,-31.250000
9907,-31.250000
9908,-31.250000
9909,-31.250000
9910,-31.250000
9911,-31.250000
9912,-31.250000
9913,-31.250000
9914,-31.250000
9915,-31.250000
9916,-31.250000
9917,-31.250000
9918,-31.250000
9919,-31.250000
9920,-31.250000
9921,-31.250000
9922,-31.250000
9923,-31.250000
9924,-31.250000
9925,-31.250000
9926,-31.250000
9927,-31.250000
9928,-31.250000
9929,-31.250000
9930,-31.250000
9931,-31.250000
9932,-31.250000
9933,-31.250000
9934,-31.250000
9935,-31.250000
9936,-31.250000
9937,-31.250000
9938,-31.250000
9939,-31.250000
9940,-31.250000
9941,-31.250000
9942,-31.250000
9943,-31.250000
9944,-31.250000
9945,-31.250000
9946,-31.250000
9947,-31.250000
9948,-31.250000
9949,-31.250000
9950,-31.250000
9951,-31.250000
9952,-31.250000
9953,-31.250000
9954,-31.250000
9955,-31.250000
9956,-31.250000
9957,-31.250000
9958,-31.250000
9959,-31.250000
9960,-31.250000
9961,-31.250000
9962,-31.250000
9963,-31.250000
9964,-31.250000
9965,-31.250000
9966,-31.250000
9967,-31.250000
9968,-31.250000
9969,-31.250000
9970,-31.250000
9971,-31.250000
9972,-31.250000
9973,-31.250000
9974,-31.250000
9975,-31.250000
9976,-31.250000
9977,-31.250000
9978,-31.250000
9979,-31.250000
9980,-31.250000
9981,-31.250000
9982,-31.250000
9983,-31.250000
9984,-31.250000
9985,-31.250000
9986,-31.250000
9987,-31.250000
9988,-31.250000
9989,-31.250000
9990,-31.250000
9991,-27.343750
9992,-27.343750
9993,-31.250000
9994,-31.250000
9995,-31.250000
9996,-31.250000
9997,-31.250000
9998,-31.250000
9999,-27.343750
10000,-27.343750
