Channel              :,CH1
Frequency            :,1.012kHz
Period               :,0.989ms
PK-PK                :,89.84mV
Probe attenuation    :,1X
Voltage per ADC value:,0.244141mV
Time interval        :,1.00000us

index,CH1_Voltage(mV)
1,-35.156250
2,-35.156250
3,-31.250000
4,-31.250000
5,-31.250000
6,-31.250000
7,-31.250000
8,-31.250000
9,-31.250000
10,-31.250000
11,-31.250000
12,-31.250000
13,-31.250000
14,-31.250000
15,-31.250000
16,-31.250000
17,-31.250000
18,-31.250000
19,-27.343750
20,-27.343750
21,-27.343750
22,-27.343750
23,-27.343750
24,-27.343750
25,-27.343750
26,-27.343750
27,-27.343750
28,-27.343750
29,-27.343750
30,-27.343750
31,-27.343750
32,-27.343750
33,-23.437500
34,-23.437500
35,-23.437500
36,-23.437500
37,-23.437500
38,-23.437500
39,-23.437500
40,-23.437500
41,-23.437500
42,-23.437500
43,-23.437500
44,-23.437500
45,-23.437500
46,-23.437500
47,-23.437500
48,-19.531250
49,-19.531250
50,-19.531250
51,-19.531250
52,-19.531250
53,-19.531250
54,-19.531250
55,-19.531250
56,-19.531250
57,-19.531250
58,-19.531250
59,-15.625000
60,-15.625000
61,-15.625000
62,-19.531250
63,-15.625000
64,-15.625000
65,-15.625000
66,-15.625000
67,-15.625000
68,-15.625000
69,-15.625000
70,-15.625000
71,-15.625000
72,-15.625000
73,-11.718750
74,-15.625000
75,-15.625000
76,-11.718750
77,-11.718750
78,-11.718750
79,-11.718750
80,-11.718750
81,-11.718750
82,-11.718750
83,-11.718750
84,-11.718750
85,-11.718750
86,-11.718750
87,-7.812500
88,-11.718750
89,-7.812500
90,-7.812500
91,-7.812500
92,-7.812500
93,-7.812500
94,-7.812500
95,-7.812500
96,-7.812500
97,-7.812500
98,-7.812500
99,-7.812500
100,-7.812500
101,-3.906250
102,-3.906250
103,-7.812500
104,-3.906250
105,-3.906250
106,-3.906250
107,-3.906250
108,-3.906250
109,-3.906250
110,-3.906250
111,-3.906250
112,-3.906250
113,-3.906250
114,-3.906250
115,-3.906250
116,-3.906250
117,0.000000
118,0.000000
119,0.000000
120,0.000000
121,0.000000
122,0.000000
123,0.000000
124,0.000000
125,0.000000
126,0.000000
127,0.000000
128,0.000000
129,0.000000
130,3.906250
131,3.906250
132,0.000000
133,3.906250
134,3.906250
135,3.906250
136,3.906250
137,3.906250
138,3.906250
139,3.906250
140,3.906250
141,3.906250
142,3.906250
143,3.906250
144,3.906250
145,3.906250
146,7.812500
147,3.906250
148,7.812500
149,3.906250
150,7.812500
151,7.812500
152,7.812500
153,7.812500
154,7.812500
155,7.812500
156,7.812500
157,7.812500
158,7.812500
159,7.812500
160,7.812500
161,7.812500
162,7.812500
163,7.812500
164,7.812500
165,11.718750
166,11.718750
167,11.718750
168,11.718750
169,11.718750
170,11.718750
171,11.718750
172,11.718750
173,11.718750
174,11.718750
175,11.718750
176,11.718750
177,11.718750
178,11.718750
179,11.718750
180,11.718750
181,15.625000
182,11.718750
183,15.625000
184,15.625000
185,15.625000
186,15.625000
187,15.625000
188,15.625000
189,15.625000
190,15.625000
191,15.625000
192,15.625000
193,15.625000
194,15.625000
195,15.625000
196,15.625000
197,15.625000
198,15.625000
199,15.625000
200,19.531250
201,19.531250
202,19.531250
203,19.531250
204,19.531250
205,19.531250
206,19.531250
207,19.531250
208,19.531250
209,19.531250
210,19.531250
211,19.531250
212,19.531250
213,19.531250
214,19.531250
215,19.531250
216,19.531250
217,23.437500
218,19.531250
219,19.531250
220,19.531250
221,19.531250
222,19.531250
223,19.531250
224,23.437500
225,19.531250
226,23.437500
227,23.437500
228,23.437500
229,23.437500
230,23.437500
231,23.437500
232,23.437500
233,23.437500
234,23.437500
235,23.437500
236,23.437500
237,23.437500
238,23.437500
239,23.437500
240,23.437500
241,23.437500
242,23.437500
243,23.437500
244,23.437500
245,23.437500
246,23.437500
247,23.437500
248,23.437500
249,23.437500
250,23.437500
251,23.437500
252,27.343750
253,27.343750
254,27.343750
255,27.343750
256,23.437500
257,27.343750
258,27.343750
259,27.343750
260,27.343750
261,27.343750
262,27.343750
263,27.343750
264,27.343750
265,27.343750
266,27.343750
267,27.343750
268,27.343750
269,27.343750
270,27.343750
271,27.343750
272,27.343750
273,27.343750
274,27.343750
275,27.343750
276,27.343750
277,27.343750
278,27.343750
279,27.343750
280,27.343750
281,27.343750
282,27.343750
283,27.343750
284,27.343750
285,27.343750
286,27.343750
287,27.343750
288,27.343750
289,27.343750
290,27.343750
291,27.343750
292,27.343750
293,27.343750
294,27.343750
295,27.343750
296,27.343750
297,27.343750
298,27.343750
299,27.343750
300,31.250000
301,27.343750
302,27.343750
303,27.343750
304,27.343750
305,27.343750
306,27.343750
307,27.343750
308,27.343750
309,27.343750
310,27.343750
311,27.343750
312,27.343750
313,31.250000
314,27.343750
315,27.343750
316,27.343750
317,27.343750
318,27.343750
319,27.343750
320,31.250000
321,27.343750
322,31.250000
323,27.343750
324,27.343750
325,27.343750
326,27.343750
327,27.343750
328,31.250000
329,27.343750
330,31.250000
331,27.343750
332,27.343750
333,27.343750
334,27.343750
335,27.343750
336,27.343750
337,27.343750
338,27.343750
339,27.343750
340,27.343750
341,31.250000
342,31.250000
343,31.250000
344,27.343750
345,27.343750
346,27.343750
347,27.343750
348,27.343750
349,27.343750
350,27.343750
351,27.343750
352,27.343750
353,27.343750
354,27.343750
355,27.343750
356,27.343750
357,27.343750
358,27.343750
359,27.343750
360,27.343750
361,27.343750
362,27.343750
363,27.343750
364,27.343750
365,27.343750
366,27.343750
367,27.343750
368,27.343750
369,27.343750
370,27.343750
371,27.343750
372,27.343750
373,27.343750
374,27.343750
375,27.343750
376,27.343750
377,27.343750
378,27.343750
379,27.343750
380,27.343750
381,27.343750
382,27.343750
383,27.343750
384,27.343750
385,23.437500
386,23.437500
387,27.343750
388,23.437500
389,23.437500
390,23.437500
391,23.437500
392,23.437500
393,23.437500
394,23.437500
395,23.437500
396,23.437500
397,23.437500
398,23.437500
399,23.437500
400,23.437500
401,23.437500
402,23.437500
403,23.437500
404,23.437500
405,23.437500
406,23.437500
407,23.437500
408,23.437500
409,23.437500
410,23.437500
411,23.437500
412,23.437500
413,23.437500
414,23.437500
415,23.437500
416,19.531250
417,19.531250
418,19.531250
419,19.531250
420,19.531250
421,19.531250
422,19.531250
423,19.531250
424,19.531250
425,19.531250
426,19.531250
427,19.531250
428,19.531250
429,19.531250
430,19.531250
431,19.531250
432,19.531250
433,19.531250
434,19.531250
435,19.531250
436,19.531250
437,19.531250
438,15.625000
439,19.531250
440,19.531250
441,19.531250
442,19.531250
443,15.625000
444,15.625000
445,15.625000
446,15.625000
447,15.625000
448,15.625000
449,15.625000
450,15.625000
451,15.625000
452,15.625000
453,15.625000
454,15.625000
455,15.625000
456,15.625000
457,15.625000
458,15.625000
459,15.625000
460,15.625000
461,15.625000
462,15.625000
463,11.718750
464,11.718750
465,11.718750
466,11.718750
467,11.718750
468,11.718750
469,11.718750
470,11.718750
471,11.718750
472,11.718750
473,11.718750
474,11.718750
475,11.718750
476,11.718750
477,11.718750
478,11.718750
479,11.718750
480,11.718750
481,11.718750
482,7.812500
483,11.718750
484,7.812500
485,7.812500
486,7.812500
487,7.812500
488,7.812500
489,7.812500
490,7.812500
491,7.812500
492,7.812500
493,7.812500
494,7.812500
495,7.812500
496,7.812500
497,7.812500
498,7.812500
499,7.812500
500,3.906250
501,7.812500
502,3.906250
503,3.906250
504,3.906250
505,3.906250
506,3.906250
507,3.906250
508,3.906250
509,3.906250
510,3.906250
511,3.906250
512,3.906250
513,3.906250
514,3.906250
515,3.906250
516,0.000000
517,3.906250
518,3.906250
519,3.906250
520,0.000000
521,0.000000
522,0.000000
523,0.000000
524,0.000000
525,0.000000
526,0.000000
527,0.000000
528,0.000000
529,0.000000
530,0.000000
531,0.000000
532,-3.906250
533,0.000000
534,-3.906250
535,-3.906250
536,-3.906250
537,-3.906250
538,-3.906250
539,-3.906250
540,-3.906250
541,-3.906250
542,-3.906250
543,-3.906250
544,-3.906250
545,-3.906250
546,-3.906250
547,-3.906250
548,-7.812500
549,-3.906250
550,-7.812500
551,-7.812500
552,-7.812500
553,-7.812500
554,-7.812500
555,-7.812500
556,-7.812500
557,-7.812500
558,-7.812500
559,-7.812500
560,-7.812500
561,-7.812500
562,-11.718750
563,-11.718750
564,-11.718750
565,-11.718750
566,-11.718750
567,-11.718750
568,-11.718750
569,-11.718750
570,-11.718750
571,-11.718750
572,-11.718750
573,-11.718750
574,-15.625000
575,-11.718750
576,-11.718750
577,-11.718750
578,-11.718750
579,-11.718750
580,-15.625000
581,-15.625000
582,-15.625000
583,-15.625000
584,-15.625000
585,-15.625000
586,-15.625000
587,-15.625000
588,-15.625000
589,-15.625000
590,-15.625000
591,-15.625000
592,-15.625000
593,-19.531250
594,-19.531250
595,-19.531250
596,-19.531250
597,-19.531250
598,-19.531250
599,-19.531250
600,-19.531250
601,-19.531250
602,-19.531250
603,-19.531250
604,-19.531250
605,-19.531250
606,-23.437500
607,-23.437500
608,-23.437500
609,-19.531250
610,-23.437500
611,-23.437500
612,-23.437500
613,-23.437500
614,-23.437500
615,-23.437500
616,-23.437500
617,-23.437500
618,-23.437500
619,-23.437500
620,-23.437500
621,-23.437500
622,-23.437500
623,-23.437500
624,-27.343750
625,-27.343750
626,-27.343750
627,-27.343750
628,-27.343750
629,-27.343750
630,-27.343750
631,-27.343750
632,-27.343750
633,-27.343750
634,-27.343750
635,-27.343750
636,-27.343750
637,-31.250000
638,-31.250000
639,-31.250000
640,-31.250000
641,-31.250000
642,-31.250000
643,-31.250000
644,-31.250000
645,-31.250000
646,-31.250000
647,-31.250000
648,-31.250000
649,-31.250000
650,-35.156250
651,-35.156250
652,-31.250000
653,-31.250000
654,-31.250000
655,-31.250000
656,-35.156250
657,-35.156250
658,-35.156250
659,-35.156250
660,-35.156250
661,-35.156250
662,-35.156250
663,-35.156250
664,-35.156250
665,-35.156250
666,-35.156250
667,-35.156250
668,-35.156250
669,-35.156250
670,-35.156250
671,-39.062500
672,-39.062500
673,-39.062500
674,-39.062500
675,-39.062500
676,-39.062500
677,-39.062500
678,-39.062500
679,-39.062500
680,-39.062500
681,-39.062500
682,-39.062500
683,-39.062500
684,-39.062500
685,-39.062500
686,-39.062500
687,-39.062500
688,-39.062500
689,-42.968750
690,-42.968750
691,-42.968750
692,-42.968750
693,-42.968750
694,-42.968750
695,-42.968750
696,-42.968750
697,-42.968750
698,-42.968750
699,-42.968750
700,-42.968750
701,-42.968750
702,-42.968750
703,-42.968750
704,-42.968750
705,-42.968750
706,-42.968750
707,-42.968750
708,-46.875000
709,-46.875000
710,-46.875000
711,-46.875000
712,-46.875000
713,-46.875000
714,-46.875000
715,-46.875000
716,-46.875000
717,-46.875000
718,-46.875000
719,-46.875000
720,-46.875000
721,-46.875000
722,-46.875000
723,-46.875000
724,-46.875000
725,-46.875000
726,-46.875000
727,-46.875000
728,-46.875000
729,-46.875000
730,-46.875000
731,-46.875000
732,-46.875000
733,-46.875000
734,-50.781250
735,-50.781250
736,-50.781250
737,-46.875000
738,-50.781250
739,-50.781250
740,-50.781250
741,-50.781250
742,-50.781250
743,-50.781250
744,-50.781250
745,-50.781250
746,-50.781250
747,-50.781250
748,-50.781250
749,-50.781250
750,-50.781250
751,-50.781250
752,-50.781250
753,-50.781250
754,-50.781250
755,-50.781250
756,-50.781250
757,-50.781250
758,-50.781250
759,-54.687500
760,-54.687500
761,-54.687500
762,-54.687500
763,-50.781250
764,-54.687500
765,-54.687500
766,-54.687500
767,-54.687500
768,-54.687500
769,-54.687500
770,-54.687500
771,-54.687500
772,-54.687500
773,-54.687500
774,-54.687500
775,-54.687500
776,-54.687500
777,-54.687500
778,-54.687500
779,-54.687500
780,-54.687500
781,-54.687500
782,-54.687500
783,-54.687500
784,-54.687500
785,-54.687500
786,-54.687500
787,-54.687500
788,-54.687500
789,-54.687500
790,-54.687500
791,-54.687500
792,-54.687500
793,-54.687500
794,-54.687500
795,-54.687500
796,-54.687500
797,-54.687500
798,-54.687500
799,-54.687500
800,-54.687500
801,-54.687500
802,-54.687500
803,-54.687500
804,-54.687500
805,-58.593750
806,-58.593750
807,-58.593750
808,-58.593750
809,-58.593750
810,-54.687500
811,-58.593750
812,-58.593750
813,-54.687500
814,-54.687500
815,-54.687500
816,-58.593750
817,-58.593750
818,-58.593750
819,-58.593750
820,-54.687500
821,-58.593750
822,-58.593750
823,-58.593750
824,-58.593750
825,-58.593750
826,-54.687500
827,-54.687500
828,-58.593750
829,-54.687500
830,-58.593750
831,-58.593750
832,-58.593750
833,-58.593750
834,-58.593750
835,-58.593750
836,-58.593750
837,-54.687500
838,-54.687500
839,-54.687500
840,-54.687500
841,-58.593750
842,-54.687500
843,-58.593750
844,-58.593750
845,-58.593750
846,-58.593750
847,-54.687500
848,-54.687500
849,-54.687500
850,-54.687500
851,-54.687500
852,-54.687500
853,-54.687500
854,-54.687500
855,-54.687500
856,-54.687500
857,-54.687500
858,-54.687500
859,-54.687500
860,-54.687500
861,-54.687500
862,-54.687500
863,-54.687500
864,-54.687500
865,-54.687500
866,-54.687500
867,-54.687500
868,-54.687500
869,-54.687500
870,-54.687500
871,-54.687500
872,-54.687500
873,-54.687500
874,-54.687500
875,-54.687500
876,-54.687500
877,-54.687500
878,-54.687500
879,-54.687500
880,-54.687500
881,-54.687500
882,-54.687500
883,-50.781250
884,-54.687500
885,-50.781250
886,-54.687500
887,-54.687500
888,-54.687500
889,-50.781250
890,-50.781250
891,-50.781250
892,-50.781250
893,-50.781250
894,-50.781250
895,-50.781250
896,-50.781250
897,-50.781250
898,-50.781250
899,-50.781250
900,-50.781250
901,-50.781250
902,-50.781250
903,-50.781250
904,-50.781250
905,-50.781250
906,-50.781250
907,-50.781250
908,-50.781250
909,-50.781250
910,-50.781250
911,-50.781250
912,-50.781250
913,-50.781250
914,-50.781250
915,-50.781250
916,-50.781250
917,-50.781250
918,-46.875000
919,-46.875000
920,-46.875000
921,-46.875000
922,-46.875000
923,-46.875000
924,-46.875000
925,-46.875000
926,-46.875000
927,-46.875000
928,-46.875000
929,-46.875000
930,-46.875000
931,-46.875000
932,-46.875000
933,-46.875000
934,-46.875000
935,-46.875000
936,-46.875000
937,-46.875000
938,-46.875000
939,-46.875000
940,-46.875000
941,-42.968750
942,-42.968750
943,-42.968750
944,-46.875000
945,-42.968750
946,-42.968750
947,-42.968750
948,-42.968750
949,-42.968750
950,-42.968750
951,-42.968750
952,-42.968750
953,-42.968750
954,-42.968750
955,-42.968750
956,-42.968750
957,-42.968750
958,-39.062500
959,-39.062500
960,-42.968750
961,-39.062500
962,-39.062500
963,-39.062500
964,-39.062500
965,-39.062500
966,-39.062500
967,-39.062500
968,-39.062500
969,-39.062500
970,-39.062500
971,-39.062500
972,-39.062500
973,-39.062500
974,-39.062500
975,-39.062500
976,-39.062500
977,-35.156250
978,-35.156250
979,-35.156250
980,-35.156250
981,-35.156250
982,-35.156250
983,-35.156250
984,-35.156250
985,-35.156250
986,-35.156250
987,-35.156250
988,-35.156250
989,-35.156250
990,-35.156250
991,-31.250000
992,-35.156250
993,-31.250000
994,-35.156250
995,-31.250000
996,-31.250000
997,-31.250000
998,-31.250000
999,-31.250000
1000,-31.250000
1001,-31.250000
1002,-31.250000
1003,-31.250000
1004,-31.250000
1005,-31.250000
1006,-31.250000
1007,-31.250000
1008,-27.343750
1009,-27.343750
1010,-27.343750
1011,-27.343750
1012,-27.343750
1013,-27.343750
1014,-27.343750
1015,-27.343750
1016,-27.343750
1017,-27.343750
1018,-27.343750
1019,-27.343750
1020,-27.343750
1021,-27.343750
1022,-27.343750
1023,-23.437500
1024,-23.437500
1025,-23.437500
1026,-23.437500
1027,-23.437500
1028,-23.437500
1029,-23.437500
1030,-23.437500
1031,-23.437500
1032,-23.437500
1033,-23.437500
1034,-23.437500
1035,-23.437500
1036,-23.437500
1037,-19.531250
1038,-19.531250
1039,-19.531250
1040,-19.531250
1041,-19.531250
1042,-19.531250
1043,-19.531250
1044,-19.531250
1045,-19.531250
1046,-19.531250
1047,-19.531250
1048,-19.531250
1049,-19.531250
1050,-19.531250
1051,-15.625000
1052,-15.625000
1053,-15.625000
1054,-15.625000
1055,-15.625000
1056,-15.625000
1057,-15.625000
1058,-15.625000
1059,-15.625000
1060,-15.625000
1061,-15.625000
1062,-15.625000
1063,-15.625000
1064,-11.718750
1065,-15.625000
1066,-15.625000
1067,-15.625000
1068,-15.625000
1069,-11.718750
1070,-11.718750
1071,-11.718750
1072,-11.718750
1073,-11.718750
1074,-11.718750
1075,-11.718750
1076,-11.718750
1077,-11.718750
1078,-11.718750
1079,-11.718750
1080,-11.718750
1081,-7.812500
1082,-7.812500
1083,-7.812500
1084,-7.812500
1085,-7.812500
1086,-7.812500
1087,-7.812500
1088,-7.812500
1089,-7.812500
1090,-7.812500
1091,-7.812500
1092,-7.812500
1093,-7.812500
1094,-3.906250
1095,-3.906250
1096,-3.906250
1097,-3.906250
1098,-3.906250
1099,-3.906250
1100,-3.906250
1101,-3.906250
1102,-3.906250
1103,-3.906250
1104,-3.906250
1105,-3.906250
1106,-3.906250
1107,-3.906250
1108,-3.906250
1109,0.000000
1110,0.000000
1111,0.000000
1112,0.000000
1113,0.000000
1114,0.000000
1115,0.000000
1116,0.000000
1117,0.000000
1118,0.000000
1119,0.000000
1120,0.000000
1121,0.000000
1122,3.906250
1123,3.906250
1124,3.906250
1125,0.000000
1126,3.906250
1127,3.906250
1128,3.906250
1129,3.906250
1130,3.906250
1131,3.906250
1132,3.906250
1133,3.906250
1134,3.906250
1135,3.906250
1136,3.906250
1137,3.906250
1138,3.906250
1139,7.812500
1140,3.906250
1141,7.812500
1142,7.812500
1143,7.812500
1144,7.812500
1145,7.812500
1146,7.812500
1147,7.812500
1148,7.812500
1149,7.812500
1150,7.812500
1151,7.812500
1152,11.718750
1153,7.812500
1154,7.812500
1155,11.718750
1156,7.812500
1157,7.812500
1158,11.718750
1159,11.718750
1160,11.718750
1161,11.718750
1162,11.718750
1163,11.718750
1164,11.718750
1165,11.718750
1166,11.718750
1167,11.718750
1168,11.718750
1169,11.718750
1170,11.718750
1171,11.718750
1172,11.718750
1173,15.625000
1174,15.625000
1175,15.625000
1176,15.625000
1177,15.625000
1178,15.625000
1179,15.625000
1180,15.625000
1181,15.625000
1182,15.625000
1183,15.625000
1184,15.625000
1185,15.625000
1186,15.625000
1187,15.625000
1188,15.625000
1189,15.625000
1190,15.625000
1191,15.625000
1192,15.625000
1193,19.531250
1194,19.531250
1195,19.531250
1196,19.531250
1197,19.531250
1198,19.531250
1199,19.531250
1200,19.531250
1201,19.531250
1202,19.531250
1203,19.531250
1204,19.531250
1205,19.531250
1206,19.531250
1207,19.531250
1208,19.531250
1209,19.531250
1210,19.531250
1211,19.531250
1212,19.531250
1213,19.531250
1214,19.531250
1215,19.531250
1216,19.531250
1217,23.437500
1218,23.437500
1219,23.437500
1220,23.437500
1221,23.437500
1222,23.437500
1223,23.437500
1224,23.437500
1225,23.437500
1226,23.437500
1227,23.437500
1228,23.437500
1229,23.437500
1230,23.437500
1231,23.437500
1232,23.437500
1233,23.437500
1234,23.437500
1235,23.437500
1236,23.437500
1237,23.437500
1238,23.437500
1239,23.437500
1240,23.437500
1241,23.437500
1242,23.437500
1243,23.437500
1244,27.343750
1245,23.437500
1246,23.437500
1247,27.343750
1248,27.343750
1249,23.437500
1250,27.343750
1251,27.343750
1252,27.343750
1253,27.343750
1254,27.343750
1255,27.343750
1256,27.343750
1257,27.343750
1258,27.343750
1259,27.343750
1260,27.343750
1261,27.343750
1262,27.343750
1263,27.343750
1264,27.343750
1265,27.343750
1266,27.343750
1267,27.343750
1268,27.343750
1269,27.343750
1270,27.343750
1271,27.343750
1272,27.343750
1273,27.343750
1274,27.343750
1275,27.343750
1276,27.343750
1277,27.343750
1278,27.343750
1279,27.343750
1280,27.343750
1281,27.343750
1282,27.343750
1283,27.343750
1284,27.343750
1285,27.343750
1286,27.343750
1287,27.343750
1288,27.343750
1289,27.343750
1290,27.343750
1291,27.343750
1292,27.343750
1293,27.343750
1294,27.343750
1295,27.343750
1296,27.343750
1297,27.343750
1298,27.343750
1299,27.343750
1300,27.343750
1301,31.250000
1302,27.343750
1303,27.343750
1304,27.343750
1305,31.250000
1306,27.343750
1307,27.343750
1308,31.250000
1309,27.343750
1310,27.343750
1311,27.343750
1312,27.343750
1313,27.343750
1314,27.343750
1315,27.343750
1316,27.343750
1317,27.343750
1318,27.343750
1319,27.343750
1320,27.343750
1321,27.343750
1322,27.343750
1323,27.343750
1324,27.343750
1325,27.343750
1326,27.343750
1327,27.343750
1328,27.343750
1329,27.343750
1330,27.343750
1331,31.250000
1332,27.343750
1333,27.343750
1334,27.343750
1335,27.343750
1336,27.343750
1337,27.343750
1338,27.343750
1339,27.343750
1340,27.343750
1341,27.343750
1342,27.343750
1343,27.343750
1344,27.343750
1345,27.343750
1346,27.343750
1347,27.343750
1348,27.343750
1349,27.343750
1350,27.343750
1351,27.343750
1352,27.343750
1353,27.343750
1354,27.343750
1355,27.343750
1356,27.343750
1357,27.343750
1358,27.343750
1359,27.343750
1360,27.343750
1361,27.343750
1362,27.343750
1363,27.343750
1364,27.343750
1365,27.343750
1366,27.343750
1367,27.343750
1368,27.343750
1369,27.343750
1370,27.343750
1371,27.343750
1372,27.343750
1373,27.343750
1374,27.343750
1375,27.343750
1376,23.437500
1377,27.343750
1378,23.437500
1379,27.343750
1380,23.437500
1381,27.343750
1382,23.437500
1383,23.437500
1384,23.437500
1385,23.437500
1386,23.437500
1387,23.437500
1388,23.437500
1389,23.437500
1390,23.437500
1391,23.437500
1392,23.437500
1393,23.437500
1394,23.437500
1395,23.437500
1396,23.437500
1397,23.437500
1398,23.437500
1399,23.437500
1400,23.437500
1401,23.437500
1402,23.437500
1403,23.437500
1404,23.437500
1405,23.437500
1406,23.437500
1407,23.437500
1408,19.531250
1409,19.531250
1410,23.437500
1411,19.531250
1412,19.531250
1413,19.531250
1414,19.531250
1415,19.531250
1416,19.531250
1417,19.531250
1418,19.531250
1419,19.531250
1420,19.531250
1421,19.531250
1422,19.531250
1423,19.531250
1424,19.531250
1425,19.531250
1426,19.531250
1427,19.531250
1428,19.531250
1429,19.531250
1430,19.531250
1431,19.531250
1432,15.625000
1433,19.531250
1434,15.625000
1435,15.625000
1436,15.625000
1437,19.531250
1438,15.625000
1439,15.625000
1440,15.625000
1441,15.625000
1442,15.625000
1443,15.625000
1444,15.625000
1445,15.625000
1446,15.625000
1447,15.625000
1448,15.625000
1449,15.625000
1450,15.625000
1451,11.718750
1452,11.718750
1453,11.718750
1454,11.718750
1455,15.625000
1456,15.625000
1457,11.718750
1458,11.718750
1459,11.718750
1460,11.718750
1461,11.718750
1462,11.718750
1463,11.718750
1464,11.718750
1465,11.718750
1466,11.718750
1467,11.718750
1468,11.718750
1469,11.718750
1470,11.718750
1471,11.718750
1472,7.812500
1473,7.812500
1474,7.812500
1475,7.812500
1476,7.812500
1477,7.812500
1478,7.812500
1479,7.812500
1480,7.812500
1481,7.812500
1482,7.812500
1483,7.812500
1484,7.812500
1485,7.812500
1486,7.812500
1487,3.906250
1488,7.812500
1489,3.906250
1490,3.906250
1491,7.812500
1492,7.812500
1493,3.906250
1494,3.906250
1495,3.906250
1496,3.906250
1497,3.906250
1498,3.906250
1499,3.906250
1500,3.906250
1501,3.906250
1502,3.906250
1503,3.906250
1504,3.906250
1505,3.906250
1506,3.906250
1507,3.906250
1508,0.000000
1509,0.000000
1510,0.000000
1511,0.000000
1512,0.000000
1513,0.000000
1514,0.000000
1515,0.000000
1516,0.000000
1517,0.000000
1518,0.000000
1519,0.000000
1520,0.000000
1521,0.000000
1522,-3.906250
1523,-3.906250
1524,-3.906250
1525,-3.906250
1526,-3.906250
1527,0.000000
1528,-3.906250
1529,-3.906250
1530,-3.906250
1531,-3.906250
1532,-3.906250
1533,-3.906250
1534,-3.906250
1535,-3.906250
1536,-3.906250
1537,-3.906250
1538,-7.812500
1539,-7.812500
1540,-7.812500
1541,-3.906250
1542,-7.812500
1543,-7.812500
1544,-7.812500
1545,-7.812500
1546,-7.812500
1547,-7.812500
1548,-7.812500
1549,-7.812500
1550,-7.812500
1551,-7.812500
1552,-11.718750
1553,-11.718750
1554,-11.718750
1555,-11.718750
1556,-11.718750
1557,-11.718750
1558,-11.718750
1559,-11.718750
1560,-11.718750
1561,-11.718750
1562,-11.718750
1563,-11.718750
1564,-15.625000
1565,-15.625000
1566,-11.718750
1567,-11.718750
1568,-11.718750
1569,-11.718750
1570,-15.625000
1571,-15.625000
1572,-15.625000
1573,-15.625000
1574,-15.625000
1575,-15.625000
1576,-15.625000
1577,-15.625000
1578,-15.625000
1579,-15.625000
1580,-15.625000
1581,-19.531250
1582,-19.531250
1583,-19.531250
1584,-19.531250
1585,-19.531250
1586,-19.531250
1587,-19.531250
1588,-19.531250
1589,-19.531250
1590,-19.531250
1591,-19.531250
1592,-19.531250
1593,-19.531250
1594,-19.531250
1595,-19.531250
1596,-19.531250
1597,-19.531250
1598,-19.531250
1599,-23.437500
1600,-23.437500
1601,-23.437500
1602,-23.437500
1603,-23.437500
1604,-23.437500
1605,-23.437500
1606,-23.437500
1607,-23.437500
1608,-23.437500
1609,-23.437500
1610,-23.437500
1611,-23.437500
1612,-23.437500
1613,-27.343750
1614,-27.343750
1615,-27.343750
1616,-27.343750
1617,-27.343750
1618,-27.343750
1619,-27.343750
1620,-27.343750
1621,-27.343750
1622,-27.343750
1623,-27.343750
1624,-27.343750
1625,-27.343750
1626,-27.343750
1627,-27.343750
1628,-27.343750
1629,-27.343750
1630,-27.343750
1631,-31.250000
1632,-31.250000
1633,-31.250000
1634,-31.250000
1635,-31.250000
1636,-31.250000
1637,-31.250000
1638,-31.250000
1639,-31.250000
1640,-31.250000
1641,-31.250000
1642,-31.250000
1643,-35.156250
1644,-35.156250
1645,-31.250000
1646,-35.156250
1647,-31.250000
1648,-35.156250
1649,-35.156250
1650,-35.156250
1651,-35.156250
1652,-35.156250
1653,-35.156250
1654,-35.156250
1655,-35.156250
1656,-35.156250
1657,-35.156250
1658,-35.156250
1659,-35.156250
1660,-35.156250
1661,-35.156250
1662,-39.062500
1663,-39.062500
1664,-39.062500
1665,-39.062500
1666,-39.062500
1667,-39.062500
1668,-39.062500
1669,-39.062500
1670,-39.062500
1671,-39.062500
1672,-39.062500
1673,-39.062500
1674,-39.062500
1675,-39.062500
1676,-39.062500
1677,-39.062500
1678,-39.062500
1679,-42.968750
1680,-42.968750
1681,-42.968750
1682,-42.968750
1683,-39.062500
1684,-42.968750
1685,-42.968750
1686,-42.968750
1687,-42.968750
1688,-42.968750
1689,-42.968750
1690,-42.968750
1691,-42.968750
1692,-42.968750
1693,-42.968750
1694,-42.968750
1695,-42.968750
1696,-46.875000
1697,-42.968750
1698,-42.968750
1699,-42.968750
1700,-42.968750
1701,-46.875000
1702,-46.875000
1703,-46.875000
1704,-46.875000
1705,-46.875000
1706,-46.875000
1707,-46.875000
1708,-46.875000
1709,-46.875000
1710,-46.875000
1711,-46.875000
1712,-46.875000
1713,-46.875000
1714,-46.875000
1715,-46.875000
1716,-46.875000
1717,-46.875000
1718,-46.875000
1719,-46.875000
1720,-46.875000
1721,-46.875000
1722,-46.875000
1723,-50.781250
1724,-50.781250
1725,-50.781250
1726,-50.781250
1727,-50.781250
1728,-46.875000
1729,-50.781250
1730,-50.781250
1731,-50.781250
1732,-50.781250
1733,-50.781250
1734,-50.781250
1735,-50.781250
1736,-50.781250
1737,-50.781250
1738,-50.781250
1739,-50.781250
1740,-50.781250
1741,-50.781250
1742,-50.781250
1743,-50.781250
1744,-50.781250
1745,-50.781250
1746,-50.781250
1747,-50.781250
1748,-50.781250
1749,-50.781250
1750,-50.781250
1751,-54.687500
1752,-54.687500
1753,-54.687500
1754,-50.781250
1755,-54.687500
1756,-54.687500
1757,-54.687500
1758,-54.687500
1759,-54.687500
1760,-54.687500
1761,-54.687500
1762,-54.687500
1763,-54.687500
1764,-54.687500
1765,-54.687500
1766,-54.687500
1767,-54.687500
1768,-54.687500
1769,-54.687500
1770,-54.687500
1771,-54.687500
1772,-54.687500
1773,-54.687500
1774,-54.687500
1775,-54.687500
1776,-54.687500
1777,-54.687500
1778,-54.687500
1779,-54.687500
1780,-54.687500
1781,-54.687500
1782,-54.687500
1783,-54.687500
1784,-54.687500
1785,-54.687500
1786,-54.687500
1787,-54.687500
1788,-54.687500
1789,-54.687500
1790,-54.687500
1791,-54.687500
1792,-54.687500
1793,-54.687500
1794,-54.687500
1795,-54.687500
1796,-54.687500
1797,-54.687500
1798,-54.687500
1799,-54.687500
1800,-54.687500
1801,-54.687500
1802,-54.687500
1803,-54.687500
1804,-58.593750
1805,-54.687500
1806,-58.593750
1807,-54.687500
1808,-54.687500
1809,-54.687500
1810,-54.687500
1811,-58.593750
1812,-58.593750
1813,-54.687500
1814,-58.593750
1815,-54.687500
1816,-54.687500
1817,-54.687500
1818,-54.687500
1819,-54.687500
1820,-58.593750
1821,-54.687500
1822,-54.687500
1823,-54.687500
1824,-58.593750
1825,-54.687500
1826,-54.687500
1827,-54.687500
1828,-54.687500
1829,-54.687500
1830,-54.687500
1831,-54.687500
1832,-54.687500
1833,-58.593750
1834,-58.593750
1835,-54.687500
1836,-54.687500
1837,-54.687500
1838,-54.687500
1839,-54.687500
1840,-54.687500
1841,-54.687500
1842,-54.687500
1843,-54.687500
1844,-54.687500
1845,-54.687500
1846,-54.687500
1847,-54.687500
1848,-54.687500
1849,-54.687500
1850,-54.687500
1851,-54.687500
1852,-54.687500
1853,-54.687500
1854,-54.687500
1855,-54.687500
1856,-54.687500
1857,-54.687500
1858,-54.687500
1859,-54.687500
1860,-54.687500
1861,-54.687500
1862,-54.687500
1863,-54.687500
1864,-54.687500
1865,-54.687500
1866,-54.687500
1867,-54.687500
1868,-54.687500
1869,-54.687500
1870,-54.687500
1871,-54.687500
1872,-54.687500
1873,-54.687500
1874,-54.687500
1875,-54.687500
1876,-54.687500
1877,-54.687500
1878,-54.687500
1879,-54.687500
1880,-54.687500
1881,-50.781250
1882,-50.781250
1883,-50.781250
1884,-50.781250
1885,-50.781250
1886,-50.781250
1887,-50.781250
1888,-50.781250
1889,-50.781250
1890,-50.781250
1891,-50.781250
1892,-50.781250
1893,-50.781250
1894,-50.781250
1895,-50.781250
1896,-50.781250
1897,-50.781250
1898,-50.781250
1899,-50.781250
1900,-50.781250
1901,-50.781250
1902,-50.781250
1903,-50.781250
1904,-50.781250
1905,-50.781250
1906,-50.781250
1907,-46.875000
1908,-46.875000
1909,-46.875000
1910,-46.875000
1911,-46.875000
1912,-46.875000
1913,-46.875000
1914,-46.875000
1915,-46.875000
1916,-46.875000
1917,-46.875000
1918,-46.875000
1919,-46.875000
1920,-46.875000
1921,-46.875000
1922,-46.875000
1923,-46.875000
1924,-46.875000
1925,-46.875000
1926,-46.875000
1927,-46.875000
1928,-46.875000
1929,-42.968750
1930,-46.875000
1931,-42.968750
1932,-42.968750
1933,-46.875000
1934,-42.968750
1935,-42.968750
1936,-42.968750
1937,-42.968750
1938,-42.968750
1939,-42.968750
1940,-42.968750
1941,-42.968750
1942,-42.968750
1943,-42.968750
1944,-42.968750
1945,-42.968750
1946,-42.968750
1947,-42.968750
1948,-42.968750
1949,-39.062500
1950,-39.062500
1951,-39.062500
1952,-39.062500
1953,-39.062500
1954,-39.062500
1955,-39.062500
1956,-39.062500
1957,-39.062500
1958,-39.062500
1959,-39.062500
1960,-39.062500
1961,-39.062500
1962,-39.062500
1963,-39.062500
1964,-39.062500
1965,-39.062500
1966,-39.062500
1967,-39.062500
1968,-35.156250
1969,-39.062500
1970,-35.156250
1971,-35.156250
1972,-35.156250
1973,-35.156250
1974,-35.156250
1975,-35.156250
1976,-35.156250
1977,-35.156250
1978,-35.156250
1979,-35.156250
1980,-35.156250
1981,-35.156250
1982,-35.156250
1983,-35.156250
1984,-31.250000
1985,-31.250000
1986,-31.250000
1987,-31.250000
1988,-31.250000
1989,-31.250000
1990,-31.250000
1991,-31.250000
1992,-31.250000
1993,-31.250000
1994,-31.250000
1995,-31.250000
1996,-31.250000
1997,-31.250000
1998,-31.250000
1999,-27.343750
2000,-27.343750
2001,-27.343750
2002,-27.343750
2003,-27.343750
2004,-27.343750
2005,-27.343750
2006,-27.343750
2007,-27.343750
2008,-27.343750
2009,-27.343750
2010,-27.343750
2011,-27.343750
2012,-27.343750
2013,-23.437500
2014,-23.437500
2015,-23.437500
2016,-23.437500
2017,-23.437500
2018,-23.437500
2019,-23.437500
2020,-23.437500
2021,-23.437500
2022,-23.437500
2023,-23.437500
2024,-23.437500
2025,-23.437500
2026,-19.531250
2027,-19.531250
2028,-19.531250
2029,-19.531250
2030,-19.531250
2031,-19.531250
2032,-19.531250
2033,-19.531250
2034,-19.531250
2035,-19.531250
2036,-19.531250
2037,-19.531250
2038,-19.531250
2039,-15.625000
2040,-19.531250
2041,-15.625000
2042,-15.625000
2043,-15.625000
2044,-15.625000
2045,-15.625000
2046,-15.625000
2047,-15.625000
2048,-15.625000
2049,-15.625000
2050,-15.625000
2051,-15.625000
2052,-15.625000
2053,-15.625000
2054,-15.625000
2055,-11.718750
2056,-11.718750
2057,-11.718750
2058,-11.718750
2059,-11.718750
2060,-11.718750
2061,-11.718750
2062,-11.718750
2063,-11.718750
2064,-11.718750
2065,-11.718750
2066,-11.718750
2067,-11.718750
2068,-11.718750
2069,-11.718750
2070,-11.718750
2071,-7.812500
2072,-7.812500
2073,-7.812500
2074,-7.812500
2075,-7.812500
2076,-7.812500
2077,-7.812500
2078,-7.812500
2079,-7.812500
2080,-7.812500
2081,-7.812500
2082,-7.812500
2083,-7.812500
2084,-3.906250
2085,-7.812500
2086,-3.906250
2087,-3.906250
2088,-3.906250
2089,-3.906250
2090,-3.906250
2091,-3.906250
2092,-3.906250
2093,-3.906250
2094,-3.906250
2095,-3.906250
2096,-3.906250
2097,-3.906250
2098,-3.906250
2099,0.000000
2100,0.000000
2101,0.000000
2102,0.000000
2103,0.000000
2104,0.000000
2105,0.000000
2106,0.000000
2107,0.000000
2108,0.000000
2109,0.000000
2110,0.000000
2111,0.000000
2112,0.000000
2113,0.000000
2114,3.906250
2115,3.906250
2116,3.906250
2117,3.906250
2118,3.906250
2119,3.906250
2120,3.906250
2121,3.906250
2122,3.906250
2123,3.906250
2124,3.906250
2125,3.906250
2126,3.906250
2127,7.812500
2128,7.812500
2129,7.812500
2130,7.812500
2131,7.812500
2132,7.812500
2133,7.812500
2134,7.812500
2135,7.812500
2136,7.812500
2137,7.812500
2138,7.812500
2139,7.812500
2140,7.812500
2141,7.812500
2142,7.812500
2143,7.812500
2144,7.812500
2145,11.718750
2146,11.718750
2147,11.718750
2148,11.718750
2149,11.718750
2150,11.718750
2151,11.718750
2152,11.718750
2153,11.718750
2154,11.718750
2155,11.718750
2156,11.718750
2157,11.718750
2158,11.718750
2159,11.718750
2160,11.718750
2161,11.718750
2162,15.625000
2163,15.625000
2164,15.625000
2165,15.625000
2166,15.625000
2167,15.625000
2168,15.625000
2169,15.625000
2170,15.625000
2171,15.625000
2172,15.625000
2173,15.625000
2174,15.625000
2175,15.625000
2176,15.625000
2177,15.625000
2178,15.625000
2179,15.625000
2180,15.625000
2181,15.625000
2182,19.531250
2183,19.531250
2184,19.531250
2185,19.531250
2186,19.531250
2187,19.531250
2188,19.531250
2189,19.531250
2190,19.531250
2191,19.531250
2192,19.531250
2193,19.531250
2194,19.531250
2195,19.531250
2196,19.531250
2197,19.531250
2198,19.531250
2199,19.531250
2200,19.531250
2201,23.437500
2202,23.437500
2203,23.437500
2204,19.531250
2205,19.531250
2206,19.531250
2207,19.531250
2208,19.531250
2209,23.437500
2210,23.437500
2211,23.437500
2212,23.437500
2213,23.437500
2214,23.437500
2215,23.437500
2216,23.437500
2217,23.437500
2218,23.437500
2219,23.437500
2220,23.437500
2221,23.437500
2222,23.437500
2223,23.437500
2224,23.437500
2225,23.437500
2226,23.437500
2227,23.437500
2228,23.437500
2229,23.437500
2230,23.437500
2231,23.437500
2232,27.343750
2233,23.437500
2234,23.437500
2235,27.343750
2236,23.437500
2237,27.343750
2238,23.437500
2239,27.343750
2240,27.343750
2241,27.343750
2242,27.343750
2243,27.343750
2244,27.343750
2245,27.343750
2246,27.343750
2247,27.343750
2248,27.343750
2249,27.343750
2250,27.343750
2251,27.343750
2252,27.343750
2253,27.343750
2254,27.343750
2255,27.343750
2256,27.343750
2257,27.343750
2258,27.343750
2259,27.343750
2260,27.343750
2261,27.343750
2262,27.343750
2263,27.343750
2264,27.343750
2265,27.343750
2266,27.343750
2267,27.343750
2268,27.343750
2269,27.343750
2270,27.343750
2271,27.343750
2272,27.343750
2273,27.343750
2274,27.343750
2275,27.343750
2276,27.343750
2277,27.343750
2278,27.343750
2279,27.343750
2280,27.343750
2281,27.343750
2282,27.343750
2283,27.343750
2284,27.343750
2285,27.343750
2286,31.250000
2287,27.343750
2288,31.250000
2289,27.343750
2290,27.343750
2291,27.343750
2292,27.343750
2293,27.343750
2294,27.343750
2295,27.343750
2296,27.343750
2297,27.343750
2298,27.343750
2299,27.343750
2300,27.343750
2301,27.343750
2302,27.343750
2303,31.250000
2304,31.250000
2305,27.343750
2306,27.343750
2307,27.343750
2308,27.343750
2309,27.343750
2310,27.343750
2311,27.343750
2312,27.343750
2313,27.343750
2314,31.250000
2315,31.250000
2316,27.343750
2317,27.343750
2318,27.343750
2319,27.343750
2320,27.343750
2321,27.343750
2322,27.343750
2323,27.343750
2324,27.343750
2325,27.343750
2326,27.343750
2327,27.343750
2328,27.343750
2329,27.343750
2330,27.343750
2331,27.343750
2332,27.343750
2333,27.343750
2334,27.343750
2335,27.343750
2336,27.343750
2337,27.343750
2338,27.343750
2339,27.343750
2340,27.343750
2341,27.343750
2342,27.343750
2343,27.343750
2344,27.343750
2345,27.343750
2346,27.343750
2347,27.343750
2348,27.343750
2349,27.343750
2350,27.343750
2351,27.343750
2352,27.343750
2353,27.343750
2354,27.343750
2355,27.343750
2356,27.343750
2357,27.343750
2358,27.343750
2359,27.343750
2360,27.343750
2361,27.343750
2362,27.343750
2363,27.343750
2364,27.343750
2365,27.343750
2366,23.437500
2367,27.343750
2368,27.343750
2369,27.343750
2370,23.437500
2371,23.437500
2372,23.437500
2373,23.437500
2374,23.437500
2375,23.437500
2376,23.437500
2377,23.437500
2378,23.437500
2379,23.437500
2380,23.437500
2381,23.437500
2382,23.437500
2383,23.437500
2384,23.437500
2385,23.437500
2386,23.437500
2387,23.437500
2388,23.437500
2389,23.437500
2390,23.437500
2391,23.437500
2392,19.531250
2393,23.437500
2394,23.437500
2395,23.437500
2396,23.437500
2397,23.437500
2398,23.437500
2399,23.437500
2400,19.531250
2401,19.531250
2402,19.531250
2403,19.531250
2404,19.531250
2405,19.531250
2406,19.531250
2407,19.531250
2408,19.531250
2409,19.531250
2410,19.531250
2411,19.531250
2412,19.531250
2413,19.531250
2414,19.531250
2415,19.531250
2416,19.531250
2417,19.531250
2418,19.531250
2419,19.531250
2420,15.625000
2421,19.531250
2422,19.531250
2423,19.531250
2424,15.625000
2425,15.625000
2426,15.625000
2427,15.625000
2428,19.531250
2429,15.625000
2430,15.625000
2431,15.625000
2432,15.625000
2433,15.625000
2434,15.625000
2435,15.625000
2436,15.625000
2437,15.625000
2438,15.625000
2439,15.625000
2440,15.625000
2441,15.625000
2442,15.625000
2443,15.625000
2444,11.718750
2445,11.718750
2446,11.718750
2447,11.718750
2448,11.718750
2449,11.718750
2450,11.718750
2451,11.718750
2452,11.718750
2453,11.718750
2454,11.718750
2455,11.718750
2456,11.718750
2457,11.718750
2458,11.718750
2459,11.718750
2460,11.718750
2461,11.718750
2462,11.718750
2463,11.718750
2464,7.812500
2465,7.812500
2466,7.812500
2467,7.812500
2468,7.812500
2469,7.812500
2470,7.812500
2471,7.812500
2472,7.812500
2473,7.812500
2474,7.812500
2475,7.812500
2476,7.812500
2477,7.812500
2478,7.812500
2479,7.812500
2480,7.812500
2481,3.906250
2482,3.906250
2483,3.906250
2484,3.906250
2485,3.906250
2486,3.906250
2487,3.906250
2488,3.906250
2489,3.906250
2490,3.906250
2491,3.906250
2492,3.906250
2493,3.906250
2494,3.906250
2495,3.906250
2496,0.000000
2497,0.000000
2498,0.000000
2499,0.000000
2500,0.000000
2501,0.000000
2502,0.000000
2503,0.000000
2504,0.000000
2505,0.000000
2506,0.000000
2507,0.000000
2508,0.000000
2509,0.000000
2510,0.000000
2511,0.000000
2512,0.000000
2513,-3.906250
2514,-3.906250
2515,-3.906250
2516,-3.906250
2517,-3.906250
2518,-3.906250
2519,-3.906250
2520,-3.906250
2521,-3.906250
2522,-3.906250
2523,-3.906250
2524,-3.906250
2525,-3.906250
2526,-3.906250
2527,-3.906250
2528,-3.906250
2529,-7.812500
2530,-7.812500
2531,-7.812500
2532,-7.812500
2533,-7.812500
2534,-7.812500
2535,-7.812500
2536,-7.812500
2537,-3.906250
2538,-11.718750
2539,-7.812500
2540,-7.812500
2541,-7.812500
2542,-7.812500
2543,-7.812500
2544,-11.718750
2545,-11.718750
2546,-11.718750
2547,-11.718750
2548,-11.718750
2549,-11.718750
2550,-11.718750
2551,-11.718750
2552,-11.718750
2553,-11.718750
2554,-11.718750
2555,-11.718750
2556,-11.718750
2557,-15.625000
2558,-15.625000
2559,-15.625000
2560,-15.625000
2561,-15.625000
2562,-15.625000
2563,-15.625000
2564,-15.625000
2565,-15.625000
2566,-15.625000
2567,-15.625000
2568,-15.625000
2569,-15.625000
2570,-15.625000
2571,-15.625000
2572,-15.625000
2573,-15.625000
2574,-15.625000
2575,-19.531250
2576,-19.531250
2577,-19.531250
2578,-19.531250
2579,-19.531250
2580,-19.531250
2581,-19.531250
2582,-19.531250
2583,-19.531250
2584,-19.531250
2585,-19.531250
2586,-19.531250
2587,-23.437500
2588,-23.437500
2589,-23.437500
2590,-23.437500
2591,-23.437500
2592,-23.437500
2593,-23.437500
2594,-23.437500
2595,-23.437500
2596,-23.437500
2597,-23.437500
2598,-23.437500
2599,-23.437500
2600,-23.437500
2601,-23.437500
2602,-23.437500
2603,-23.437500
2604,-23.437500
2605,-27.343750
2606,-27.343750
2607,-27.343750
2608,-27.343750
2609,-27.343750
2610,-27.343750
2611,-27.343750
2612,-27.343750
2613,-27.343750
2614,-27.343750
2615,-27.343750
2616,-27.343750
2617,-27.343750
2618,-27.343750
2619,-27.343750
2620,-27.343750
2621,-31.250000
2622,-31.250000
2623,-31.250000
2624,-31.250000
2625,-31.250000
2626,-31.250000
2627,-31.250000
2628,-31.250000
2629,-31.250000
2630,-31.250000
2631,-31.250000
2632,-31.250000
2633,-31.250000
2634,-35.156250
2635,-35.156250
2636,-35.156250
2637,-35.156250
2638,-35.156250
2639,-35.156250
2640,-35.156250
2641,-35.156250
2642,-35.156250
2643,-35.156250
2644,-35.156250
2645,-35.156250
2646,-35.156250
2647,-35.156250
2648,-35.156250
2649,-35.156250
2650,-35.156250
2651,-35.156250
2652,-39.062500
2653,-39.062500
2654,-39.062500
2655,-39.062500
2656,-39.062500
2657,-39.062500
2658,-39.062500
2659,-39.062500
2660,-39.062500
2661,-39.062500
2662,-39.062500
2663,-39.062500
2664,-39.062500
2665,-39.062500
2666,-39.062500
2667,-39.062500
2668,-39.062500
2669,-42.968750
2670,-42.968750
2671,-42.968750
2672,-42.968750
2673,-42.968750
2674,-42.968750
2675,-42.968750
2676,-42.968750
2677,-42.968750
2678,-42.968750
2679,-42.968750
2680,-42.968750
2681,-42.968750
2682,-42.968750
2683,-42.968750
2684,-42.968750
2685,-42.968750
2686,-42.968750
2687,-46.875000
2688,-46.875000
2689,-46.875000
2690,-46.875000
2691,-46.875000
2692,-46.875000
2693,-46.875000
2694,-46.875000
2695,-46.875000
2696,-46.875000
2697,-46.875000
2698,-46.875000
2699,-46.875000
2700,-46.875000
2701,-46.875000
2702,-46.875000
2703,-46.875000
2704,-46.875000
2705,-46.875000
2706,-46.875000
2707,-46.875000
2708,-46.875000
2709,-46.875000
2710,-46.875000
2711,-46.875000
2712,-46.875000
2713,-46.875000
2714,-46.875000
2715,-50.781250
2716,-50.781250
2717,-50.781250
2718,-50.781250
2719,-50.781250
2720,-50.781250
2721,-50.781250
2722,-50.781250
2723,-50.781250
2724,-50.781250
2725,-50.781250
2726,-50.781250
2727,-50.781250
2728,-50.781250
2729,-50.781250
2730,-50.781250
2731,-50.781250
2732,-50.781250
2733,-50.781250
2734,-50.781250
2735,-50.781250
2736,-50.781250
2737,-50.781250
2738,-54.687500
2739,-54.687500
2740,-54.687500
2741,-50.781250
2742,-54.687500
2743,-54.687500
2744,-54.687500
2745,-54.687500
2746,-54.687500
2747,-54.687500
2748,-54.687500
2749,-50.781250
2750,-54.687500
2751,-54.687500
2752,-54.687500
2753,-54.687500
2754,-54.687500
2755,-54.687500
2756,-54.687500
2757,-54.687500
2758,-54.687500
2759,-54.687500
2760,-54.687500
2761,-54.687500
2762,-54.687500
2763,-54.687500
2764,-54.687500
2765,-54.687500
2766,-54.687500
2767,-54.687500
2768,-54.687500
2769,-54.687500
2770,-54.687500
2771,-54.687500
2772,-54.687500
2773,-54.687500
2774,-58.593750
2775,-54.687500
2776,-54.687500
2777,-54.687500
2778,-54.687500
2779,-54.687500
2780,-54.687500
2781,-54.687500
2782,-58.593750
2783,-54.687500
2784,-54.687500
2785,-54.687500
2786,-54.687500
2787,-54.687500
2788,-54.687500
2789,-54.687500
2790,-54.687500
2791,-54.687500
2792,-54.687500
2793,-58.593750
2794,-54.687500
2795,-58.593750
2796,-58.593750
2797,-58.593750
2798,-58.593750
2799,-54.687500
2800,-54.687500
2801,-54.687500
2802,-54.687500
2803,-58.593750
2804,-58.593750
2805,-58.593750
2806,-54.687500
2807,-58.593750
2808,-54.687500
2809,-54.687500
2810,-54.687500
2811,-54.687500
2812,-54.687500
2813,-58.593750
2814,-58.593750
2815,-54.687500
2816,-58.593750
2817,-58.593750
2818,-58.593750
2819,-54.687500
2820,-54.687500
2821,-54.687500
2822,-54.687500
2823,-54.687500
2824,-54.687500
2825,-54.687500
2826,-54.687500
2827,-54.687500
2828,-54.687500
2829,-54.687500
2830,-54.687500
2831,-54.687500
2832,-54.687500
2833,-54.687500
2834,-54.687500
2835,-54.687500
2836,-54.687500
2837,-54.687500
2838,-54.687500
2839,-54.687500
2840,-54.687500
2841,-54.687500
2842,-54.687500
2843,-54.687500
2844,-54.687500
2845,-54.687500
2846,-54.687500
2847,-54.687500
2848,-54.687500
2849,-54.687500
2850,-54.687500
2851,-54.687500
2852,-54.687500
2853,-54.687500
2854,-54.687500
2855,-54.687500
2856,-54.687500
2857,-54.687500
2858,-54.687500
2859,-54.687500
2860,-54.687500
2861,-50.781250
2862,-54.687500
2863,-54.687500
2864,-54.687500
2865,-54.687500
2866,-54.687500
2867,-54.687500
2868,-50.781250
2869,-50.781250
2870,-50.781250
2871,-50.781250
2872,-54.687500
2873,-54.687500
2874,-54.687500
2875,-54.687500
2876,-54.687500
2877,-50.781250
2878,-50.781250
2879,-50.781250
2880,-50.781250
2881,-50.781250
2882,-50.781250
2883,-50.781250
2884,-50.781250
2885,-50.781250
2886,-50.781250
2887,-50.781250
2888,-50.781250
2889,-50.781250
2890,-50.781250
2891,-50.781250
2892,-50.781250
2893,-50.781250
2894,-50.781250
2895,-50.781250
2896,-50.781250
2897,-50.781250
2898,-50.781250
2899,-50.781250
2900,-46.875000
2901,-46.875000
2902,-46.875000
2903,-46.875000
2904,-46.875000
2905,-46.875000
2906,-46.875000
2907,-46.875000
2908,-46.875000
2909,-46.875000
2910,-46.875000
2911,-46.875000
2912,-46.875000
2913,-46.875000
2914,-46.875000
2915,-46.875000
2916,-46.875000
2917,-46.875000
2918,-46.875000
2919,-46.875000
2920,-46.875000
2921,-42.968750
2922,-42.968750
2923,-42.968750
2924,-42.968750
2925,-42.968750
2926,-42.968750
2927,-42.968750
2928,-42.968750
2929,-42.968750
2930,-42.968750
2931,-42.968750
2932,-42.968750
2933,-42.968750
2934,-42.968750
2935,-42.968750
2936,-42.968750
2937,-42.968750
2938,-39.062500
2939,-39.062500
2940,-42.968750
2941,-39.062500
2942,-39.062500
2943,-39.062500
2944,-39.062500
2945,-39.062500
2946,-39.062500
2947,-39.062500
2948,-39.062500
2949,-39.062500
2950,-39.062500
2951,-39.062500
2952,-39.062500
2953,-39.062500
2954,-39.062500
2955,-39.062500
2956,-39.062500
2957,-39.062500
2958,-35.156250
2959,-35.156250
2960,-35.156250
2961,-35.156250
2962,-35.156250
2963,-35.156250
2964,-35.156250
2965,-35.156250
2966,-35.156250
2967,-35.156250
2968,-35.156250
2969,-35.156250
2970,-35.156250
2971,-35.156250
2972,-35.156250
2973,-35.156250
2974,-35.156250
2975,-31.250000
2976,-31.250000
2977,-31.250000
2978,-31.250000
2979,-31.250000
2980,-31.250000
2981,-31.250000
2982,-31.250000
2983,-31.250000
2984,-31.250000
2985,-31.250000
2986,-31.250000
2987,-27.343750
2988,-31.250000
2989,-27.343750
2990,-27.343750
2991,-27.343750
2992,-27.343750
2993,-27.343750
2994,-27.343750
2995,-27.343750
2996,-27.343750
2997,-27.343750
2998,-27.343750
2999,-23.437500
3000,-27.343750
3001,-23.437500
3002,-27.343750
3003,-23.437500
3004,-27.343750
3005,-23.437500
3006,-23.437500
3007,-23.437500
3008,-23.437500
3009,-23.437500
3010,-23.437500
3011,-23.437500
3012,-23.437500
3013,-23.437500
3014,-23.437500
3015,-23.437500
3016,-23.437500
3017,-23.437500
3018,-19.531250
3019,-19.531250
3020,-19.531250
3021,-19.531250
3022,-19.531250
3023,-19.531250
3024,-19.531250
3025,-19.531250
3026,-19.531250
3027,-19.531250
3028,-19.531250
3029,-19.531250
3030,-15.625000
3031,-15.625000
3032,-15.625000
3033,-15.625000
3034,-15.625000
3035,-15.625000
3036,-15.625000
3037,-15.625000
3038,-15.625000
3039,-15.625000
3040,-15.625000
3041,-15.625000
3042,-15.625000
3043,-15.625000
3044,-15.625000
3045,-11.718750
3046,-11.718750
3047,-11.718750
3048,-11.718750
3049,-11.718750
3050,-11.718750
3051,-11.718750
3052,-11.718750
3053,-11.718750
3054,-11.718750
3055,-11.718750
3056,-11.718750
3057,-7.812500
3058,-11.718750
3059,-7.812500
3060,-7.812500
3061,-7.812500
3062,-7.812500
3063,-7.812500
3064,-7.812500
3065,-7.812500
3066,-7.812500
3067,-7.812500
3068,-7.812500
3069,-7.812500
3070,-7.812500
3071,-3.906250
3072,-3.906250
3073,-3.906250
3074,-3.906250
3075,-3.906250
3076,-3.906250
3077,-3.906250
3078,-3.906250
3079,-3.906250
3080,-3.906250
3081,-3.906250
3082,-3.906250
3083,-3.906250
3084,0.000000
3085,-3.906250
3086,-3.906250
3087,-3.906250
3088,0.000000
3089,0.000000
3090,0.000000
3091,0.000000
3092,0.000000
3093,0.000000
3094,0.000000
3095,0.000000
3096,0.000000
3097,0.000000
3098,0.000000
3099,0.000000
3100,0.000000
3101,0.000000
3102,3.906250
3103,3.906250
3104,3.906250
3105,3.906250
3106,3.906250
3107,3.906250
3108,3.906250
3109,3.906250
3110,3.906250
3111,3.906250
3112,3.906250
3113,3.906250
3114,3.906250
3115,7.812500
3116,3.906250
3117,3.906250
3118,3.906250
3119,3.906250
3120,7.812500
3121,7.812500
3122,7.812500
3123,7.812500
3124,7.812500
3125,7.812500
3126,7.812500
3127,7.812500
3128,7.812500
3129,7.812500
3130,7.812500
3131,7.812500
3132,7.812500
3133,11.718750
3134,11.718750
3135,11.718750
3136,11.718750
3137,11.718750
3138,11.718750
3139,11.718750
3140,11.718750
3141,11.718750
3142,11.718750
3143,11.718750
3144,11.718750
3145,11.718750
3146,11.718750
3147,11.718750
3148,11.718750
3149,11.718750
3150,15.625000
3151,15.625000
3152,15.625000
3153,15.625000
3154,15.625000
3155,15.625000
3156,15.625000
3157,15.625000
3158,15.625000
3159,15.625000
3160,15.625000
3161,15.625000
3162,15.625000
3163,15.625000
3164,15.625000
3165,15.625000
3166,15.625000
3167,15.625000
3168,15.625000
3169,15.625000
3170,15.625000
3171,19.531250
3172,19.531250
3173,19.531250
3174,19.531250
3175,19.531250
3176,19.531250
3177,19.531250
3178,19.531250
3179,19.531250
3180,19.531250
3181,19.531250
3182,19.531250
3183,19.531250
3184,19.531250
3185,19.531250
3186,19.531250
3187,19.531250
3188,19.531250
3189,19.531250
3190,19.531250
3191,23.437500
3192,19.531250
3193,23.437500
3194,23.437500
3195,23.437500
3196,23.437500
3197,23.437500
3198,23.437500
3199,23.437500
3200,23.437500
3201,23.437500
3202,23.437500
3203,23.437500
3204,23.437500
3205,23.437500
3206,23.437500
3207,23.437500
3208,23.437500
3209,23.437500
3210,23.437500
3211,23.437500
3212,23.437500
3213,23.437500
3214,23.437500
3215,23.437500
3216,23.437500
3217,23.437500
3218,23.437500
3219,23.437500
3220,27.343750
3221,27.343750
3222,27.343750
3223,23.437500
3224,27.343750
3225,23.437500
3226,27.343750
3227,27.343750
3228,27.343750
3229,27.343750
3230,27.343750
3231,27.343750
3232,27.343750
3233,27.343750
3234,27.343750
3235,27.343750
3236,27.343750
3237,27.343750
3238,27.343750
3239,27.343750
3240,27.343750
3241,27.343750
3242,27.343750
3243,27.343750
3244,27.343750
3245,27.343750
3246,27.343750
3247,27.343750
3248,27.343750
3249,27.343750
3250,27.343750
3251,27.343750
3252,27.343750
3253,27.343750
3254,27.343750
3255,27.343750
3256,27.343750
3257,27.343750
3258,27.343750
3259,27.343750
3260,27.343750
3261,27.343750
3262,27.343750
3263,27.343750
3264,27.343750
3265,27.343750
3266,27.343750
3267,27.343750
3268,27.343750
3269,27.343750
3270,27.343750
3271,27.343750
3272,27.343750
3273,27.343750
3274,27.343750
3275,27.343750
3276,27.343750
3277,27.343750
3278,27.343750
3279,27.343750
3280,27.343750
3281,27.343750
3282,27.343750
3283,31.250000
3284,27.343750
3285,31.250000
3286,27.343750
3287,27.343750
3288,27.343750
3289,31.250000
3290,27.343750
3291,27.343750
3292,27.343750
3293,27.343750
3294,27.343750
3295,27.343750
3296,27.343750
3297,31.250000
3298,27.343750
3299,27.343750
3300,27.343750
3301,31.250000
3302,27.343750
3303,31.250000
3304,27.343750
3305,27.343750
3306,27.343750
3307,27.343750
3308,27.343750
3309,27.343750
3310,27.343750
3311,27.343750
3312,27.343750
3313,27.343750
3314,27.343750
3315,31.250000
3316,27.343750
3317,27.343750
3318,27.343750
3319,27.343750
3320,27.343750
3321,27.343750
3322,27.343750
3323,27.343750
3324,27.343750
3325,27.343750
3326,27.343750
3327,27.343750
3328,27.343750
3329,27.343750
3330,27.343750
3331,27.343750
3332,27.343750
3333,27.343750
3334,27.343750
3335,27.343750
3336,27.343750
3337,27.343750
3338,27.343750
3339,27.343750
3340,27.343750
3341,27.343750
3342,27.343750
3343,27.343750
3344,27.343750
3345,27.343750
3346,27.343750
3347,27.343750
3348,27.343750
3349,27.343750
3350,27.343750
3351,27.343750
3352,27.343750
3353,27.343750
3354,27.343750
3355,27.343750
3356,23.437500
3357,23.437500
3358,27.343750
3359,27.343750
3360,23.437500
3361,27.343750
3362,27.343750
3363,27.343750
3364,23.437500
3365,23.437500
3366,23.437500
3367,23.437500
3368,23.437500
3369,23.437500
3370,23.437500
3371,23.437500
3372,23.437500
3373,23.437500
3374,23.437500
3375,23.437500
3376,23.437500
3377,23.437500
3378,23.437500
3379,23.437500
3380,23.437500
3381,23.437500
3382,23.437500
3383,23.437500
3384,23.437500
3385,23.437500
3386,23.437500
3387,19.531250
3388,19.531250
3389,23.437500
3390,23.437500
3391,23.437500
3392,19.531250
3393,19.531250
3394,19.531250
3395,19.531250
3396,19.531250
3397,19.531250
3398,23.437500
3399,19.531250
3400,19.531250
3401,19.531250
3402,19.531250
3403,19.531250
3404,19.531250
3405,19.531250
3406,19.531250
3407,19.531250
3408,19.531250
3409,19.531250
3410,19.531250
3411,19.531250
3412,19.531250
3413,15.625000
3414,15.625000
3415,15.625000
3416,15.625000
3417,15.625000
3418,15.625000
3419,15.625000
3420,15.625000
3421,15.625000
3422,15.625000
3423,15.625000
3424,15.625000
3425,15.625000
3426,15.625000
3427,15.625000
3428,15.625000
3429,15.625000
3430,15.625000
3431,11.718750
3432,11.718750
3433,15.625000
3434,15.625000
3435,15.625000
3436,15.625000
3437,11.718750
3438,11.718750
3439,11.718750
3440,11.718750
3441,11.718750
3442,11.718750
3443,11.718750
3444,11.718750
3445,11.718750
3446,11.718750
3447,11.718750
3448,11.718750
3449,11.718750
3450,11.718750
3451,7.812500
3452,7.812500
3453,11.718750
3454,11.718750
3455,7.812500
3456,7.812500
3457,7.812500
3458,7.812500
3459,7.812500
3460,7.812500
3461,7.812500
3462,7.812500
3463,7.812500
3464,7.812500
3465,7.812500
3466,7.812500
3467,3.906250
3468,3.906250
3469,7.812500
3470,7.812500
3471,7.812500
3472,3.906250
3473,3.906250
3474,3.906250
3475,3.906250
3476,3.906250
3477,3.906250
3478,3.906250
3479,3.906250
3480,3.906250
3481,3.906250
3482,3.906250
3483,3.906250
3484,0.000000
3485,0.000000
3486,0.000000
3487,3.906250
3488,0.000000
3489,3.906250
3490,0.000000
3491,0.000000
3492,0.000000
3493,0.000000
3494,0.000000
3495,0.000000
3496,0.000000
3497,0.000000
3498,0.000000
3499,0.000000
3500,0.000000
3501,-3.906250
3502,-3.906250
3503,-3.906250
3504,-3.906250
3505,-3.906250
3506,-3.906250
3507,-3.906250
3508,-3.906250
3509,-3.906250
3510,-3.906250
3511,-3.906250
3512,-3.906250
3513,-3.906250
3514,-3.906250
3515,-3.906250
3516,-3.906250
3517,-3.906250
3518,-7.812500
3519,-7.812500
3520,-7.812500
3521,-7.812500
3522,-7.812500
3523,-7.812500
3524,-7.812500
3525,-7.812500
3526,-7.812500
3527,-7.812500
3528,-7.812500
3529,-7.812500
3530,-11.718750
3531,-11.718750
3532,-7.812500
3533,-7.812500
3534,-11.718750
3535,-11.718750
3536,-11.718750
3537,-11.718750
3538,-11.718750
3539,-11.718750
3540,-11.718750
3541,-11.718750
3542,-11.718750
3543,-11.718750
3544,-11.718750
3545,-11.718750
3546,-15.625000
3547,-15.625000
3548,-15.625000
3549,-15.625000
3550,-15.625000
3551,-15.625000
3552,-15.625000
3553,-15.625000
3554,-15.625000
3555,-15.625000
3556,-15.625000
3557,-15.625000
3558,-15.625000
3559,-15.625000
3560,-15.625000
3561,-15.625000
3562,-19.531250
3563,-19.531250
3564,-19.531250
3565,-19.531250
3566,-19.531250
3567,-19.531250
3568,-19.531250
3569,-19.531250
3570,-19.531250
3571,-19.531250
3572,-19.531250
3573,-19.531250
3574,-19.531250
3575,-19.531250
3576,-19.531250
3577,-19.531250
3578,-19.531250
3579,-19.531250
3580,-23.437500
3581,-23.437500
3582,-23.437500
3583,-23.437500
3584,-23.437500
3585,-23.437500
3586,-23.437500
3587,-23.437500
3588,-23.437500
3589,-23.437500
3590,-23.437500
3591,-27.343750
3592,-27.343750
3593,-27.343750
3594,-27.343750
3595,-27.343750
3596,-27.343750
3597,-27.343750
3598,-27.343750
3599,-27.343750
3600,-27.343750
3601,-27.343750
3602,-27.343750
3603,-27.343750
3604,-27.343750
3605,-27.343750
3606,-27.343750
3607,-27.343750
3608,-27.343750
3609,-27.343750
3610,-27.343750
3611,-31.250000
3612,-31.250000
3613,-31.250000
3614,-31.250000
3615,-31.250000
3616,-31.250000
3617,-31.250000
3618,-31.250000
3619,-31.250000
3620,-31.250000
3621,-31.250000
3622,-31.250000
3623,-31.250000
3624,-35.156250
3625,-35.156250
3626,-35.156250
3627,-35.156250
3628,-35.156250
3629,-35.156250
3630,-35.156250
3631,-35.156250
3632,-35.156250
3633,-35.156250
3634,-35.156250
3635,-35.156250
3636,-35.156250
3637,-35.156250
3638,-35.156250
3639,-39.062500
3640,-39.062500
3641,-39.062500
3642,-39.062500
3643,-39.062500
3644,-39.062500
3645,-39.062500
3646,-39.062500
3647,-39.062500
3648,-39.062500
3649,-39.062500
3650,-39.062500
3651,-39.062500
3652,-39.062500
3653,-39.062500
3654,-39.062500
3655,-39.062500
3656,-39.062500
3657,-39.062500
3658,-39.062500
3659,-39.062500
3660,-42.968750
3661,-42.968750
3662,-42.968750
3663,-42.968750
3664,-42.968750
3665,-42.968750
3666,-42.968750
3667,-42.968750
3668,-42.968750
3669,-42.968750
3670,-42.968750
3671,-42.968750
3672,-42.968750
3673,-42.968750
3674,-42.968750
3675,-42.968750
3676,-42.968750
3677,-42.968750
3678,-42.968750
3679,-46.875000
3680,-46.875000
3681,-46.875000
3682,-46.875000
3683,-46.875000
3684,-46.875000
3685,-46.875000
3686,-46.875000
3687,-46.875000
3688,-46.875000
3689,-46.875000
3690,-46.875000
3691,-46.875000
3692,-46.875000
3693,-46.875000
3694,-46.875000
3695,-46.875000
3696,-46.875000
3697,-46.875000
3698,-46.875000
3699,-46.875000
3700,-50.781250
3701,-50.781250
3702,-50.781250
3703,-50.781250
3704,-50.781250
3705,-50.781250
3706,-50.781250
3707,-50.781250
3708,-50.781250
3709,-50.781250
3710,-50.781250
3711,-50.781250
3712,-50.781250
3713,-50.781250
3714,-50.781250
3715,-50.781250
3716,-50.781250
3717,-50.781250
3718,-50.781250
3719,-50.781250
3720,-50.781250
3721,-50.781250
3722,-54.687500
3723,-50.781250
3724,-50.781250
3725,-50.781250
3726,-50.781250
3727,-50.781250
3728,-50.781250
3729,-50.781250
3730,-54.687500
3731,-54.687500
3732,-54.687500
3733,-54.687500
3734,-54.687500
3735,-54.687500
3736,-54.687500
3737,-54.687500
3738,-54.687500
3739,-54.687500
3740,-54.687500
3741,-54.687500
3742,-54.687500
3743,-54.687500
3744,-54.687500
3745,-54.687500
3746,-54.687500
3747,-54.687500
3748,-54.687500
3749,-54.687500
3750,-54.687500
3751,-54.687500
3752,-54.687500
3753,-54.687500
3754,-54.687500
3755,-54.687500
3756,-54.687500
3757,-54.687500
3758,-54.687500
3759,-54.687500
3760,-54.687500
3761,-54.687500
3762,-54.687500
3763,-54.687500
3764,-54.687500
3765,-54.687500
3766,-54.687500
3767,-54.687500
3768,-54.687500
3769,-54.687500
3770,-54.687500
3771,-54.687500
3772,-54.687500
3773,-58.593750
3774,-54.687500
3775,-58.593750
3776,-54.687500
3777,-54.687500
3778,-54.687500
3779,-54.687500
3780,-54.687500
3781,-54.687500
3782,-58.593750
3783,-54.687500
3784,-58.593750
3785,-58.593750
3786,-54.687500
3787,-54.687500
3788,-54.687500
3789,-54.687500
3790,-58.593750
3791,-58.593750
3792,-58.593750
3793,-58.593750
3794,-58.593750
3795,-54.687500
3796,-58.593750
3797,-54.687500
3798,-54.687500
3799,-54.687500
3800,-58.593750
3801,-58.593750
3802,-58.593750
3803,-58.593750
3804,-58.593750
3805,-54.687500
3806,-58.593750
3807,-54.687500
3808,-54.687500
3809,-54.687500
3810,-54.687500
3811,-58.593750
3812,-54.687500
3813,-54.687500
3814,-54.687500
3815,-54.687500
3816,-54.687500
3817,-58.593750
3818,-54.687500
3819,-54.687500
3820,-54.687500
3821,-54.687500
3822,-54.687500
3823,-54.687500
3824,-54.687500
3825,-54.687500
3826,-54.687500
3827,-54.687500
3828,-54.687500
3829,-54.687500
3830,-54.687500
3831,-54.687500
3832,-54.687500
3833,-54.687500
3834,-54.687500
3835,-54.687500
3836,-54.687500
3837,-54.687500
3838,-54.687500
3839,-54.687500
3840,-54.687500
3841,-54.687500
3842,-54.687500
3843,-54.687500
3844,-54.687500
3845,-54.687500
3846,-54.687500
3847,-54.687500
3848,-54.687500
3849,-54.687500
3850,-54.687500
3851,-54.687500
3852,-54.687500
3853,-54.687500
3854,-54.687500
3855,-54.687500
3856,-54.687500
3857,-54.687500
3858,-54.687500
3859,-54.687500
3860,-50.781250
3861,-50.781250
3862,-50.781250
3863,-50.781250
3864,-50.781250
3865,-50.781250
3866,-50.781250
3867,-50.781250
3868,-50.781250
3869,-50.781250
3870,-50.781250
3871,-50.781250
3872,-50.781250
3873,-50.781250
3874,-50.781250
3875,-50.781250
3876,-50.781250
3877,-50.781250
3878,-50.781250
3879,-50.781250
3880,-50.781250
3881,-50.781250
3882,-46.875000
3883,-50.781250
3884,-46.875000
3885,-50.781250
3886,-50.781250
3887,-50.781250
3888,-50.781250
3889,-46.875000
3890,-46.875000
3891,-46.875000
3892,-46.875000
3893,-46.875000
3894,-46.875000
3895,-46.875000
3896,-46.875000
3897,-46.875000
3898,-46.875000
3899,-46.875000
3900,-46.875000
3901,-46.875000
3902,-46.875000
3903,-46.875000
3904,-46.875000
3905,-46.875000
3906,-46.875000
3907,-42.968750
3908,-46.875000
3909,-46.875000
3910,-46.875000
3911,-46.875000
3912,-42.968750
3913,-42.968750
3914,-42.968750
3915,-42.968750
3916,-42.968750
3917,-42.968750
3918,-42.968750
3919,-42.968750
3920,-42.968750
3921,-42.968750
3922,-42.968750
3923,-42.968750
3924,-42.968750
3925,-42.968750
3926,-42.968750
3927,-42.968750
3928,-42.968750
3929,-42.968750
3930,-39.062500
3931,-39.062500
3932,-39.062500
3933,-39.062500
3934,-39.062500
3935,-39.062500
3936,-39.062500
3937,-39.062500
3938,-39.062500
3939,-39.062500
3940,-39.062500
3941,-35.156250
3942,-39.062500
3943,-35.156250
3944,-39.062500
3945,-39.062500
3946,-39.062500
3947,-35.156250
3948,-35.156250
3949,-35.156250
3950,-35.156250
3951,-35.156250
3952,-35.156250
3953,-35.156250
3954,-35.156250
3955,-35.156250
3956,-35.156250
3957,-35.156250
3958,-35.156250
3959,-31.250000
3960,-31.250000
3961,-31.250000
3962,-31.250000
3963,-31.250000
3964,-35.156250
3965,-31.250000
3966,-31.250000
3967,-31.250000
3968,-31.250000
3969,-31.250000
3970,-31.250000
3971,-31.250000
3972,-31.250000
3973,-31.250000
3974,-31.250000
3975,-31.250000
3976,-31.250000
3977,-27.343750
3978,-27.343750
3979,-27.343750
3980,-27.343750
3981,-27.343750
3982,-27.343750
3983,-27.343750
3984,-27.343750
3985,-27.343750
3986,-27.343750
3987,-27.343750
3988,-23.437500
3989,-23.437500
3990,-23.437500
3991,-23.437500
3992,-27.343750
3993,-23.437500
3994,-23.437500
3995,-23.437500
3996,-23.437500
3997,-23.437500
3998,-23.437500
3999,-23.437500
4000,-23.437500
4001,-23.437500
4002,-23.437500
4003,-23.437500
4004,-23.437500
4005,-19.531250
4006,-19.531250
4007,-19.531250
4008,-19.531250
4009,-19.531250
4010,-19.531250
4011,-19.531250
4012,-19.531250
4013,-19.531250
4014,-19.531250
4015,-19.531250
4016,-15.625000
4017,-19.531250
4018,-19.531250
4019,-15.625000
4020,-15.625000
4021,-15.625000
4022,-15.625000
4023,-15.625000
4024,-15.625000
4025,-15.625000
4026,-15.625000
4027,-15.625000
4028,-15.625000
4029,-15.625000
4030,-15.625000
4031,-15.625000
4032,-15.625000
4033,-15.625000
4034,-15.625000
4035,-11.718750
4036,-11.718750
4037,-11.718750
4038,-11.718750
4039,-11.718750
4040,-11.718750
4041,-11.718750
4042,-11.718750
4043,-11.718750
4044,-11.718750
4045,-11.718750
4046,-11.718750
4047,-11.718750
4048,-7.812500
4049,-7.812500
4050,-7.812500
4051,-7.812500
4052,-7.812500
4053,-7.812500
4054,-7.812500
4055,-7.812500
4056,-7.812500
4057,-7.812500
4058,-7.812500
4059,-7.812500
4060,-7.812500
4061,-7.812500
4062,-3.906250
4063,-7.812500
4064,-7.812500
4065,-3.906250
4066,-3.906250
4067,-3.906250
4068,-3.906250
4069,-3.906250
4070,-3.906250
4071,-3.906250
4072,-3.906250
4073,-3.906250
4074,-3.906250
4075,-3.906250
4076,0.000000
4077,0.000000
4078,0.000000
4079,0.000000
4080,0.000000
4081,0.000000
4082,-3.906250
4083,0.000000
4084,0.000000
4085,0.000000
4086,0.000000
4087,0.000000
4088,0.000000
4089,3.906250
4090,3.906250
4091,0.000000
4092,3.906250
4093,3.906250
4094,3.906250
4095,3.906250
4096,3.906250
4097,3.906250
4098,3.906250
4099,3.906250
4100,3.906250
4101,3.906250
4102,3.906250
4103,3.906250
4104,3.906250
4105,3.906250
4106,7.812500
4107,7.812500
4108,7.812500
4109,7.812500
4110,7.812500
4111,7.812500
4112,7.812500
4113,7.812500
4114,7.812500
4115,7.812500
4116,7.812500
4117,7.812500
4118,7.812500
4119,7.812500
4120,7.812500
4121,11.718750
4122,11.718750
4123,7.812500
4124,11.718750
4125,11.718750
4126,11.718750
4127,11.718750
4128,11.718750
4129,11.718750
4130,11.718750
4131,11.718750
4132,11.718750
4133,11.718750
4134,11.718750
4135,11.718750
4136,11.718750
4137,11.718750
4138,11.718750
4139,11.718750
4140,11.718750
4141,15.625000
4142,15.625000
4143,15.625000
4144,15.625000
4145,15.625000
4146,15.625000
4147,15.625000
4148,15.625000
4149,15.625000
4150,15.625000
4151,15.625000
4152,15.625000
4153,15.625000
4154,15.625000
4155,15.625000
4156,15.625000
4157,15.625000
4158,15.625000
4159,15.625000
4160,15.625000
4161,19.531250
4162,15.625000
4163,19.531250
4164,15.625000
4165,19.531250
4166,15.625000
4167,19.531250
4168,19.531250
4169,19.531250
4170,19.531250
4171,23.437500
4172,19.531250
4173,19.531250
4174,19.531250
4175,19.531250
4176,19.531250
4177,19.531250
4178,19.531250
4179,19.531250
4180,19.531250
4181,23.437500
4182,19.531250
4183,23.437500
4184,23.437500
4185,23.437500
4186,19.531250
4187,19.531250
4188,19.531250
4189,23.437500
4190,23.437500
4191,23.437500
4192,23.437500
4193,23.437500
4194,23.437500
4195,23.437500
4196,23.437500
4197,23.437500
4198,23.437500
4199,23.437500
4200,23.437500
4201,23.437500
4202,23.437500
4203,23.437500
4204,23.437500
4205,23.437500
4206,23.437500
4207,23.437500
4208,23.437500
4209,23.437500
4210,23.437500
4211,23.437500
4212,23.437500
4213,23.437500
4214,23.437500
4215,27.343750
4216,23.437500
4217,27.343750
4218,23.437500
4219,27.343750
4220,27.343750
4221,23.437500
4222,27.343750
4223,27.343750
4224,27.343750
4225,27.343750
4226,27.343750
4227,27.343750
4228,27.343750
4229,27.343750
4230,27.343750
4231,27.343750
4232,27.343750
4233,27.343750
4234,27.343750
4235,27.343750
4236,27.343750
4237,27.343750
4238,27.343750
4239,27.343750
4240,27.343750
4241,27.343750
4242,27.343750
4243,27.343750
4244,27.343750
4245,27.343750
4246,27.343750
4247,27.343750
4248,27.343750
4249,27.343750
4250,27.343750
4251,27.343750
4252,27.343750
4253,27.343750
4254,27.343750
4255,27.343750
4256,27.343750
4257,27.343750
4258,27.343750
4259,27.343750
4260,27.343750
4261,27.343750
4262,27.343750
4263,27.343750
4264,27.343750
4265,27.343750
4266,27.343750
4267,31.250000
4268,27.343750
4269,27.343750
4270,27.343750
4271,27.343750
4272,27.343750
4273,27.343750
4274,31.250000
4275,31.250000
4276,31.250000
4277,27.343750
4278,27.343750
4279,27.343750
4280,27.343750
4281,27.343750
4282,31.250000
4283,27.343750
4284,27.343750
4285,31.250000
4286,27.343750
4287,27.343750
4288,31.250000
4289,27.343750
4290,27.343750
4291,31.250000
4292,27.343750
4293,27.343750
4294,27.343750
4295,27.343750
4296,27.343750
4297,27.343750
4298,27.343750
4299,27.343750
4300,27.343750
4301,27.343750
4302,27.343750
4303,27.343750
4304,27.343750
4305,31.250000
4306,27.343750
4307,27.343750
4308,27.343750
4309,27.343750
4310,27.343750
4311,27.343750
4312,27.343750
4313,27.343750
4314,27.343750
4315,27.343750
4316,27.343750
4317,27.343750
4318,27.343750
4319,27.343750
4320,27.343750
4321,27.343750
4322,27.343750
4323,27.343750
4324,27.343750
4325,27.343750
4326,27.343750
4327,27.343750
4328,27.343750
4329,27.343750
4330,27.343750
4331,27.343750
4332,27.343750
4333,27.343750
4334,27.343750
4335,27.343750
4336,27.343750
4337,27.343750
4338,27.343750
4339,27.343750
4340,27.343750
4341,27.343750
4342,27.343750
4343,27.343750
4344,27.343750
4345,27.343750
4346,23.437500
4347,23.437500
4348,27.343750
4349,27.343750
4350,27.343750
4351,27.343750
4352,23.437500
4353,23.437500
4354,23.437500
4355,23.437500
4356,23.437500
4357,23.437500
4358,23.437500
4359,23.437500
4360,23.437500
4361,23.437500
4362,23.437500
4363,23.437500
4364,23.437500
4365,23.437500
4366,23.437500
4367,23.437500
4368,23.437500
4369,23.437500
4370,23.437500
4371,23.437500
4372,23.437500
4373,23.437500
4374,23.437500
4375,23.437500
4376,23.437500
4377,23.437500
4378,23.437500
4379,23.437500
4380,23.437500
4381,19.531250
4382,19.531250
4383,19.531250
4384,19.531250
4385,19.531250
4386,19.531250
4387,19.531250
4388,19.531250
4389,19.531250
4390,19.531250
4391,19.531250
4392,19.531250
4393,19.531250
4394,19.531250
4395,19.531250
4396,19.531250
4397,19.531250
4398,19.531250
4399,19.531250
4400,19.531250
4401,19.531250
4402,19.531250
4403,19.531250
4404,15.625000
4405,15.625000
4406,15.625000
4407,15.625000
4408,15.625000
4409,15.625000
4410,15.625000
4411,15.625000
4412,15.625000
4413,15.625000
4414,15.625000
4415,15.625000
4416,15.625000
4417,15.625000
4418,15.625000
4419,15.625000
4420,15.625000
4421,15.625000
4422,15.625000
4423,15.625000
4424,11.718750
4425,15.625000
4426,15.625000
4427,11.718750
4428,11.718750
4429,11.718750
4430,11.718750
4431,11.718750
4432,11.718750
4433,11.718750
4434,11.718750
4435,11.718750
4436,11.718750
4437,11.718750
4438,11.718750
4439,11.718750
4440,11.718750
4441,11.718750
4442,7.812500
4443,7.812500
4444,7.812500
4445,7.812500
4446,7.812500
4447,7.812500
4448,7.812500
4449,7.812500
4450,7.812500
4451,11.718750
4452,7.812500
4453,7.812500
4454,7.812500
4455,7.812500
4456,7.812500
4457,7.812500
4458,7.812500
4459,3.906250
4460,7.812500
4461,7.812500
4462,3.906250
4463,7.812500
4464,3.906250
4465,3.906250
4466,3.906250
4467,3.906250
4468,3.906250
4469,3.906250
4470,3.906250
4471,3.906250
4472,3.906250
4473,3.906250
4474,0.000000
4475,3.906250
4476,3.906250
4477,3.906250
4478,3.906250
4479,0.000000
4480,0.000000
4481,0.000000
4482,0.000000
4483,0.000000
4484,-3.906250
4485,0.000000
4486,0.000000
4487,0.000000
4488,0.000000
4489,0.000000
4490,0.000000
4491,0.000000
4492,0.000000
4493,0.000000
4494,-3.906250
4495,0.000000
4496,-3.906250
4497,-3.906250
4498,-3.906250
4499,-3.906250
4500,-3.906250
4501,-3.906250
4502,-3.906250
4503,-3.906250
4504,-3.906250
4505,-3.906250
4506,-7.812500
4507,-3.906250
4508,-3.906250
4509,-3.906250
4510,-7.812500
4511,-7.812500
4512,-7.812500
4513,-7.812500
4514,-7.812500
4515,-7.812500
4516,-7.812500
4517,-7.812500
4518,-7.812500
4519,-7.812500
4520,-7.812500
4521,-7.812500
4522,-7.812500
4523,-7.812500
4524,-11.718750
4525,-11.718750
4526,-11.718750
4527,-11.718750
4528,-11.718750
4529,-11.718750
4530,-11.718750
4531,-11.718750
4532,-11.718750
4533,-11.718750
4534,-11.718750
4535,-11.718750
4536,-15.625000
4537,-11.718750
4538,-15.625000
4539,-15.625000
4540,-15.625000
4541,-15.625000
4542,-15.625000
4543,-15.625000
4544,-15.625000
4545,-15.625000
4546,-15.625000
4547,-15.625000
4548,-15.625000
4549,-15.625000
4550,-19.531250
4551,-19.531250
4552,-15.625000
4553,-19.531250
4554,-19.531250
4555,-19.531250
4556,-19.531250
4557,-19.531250
4558,-19.531250
4559,-19.531250
4560,-19.531250
4561,-19.531250
4562,-19.531250
4563,-23.437500
4564,-19.531250
4565,-23.437500
4566,-19.531250
4567,-19.531250
4568,-19.531250
4569,-23.437500
4570,-23.437500
4571,-23.437500
4572,-23.437500
4573,-23.437500
4574,-23.437500
4575,-23.437500
4576,-23.437500
4577,-23.437500
4578,-23.437500
4579,-23.437500
4580,-23.437500
4581,-27.343750
4582,-27.343750
4583,-27.343750
4584,-27.343750
4585,-27.343750
4586,-27.343750
4587,-27.343750
4588,-27.343750
4589,-27.343750
4590,-27.343750
4591,-27.343750
4592,-27.343750
4593,-27.343750
4594,-27.343750
4595,-27.343750
4596,-27.343750
4597,-27.343750
4598,-31.250000
4599,-31.250000
4600,-31.250000
4601,-31.250000
4602,-31.250000
4603,-31.250000
4604,-31.250000
4605,-31.250000
4606,-31.250000
4607,-31.250000
4608,-31.250000
4609,-31.250000
4610,-31.250000
4611,-35.156250
4612,-31.250000
4613,-31.250000
4614,-31.250000
4615,-31.250000
4616,-35.156250
4617,-35.156250
4618,-35.156250
4619,-35.156250
4620,-35.156250
4621,-35.156250
4622,-35.156250
4623,-35.156250
4624,-35.156250
4625,-35.156250
4626,-35.156250
4627,-35.156250
4628,-35.156250
4629,-35.156250
4630,-35.156250
4631,-35.156250
4632,-39.062500
4633,-39.062500
4634,-39.062500
4635,-39.062500
4636,-39.062500
4637,-39.062500
4638,-39.062500
4639,-39.062500
4640,-39.062500
4641,-39.062500
4642,-39.062500
4643,-39.062500
4644,-39.062500
4645,-39.062500
4646,-39.062500
4647,-42.968750
4648,-42.968750
4649,-39.062500
4650,-42.968750
4651,-42.968750
4652,-42.968750
4653,-42.968750
4654,-42.968750
4655,-42.968750
4656,-42.968750
4657,-42.968750
4658,-42.968750
4659,-42.968750
4660,-42.968750
4661,-42.968750
4662,-42.968750
4663,-42.968750
4664,-42.968750
4665,-42.968750
4666,-42.968750
4667,-42.968750
4668,-42.968750
4669,-46.875000
4670,-46.875000
4671,-46.875000
4672,-46.875000
4673,-46.875000
4674,-42.968750
4675,-46.875000
4676,-46.875000
4677,-46.875000
4678,-46.875000
4679,-46.875000
4680,-46.875000
4681,-46.875000
4682,-46.875000
4683,-46.875000
4684,-46.875000
4685,-46.875000
4686,-46.875000
4687,-46.875000
4688,-46.875000
4689,-46.875000
4690,-50.781250
4691,-46.875000
4692,-50.781250
4693,-50.781250
4694,-50.781250
4695,-50.781250
4696,-50.781250
4697,-50.781250
4698,-50.781250
4699,-50.781250
4700,-50.781250
4701,-50.781250
4702,-50.781250
4703,-50.781250
4704,-50.781250
4705,-50.781250
4706,-50.781250
4707,-50.781250
4708,-50.781250
4709,-50.781250
4710,-50.781250
4711,-50.781250
4712,-50.781250
4713,-50.781250
4714,-50.781250
4715,-50.781250
4716,-50.781250
4717,-50.781250
4718,-54.687500
4719,-50.781250
4720,-50.781250
4721,-54.687500
4722,-54.687500
4723,-50.781250
4724,-50.781250
4725,-50.781250
4726,-54.687500
4727,-54.687500
4728,-54.687500
4729,-54.687500
4730,-54.687500
4731,-54.687500
4732,-54.687500
4733,-54.687500
4734,-54.687500
4735,-54.687500
4736,-54.687500
4737,-54.687500
4738,-54.687500
4739,-54.687500
4740,-54.687500
4741,-54.687500
4742,-54.687500
4743,-54.687500
4744,-54.687500
4745,-54.687500
4746,-54.687500
4747,-54.687500
4748,-54.687500
4749,-54.687500
4750,-54.687500
4751,-54.687500
4752,-54.687500
4753,-54.687500
4754,-54.687500
4755,-54.687500
4756,-54.687500
4757,-54.687500
4758,-54.687500
4759,-54.687500
4760,-54.687500
4761,-54.687500
4762,-54.687500
4763,-54.687500
4764,-54.687500
4765,-54.687500
4766,-54.687500
4767,-54.687500
4768,-54.687500
4769,-54.687500
4770,-54.687500
4771,-54.687500
4772,-54.687500
4773,-54.687500
4774,-54.687500
4775,-54.687500
4776,-54.687500
4777,-54.687500
4778,-54.687500
4779,-54.687500
4780,-54.687500
4781,-54.687500
4782,-54.687500
4783,-54.687500
4784,-58.593750
4785,-58.593750
4786,-54.687500
4787,-54.687500
4788,-54.687500
4789,-54.687500
4790,-54.687500
4791,-54.687500
4792,-54.687500
4793,-54.687500
4794,-54.687500
4795,-54.687500
4796,-54.687500
4797,-54.687500
4798,-54.687500
4799,-54.687500
4800,-54.687500
4801,-54.687500
4802,-54.687500
4803,-54.687500
4804,-54.687500
4805,-54.687500
4806,-54.687500
4807,-54.687500
4808,-54.687500
4809,-54.687500
4810,-54.687500
4811,-54.687500
4812,-54.687500
4813,-54.687500
4814,-54.687500
4815,-54.687500
4816,-54.687500
4817,-54.687500
4818,-54.687500
4819,-54.687500
4820,-54.687500
4821,-54.687500
4822,-54.687500
4823,-54.687500
4824,-54.687500
4825,-54.687500
4826,-54.687500
4827,-54.687500
4828,-54.687500
4829,-54.687500
4830,-54.687500
4831,-54.687500
4832,-54.687500
4833,-54.687500
4834,-54.687500
4835,-54.687500
4836,-54.687500
4837,-54.687500
4838,-54.687500
4839,-54.687500
4840,-54.687500
4841,-54.687500
4842,-54.687500
4843,-54.687500
4844,-54.687500
4845,-50.781250
4846,-50.781250
4847,-50.781250
4848,-54.687500
4849,-50.781250
4850,-50.781250
4851,-50.781250
4852,-50.781250
4853,-50.781250
4854,-50.781250
4855,-50.781250
4856,-50.781250
4857,-50.781250
4858,-50.781250
4859,-50.781250
4860,-50.781250
4861,-50.781250
4862,-50.781250
4863,-50.781250
4864,-50.781250
4865,-50.781250
4866,-50.781250
4867,-50.781250
4868,-50.781250
4869,-50.781250
4870,-50.781250
4871,-46.875000
4872,-46.875000
4873,-50.781250
4874,-50.781250
4875,-50.781250
4876,-46.875000
4877,-46.875000
4878,-46.875000
4879,-46.875000
4880,-46.875000
4881,-46.875000
4882,-46.875000
4883,-46.875000
4884,-46.875000
4885,-46.875000
4886,-46.875000
4887,-46.875000
4888,-46.875000
4889,-46.875000
4890,-46.875000
4891,-46.875000
4892,-46.875000
4893,-46.875000
4894,-46.875000
4895,-46.875000
4896,-42.968750
4897,-42.968750
4898,-46.875000
4899,-42.968750
4900,-42.968750
4901,-42.968750
4902,-42.968750
4903,-42.968750
4904,-42.968750
4905,-42.968750
4906,-42.968750
4907,-42.968750
4908,-42.968750
4909,-42.968750
4910,-42.968750
4911,-42.968750
4912,-42.968750
4913,-42.968750
4914,-42.968750
4915,-42.968750
4916,-42.968750
4917,-42.968750
4918,-39.062500
4919,-39.062500
4920,-39.062500
4921,-39.062500
4922,-39.062500
4923,-39.062500
4924,-39.062500
4925,-39.062500
4926,-39.062500
4927,-39.062500
4928,-39.062500
4929,-39.062500
4930,-39.062500
4931,-39.062500
4932,-39.062500
4933,-39.062500
4934,-35.156250
4935,-35.156250
4936,-35.156250
4937,-35.156250
4938,-35.156250
4939,-35.156250
4940,-35.156250
4941,-35.156250
4942,-35.156250
4943,-35.156250
4944,-35.156250
4945,-35.156250
4946,-35.156250
4947,-35.156250
4948,-35.156250
4949,-35.156250
4950,-35.156250
4951,-35.156250
4952,-31.250000
4953,-31.250000
4954,-31.250000
4955,-31.250000
4956,-31.250000
4957,-31.250000
4958,-31.250000
4959,-31.250000
4960,-31.250000
4961,-31.250000
4962,-31.250000
4963,-31.250000
4964,-31.250000
4965,-27.343750
4966,-27.343750
4967,-27.343750
4968,-31.250000
4969,-27.343750
4970,-27.343750
4971,-27.343750
4972,-27.343750
4973,-27.343750
4974,-27.343750
4975,-27.343750
4976,-27.343750
4977,-27.343750
4978,-27.343750
4979,-27.343750
4980,-27.343750
4981,-23.437500
4982,-23.437500
4983,-23.437500
4984,-23.437500
4985,-23.437500
4986,-23.437500
4987,-23.437500
4988,-23.437500
4989,-23.437500
4990,-23.437500
4991,-23.437500
4992,-23.437500
4993,-19.531250
4994,-23.437500
4995,-23.437500
4996,-23.437500
4997,-19.531250
4998,-19.531250
4999,-19.531250
5000,-19.531250
5001,-19.531250
5002,-19.531250
5003,-19.531250
5004,-19.531250
5005,-19.531250
5006,-19.531250
5007,-19.531250
5008,-19.531250
5009,-15.625000
5010,-19.531250
5011,-15.625000
5012,-15.625000
5013,-15.625000
5014,-15.625000
5015,-15.625000
5016,-15.625000
5017,-15.625000
5018,-15.625000
5019,-15.625000
5020,-15.625000
5021,-15.625000
5022,-15.625000
5023,-11.718750
5024,-11.718750
5025,-11.718750
5026,-11.718750
5027,-11.718750
5028,-11.718750
5029,-11.718750
5030,-11.718750
5031,-11.718750
5032,-11.718750
5033,-11.718750
5034,-11.718750
5035,-11.718750
5036,-11.718750
5037,-11.718750
5038,-11.718750
5039,-7.812500
5040,-7.812500
5041,-7.812500
5042,-7.812500
5043,-7.812500
5044,-7.812500
5045,-7.812500
5046,-7.812500
5047,-7.812500
5048,-7.812500
5049,-7.812500
5050,-7.812500
5051,-7.812500
5052,-3.906250
5053,-3.906250
5054,-3.906250
5055,-3.906250
5056,-3.906250
5057,-3.906250
5058,-3.906250
5059,-3.906250
5060,-3.906250
5061,-3.906250
5062,-3.906250
5063,-3.906250
5064,-3.906250
5065,-3.906250
5066,-3.906250
5067,-3.906250
5068,-3.906250
5069,0.000000
5070,0.000000
5071,0.000000
5072,0.000000
5073,0.000000
5074,0.000000
5075,0.000000
5076,0.000000
5077,0.000000
5078,0.000000
5079,0.000000
5080,0.000000
5081,0.000000
5082,3.906250
5083,3.906250
5084,3.906250
5085,3.906250
5086,3.906250
5087,3.906250
5088,3.906250
5089,3.906250
5090,3.906250
5091,3.906250
5092,3.906250
5093,3.906250
5094,3.906250
5095,7.812500
5096,3.906250
5097,7.812500
5098,3.906250
5099,7.812500
5100,7.812500
5101,7.812500
5102,7.812500
5103,7.812500
5104,7.812500
5105,7.812500
5106,7.812500
5107,7.812500
5108,7.812500
5109,7.812500
5110,7.812500
5111,7.812500
5112,7.812500
5113,7.812500
5114,7.812500
5115,11.718750
5116,11.718750
5117,11.718750
5118,11.718750
5119,11.718750
5120,11.718750
5121,11.718750
5122,11.718750
5123,11.718750
5124,11.718750
5125,11.718750
5126,11.718750
5127,11.718750
5128,11.718750
5129,11.718750
5130,11.718750
5131,11.718750
5132,15.625000
5133,15.625000
5134,15.625000
5135,15.625000
5136,15.625000
5137,15.625000
5138,15.625000
5139,15.625000
5140,15.625000
5141,15.625000
5142,15.625000
5143,15.625000
5144,15.625000
5145,15.625000
5146,15.625000
5147,15.625000
5148,15.625000
5149,19.531250
5150,19.531250
5151,19.531250
5152,19.531250
5153,19.531250
5154,19.531250
5155,19.531250
5156,19.531250
5157,19.531250
5158,19.531250
5159,19.531250
5160,19.531250
5161,19.531250
5162,19.531250
5163,19.531250
5164,19.531250
5165,19.531250
5166,19.531250
5167,19.531250
5168,19.531250
5169,19.531250
5170,19.531250
5171,19.531250
5172,23.437500
5173,23.437500
5174,23.437500
5175,23.437500
5176,23.437500
5177,19.531250
5178,19.531250
5179,23.437500
5180,23.437500
5181,23.437500
5182,23.437500
5183,23.437500
5184,23.437500
5185,23.437500
5186,23.437500
5187,23.437500
5188,23.437500
5189,23.437500
5190,23.437500
5191,23.437500
5192,23.437500
5193,23.437500
5194,23.437500
5195,23.437500
5196,23.437500
5197,23.437500
5198,23.437500
5199,23.437500
5200,23.437500
5201,27.343750
5202,23.437500
5203,23.437500
5204,27.343750
5205,23.437500
5206,27.343750
5207,27.343750
5208,23.437500
5209,27.343750
5210,27.343750
5211,27.343750
5212,27.343750
5213,27.343750
5214,27.343750
5215,27.343750
5216,27.343750
5217,27.343750
5218,27.343750
5219,27.343750
5220,27.343750
5221,27.343750
5222,27.343750
5223,27.343750
5224,27.343750
5225,27.343750
5226,27.343750
5227,27.343750
5228,27.343750
5229,27.343750
5230,27.343750
5231,27.343750
5232,27.343750
5233,27.343750
5234,27.343750
5235,27.343750
5236,27.343750
5237,27.343750
5238,27.343750
5239,27.343750
5240,27.343750
5241,27.343750
5242,27.343750
5243,27.343750
5244,27.343750
5245,27.343750
5246,27.343750
5247,27.343750
5248,27.343750
5249,27.343750
5250,27.343750
5251,27.343750
5252,31.250000
5253,31.250000
5254,27.343750
5255,27.343750
5256,27.343750
5257,27.343750
5258,27.343750
5259,27.343750
5260,27.343750
5261,27.343750
5262,27.343750
5263,31.250000
5264,27.343750
5265,31.250000
5266,27.343750
5267,27.343750
5268,27.343750
5269,27.343750
5270,27.343750
5271,27.343750
5272,27.343750
5273,27.343750
5274,27.343750
5275,27.343750
5276,31.250000
5277,27.343750
5278,31.250000
5279,27.343750
5280,27.343750
5281,27.343750
5282,27.343750
5283,27.343750
5284,31.250000
5285,31.250000
5286,31.250000
5287,31.250000
5288,27.343750
5289,27.343750
5290,27.343750
5291,27.343750
5292,27.343750
5293,27.343750
5294,27.343750
5295,31.250000
5296,27.343750
5297,27.343750
5298,27.343750
5299,27.343750
5300,27.343750
5301,27.343750
5302,27.343750
5303,27.343750
5304,27.343750
5305,27.343750
5306,27.343750
5307,27.343750
5308,27.343750
5309,27.343750
5310,27.343750
5311,27.343750
5312,27.343750
5313,27.343750
5314,27.343750
5315,27.343750
5316,27.343750
5317,27.343750
5318,27.343750
5319,27.343750
5320,27.343750
5321,27.343750
5322,27.343750
5323,27.343750
5324,27.343750
5325,27.343750
5326,23.437500
5327,27.343750
5328,27.343750
5329,27.343750
5330,27.343750
5331,27.343750
5332,27.343750
5333,27.343750
5334,23.437500
5335,23.437500
5336,23.437500
5337,23.437500
5338,23.437500
5339,27.343750
5340,23.437500
5341,23.437500
5342,23.437500
5343,23.437500
5344,23.437500
5345,23.437500
5346,23.437500
5347,23.437500
5348,23.437500
5349,23.437500
5350,23.437500
5351,23.437500
5352,23.437500
5353,23.437500
5354,23.437500
5355,23.437500
5356,23.437500
5357,23.437500
5358,23.437500
5359,23.437500
5360,23.437500
5361,23.437500
5362,23.437500
5363,23.437500
5364,23.437500
5365,23.437500
5366,19.531250
5367,19.531250
5368,19.531250
5369,19.531250
5370,19.531250
5371,23.437500
5372,23.437500
5373,19.531250
5374,19.531250
5375,19.531250
5376,19.531250
5377,19.531250
5378,19.531250
5379,19.531250
5380,19.531250
5381,19.531250
5382,19.531250
5383,19.531250
5384,19.531250
5385,19.531250
5386,19.531250
5387,19.531250
5388,19.531250
5389,19.531250
5390,19.531250
5391,19.531250
5392,15.625000
5393,15.625000
5394,15.625000
5395,15.625000
5396,15.625000
5397,15.625000
5398,15.625000
5399,15.625000
5400,15.625000
5401,15.625000
5402,15.625000
5403,15.625000
5404,15.625000
5405,15.625000
5406,15.625000
5407,15.625000
5408,15.625000
5409,15.625000
5410,15.625000
5411,15.625000
5412,11.718750
5413,15.625000
5414,11.718750
5415,11.718750
5416,15.625000
5417,15.625000
5418,11.718750
5419,11.718750
5420,11.718750
5421,11.718750
5422,11.718750
5423,11.718750
5424,11.718750
5425,11.718750
5426,11.718750
5427,11.718750
5428,11.718750
5429,11.718750
5430,11.718750
5431,11.718750
5432,11.718750
5433,11.718750
5434,7.812500
5435,7.812500
5436,7.812500
5437,7.812500
5438,7.812500
5439,7.812500
5440,7.812500
5441,7.812500
5442,7.812500
5443,7.812500
5444,7.812500
5445,7.812500
5446,7.812500
5447,7.812500
5448,7.812500
5449,7.812500
5450,3.906250
5451,3.906250
5452,3.906250
5453,3.906250
5454,3.906250
5455,3.906250
5456,3.906250
5457,3.906250
5458,3.906250
5459,3.906250
5460,3.906250
5461,3.906250
5462,3.906250
5463,3.906250
5464,3.906250
5465,3.906250
5466,0.000000
5467,0.000000
5468,0.000000
5469,0.000000
5470,0.000000
5471,0.000000
5472,0.000000
5473,0.000000
5474,0.000000
5475,0.000000
5476,0.000000
5477,0.000000
5478,0.000000
5479,0.000000
5480,-3.906250
5481,0.000000
5482,-3.906250
5483,0.000000
5484,-3.906250
5485,-3.906250
5486,-3.906250
5487,-3.906250
5488,-3.906250
5489,-3.906250
5490,-3.906250
5491,-3.906250
5492,-3.906250
5493,-3.906250
5494,-3.906250
5495,-3.906250
5496,-3.906250
5497,-7.812500
5498,-7.812500
5499,-7.812500
5500,-7.812500
5501,-7.812500
5502,-7.812500
5503,-7.812500
5504,-7.812500
5505,-7.812500
5506,-7.812500
5507,-7.812500
5508,-7.812500
5509,-7.812500
5510,-7.812500
5511,-7.812500
5512,-7.812500
5513,-7.812500
5514,-11.718750
5515,-7.812500
5516,-11.718750
5517,-11.718750
5518,-11.718750
5519,-11.718750
5520,-11.718750
5521,-11.718750
5522,-11.718750
5523,-11.718750
5524,-15.625000
5525,-11.718750
5526,-11.718750
5527,-11.718750
5528,-11.718750
5529,-11.718750
5530,-15.625000
5531,-15.625000
5532,-15.625000
5533,-15.625000
5534,-15.625000
5535,-15.625000
5536,-15.625000
5537,-15.625000
5538,-15.625000
5539,-15.625000
5540,-15.625000
5541,-15.625000
5542,-19.531250
5543,-15.625000
5544,-19.531250
5545,-19.531250
5546,-19.531250
5547,-19.531250
5548,-19.531250
5549,-19.531250
5550,-19.531250
5551,-19.531250
5552,-19.531250
5553,-19.531250
5554,-19.531250
5555,-19.531250
5556,-19.531250
5557,-19.531250
5558,-23.437500
5559,-23.437500
5560,-23.437500
5561,-23.437500
5562,-23.437500
5563,-23.437500
5564,-23.437500
5565,-23.437500
5566,-23.437500
5567,-23.437500
5568,-23.437500
5569,-23.437500
5570,-27.343750
5571,-27.343750
5572,-27.343750
5573,-23.437500
5574,-27.343750
5575,-27.343750
5576,-27.343750
5577,-27.343750
5578,-27.343750
5579,-27.343750
5580,-27.343750
5581,-27.343750
5582,-27.343750
5583,-27.343750
5584,-31.250000
5585,-27.343750
5586,-31.250000
5587,-31.250000
5588,-31.250000
5589,-27.343750
5590,-31.250000
5591,-31.250000
5592,-31.250000
5593,-31.250000
5594,-31.250000
5595,-31.250000
5596,-31.250000
5597,-31.250000
5598,-31.250000
5599,-31.250000
5600,-31.250000
5601,-31.250000
5602,-31.250000
5603,-31.250000
5604,-35.156250
5605,-35.156250
5606,-35.156250
5607,-35.156250
5608,-35.156250
5609,-35.156250
5610,-35.156250
5611,-35.156250
5612,-35.156250
5613,-35.156250
5614,-35.156250
5615,-35.156250
5616,-35.156250
5617,-35.156250
5618,-35.156250
5619,-39.062500
5620,-39.062500
5621,-35.156250
5622,-35.156250
5623,-39.062500
5624,-39.062500
5625,-39.062500
5626,-39.062500
5627,-39.062500
5628,-39.062500
5629,-39.062500
5630,-39.062500
5631,-39.062500
5632,-39.062500
5633,-39.062500
5634,-39.062500
5635,-39.062500
5636,-39.062500
5637,-39.062500
5638,-42.968750
5639,-39.062500
5640,-42.968750
5641,-42.968750
5642,-39.062500
5643,-42.968750
5644,-42.968750
5645,-42.968750
5646,-42.968750
5647,-42.968750
5648,-42.968750
5649,-42.968750
5650,-42.968750
5651,-42.968750
5652,-42.968750
5653,-42.968750
5654,-42.968750
5655,-42.968750
5656,-42.968750
5657,-42.968750
5658,-42.968750
5659,-46.875000
5660,-46.875000
5661,-46.875000
5662,-46.875000
5663,-46.875000
5664,-46.875000
5665,-46.875000
5666,-46.875000
5667,-46.875000
5668,-46.875000
5669,-46.875000
5670,-46.875000
5671,-46.875000
5672,-46.875000
5673,-46.875000
5674,-46.875000
5675,-46.875000
5676,-46.875000
5677,-46.875000
5678,-46.875000
5679,-46.875000
5680,-46.875000
5681,-50.781250
5682,-50.781250
5683,-46.875000
5684,-50.781250
5685,-50.781250
5686,-50.781250
5687,-50.781250
5688,-50.781250
5689,-50.781250
5690,-50.781250
5691,-50.781250
5692,-50.781250
5693,-50.781250
5694,-50.781250
5695,-50.781250
5696,-50.781250
5697,-50.781250
5698,-50.781250
5699,-50.781250
5700,-50.781250
5701,-50.781250
5702,-50.781250
5703,-50.781250
5704,-50.781250
5705,-50.781250
5706,-50.781250
5707,-50.781250
5708,-50.781250
5709,-50.781250
5710,-50.781250
5711,-50.781250
5712,-54.687500
5713,-54.687500
5714,-54.687500
5715,-50.781250
5716,-54.687500
5717,-54.687500
5718,-54.687500
5719,-54.687500
5720,-54.687500
5721,-54.687500
5722,-54.687500
5723,-54.687500
5724,-54.687500
5725,-54.687500
5726,-54.687500
5727,-54.687500
5728,-54.687500
5729,-54.687500
5730,-54.687500
5731,-54.687500
5732,-54.687500
5733,-54.687500
5734,-54.687500
5735,-54.687500
5736,-54.687500
5737,-54.687500
5738,-54.687500
5739,-54.687500
5740,-54.687500
5741,-54.687500
5742,-54.687500
5743,-54.687500
5744,-54.687500
5745,-54.687500
5746,-54.687500
5747,-54.687500
5748,-54.687500
5749,-54.687500
5750,-54.687500
5751,-54.687500
5752,-54.687500
5753,-54.687500
5754,-54.687500
5755,-54.687500
5756,-54.687500
5757,-54.687500
5758,-54.687500
5759,-54.687500
5760,-58.593750
5761,-54.687500
5762,-54.687500
5763,-54.687500
5764,-54.687500
5765,-54.687500
5766,-54.687500
5767,-54.687500
5768,-54.687500
5769,-54.687500
5770,-58.593750
5771,-54.687500
5772,-54.687500
5773,-58.593750
5774,-54.687500
5775,-54.687500
5776,-54.687500
5777,-54.687500
5778,-54.687500
5779,-54.687500
5780,-54.687500
5781,-58.593750
5782,-58.593750
5783,-58.593750
5784,-58.593750
5785,-54.687500
5786,-54.687500
5787,-54.687500
5788,-54.687500
5789,-54.687500
5790,-54.687500
5791,-54.687500
5792,-54.687500
5793,-54.687500
5794,-54.687500
5795,-54.687500
5796,-54.687500
5797,-54.687500
5798,-58.593750
5799,-54.687500
5800,-54.687500
5801,-54.687500
5802,-54.687500
5803,-54.687500
5804,-54.687500
5805,-54.687500
5806,-54.687500
5807,-54.687500
5808,-54.687500
5809,-54.687500
5810,-54.687500
5811,-54.687500
5812,-54.687500
5813,-54.687500
5814,-54.687500
5815,-54.687500
5816,-54.687500
5817,-54.687500
5818,-54.687500
5819,-54.687500
5820,-54.687500
5821,-54.687500
5822,-54.687500
5823,-54.687500
5824,-54.687500
5825,-54.687500
5826,-54.687500
5827,-54.687500
5828,-54.687500
5829,-54.687500
5830,-54.687500
5831,-54.687500
5832,-54.687500
5833,-54.687500
5834,-54.687500
5835,-54.687500
5836,-54.687500
5837,-50.781250
5838,-54.687500
5839,-54.687500
5840,-54.687500
5841,-50.781250
5842,-54.687500
5843,-50.781250
5844,-54.687500
5845,-50.781250
5846,-50.781250
5847,-50.781250
5848,-50.781250
5849,-50.781250
5850,-50.781250
5851,-50.781250
5852,-50.781250
5853,-50.781250
5854,-50.781250
5855,-50.781250
5856,-50.781250
5857,-50.781250
5858,-50.781250
5859,-50.781250
5860,-50.781250
5861,-50.781250
5862,-50.781250
5863,-50.781250
5864,-50.781250
5865,-50.781250
5866,-50.781250
5867,-50.781250
5868,-50.781250
5869,-50.781250
5870,-50.781250
5871,-50.781250
5872,-46.875000
5873,-46.875000
5874,-46.875000
5875,-46.875000
5876,-46.875000
5877,-46.875000
5878,-46.875000
5879,-46.875000
5880,-46.875000
5881,-46.875000
5882,-46.875000
5883,-46.875000
5884,-46.875000
5885,-46.875000
5886,-46.875000
5887,-46.875000
5888,-46.875000
5889,-46.875000
5890,-46.875000
5891,-42.968750
5892,-42.968750
5893,-42.968750
5894,-42.968750
5895,-42.968750
5896,-42.968750
5897,-42.968750
5898,-42.968750
5899,-42.968750
5900,-42.968750
5901,-42.968750
5902,-42.968750
5903,-42.968750
5904,-42.968750
5905,-39.062500
5906,-42.968750
5907,-42.968750
5908,-42.968750
5909,-42.968750
5910,-42.968750
5911,-39.062500
5912,-39.062500
5913,-39.062500
5914,-39.062500
5915,-39.062500
5916,-39.062500
5917,-39.062500
5918,-39.062500
5919,-39.062500
5920,-39.062500
5921,-39.062500
5922,-39.062500
5923,-39.062500
5924,-39.062500
5925,-39.062500
5926,-35.156250
5927,-39.062500
5928,-35.156250
5929,-35.156250
5930,-35.156250
5931,-35.156250
5932,-35.156250
5933,-35.156250
5934,-35.156250
5935,-35.156250
5936,-35.156250
5937,-35.156250
5938,-35.156250
5939,-35.156250
5940,-31.250000
5941,-35.156250
5942,-31.250000
5943,-31.250000
5944,-31.250000
5945,-31.250000
5946,-31.250000
5947,-31.250000
5948,-31.250000
5949,-31.250000
5950,-31.250000
5951,-31.250000
5952,-31.250000
5953,-31.250000
5954,-31.250000
5955,-31.250000
5956,-31.250000
5957,-31.250000
5958,-27.343750
5959,-27.343750
5960,-27.343750
5961,-27.343750
5962,-27.343750
5963,-27.343750
5964,-27.343750
5965,-27.343750
5966,-27.343750
5967,-27.343750
5968,-27.343750
5969,-23.437500
5970,-27.343750
5971,-27.343750
5972,-27.343750
5973,-23.437500
5974,-23.437500
5975,-23.437500
5976,-23.437500
5977,-23.437500
5978,-23.437500
5979,-23.437500
5980,-23.437500
5981,-23.437500
5982,-23.437500
5983,-23.437500
5984,-23.437500
5985,-23.437500
5986,-23.437500
5987,-19.531250
5988,-19.531250
5989,-19.531250
5990,-19.531250
5991,-19.531250
5992,-19.531250
5993,-19.531250
5994,-19.531250
5995,-19.531250
5996,-19.531250
5997,-19.531250
5998,-19.531250
5999,-19.531250
6000,-19.531250
6001,-15.625000
6002,-15.625000
6003,-15.625000
6004,-15.625000
6005,-15.625000
6006,-15.625000
6007,-15.625000
6008,-15.625000
6009,-15.625000
6010,-15.625000
6011,-15.625000
6012,-15.625000
6013,-15.625000
6014,-15.625000
6015,-11.718750
6016,-11.718750
6017,-11.718750
6018,-11.718750
6019,-11.718750
6020,-11.718750
6021,-11.718750
6022,-11.718750
6023,-11.718750
6024,-11.718750
6025,-11.718750
6026,-11.718750
6027,-11.718750
6028,-11.718750
6029,-7.812500
6030,-7.812500
6031,-7.812500
6032,-7.812500
6033,-7.812500
6034,-7.812500
6035,-7.812500
6036,-7.812500
6037,-7.812500
6038,-7.812500
6039,-7.812500
6040,-7.812500
6041,-7.812500
6042,-3.906250
6043,-3.906250
6044,-3.906250
6045,-3.906250
6046,-3.906250
6047,-3.906250
6048,-3.906250
6049,-3.906250
6050,-3.906250
6051,-3.906250
6052,-3.906250
6053,-3.906250
6054,-3.906250
6055,-3.906250
6056,-3.906250
6057,0.000000
6058,0.000000
6059,0.000000
6060,0.000000
6061,0.000000
6062,0.000000
6063,0.000000
6064,0.000000
6065,0.000000
6066,0.000000
6067,0.000000
6068,0.000000
6069,3.906250
6070,3.906250
6071,0.000000
6072,0.000000
6073,3.906250
6074,3.906250
6075,3.906250
6076,3.906250
6077,3.906250
6078,3.906250
6079,3.906250
6080,3.906250
6081,3.906250
6082,3.906250
6083,3.906250
6084,7.812500
6085,3.906250
6086,7.812500
6087,7.812500
6088,7.812500
6089,7.812500
6090,7.812500
6091,7.812500
6092,7.812500
6093,7.812500
6094,7.812500
6095,7.812500
6096,7.812500
6097,7.812500
6098,7.812500
6099,7.812500
6100,7.812500
6101,7.812500
6102,7.812500
6103,7.812500
6104,7.812500
6105,11.718750
6106,7.812500
6107,11.718750
6108,11.718750
6109,11.718750
6110,11.718750
6111,11.718750
6112,11.718750
6113,11.718750
6114,11.718750
6115,15.625000
6116,11.718750
6117,11.718750
6118,11.718750
6119,11.718750
6120,11.718750
6121,15.625000
6122,15.625000
6123,15.625000
6124,15.625000
6125,15.625000
6126,15.625000
6127,15.625000
6128,15.625000
6129,15.625000
6130,15.625000
6131,15.625000
6132,15.625000
6133,15.625000
6134,15.625000
6135,15.625000
6136,19.531250
6137,19.531250
6138,15.625000
6139,19.531250
6140,15.625000
6141,15.625000
6142,19.531250
6143,19.531250
6144,19.531250
6145,19.531250
6146,19.531250
6147,19.531250
6148,19.531250
6149,19.531250
6150,19.531250
6151,19.531250
6152,19.531250
6153,19.531250
6154,19.531250
6155,19.531250
6156,19.531250
6157,19.531250
6158,19.531250
6159,19.531250
6160,19.531250
6161,19.531250
6162,23.437500
6163,23.437500
6164,23.437500
6165,23.437500
6166,23.437500
6167,23.437500
6168,23.437500
6169,23.437500
6170,23.437500
6171,23.437500
6172,23.437500
6173,23.437500
6174,23.437500
6175,23.437500
6176,23.437500
6177,23.437500
6178,23.437500
6179,23.437500
6180,23.437500
6181,23.437500
6182,23.437500
6183,23.437500
6184,23.437500
6185,23.437500
6186,23.437500
6187,23.437500
6188,23.437500
6189,23.437500
6190,23.437500
6191,23.437500
6192,27.343750
6193,23.437500
6194,23.437500
6195,27.343750
6196,27.343750
6197,27.343750
6198,27.343750
6199,27.343750
6200,27.343750
6201,27.343750
6202,27.343750
6203,27.343750
6204,27.343750
6205,27.343750
6206,27.343750
6207,27.343750
6208,27.343750
6209,27.343750
6210,27.343750
6211,27.343750
6212,27.343750
6213,27.343750
6214,27.343750
6215,27.343750
6216,27.343750
6217,27.343750
6218,27.343750
6219,27.343750
6220,27.343750
6221,27.343750
6222,27.343750
6223,27.343750
6224,27.343750
6225,27.343750
6226,27.343750
6227,27.343750
6228,27.343750
6229,27.343750
6230,27.343750
6231,27.343750
6232,27.343750
6233,27.343750
6234,27.343750
6235,27.343750
6236,27.343750
6237,31.250000
6238,27.343750
6239,27.343750
6240,27.343750
6241,27.343750
6242,27.343750
6243,27.343750
6244,27.343750
6245,27.343750
6246,27.343750
6247,27.343750
6248,27.343750
6249,31.250000
6250,27.343750
6251,31.250000
6252,31.250000
6253,31.250000
6254,27.343750
6255,27.343750
6256,27.343750
6257,31.250000
6258,27.343750
6259,31.250000
6260,27.343750
6261,27.343750
6262,27.343750
6263,31.250000
6264,27.343750
6265,31.250000
6266,27.343750
6267,31.250000
6268,31.250000
6269,31.250000
6270,27.343750
6271,31.250000
6272,27.343750
6273,27.343750
6274,27.343750
6275,27.343750
6276,27.343750
6277,27.343750
6278,27.343750
6279,27.343750
6280,27.343750
6281,27.343750
6282,27.343750
6283,27.343750
6284,27.343750
6285,27.343750
6286,27.343750
6287,27.343750
6288,27.343750
6289,27.343750
6290,27.343750
6291,27.343750
6292,27.343750
6293,27.343750
6294,27.343750
6295,27.343750
6296,27.343750
6297,27.343750
6298,27.343750
6299,27.343750
6300,27.343750
6301,27.343750
6302,27.343750
6303,27.343750
6304,27.343750
6305,27.343750
6306,27.343750
6307,27.343750
6308,27.343750
6309,27.343750
6310,27.343750
6311,27.343750
6312,27.343750
6313,27.343750
6314,27.343750
6315,27.343750
6316,27.343750
6317,27.343750
6318,27.343750
6319,27.343750
6320,27.343750
6321,27.343750
6322,27.343750
6323,27.343750
6324,27.343750
6325,27.343750
6326,23.437500
6327,27.343750
6328,23.437500
6329,23.437500
6330,23.437500
6331,23.437500
6332,23.437500
6333,27.343750
6334,23.437500
6335,23.437500
6336,23.437500
6337,23.437500
6338,23.437500
6339,23.437500
6340,23.437500
6341,23.437500
6342,23.437500
6343,23.437500
6344,23.437500
6345,23.437500
6346,23.437500
6347,23.437500
6348,23.437500
6349,23.437500
6350,23.437500
6351,23.437500
6352,23.437500
6353,23.437500
6354,19.531250
6355,23.437500
6356,23.437500
6357,19.531250
6358,19.531250
6359,19.531250
6360,23.437500
6361,23.437500
6362,19.531250
6363,19.531250
6364,19.531250
6365,19.531250
6366,19.531250
6367,19.531250
6368,19.531250
6369,19.531250
6370,19.531250
6371,19.531250
6372,19.531250
6373,19.531250
6374,19.531250
6375,19.531250
6376,19.531250
6377,19.531250
6378,19.531250
6379,19.531250
6380,19.531250
6381,19.531250
6382,19.531250
6383,15.625000
6384,15.625000
6385,15.625000
6386,15.625000
6387,15.625000
6388,15.625000
6389,15.625000
6390,15.625000
6391,15.625000
6392,15.625000
6393,15.625000
6394,15.625000
6395,15.625000
6396,15.625000
6397,15.625000
6398,15.625000
6399,15.625000
6400,11.718750
6401,11.718750
6402,11.718750
6403,11.718750
6404,11.718750
6405,11.718750
6406,11.718750
6407,11.718750
6408,11.718750
6409,11.718750
6410,11.718750
6411,11.718750
6412,11.718750
6413,11.718750
6414,11.718750
6415,11.718750
6416,11.718750
6417,11.718750
6418,11.718750
6419,11.718750
6420,7.812500
6421,11.718750
6422,7.812500
6423,7.812500
6424,7.812500
6425,7.812500
6426,7.812500
6427,7.812500
6428,7.812500
6429,7.812500
6430,7.812500
6431,7.812500
6432,7.812500
6433,7.812500
6434,7.812500
6435,7.812500
6436,7.812500
6437,7.812500
6438,3.906250
6439,3.906250
6440,3.906250
6441,3.906250
6442,3.906250
6443,7.812500
6444,3.906250
6445,3.906250
6446,3.906250
6447,3.906250
6448,3.906250
6449,3.906250
6450,3.906250
6451,3.906250
6452,3.906250
6453,3.906250
6454,3.906250
6455,3.906250
6456,3.906250
6457,0.000000
6458,0.000000
6459,0.000000
6460,0.000000
6461,0.000000
6462,0.000000
6463,0.000000
6464,0.000000
6465,0.000000
6466,0.000000
6467,0.000000
6468,0.000000
6469,0.000000
6470,0.000000
6471,-3.906250
6472,-3.906250
6473,-3.906250
6474,-3.906250
6475,-3.906250
6476,-3.906250
6477,-3.906250
6478,-3.906250
6479,-3.906250
6480,-3.906250
6481,-3.906250
6482,-3.906250
6483,-3.906250
6484,-3.906250
6485,-7.812500
6486,-3.906250
6487,-3.906250
6488,-7.812500
6489,-7.812500
6490,-7.812500
6491,-7.812500
6492,-7.812500
6493,-7.812500
6494,-7.812500
6495,-7.812500
6496,-7.812500
6497,-7.812500
6498,-7.812500
6499,-7.812500
6500,-7.812500
6501,-11.718750
6502,-7.812500
6503,-7.812500
6504,-11.718750
6505,-11.718750
6506,-11.718750
6507,-11.718750
6508,-11.718750
6509,-11.718750
6510,-11.718750
6511,-11.718750
6512,-11.718750
6513,-11.718750
6514,-11.718750
6515,-11.718750
6516,-15.625000
6517,-11.718750
6518,-15.625000
6519,-15.625000
6520,-15.625000
6521,-15.625000
6522,-15.625000
6523,-15.625000
6524,-15.625000
6525,-15.625000
6526,-15.625000
6527,-15.625000
6528,-15.625000
6529,-15.625000
6530,-19.531250
6531,-19.531250
6532,-19.531250
6533,-19.531250
6534,-19.531250
6535,-19.531250
6536,-19.531250
6537,-19.531250
6538,-19.531250
6539,-19.531250
6540,-19.531250
6541,-19.531250
6542,-19.531250
6543,-19.531250
6544,-19.531250
6545,-19.531250
6546,-19.531250
6547,-23.437500
6548,-23.437500
6549,-23.437500
6550,-23.437500
6551,-23.437500
6552,-23.437500
6553,-23.437500
6554,-23.437500
6555,-23.437500
6556,-23.437500
6557,-23.437500
6558,-23.437500
6559,-23.437500
6560,-27.343750
6561,-23.437500
6562,-27.343750
6563,-27.343750
6564,-27.343750
6565,-27.343750
6566,-27.343750
6567,-27.343750
6568,-27.343750
6569,-27.343750
6570,-27.343750
6571,-27.343750
6572,-27.343750
6573,-27.343750
6574,-27.343750
6575,-31.250000
6576,-31.250000
6577,-31.250000
6578,-31.250000
6579,-27.343750
6580,-31.250000
6581,-31.250000
6582,-31.250000
6583,-31.250000
6584,-31.250000
6585,-31.250000
6586,-31.250000
6587,-31.250000
6588,-31.250000
6589,-31.250000
6590,-35.156250
6591,-31.250000
6592,-35.156250
6593,-35.156250
6594,-35.156250
6595,-35.156250
6596,-35.156250
6597,-35.156250
6598,-35.156250
6599,-35.156250
6600,-35.156250
6601,-35.156250
6602,-35.156250
6603,-35.156250
6604,-35.156250
6605,-35.156250
6606,-39.062500
6607,-35.156250
6608,-39.062500
6609,-35.156250
6610,-39.062500
6611,-39.062500
6612,-39.062500
6613,-39.062500
6614,-39.062500
6615,-39.062500
6616,-39.062500
6617,-39.062500
6618,-39.062500
6619,-39.062500
6620,-39.062500
6621,-39.062500
6622,-39.062500
6623,-39.062500
6624,-39.062500
6625,-42.968750
6626,-42.968750
6627,-42.968750
6628,-42.968750
6629,-42.968750
6630,-42.968750
6631,-42.968750
6632,-42.968750
6633,-42.968750
6634,-42.968750
6635,-42.968750
6636,-42.968750
6637,-42.968750
6638,-42.968750
6639,-42.968750
6640,-42.968750
6641,-42.968750
6642,-42.968750
6643,-42.968750
6644,-42.968750
6645,-42.968750
6646,-42.968750
6647,-46.875000
6648,-46.875000
6649,-46.875000
6650,-46.875000
6651,-46.875000
6652,-46.875000
6653,-46.875000
6654,-46.875000
6655,-46.875000
6656,-46.875000
6657,-46.875000
6658,-46.875000
6659,-46.875000
6660,-46.875000
6661,-46.875000
6662,-46.875000
6663,-46.875000
6664,-46.875000
6665,-46.875000
6666,-50.781250
6667,-46.875000
6668,-50.781250
6669,-50.781250
6670,-50.781250
6671,-50.781250
6672,-50.781250
6673,-50.781250
6674,-50.781250
6675,-50.781250
6676,-50.781250
6677,-50.781250
6678,-50.781250
6679,-50.781250
6680,-50.781250
6681,-50.781250
6682,-50.781250
6683,-50.781250
6684,-50.781250
6685,-50.781250
6686,-50.781250
6687,-50.781250
6688,-50.781250
6689,-50.781250
6690,-50.781250
6691,-50.781250
6692,-50.781250
6693,-50.781250
6694,-50.781250
6695,-50.781250
6696,-50.781250
6697,-50.781250
6698,-50.781250
6699,-50.781250
6700,-54.687500
6701,-54.687500
6702,-54.687500
6703,-54.687500
6704,-54.687500
6705,-50.781250
6706,-54.687500
6707,-50.781250
6708,-54.687500
6709,-54.687500
6710,-54.687500
6711,-54.687500
6712,-54.687500
6713,-54.687500
6714,-54.687500
6715,-54.687500
6716,-54.687500
6717,-54.687500
6718,-54.687500
6719,-54.687500
6720,-54.687500
6721,-54.687500
6722,-54.687500
6723,-54.687500
6724,-54.687500
6725,-54.687500
6726,-54.687500
6727,-54.687500
6728,-54.687500
6729,-54.687500
6730,-54.687500
6731,-54.687500
6732,-54.687500
6733,-54.687500
6734,-54.687500
6735,-54.687500
6736,-54.687500
6737,-54.687500
6738,-54.687500
6739,-54.687500
6740,-54.687500
6741,-54.687500
6742,-54.687500
6743,-54.687500
6744,-54.687500
6745,-54.687500
6746,-54.687500
6747,-58.593750
6748,-58.593750
6749,-54.687500
6750,-58.593750
6751,-58.593750
6752,-58.593750
6753,-54.687500
6754,-58.593750
6755,-58.593750
6756,-58.593750
6757,-58.593750
6758,-54.687500
6759,-58.593750
6760,-58.593750
6761,-54.687500
6762,-58.593750
6763,-58.593750
6764,-58.593750
6765,-54.687500
6766,-58.593750
6767,-58.593750
6768,-58.593750
6769,-58.593750
6770,-58.593750
6771,-58.593750
6772,-58.593750
6773,-58.593750
6774,-58.593750
6775,-58.593750
6776,-58.593750
6777,-58.593750
6778,-54.687500
6779,-54.687500
6780,-58.593750
6781,-54.687500
6782,-58.593750
6783,-58.593750
6784,-54.687500
6785,-54.687500
6786,-58.593750
6787,-54.687500
6788,-58.593750
6789,-54.687500
6790,-54.687500
6791,-54.687500
6792,-58.593750
6793,-54.687500
6794,-54.687500
6795,-54.687500
6796,-54.687500
6797,-54.687500
6798,-54.687500
6799,-54.687500
6800,-54.687500
6801,-54.687500
6802,-54.687500
6803,-54.687500
6804,-54.687500
6805,-54.687500
6806,-54.687500
6807,-54.687500
6808,-54.687500
6809,-54.687500
6810,-54.687500
6811,-54.687500
6812,-54.687500
6813,-54.687500
6814,-54.687500
6815,-54.687500
6816,-54.687500
6817,-54.687500
6818,-54.687500
6819,-54.687500
6820,-54.687500
6821,-54.687500
6822,-54.687500
6823,-54.687500
6824,-54.687500
6825,-54.687500
6826,-54.687500
6827,-54.687500
6828,-54.687500
6829,-50.781250
6830,-50.781250
6831,-50.781250
6832,-50.781250
6833,-50.781250
6834,-54.687500
6835,-50.781250
6836,-50.781250
6837,-50.781250
6838,-50.781250
6839,-50.781250
6840,-50.781250
6841,-50.781250
6842,-50.781250
6843,-50.781250
6844,-50.781250
6845,-50.781250
6846,-50.781250
6847,-50.781250
6848,-50.781250
6849,-50.781250
6850,-50.781250
6851,-50.781250
6852,-50.781250
6853,-50.781250
6854,-50.781250
6855,-50.781250
6856,-50.781250
6857,-46.875000
6858,-46.875000
6859,-46.875000
6860,-46.875000
6861,-46.875000
6862,-50.781250
6863,-46.875000
6864,-46.875000
6865,-46.875000
6866,-46.875000
6867,-46.875000
6868,-46.875000
6869,-46.875000
6870,-46.875000
6871,-46.875000
6872,-46.875000
6873,-46.875000
6874,-46.875000
6875,-46.875000
6876,-46.875000
6877,-42.968750
6878,-46.875000
6879,-42.968750
6880,-42.968750
6881,-42.968750
6882,-42.968750
6883,-42.968750
6884,-46.875000
6885,-42.968750
6886,-42.968750
6887,-42.968750
6888,-42.968750
6889,-42.968750
6890,-42.968750
6891,-42.968750
6892,-42.968750
6893,-42.968750
6894,-42.968750
6895,-42.968750
6896,-42.968750
6897,-42.968750
6898,-42.968750
6899,-39.062500
6900,-39.062500
6901,-39.062500
6902,-39.062500
6903,-39.062500
6904,-39.062500
6905,-39.062500
6906,-39.062500
6907,-39.062500
6908,-39.062500
6909,-39.062500
6910,-39.062500
6911,-39.062500
6912,-39.062500
6913,-39.062500
6914,-39.062500
6915,-39.062500
6916,-35.156250
6917,-35.156250
6918,-35.156250
6919,-35.156250
6920,-35.156250
6921,-35.156250
6922,-35.156250
6923,-35.156250
6924,-35.156250
6925,-35.156250
6926,-35.156250
6927,-35.156250
6928,-35.156250
6929,-35.156250
6930,-35.156250
6931,-31.250000
6932,-31.250000
6933,-31.250000
6934,-31.250000
6935,-31.250000
6936,-31.250000
6937,-31.250000
6938,-31.250000
6939,-31.250000
6940,-31.250000
6941,-31.250000
6942,-31.250000
6943,-31.250000
6944,-31.250000
6945,-31.250000
6946,-31.250000
6947,-27.343750
6948,-27.343750
6949,-27.343750
6950,-27.343750
6951,-27.343750
6952,-27.343750
6953,-27.343750
6954,-27.343750
6955,-27.343750
6956,-27.343750
6957,-27.343750
6958,-27.343750
6959,-27.343750
6960,-27.343750
6961,-23.437500
6962,-23.437500
6963,-23.437500
6964,-23.437500
6965,-23.437500
6966,-23.437500
6967,-23.437500
6968,-23.437500
6969,-23.437500
6970,-23.437500
6971,-23.437500
6972,-23.437500
6973,-23.437500
6974,-19.531250
6975,-19.531250
6976,-23.437500
6977,-19.531250
6978,-19.531250
6979,-19.531250
6980,-19.531250
6981,-19.531250
6982,-19.531250
6983,-19.531250
6984,-19.531250
6985,-19.531250
6986,-19.531250
6987,-19.531250
6988,-19.531250
6989,-15.625000
6990,-15.625000
6991,-15.625000
6992,-15.625000
6993,-15.625000
6994,-15.625000
6995,-15.625000
6996,-15.625000
6997,-15.625000
6998,-15.625000
6999,-15.625000
7000,-15.625000
7001,-15.625000
7002,-15.625000
7003,-15.625000
7004,-15.625000
7005,-11.718750
7006,-11.718750
7007,-11.718750
7008,-11.718750
7009,-11.718750
7010,-11.718750
7011,-11.718750
7012,-11.718750
7013,-11.718750
7014,-11.718750
7015,-11.718750
7016,-11.718750
7017,-11.718750
7018,-11.718750
7019,-7.812500
7020,-7.812500
7021,-7.812500
7022,-7.812500
7023,-7.812500
7024,-7.812500
7025,-7.812500
7026,-7.812500
7027,-7.812500
7028,-7.812500
7029,-7.812500
7030,-7.812500
7031,-3.906250
7032,-7.812500
7033,-7.812500
7034,-3.906250
7035,-3.906250
7036,-3.906250
7037,-3.906250
7038,-3.906250
7039,-3.906250
7040,-3.906250
7041,-3.906250
7042,-3.906250
7043,-3.906250
7044,-3.906250
7045,0.000000
7046,0.000000
7047,0.000000
7048,0.000000
7049,0.000000
7050,0.000000
7051,0.000000
7052,0.000000
7053,0.000000
7054,0.000000
7055,0.000000
7056,0.000000
7057,0.000000
7058,0.000000
7059,0.000000
7060,0.000000
7061,3.906250
7062,3.906250
7063,3.906250
7064,3.906250
7065,3.906250
7066,3.906250
7067,3.906250
7068,3.906250
7069,3.906250
7070,3.906250
7071,3.906250
7072,3.906250
7073,3.906250
7074,3.906250
7075,3.906250
7076,3.906250
7077,7.812500
7078,7.812500
7079,7.812500
7080,7.812500
7081,7.812500
7082,7.812500
7083,7.812500
7084,7.812500
7085,7.812500
7086,7.812500
7087,7.812500
7088,7.812500
7089,7.812500
7090,7.812500
7091,7.812500
7092,7.812500
7093,11.718750
7094,11.718750
7095,11.718750
7096,11.718750
7097,11.718750
7098,11.718750
7099,11.718750
7100,11.718750
7101,11.718750
7102,11.718750
7103,11.718750
7104,11.718750
7105,11.718750
7106,11.718750
7107,11.718750
7108,11.718750
7109,15.625000
7110,15.625000
7111,15.625000
7112,15.625000
7113,15.625000
7114,15.625000
7115,15.625000
7116,15.625000
7117,15.625000
7118,15.625000
7119,15.625000
7120,15.625000
7121,15.625000
7122,15.625000
7123,15.625000
7124,15.625000
7125,15.625000
7126,15.625000
7127,15.625000
7128,15.625000
7129,19.531250
7130,15.625000
7131,19.531250
7132,19.531250
7133,19.531250
7134,19.531250
7135,19.531250
7136,19.531250
7137,19.531250
7138,19.531250
7139,19.531250
7140,19.531250
7141,19.531250
7142,19.531250
7143,19.531250
7144,19.531250
7145,19.531250
7146,19.531250
7147,19.531250
7148,19.531250
7149,19.531250
7150,19.531250
7151,23.437500
7152,19.531250
7153,23.437500
7154,23.437500
7155,19.531250
7156,19.531250
7157,23.437500
7158,19.531250
7159,23.437500
7160,23.437500
7161,23.437500
7162,23.437500
7163,23.437500
7164,23.437500
7165,23.437500
7166,23.437500
7167,23.437500
7168,23.437500
7169,23.437500
7170,23.437500
7171,23.437500
7172,23.437500
7173,23.437500
7174,23.437500
7175,23.437500
7176,23.437500
7177,23.437500
7178,23.437500
7179,23.437500
7180,23.437500
7181,27.343750
7182,27.343750
7183,27.343750
7184,27.343750
7185,23.437500
7186,23.437500
7187,27.343750
7188,23.437500
7189,27.343750
7190,27.343750
7191,27.343750
7192,27.343750
7193,27.343750
7194,27.343750
7195,27.343750
7196,27.343750
7197,27.343750
7198,27.343750
7199,27.343750
7200,27.343750
7201,27.343750
7202,27.343750
7203,27.343750
7204,27.343750
7205,27.343750
7206,27.343750
7207,27.343750
7208,27.343750
7209,27.343750
7210,27.343750
7211,27.343750
7212,27.343750
7213,27.343750
7214,27.343750
7215,27.343750
7216,27.343750
7217,27.343750
7218,27.343750
7219,27.343750
7220,27.343750
7221,27.343750
7222,27.343750
7223,27.343750
7224,27.343750
7225,27.343750
7226,27.343750
7227,27.343750
7228,27.343750
7229,27.343750
7230,27.343750
7231,27.343750
7232,27.343750
7233,27.343750
7234,27.343750
7235,27.343750
7236,31.250000
7237,31.250000
7238,27.343750
7239,27.343750
7240,27.343750
7241,27.343750
7242,27.343750
7243,27.343750
7244,31.250000
7245,31.250000
7246,27.343750
7247,27.343750
7248,27.343750
7249,27.343750
7250,27.343750
7251,31.250000
7252,27.343750
7253,27.343750
7254,27.343750
7255,27.343750
7256,27.343750
7257,27.343750
7258,31.250000
7259,27.343750
7260,27.343750
7261,27.343750
7262,27.343750
7263,31.250000
7264,27.343750
7265,27.343750
7266,27.343750
7267,27.343750
7268,27.343750
7269,27.343750
7270,27.343750
7271,27.343750
7272,27.343750
7273,27.343750
7274,27.343750
7275,27.343750
7276,27.343750
7277,27.343750
7278,31.250000
7279,27.343750
7280,27.343750
7281,27.343750
7282,27.343750
7283,27.343750
7284,27.343750
7285,27.343750
7286,27.343750
7287,27.343750
7288,27.343750
7289,27.343750
7290,27.343750
7291,27.343750
7292,27.343750
7293,27.343750
7294,27.343750
7295,27.343750
7296,27.343750
7297,27.343750
7298,27.343750
7299,27.343750
7300,27.343750
7301,27.343750
7302,27.343750
7303,27.343750
7304,27.343750
7305,27.343750
7306,27.343750
7307,27.343750
7308,27.343750
7309,27.343750
7310,27.343750
7311,27.343750
7312,27.343750
7313,27.343750
7314,23.437500
7315,23.437500
7316,23.437500
7317,27.343750
7318,23.437500
7319,23.437500
7320,23.437500
7321,27.343750
7322,23.437500
7323,23.437500
7324,23.437500
7325,23.437500
7326,23.437500
7327,23.437500
7328,23.437500
7329,23.437500
7330,23.437500
7331,23.437500
7332,23.437500
7333,23.437500
7334,23.437500
7335,23.437500
7336,23.437500
7337,23.437500
7338,23.437500
7339,23.437500
7340,23.437500
7341,23.437500
7342,23.437500
7343,23.437500
7344,19.531250
7345,23.437500
7346,23.437500
7347,23.437500
7348,23.437500
7349,19.531250
7350,23.437500
7351,19.531250
7352,19.531250
7353,19.531250
7354,19.531250
7355,19.531250
7356,19.531250
7357,19.531250
7358,19.531250
7359,19.531250
7360,19.531250
7361,19.531250
7362,19.531250
7363,19.531250
7364,19.531250
7365,19.531250
7366,15.625000
7367,19.531250
7368,19.531250
7369,19.531250
7370,15.625000
7371,19.531250
7372,15.625000
7373,15.625000
7374,15.625000
7375,15.625000
7376,15.625000
7377,15.625000
7378,15.625000
7379,15.625000
7380,15.625000
7381,15.625000
7382,15.625000
7383,15.625000
7384,15.625000
7385,15.625000
7386,15.625000
7387,15.625000
7388,15.625000
7389,15.625000
7390,15.625000
7391,15.625000
7392,11.718750
7393,11.718750
7394,11.718750
7395,11.718750
7396,11.718750
7397,11.718750
7398,11.718750
7399,11.718750
7400,11.718750
7401,11.718750
7402,11.718750
7403,11.718750
7404,11.718750
7405,11.718750
7406,11.718750
7407,11.718750
7408,11.718750
7409,11.718750
7410,11.718750
7411,11.718750
7412,11.718750
7413,7.812500
7414,7.812500
7415,7.812500
7416,7.812500
7417,7.812500
7418,7.812500
7419,7.812500
7420,7.812500
7421,7.812500
7422,7.812500
7423,7.812500
7424,7.812500
7425,7.812500
7426,7.812500
7427,7.812500
7428,7.812500
7429,3.906250
7430,3.906250
7431,3.906250
7432,3.906250
7433,3.906250
7434,3.906250
7435,3.906250
7436,3.906250
7437,3.906250
7438,3.906250
7439,3.906250
7440,3.906250
7441,3.906250
7442,3.906250
7443,3.906250
7444,0.000000
7445,0.000000
7446,3.906250
7447,0.000000
7448,3.906250
7449,0.000000
7450,0.000000
7451,0.000000
7452,0.000000
7453,0.000000
7454,0.000000
7455,0.000000
7456,0.000000
7457,0.000000
7458,0.000000
7459,0.000000
7460,0.000000
7461,0.000000
7462,0.000000
7463,-3.906250
7464,0.000000
7465,-3.906250
7466,-3.906250
7467,-3.906250
7468,-3.906250
7469,-3.906250
7470,-3.906250
7471,-3.906250
7472,-3.906250
7473,-3.906250
7474,-3.906250
7475,-3.906250
7476,-3.906250
7477,-7.812500
7478,-7.812500
7479,-7.812500
7480,-7.812500
7481,-7.812500
7482,-7.812500
7483,-7.812500
7484,-7.812500
7485,-7.812500
7486,-7.812500
7487,-7.812500
7488,-7.812500
7489,-7.812500
7490,-7.812500
7491,-7.812500
7492,-7.812500
7493,-11.718750
7494,-11.718750
7495,-11.718750
7496,-11.718750
7497,-11.718750
7498,-11.718750
7499,-11.718750
7500,-11.718750
7501,-11.718750
7502,-11.718750
7503,-11.718750
7504,-11.718750
7505,-11.718750
7506,-11.718750
7507,-15.625000
7508,-15.625000
7509,-11.718750
7510,-15.625000
7511,-15.625000
7512,-15.625000
7513,-15.625000
7514,-15.625000
7515,-15.625000
7516,-15.625000
7517,-15.625000
7518,-15.625000
7519,-15.625000
7520,-19.531250
7521,-19.531250
7522,-19.531250
7523,-19.531250
7524,-19.531250
7525,-19.531250
7526,-19.531250
7527,-19.531250
7528,-19.531250
7529,-19.531250
7530,-19.531250
7531,-19.531250
7532,-19.531250
7533,-19.531250
7534,-23.437500
7535,-23.437500
7536,-23.437500
7537,-23.437500
7538,-23.437500
7539,-23.437500
7540,-23.437500
7541,-23.437500
7542,-23.437500
7543,-23.437500
7544,-23.437500
7545,-23.437500
7546,-23.437500
7547,-27.343750
7548,-23.437500
7549,-23.437500
7550,-27.343750
7551,-23.437500
7552,-23.437500
7553,-27.343750
7554,-27.343750
7555,-27.343750
7556,-31.250000
7557,-27.343750
7558,-27.343750
7559,-31.250000
7560,-27.343750
7561,-27.343750
7562,-27.343750
7563,-31.250000
7564,-27.343750
7565,-27.343750
7566,-27.343750
7567,-31.250000
7568,-31.250000
7569,-31.250000
7570,-31.250000
7571,-31.250000
7572,-31.250000
7573,-31.250000
7574,-31.250000
7575,-31.250000
7576,-31.250000
7577,-31.250000
7578,-31.250000
7579,-31.250000
7580,-31.250000
7581,-31.250000
7582,-31.250000
7583,-35.156250
7584,-35.156250
7585,-35.156250
7586,-35.156250
7587,-35.156250
7588,-35.156250
7589,-35.156250
7590,-35.156250
7591,-35.156250
7592,-35.156250
7593,-35.156250
7594,-35.156250
7595,-35.156250
7596,-35.156250
7597,-35.156250
7598,-35.156250
7599,-35.156250
7600,-39.062500
7601,-35.156250
7602,-39.062500
7603,-39.062500
7604,-39.062500
7605,-39.062500
7606,-39.062500
7607,-39.062500
7608,-39.062500
7609,-39.062500
7610,-39.062500
7611,-39.062500
7612,-39.062500
7613,-39.062500
7614,-39.062500
7615,-39.062500
7616,-42.968750
7617,-42.968750
7618,-42.968750
7619,-42.968750
7620,-42.968750
7621,-39.062500
7622,-42.968750
7623,-42.968750
7624,-42.968750
7625,-39.062500
7626,-42.968750
7627,-42.968750
7628,-42.968750
7629,-42.968750
7630,-42.968750
7631,-42.968750
7632,-42.968750
7633,-42.968750
7634,-42.968750
7635,-42.968750
7636,-42.968750
7637,-42.968750
7638,-46.875000
7639,-46.875000
7640,-46.875000
7641,-46.875000
7642,-46.875000
7643,-46.875000
7644,-46.875000
7645,-46.875000
7646,-46.875000
7647,-46.875000
7648,-46.875000
7649,-46.875000
7650,-46.875000
7651,-46.875000
7652,-46.875000
7653,-46.875000
7654,-46.875000
7655,-46.875000
7656,-46.875000
7657,-46.875000
7658,-46.875000
7659,-46.875000
7660,-50.781250
7661,-50.781250
7662,-50.781250
7663,-50.781250
7664,-50.781250
7665,-50.781250
7666,-50.781250
7667,-50.781250
7668,-50.781250
7669,-50.781250
7670,-50.781250
7671,-50.781250
7672,-50.781250
7673,-50.781250
7674,-50.781250
7675,-50.781250
7676,-50.781250
7677,-50.781250
7678,-50.781250
7679,-50.781250
7680,-50.781250
7681,-50.781250
7682,-50.781250
7683,-50.781250
7684,-54.687500
7685,-50.781250
7686,-54.687500
7687,-54.687500
7688,-54.687500
7689,-50.781250
7690,-54.687500
7691,-54.687500
7692,-54.687500
7693,-54.687500
7694,-54.687500
7695,-54.687500
7696,-54.687500
7697,-54.687500
7698,-54.687500
7699,-54.687500
7700,-54.687500
7701,-54.687500
7702,-54.687500
7703,-54.687500
7704,-54.687500
7705,-54.687500
7706,-54.687500
7707,-54.687500
7708,-54.687500
7709,-54.687500
7710,-54.687500
7711,-54.687500
7712,-54.687500
7713,-54.687500
7714,-54.687500
7715,-54.687500
7716,-54.687500
7717,-54.687500
7718,-54.687500
7719,-54.687500
7720,-54.687500
7721,-54.687500
7722,-54.687500
7723,-54.687500
7724,-54.687500
7725,-54.687500
7726,-54.687500
7727,-54.687500
7728,-54.687500
7729,-54.687500
7730,-54.687500
7731,-54.687500
7732,-58.593750
7733,-54.687500
7734,-54.687500
7735,-54.687500
7736,-54.687500
7737,-54.687500
7738,-54.687500
7739,-54.687500
7740,-54.687500
7741,-54.687500
7742,-54.687500
7743,-54.687500
7744,-54.687500
7745,-54.687500
7746,-58.593750
7747,-54.687500
7748,-54.687500
7749,-54.687500
7750,-54.687500
7751,-58.593750
7752,-58.593750
7753,-58.593750
7754,-54.687500
7755,-54.687500
7756,-54.687500
7757,-54.687500
7758,-54.687500
7759,-54.687500
7760,-54.687500
7761,-54.687500
7762,-54.687500
7763,-54.687500
7764,-58.593750
7765,-58.593750
7766,-54.687500
7767,-54.687500
7768,-54.687500
7769,-54.687500
7770,-54.687500
7771,-54.687500
7772,-58.593750
7773,-54.687500
7774,-54.687500
7775,-54.687500
7776,-54.687500
7777,-54.687500
7778,-54.687500
7779,-54.687500
7780,-54.687500
7781,-54.687500
7782,-54.687500
7783,-54.687500
7784,-54.687500
7785,-54.687500
7786,-54.687500
7787,-54.687500
7788,-54.687500
7789,-54.687500
7790,-54.687500
7791,-54.687500
7792,-54.687500
7793,-54.687500
7794,-54.687500
7795,-54.687500
7796,-54.687500
7797,-54.687500
7798,-54.687500
7799,-54.687500
7800,-54.687500
7801,-54.687500
7802,-54.687500
7803,-54.687500
7804,-54.687500
7805,-54.687500
7806,-54.687500
7807,-54.687500
7808,-54.687500
7809,-54.687500
7810,-54.687500
7811,-54.687500
7812,-54.687500
7813,-54.687500
7814,-54.687500
7815,-54.687500
7816,-50.781250
7817,-50.781250
7818,-50.781250
7819,-54.687500
7820,-50.781250
7821,-50.781250
7822,-50.781250
7823,-50.781250
7824,-50.781250
7825,-50.781250
7826,-50.781250
7827,-50.781250
7828,-50.781250
7829,-50.781250
7830,-50.781250
7831,-50.781250
7832,-50.781250
7833,-50.781250
7834,-50.781250
7835,-50.781250
7836,-50.781250
7837,-50.781250
7838,-50.781250
7839,-50.781250
7840,-50.781250
7841,-50.781250
7842,-46.875000
7843,-46.875000
7844,-50.781250
7845,-50.781250
7846,-50.781250
7847,-46.875000
7848,-46.875000
7849,-46.875000
7850,-46.875000
7851,-46.875000
7852,-46.875000
7853,-46.875000
7854,-46.875000
7855,-46.875000
7856,-46.875000
7857,-46.875000
7858,-46.875000
7859,-46.875000
7860,-46.875000
7861,-46.875000
7862,-46.875000
7863,-46.875000
7864,-46.875000
7865,-46.875000
7866,-46.875000
7867,-42.968750
7868,-42.968750
7869,-42.968750
7870,-42.968750
7871,-42.968750
7872,-42.968750
7873,-42.968750
7874,-42.968750
7875,-42.968750
7876,-42.968750
7877,-42.968750
7878,-42.968750
7879,-42.968750
7880,-42.968750
7881,-42.968750
7882,-42.968750
7883,-42.968750
7884,-42.968750
7885,-42.968750
7886,-42.968750
7887,-39.062500
7888,-39.062500
7889,-39.062500
7890,-39.062500
7891,-39.062500
7892,-39.062500
7893,-39.062500
7894,-39.062500
7895,-39.062500
7896,-39.062500
7897,-39.062500
7898,-39.062500
7899,-39.062500
7900,-39.062500
7901,-39.062500
7902,-39.062500
7903,-39.062500
7904,-39.062500
7905,-35.156250
7906,-35.156250
7907,-35.156250
7908,-35.156250
7909,-35.156250
7910,-35.156250
7911,-35.156250
7912,-35.156250
7913,-35.156250
7914,-35.156250
7915,-35.156250
7916,-35.156250
7917,-35.156250
7918,-35.156250
7919,-35.156250
7920,-35.156250
7921,-31.250000
7922,-31.250000
7923,-31.250000
7924,-31.250000
7925,-31.250000
7926,-31.250000
7927,-31.250000
7928,-31.250000
7929,-31.250000
7930,-31.250000
7931,-31.250000
7932,-31.250000
7933,-31.250000
7934,-31.250000
7935,-31.250000
7936,-27.343750
7937,-31.250000
7938,-27.343750
7939,-27.343750
7940,-27.343750
7941,-27.343750
7942,-27.343750
7943,-27.343750
7944,-27.343750
7945,-27.343750
7946,-27.343750
7947,-27.343750
7948,-27.343750
7949,-27.343750
7950,-27.343750
7951,-27.343750
7952,-23.437500
7953,-23.437500
7954,-23.437500
7955,-23.437500
7956,-23.437500
7957,-23.437500
7958,-23.437500
7959,-23.437500
7960,-23.437500
7961,-23.437500
7962,-23.437500
7963,-23.437500
7964,-23.437500
7965,-19.531250
7966,-23.437500
7967,-19.531250
7968,-19.531250
7969,-19.531250
7970,-19.531250
7971,-19.531250
7972,-19.531250
7973,-19.531250
7974,-19.531250
7975,-19.531250
7976,-19.531250
7977,-19.531250
7978,-19.531250
7979,-15.625000
7980,-15.625000
7981,-15.625000
7982,-15.625000
7983,-15.625000
7984,-15.625000
7985,-15.625000
7986,-15.625000
7987,-15.625000
7988,-15.625000
7989,-15.625000
7990,-15.625000
7991,-15.625000
7992,-11.718750
7993,-11.718750
7994,-11.718750
7995,-11.718750
7996,-11.718750
7997,-11.718750
7998,-11.718750
7999,-11.718750
8000,-11.718750
8001,-11.718750
8002,-11.718750
8003,-11.718750
8004,-11.718750
8005,-11.718750
8006,-11.718750
8007,-11.718750
8008,-11.718750
8009,-7.812500
8010,-11.718750
8011,-7.812500
8012,-7.812500
8013,-7.812500
8014,-7.812500
8015,-7.812500
8016,-7.812500
8017,-7.812500
8018,-7.812500
8019,-7.812500
8020,-7.812500
8021,-3.906250
8022,-3.906250
8023,-7.812500
8024,-3.906250
8025,-3.906250
8026,-3.906250
8027,-3.906250
8028,-3.906250
8029,-3.906250
8030,-3.906250
8031,-3.906250
8032,-3.906250
8033,0.000000
8034,-3.906250
8035,-3.906250
8036,-3.906250
8037,-3.906250
8038,-3.906250
8039,0.000000
8040,0.000000
8041,0.000000
8042,0.000000
8043,0.000000
8044,0.000000
8045,0.000000
8046,0.000000
8047,0.000000
8048,0.000000
8049,0.000000
8050,0.000000
8051,0.000000
8052,0.000000
8053,3.906250
8054,3.906250
8055,3.906250
8056,3.906250
8057,3.906250
8058,3.906250
8059,3.906250
8060,3.906250
8061,3.906250
8062,3.906250
8063,3.906250
8064,3.906250
8065,3.906250
8066,3.906250
8067,3.906250
8068,7.812500
8069,7.812500
8070,7.812500
8071,7.812500
8072,7.812500
8073,7.812500
8074,7.812500
8075,7.812500
8076,7.812500
8077,7.812500
8078,7.812500
8079,7.812500
8080,7.812500
8081,7.812500
8082,7.812500
8083,7.812500
8084,7.812500
8085,11.718750
8086,11.718750
8087,11.718750
8088,11.718750
8089,11.718750
8090,11.718750
8091,11.718750
8092,11.718750
8093,11.718750
8094,11.718750
8095,11.718750
8096,11.718750
8097,11.718750
8098,11.718750
8099,11.718750
8100,11.718750
8101,15.625000
8102,11.718750
8103,11.718750
8104,11.718750
8105,15.625000
8106,15.625000
8107,15.625000
8108,15.625000
8109,15.625000
8110,15.625000
8111,15.625000
8112,15.625000
8113,15.625000
8114,15.625000
8115,15.625000
8116,15.625000
8117,15.625000
8118,15.625000
8119,19.531250
8120,19.531250
8121,19.531250
8122,15.625000
8123,19.531250
8124,19.531250
8125,19.531250
8126,19.531250
8127,19.531250
8128,19.531250
8129,19.531250
8130,19.531250
8131,19.531250
8132,19.531250
8133,19.531250
8134,19.531250
8135,19.531250
8136,19.531250
8137,19.531250
8138,19.531250
8139,19.531250
8140,19.531250
8141,19.531250
8142,19.531250
8143,19.531250
8144,23.437500
8145,23.437500
8146,23.437500
8147,23.437500
8148,19.531250
8149,23.437500
8150,23.437500
8151,23.437500
8152,23.437500
8153,23.437500
8154,23.437500
8155,23.437500
8156,23.437500
8157,23.437500
8158,23.437500
8159,23.437500
8160,23.437500
8161,23.437500
8162,23.437500
8163,23.437500
8164,23.437500
8165,23.437500
8166,23.437500
8167,23.437500
8168,23.437500
8169,23.437500
8170,23.437500
8171,23.437500
8172,23.437500
8173,23.437500
8174,23.437500
8175,23.437500
8176,27.343750
8177,27.343750
8178,27.343750
8179,23.437500
8180,23.437500
8181,23.437500
8182,23.437500
8183,27.343750
8184,27.343750
8185,27.343750
8186,27.343750
8187,27.343750
8188,27.343750
8189,27.343750
8190,27.343750
8191,27.343750
8192,27.343750
8193,27.343750
8194,27.343750
8195,27.343750
8196,27.343750
8197,27.343750
8198,27.343750
8199,27.343750
8200,27.343750
8201,27.343750
8202,27.343750
8203,27.343750
8204,27.343750
8205,27.343750
8206,27.343750
8207,27.343750
8208,27.343750
8209,27.343750
8210,27.343750
8211,27.343750
8212,27.343750
8213,27.343750
8214,27.343750
8215,27.343750
8216,27.343750
8217,27.343750
8218,27.343750
8219,27.343750
8220,27.343750
8221,27.343750
8222,27.343750
8223,31.250000
8224,31.250000
8225,27.343750
8226,27.343750
8227,27.343750
8228,27.343750
8229,31.250000
8230,27.343750
8231,27.343750
8232,27.343750
8233,27.343750
8234,27.343750
8235,27.343750
8236,31.250000
8237,27.343750
8238,27.343750
8239,27.343750
8240,27.343750
8241,27.343750
8242,27.343750
8243,31.250000
8244,27.343750
8245,27.343750
8246,31.250000
8247,27.343750
8248,27.343750
8249,31.250000
8250,27.343750
8251,27.343750
8252,27.343750
8253,27.343750
8254,27.343750
8255,27.343750
8256,27.343750
8257,27.343750
8258,27.343750
8259,27.343750
8260,27.343750
8261,27.343750
8262,27.343750
8263,27.343750
8264,27.343750
8265,31.250000
8266,27.343750
8267,27.343750
8268,27.343750
8269,27.343750
8270,27.343750
8271,27.343750
8272,27.343750
8273,27.343750
8274,27.343750
8275,27.343750
8276,27.343750
8277,27.343750
8278,27.343750
8279,27.343750
8280,27.343750
8281,27.343750
8282,27.343750
8283,27.343750
8284,27.343750
8285,27.343750
8286,27.343750
8287,27.343750
8288,27.343750
8289,27.343750
8290,27.343750
8291,27.343750
8292,27.343750
8293,27.343750
8294,27.343750
8295,27.343750
8296,27.343750
8297,27.343750
8298,27.343750
8299,27.343750
8300,27.343750
8301,27.343750
8302,27.343750
8303,27.343750
8304,23.437500
8305,23.437500
8306,23.437500
8307,23.437500
8308,27.343750
8309,27.343750
8310,27.343750
8311,27.343750
8312,23.437500
8313,23.437500
8314,23.437500
8315,23.437500
8316,23.437500
8317,23.437500
8318,23.437500
8319,23.437500
8320,23.437500
8321,23.437500
8322,23.437500
8323,23.437500
8324,23.437500
8325,23.437500
8326,23.437500
8327,23.437500
8328,23.437500
8329,23.437500
8330,23.437500
8331,23.437500
8332,23.437500
8333,23.437500
8334,23.437500
8335,23.437500
8336,19.531250
8337,23.437500
8338,19.531250
8339,19.531250
8340,19.531250
8341,23.437500
8342,19.531250
8343,19.531250
8344,19.531250
8345,19.531250
8346,19.531250
8347,19.531250
8348,19.531250
8349,19.531250
8350,19.531250
8351,19.531250
8352,19.531250
8353,19.531250
8354,19.531250
8355,19.531250
8356,19.531250
8357,19.531250
8358,19.531250
8359,19.531250
8360,19.531250
8361,19.531250
8362,19.531250
8363,19.531250
8364,15.625000
8365,15.625000
8366,15.625000
8367,15.625000
8368,15.625000
8369,15.625000
8370,15.625000
8371,15.625000
8372,15.625000
8373,15.625000
8374,15.625000
8375,15.625000
8376,15.625000
8377,15.625000
8378,15.625000
8379,15.625000
8380,15.625000
8381,15.625000
8382,11.718750
8383,11.718750
8384,11.718750
8385,11.718750
8386,15.625000
8387,11.718750
8388,11.718750
8389,11.718750
8390,11.718750
8391,11.718750
8392,11.718750
8393,11.718750
8394,11.718750
8395,11.718750
8396,11.718750
8397,11.718750
8398,11.718750
8399,11.718750
8400,11.718750
8401,11.718750
8402,11.718750
8403,7.812500
8404,7.812500
8405,7.812500
8406,7.812500
8407,7.812500
8408,7.812500
8409,7.812500
8410,7.812500
8411,7.812500
8412,7.812500
8413,7.812500
8414,7.812500
8415,7.812500
8416,7.812500
8417,3.906250
8418,3.906250
8419,3.906250
8420,7.812500
8421,7.812500
8422,3.906250
8423,3.906250
8424,3.906250
8425,3.906250
8426,3.906250
8427,3.906250
8428,3.906250
8429,3.906250
8430,3.906250
8431,3.906250
8432,3.906250
8433,0.000000
8434,3.906250
8435,0.000000
8436,0.000000
8437,0.000000
8438,0.000000
8439,0.000000
8440,0.000000
8441,0.000000
8442,0.000000
8443,0.000000
8444,0.000000
8445,0.000000
8446,0.000000
8447,0.000000
8448,-3.906250
8449,-3.906250
8450,-3.906250
8451,0.000000
8452,0.000000
8453,-3.906250
8454,-3.906250
8455,-3.906250
8456,-3.906250
8457,-3.906250
8458,-3.906250
8459,-3.906250
8460,-3.906250
8461,-3.906250
8462,-3.906250
8463,-3.906250
8464,-3.906250
8465,-3.906250
8466,-3.906250
8467,-7.812500
8468,-7.812500
8469,-7.812500
8470,-7.812500
8471,-7.812500
8472,-7.812500
8473,-7.812500
8474,-7.812500
8475,-7.812500
8476,-7.812500
8477,-7.812500
8478,-7.812500
8479,-7.812500
8480,-7.812500
8481,-7.812500
8482,-11.718750
8483,-11.718750
8484,-11.718750
8485,-11.718750
8486,-11.718750
8487,-11.718750
8488,-11.718750
8489,-11.718750
8490,-11.718750
8491,-11.718750
8492,-11.718750
8493,-11.718750
8494,-11.718750
8495,-11.718750
8496,-15.625000
8497,-15.625000
8498,-15.625000
8499,-15.625000
8500,-15.625000
8501,-15.625000
8502,-15.625000
8503,-15.625000
8504,-15.625000
8505,-15.625000
8506,-15.625000
8507,-15.625000
8508,-15.625000
8509,-15.625000
8510,-15.625000
8511,-19.531250
8512,-19.531250
8513,-19.531250
8514,-19.531250
8515,-19.531250
8516,-19.531250
8517,-19.531250
8518,-19.531250
8519,-19.531250
8520,-19.531250
8521,-19.531250
8522,-19.531250
8523,-19.531250
8524,-19.531250
8525,-19.531250
8526,-23.437500
8527,-23.437500
8528,-23.437500
8529,-23.437500
8530,-23.437500
8531,-23.437500
8532,-23.437500
8533,-23.437500
8534,-23.437500
8535,-23.437500
8536,-23.437500
8537,-23.437500
8538,-23.437500
8539,-23.437500
8540,-23.437500
8541,-23.437500
8542,-23.437500
8543,-27.343750
8544,-27.343750
8545,-27.343750
8546,-27.343750
8547,-27.343750
8548,-27.343750
8549,-27.343750
8550,-27.343750
8551,-27.343750
8552,-27.343750
8553,-27.343750
8554,-27.343750
8555,-27.343750
8556,-31.250000
8557,-27.343750
8558,-31.250000
8559,-31.250000
8560,-31.250000
8561,-31.250000
8562,-31.250000
8563,-31.250000
8564,-31.250000
8565,-31.250000
8566,-31.250000
8567,-31.250000
8568,-31.250000
8569,-31.250000
8570,-31.250000
8571,-31.250000
8572,-31.250000
8573,-35.156250
8574,-35.156250
8575,-35.156250
8576,-35.156250
8577,-35.156250
8578,-35.156250
8579,-35.156250
8580,-35.156250
8581,-35.156250
8582,-35.156250
8583,-35.156250
8584,-35.156250
8585,-35.156250
8586,-35.156250
8587,-35.156250
8588,-35.156250
8589,-35.156250
8590,-35.156250
8591,-35.156250
8592,-35.156250
8593,-39.062500
8594,-39.062500
8595,-39.062500
8596,-39.062500
8597,-39.062500
8598,-39.062500
8599,-39.062500
8600,-39.062500
8601,-39.062500
8602,-39.062500
8603,-39.062500
8604,-39.062500
8605,-42.968750
8606,-39.062500
8607,-39.062500
8608,-42.968750
8609,-42.968750
8610,-42.968750
8611,-42.968750
8612,-42.968750
8613,-42.968750
8614,-42.968750
8615,-42.968750
8616,-42.968750
8617,-42.968750
8618,-42.968750
8619,-42.968750
8620,-42.968750
8621,-42.968750
8622,-42.968750
8623,-42.968750
8624,-46.875000
8625,-42.968750
8626,-46.875000
8627,-42.968750
8628,-42.968750
8629,-42.968750
8630,-46.875000
8631,-42.968750
8632,-46.875000
8633,-46.875000
8634,-46.875000
8635,-46.875000
8636,-46.875000
8637,-46.875000
8638,-46.875000
8639,-46.875000
8640,-46.875000
8641,-46.875000
8642,-46.875000
8643,-46.875000
8644,-46.875000
8645,-46.875000
8646,-46.875000
8647,-46.875000
8648,-46.875000
8649,-46.875000
8650,-46.875000
8651,-46.875000
8652,-46.875000
8653,-46.875000
8654,-50.781250
8655,-50.781250
8656,-50.781250
8657,-50.781250
8658,-50.781250
8659,-50.781250
8660,-50.781250
8661,-50.781250
8662,-50.781250
8663,-50.781250
8664,-50.781250
8665,-50.781250
8666,-50.781250
8667,-50.781250
8668,-50.781250
8669,-50.781250
8670,-50.781250
8671,-50.781250
8672,-50.781250
8673,-50.781250
8674,-50.781250
8675,-50.781250
8676,-50.781250
8677,-50.781250
8678,-50.781250
8679,-54.687500
8680,-54.687500
8681,-54.687500
8682,-54.687500
8683,-54.687500
8684,-54.687500
8685,-50.781250
8686,-54.687500
8687,-54.687500
8688,-54.687500
8689,-54.687500
8690,-54.687500
8691,-54.687500
8692,-54.687500
8693,-54.687500
8694,-54.687500
8695,-54.687500
8696,-54.687500
8697,-54.687500
8698,-54.687500
8699,-54.687500
8700,-54.687500
8701,-54.687500
8702,-54.687500
8703,-54.687500
8704,-54.687500
8705,-54.687500
8706,-54.687500
8707,-54.687500
8708,-54.687500
8709,-54.687500
8710,-54.687500
8711,-54.687500
8712,-58.593750
8713,-54.687500
8714,-54.687500
8715,-54.687500
8716,-54.687500
8717,-54.687500
8718,-54.687500
8719,-54.687500
8720,-54.687500
8721,-54.687500
8722,-54.687500
8723,-54.687500
8724,-54.687500
8725,-54.687500
8726,-54.687500
8727,-58.593750
8728,-54.687500
8729,-54.687500
8730,-54.687500
8731,-54.687500
8732,-54.687500
8733,-54.687500
8734,-54.687500
8735,-58.593750
8736,-58.593750
8737,-58.593750
8738,-54.687500
8739,-54.687500
8740,-54.687500
8741,-54.687500
8742,-54.687500
8743,-54.687500
8744,-58.593750
8745,-58.593750
8746,-54.687500
8747,-54.687500
8748,-54.687500
8749,-54.687500
8750,-54.687500
8751,-54.687500
8752,-58.593750
8753,-54.687500
8754,-54.687500
8755,-54.687500
8756,-54.687500
8757,-54.687500
8758,-54.687500
8759,-54.687500
8760,-54.687500
8761,-54.687500
8762,-54.687500
8763,-54.687500
8764,-54.687500
8765,-54.687500
8766,-54.687500
8767,-54.687500
8768,-58.593750
8769,-54.687500
8770,-54.687500
8771,-54.687500
8772,-54.687500
8773,-54.687500
8774,-54.687500
8775,-54.687500
8776,-54.687500
8777,-54.687500
8778,-54.687500
8779,-54.687500
8780,-54.687500
8781,-54.687500
8782,-54.687500
8783,-54.687500
8784,-54.687500
8785,-54.687500
8786,-54.687500
8787,-54.687500
8788,-54.687500
8789,-54.687500
8790,-54.687500
8791,-54.687500
8792,-54.687500
8793,-54.687500
8794,-54.687500
8795,-54.687500
8796,-54.687500
8797,-54.687500
8798,-54.687500
8799,-54.687500
8800,-54.687500
8801,-50.781250
8802,-54.687500
8803,-50.781250
8804,-54.687500
8805,-54.687500
8806,-54.687500
8807,-54.687500
8808,-50.781250
8809,-50.781250
8810,-50.781250
8811,-50.781250
8812,-54.687500
8813,-50.781250
8814,-50.781250
8815,-50.781250
8816,-54.687500
8817,-50.781250
8818,-50.781250
8819,-50.781250
8820,-50.781250
8821,-50.781250
8822,-50.781250
8823,-50.781250
8824,-50.781250
8825,-50.781250
8826,-50.781250
8827,-50.781250
8828,-50.781250
8829,-50.781250
8830,-50.781250
8831,-50.781250
8832,-50.781250
8833,-50.781250
8834,-50.781250
8835,-50.781250
8836,-46.875000
8837,-46.875000
8838,-46.875000
8839,-46.875000
8840,-46.875000
8841,-46.875000
8842,-46.875000
8843,-46.875000
8844,-46.875000
8845,-46.875000
8846,-46.875000
8847,-46.875000
8848,-46.875000
8849,-46.875000
8850,-46.875000
8851,-46.875000
8852,-46.875000
8853,-46.875000
8854,-46.875000
8855,-46.875000
8856,-46.875000
8857,-46.875000
8858,-46.875000
8859,-46.875000
8860,-42.968750
8861,-42.968750
8862,-42.968750
8863,-42.968750
8864,-42.968750
8865,-42.968750
8866,-42.968750
8867,-42.968750
8868,-42.968750
8869,-42.968750
8870,-42.968750
8871,-42.968750
8872,-42.968750
8873,-42.968750
8874,-42.968750
8875,-42.968750
8876,-42.968750
8877,-42.968750
8878,-42.968750
8879,-42.968750
8880,-42.968750
8881,-39.062500
8882,-39.062500
8883,-39.062500
8884,-39.062500
8885,-39.062500
8886,-39.062500
8887,-39.062500
8888,-39.062500
8889,-39.062500
8890,-39.062500
8891,-39.062500
8892,-39.062500
8893,-39.062500
8894,-39.062500
8895,-35.156250
8896,-35.156250
8897,-35.156250
8898,-35.156250
8899,-35.156250
8900,-35.156250
8901,-35.156250
8902,-35.156250
8903,-35.156250
8904,-35.156250
8905,-35.156250
8906,-35.156250
8907,-35.156250
8908,-35.156250
8909,-35.156250
8910,-35.156250
8911,-35.156250
8912,-31.250000
8913,-31.250000
8914,-31.250000
8915,-31.250000
8916,-31.250000
8917,-31.250000
8918,-31.250000
8919,-31.250000
8920,-31.250000
8921,-31.250000
8922,-31.250000
8923,-31.250000
8924,-31.250000
8925,-27.343750
8926,-27.343750
8927,-27.343750
8928,-27.343750
8929,-27.343750
8930,-27.343750
8931,-27.343750
8932,-27.343750
8933,-27.343750
8934,-27.343750
8935,-27.343750
8936,-27.343750
8937,-27.343750
8938,-27.343750
8939,-27.343750
8940,-27.343750
8941,-27.343750
8942,-27.343750
8943,-23.437500
8944,-23.437500
8945,-23.437500
8946,-23.437500
8947,-23.437500
8948,-23.437500
8949,-23.437500
8950,-23.437500
8951,-23.437500
8952,-23.437500
8953,-23.437500
8954,-19.531250
8955,-23.437500
8956,-19.531250
8957,-23.437500
8958,-19.531250
8959,-19.531250
8960,-19.531250
8961,-19.531250
8962,-19.531250
8963,-19.531250
8964,-19.531250
8965,-19.531250
8966,-19.531250
8967,-19.531250
8968,-19.531250
8969,-15.625000
8970,-19.531250
8971,-19.531250
8972,-15.625000
8973,-15.625000
8974,-15.625000
8975,-15.625000
8976,-15.625000
8977,-15.625000
8978,-15.625000
8979,-15.625000
8980,-11.718750
8981,-15.625000
8982,-15.625000
8983,-15.625000
8984,-15.625000
8985,-11.718750
8986,-11.718750
8987,-11.718750
8988,-11.718750
8989,-11.718750
8990,-11.718750
8991,-11.718750
8992,-11.718750
8993,-11.718750
8994,-11.718750
8995,-11.718750
8996,-11.718750
8997,-7.812500
8998,-11.718750
8999,-7.812500
9000,-7.812500
9001,-7.812500
9002,-7.812500
9003,-7.812500
9004,-7.812500
9005,-7.812500
9006,-7.812500
9007,-7.812500
9008,-7.812500
9009,-7.812500
9010,-7.812500
9011,-3.906250
9012,-7.812500
9013,-3.906250
9014,-3.906250
9015,-3.906250
9016,-3.906250
9017,-3.906250
9018,-3.906250
9019,-3.906250
9020,-3.906250
9021,-3.906250
9022,-3.906250
9023,-3.906250
9024,0.000000
9025,0.000000
9026,-3.906250
9027,0.000000
9028,-3.906250
9029,0.000000
9030,0.000000
9031,0.000000
9032,0.000000
9033,0.000000
9034,0.000000
9035,0.000000
9036,0.000000
9037,0.000000
9038,0.000000
9039,0.000000
9040,0.000000
9041,0.000000
9042,3.906250
9043,3.906250
9044,3.906250
9045,3.906250
9046,3.906250
9047,3.906250
9048,3.906250
9049,3.906250
9050,3.906250
9051,3.906250
9052,3.906250
9053,3.906250
9054,3.906250
9055,7.812500
9056,3.906250
9057,7.812500
9058,7.812500
9059,7.812500
9060,7.812500
9061,7.812500
9062,7.812500
9063,7.812500
9064,7.812500
9065,7.812500
9066,7.812500
9067,7.812500
9068,7.812500
9069,7.812500
9070,11.718750
9071,7.812500
9072,11.718750
9073,7.812500
9074,7.812500
9075,11.718750
9076,11.718750
9077,7.812500
9078,11.718750
9079,11.718750
9080,11.718750
9081,11.718750
9082,11.718750
9083,11.718750
9084,11.718750
9085,11.718750
9086,11.718750
9087,11.718750
9088,11.718750
9089,15.625000
9090,15.625000
9091,15.625000
9092,15.625000
9093,15.625000
9094,15.625000
9095,15.625000
9096,15.625000
9097,15.625000
9098,15.625000
9099,15.625000
9100,15.625000
9101,15.625000
9102,15.625000
9103,15.625000
9104,15.625000
9105,15.625000
9106,15.625000
9107,15.625000
9108,15.625000
9109,19.531250
9110,19.531250
9111,19.531250
9112,19.531250
9113,19.531250
9114,19.531250
9115,19.531250
9116,19.531250
9117,19.531250
9118,19.531250
9119,19.531250
9120,19.531250
9121,19.531250
9122,19.531250
9123,19.531250
9124,19.531250
9125,19.531250
9126,19.531250
9127,19.531250
9128,19.531250
9129,23.437500
9130,19.531250
9131,23.437500
9132,23.437500
9133,23.437500
9134,23.437500
9135,23.437500
9136,19.531250
9137,19.531250
9138,23.437500
9139,23.437500
9140,23.437500
9141,23.437500
9142,23.437500
9143,23.437500
9144,23.437500
9145,23.437500
9146,23.437500
9147,23.437500
9148,23.437500
9149,23.437500
9150,23.437500
9151,23.437500
9152,23.437500
9153,23.437500
9154,23.437500
9155,23.437500
9156,23.437500
9157,23.437500
9158,23.437500
9159,23.437500
9160,27.343750
9161,27.343750
9162,27.343750
9163,27.343750
9164,27.343750
9165,27.343750
9166,27.343750
9167,23.437500
9168,27.343750
9169,27.343750
9170,27.343750
9171,27.343750
9172,27.343750
9173,27.343750
9174,27.343750
9175,27.343750
9176,27.343750
9177,27.343750
9178,27.343750
9179,27.343750
9180,27.343750
9181,27.343750
9182,27.343750
9183,27.343750
9184,27.343750
9185,27.343750
9186,27.343750
9187,27.343750
9188,27.343750
9189,27.343750
9190,27.343750
9191,27.343750
9192,27.343750
9193,27.343750
9194,27.343750
9195,27.343750
9196,27.343750
9197,27.343750
9198,27.343750
9199,27.343750
9200,27.343750
9201,27.343750
9202,27.343750
9203,27.343750
9204,27.343750
9205,31.250000
9206,27.343750
9207,27.343750
9208,27.343750
9209,27.343750
9210,27.343750
9211,27.343750
9212,31.250000
9213,27.343750
9214,31.250000
9215,31.250000
9216,31.250000
9217,27.343750
9218,27.343750
9219,31.250000
9220,27.343750
9221,27.343750
9222,27.343750
9223,27.343750
9224,27.343750
9225,27.343750
9226,27.343750
9227,27.343750
9228,27.343750
9229,31.250000
9230,31.250000
9231,27.343750
9232,31.250000
9233,27.343750
9234,27.343750
9235,31.250000
9236,27.343750
9237,27.343750
9238,27.343750
9239,31.250000
9240,27.343750
9241,31.250000
9242,31.250000
9243,31.250000
9244,27.343750
9245,27.343750
9246,27.343750
9247,27.343750
9248,27.343750
9249,27.343750
9250,27.343750
9251,31.250000
9252,31.250000
9253,27.343750
9254,27.343750
9255,27.343750
9256,27.343750
9257,31.250000
9258,27.343750
9259,27.343750
9260,27.343750
9261,27.343750
9262,27.343750
9263,27.343750
9264,27.343750
9265,27.343750
9266,27.343750
9267,27.343750
9268,27.343750
9269,27.343750
9270,27.343750
9271,27.343750
9272,27.343750
9273,27.343750
9274,27.343750
9275,27.343750
9276,27.343750
9277,27.343750
9278,27.343750
9279,27.343750
9280,27.343750
9281,27.343750
9282,27.343750
9283,27.343750
9284,27.343750
9285,27.343750
9286,27.343750
9287,27.343750
9288,27.343750
9289,27.343750
9290,27.343750
9291,27.343750
9292,27.343750
9293,27.343750
9294,27.343750
9295,27.343750
9296,27.343750
9297,27.343750
9298,23.437500
9299,23.437500
9300,23.437500
9301,23.437500
9302,23.437500
9303,23.437500
9304,23.437500
9305,23.437500
9306,23.437500
9307,23.437500
9308,23.437500
9309,23.437500
9310,23.437500
9311,23.437500
9312,23.437500
9313,23.437500
9314,23.437500
9315,23.437500
9316,23.437500
9317,23.437500
9318,23.437500
9319,23.437500
9320,23.437500
9321,23.437500
9322,23.437500
9323,23.437500
9324,23.437500
9325,23.437500
9326,19.531250
9327,23.437500
9328,19.531250
9329,19.531250
9330,23.437500
9331,23.437500
9332,19.531250
9333,19.531250
9334,19.531250
9335,19.531250
9336,19.531250
9337,19.531250
9338,19.531250
9339,19.531250
9340,19.531250
9341,19.531250
9342,19.531250
9343,19.531250
9344,19.531250
9345,19.531250
9346,19.531250
9347,19.531250
9348,19.531250
9349,19.531250
9350,19.531250
9351,19.531250
9352,15.625000
9353,15.625000
9354,15.625000
9355,15.625000
9356,15.625000
9357,15.625000
9358,15.625000
9359,15.625000
9360,15.625000
9361,15.625000
9362,15.625000
9363,15.625000
9364,15.625000
9365,15.625000
9366,15.625000
9367,15.625000
9368,15.625000
9369,11.718750
9370,15.625000
9371,15.625000
9372,15.625000
9373,15.625000
9374,15.625000
9375,11.718750
9376,11.718750
9377,11.718750
9378,11.718750
9379,11.718750
9380,11.718750
9381,11.718750
9382,11.718750
9383,11.718750
9384,11.718750
9385,11.718750
9386,11.718750
9387,11.718750
9388,11.718750
9389,11.718750
9390,11.718750
9391,11.718750
9392,11.718750
9393,7.812500
9394,7.812500
9395,7.812500
9396,7.812500
9397,7.812500
9398,7.812500
9399,7.812500
9400,7.812500
9401,7.812500
9402,7.812500
9403,7.812500
9404,7.812500
9405,7.812500
9406,7.812500
9407,7.812500
9408,3.906250
9409,7.812500
9410,7.812500
9411,3.906250
9412,3.906250
9413,3.906250
9414,3.906250
9415,3.906250
9416,3.906250
9417,3.906250
9418,3.906250
9419,3.906250
9420,3.906250
9421,3.906250
9422,3.906250
9423,3.906250
9424,3.906250
9425,3.906250
9426,0.000000
9427,0.000000
9428,0.000000
9429,0.000000
9430,0.000000
9431,0.000000
9432,0.000000
9433,0.000000
9434,0.000000
9435,0.000000
9436,0.000000
9437,0.000000
9438,0.000000
9439,0.000000
9440,0.000000
9441,-3.906250
9442,-3.906250
9443,-3.906250
9444,-3.906250
9445,-3.906250
9446,-3.906250
9447,-3.906250
9448,-3.906250
9449,-3.906250
9450,-3.906250
9451,-3.906250
9452,-3.906250
9453,-3.906250
9454,-3.906250
9455,-3.906250
9456,-7.812500
9457,-7.812500
9458,-7.812500
9459,-7.812500
9460,-7.812500
9461,-7.812500
9462,-7.812500
9463,-7.812500
9464,-7.812500
9465,-7.812500
9466,-7.812500
9467,-7.812500
9468,-7.812500
9469,-7.812500
9470,-11.718750
9471,-11.718750
9472,-11.718750
9473,-11.718750
9474,-11.718750
9475,-11.718750
9476,-11.718750
9477,-11.718750
9478,-11.718750
9479,-11.718750
9480,-11.718750
9481,-11.718750
9482,-11.718750
9483,-11.718750
9484,-11.718750
9485,-11.718750
9486,-15.625000
9487,-15.625000
9488,-15.625000
9489,-15.625000
9490,-15.625000
9491,-15.625000
9492,-15.625000
9493,-15.625000
9494,-15.625000
9495,-15.625000
9496,-15.625000
9497,-15.625000
9498,-15.625000
9499,-15.625000
9500,-19.531250
9501,-19.531250
9502,-19.531250
9503,-19.531250
9504,-19.531250
9505,-19.531250
9506,-19.531250
9507,-19.531250
9508,-19.531250
9509,-19.531250
9510,-19.531250
9511,-19.531250
9512,-19.531250
9513,-19.531250
9514,-19.531250
9515,-19.531250
9516,-19.531250
9517,-19.531250
9518,-23.437500
9519,-23.437500
9520,-23.437500
9521,-23.437500
9522,-23.437500
9523,-23.437500
9524,-23.437500
9525,-23.437500
9526,-23.437500
9527,-23.437500
9528,-23.437500
9529,-27.343750
9530,-23.437500
9531,-27.343750
9532,-27.343750
9533,-27.343750
9534,-27.343750
9535,-27.343750
9536,-27.343750
9537,-27.343750
9538,-27.343750
9539,-27.343750
9540,-27.343750
9541,-27.343750
9542,-27.343750
9543,-27.343750
9544,-27.343750
9545,-27.343750
9546,-31.250000
9547,-31.250000
9548,-31.250000
9549,-31.250000
9550,-31.250000
9551,-31.250000
9552,-31.250000
9553,-31.250000
9554,-31.250000
9555,-31.250000
9556,-31.250000
9557,-31.250000
9558,-35.156250
9559,-31.250000
9560,-31.250000
9561,-31.250000
9562,-35.156250
9563,-35.156250
9564,-35.156250
9565,-35.156250
9566,-35.156250
9567,-35.156250
9568,-35.156250
9569,-35.156250
9570,-35.156250
9571,-35.156250
9572,-35.156250
9573,-35.156250
9574,-35.156250
9575,-35.156250
9576,-35.156250
9577,-35.156250
9578,-35.156250
9579,-39.062500
9580,-39.062500
9581,-39.062500
9582,-39.062500
9583,-39.062500
9584,-39.062500
9585,-39.062500
9586,-39.062500
9587,-39.062500
9588,-39.062500
9589,-39.062500
9590,-39.062500
9591,-39.062500
9592,-39.062500
9593,-39.062500
9594,-39.062500
9595,-39.062500
9596,-42.968750
9597,-42.968750
9598,-42.968750
9599,-42.968750
9600,-42.968750
9601,-39.062500
9602,-42.968750
9603,-42.968750
9604,-42.968750
9605,-42.968750
9606,-42.968750
9607,-42.968750
9608,-42.968750
9609,-42.968750
9610,-42.968750
9611,-42.968750
9612,-42.968750
9613,-42.968750
9614,-46.875000
9615,-42.968750
9616,-42.968750
9617,-46.875000
9618,-46.875000
9619,-46.875000
9620,-46.875000
9621,-46.875000
9622,-46.875000
9623,-46.875000
9624,-46.875000
9625,-46.875000
9626,-46.875000
9627,-46.875000
9628,-46.875000
9629,-46.875000
9630,-46.875000
9631,-46.875000
9632,-46.875000
9633,-46.875000
9634,-46.875000
9635,-46.875000
9636,-46.875000
9637,-46.875000
9638,-46.875000
9639,-46.875000
9640,-50.781250
9641,-46.875000
9642,-50.781250
9643,-50.781250
9644,-50.781250
9645,-50.781250
9646,-50.781250
9647,-50.781250
9648,-50.781250
9649,-50.781250
9650,-50.781250
9651,-50.781250
9652,-50.781250
9653,-50.781250
9654,-50.781250
9655,-50.781250
9656,-50.781250
9657,-50.781250
9658,-50.781250
9659,-50.781250
9660,-50.781250
9661,-50.781250
9662,-50.781250
9663,-50.781250
9664,-50.781250
9665,-50.781250
9666,-50.781250
9667,-50.781250
9668,-54.687500
9669,-54.687500
9670,-54.687500
9671,-54.687500
9672,-54.687500
9673,-54.687500
9674,-54.687500
9675,-54.687500
9676,-54.687500
9677,-54.687500
9678,-54.687500
9679,-54.687500
9680,-54.687500
9681,-54.687500
9682,-54.687500
9683,-54.687500
9684,-54.687500
9685,-54.687500
9686,-54.687500
9687,-54.687500
9688,-54.687500
9689,-54.687500
9690,-54.687500
9691,-54.687500
9692,-54.687500
9693,-54.687500
9694,-54.687500
9695,-54.687500
9696,-54.687500
9697,-54.687500
9698,-54.687500
9699,-54.687500
9700,-54.687500
9701,-54.687500
9702,-54.687500
9703,-54.687500
9704,-54.687500
9705,-54.687500
9706,-54.687500
9707,-54.687500
9708,-54.687500
9709,-54.687500
9710,-54.687500
9711,-54.687500
9712,-54.687500
9713,-54.687500
9714,-58.593750
9715,-54.687500
9716,-54.687500
9717,-54.687500
9718,-58.593750
9719,-54.687500
9720,-54.687500
9721,-54.687500
9722,-54.687500
9723,-54.687500
9724,-54.687500
9725,-54.687500
9726,-58.593750
9727,-58.593750
9728,-58.593750
9729,-58.593750
9730,-58.593750
9731,-54.687500
9732,-58.593750
9733,-54.687500
9734,-54.687500
9735,-54.687500
9736,-54.687500
9737,-54.687500
9738,-58.593750
9739,-54.687500
9740,-54.687500
9741,-54.687500
9742,-54.687500
9743,-54.687500
9744,-58.593750
9745,-54.687500
9746,-54.687500
9747,-54.687500
9748,-58.593750
9749,-58.593750
9750,-58.593750
9751,-54.687500
9752,-54.687500
9753,-54.687500
9754,-54.687500
9755,-54.687500
9756,-54.687500
9757,-54.687500
9758,-54.687500
9759,-58.593750
9760,-54.687500
9761,-54.687500
9762,-54.687500
9763,-54.687500
9764,-54.687500
9765,-54.687500
9766,-54.687500
9767,-54.687500
9768,-54.687500
9769,-54.687500
9770,-54.687500
9771,-54.687500
9772,-54.687500
9773,-54.687500
9774,-54.687500
9775,-54.687500
9776,-54.687500
9777,-54.687500
9778,-54.687500
9779,-54.687500
9780,-54.687500
9781,-54.687500
9782,-54.687500
9783,-54.687500
9784,-54.687500
9785,-54.687500
9786,-54.687500
9787,-54.687500
9788,-54.687500
9789,-54.687500
9790,-54.687500
9791,-54.687500
9792,-54.687500
9793,-54.687500
9794,-54.687500
9795,-50.781250
9796,-54.687500
9797,-50.781250
9798,-50.781250
9799,-50.781250
9800,-50.781250
9801,-50.781250
9802,-50.781250
9803,-50.781250
9804,-50.781250
9805,-50.781250
9806,-50.781250
9807,-50.781250
9808,-50.781250
9809,-50.781250
9810,-50.781250
9811,-50.781250
9812,-50.781250
9813,-50.781250
9814,-50.781250
9815,-50.781250
9816,-50.781250
9817,-50.781250
9818,-50.781250
9819,-50.781250
9820,-50.781250
9821,-50.781250
9822,-50.781250
9823,-46.875000
9824,-46.875000
9825,-46.875000
9826,-46.875000
9827,-46.875000
9828,-50.781250
9829,-46.875000
9830,-46.875000
9831,-46.875000
9832,-46.875000
9833,-46.875000
9834,-46.875000
9835,-46.875000
9836,-46.875000
9837,-46.875000
9838,-46.875000
9839,-46.875000
9840,-46.875000
9841,-46.875000
9842,-46.875000
9843,-46.875000
9844,-46.875000
9845,-46.875000
9846,-46.875000
9847,-46.875000
9848,-46.875000
9849,-42.968750
9850,-42.968750
9851,-42.968750
9852,-42.968750
9853,-42.968750
9854,-42.968750
9855,-42.968750
9856,-42.968750
9857,-42.968750
9858,-42.968750
9859,-42.968750
9860,-42.968750
9861,-42.968750
9862,-42.968750
9863,-42.968750
9864,-42.968750
9865,-42.968750
9866,-42.968750
9867,-39.062500
9868,-39.062500
9869,-39.062500
9870,-39.062500
9871,-39.062500
9872,-39.062500
9873,-39.062500
9874,-39.062500
9875,-39.062500
9876,-39.062500
9877,-39.062500
9878,-39.062500
9879,-39.062500
9880,-39.062500
9881,-39.062500
9882,-39.062500
9883,-35.156250
9884,-39.062500
9885,-35.156250
9886,-35.156250
9887,-35.156250
9888,-35.156250
9889,-35.156250
9890,-35.156250
9891,-35.156250
9892,-35.156250
9893,-35.156250
9894,-35.156250
9895,-35.156250
9896,-35.156250
9897,-35.156250
9898,-35.156250
9899,-35.156250
9900,-35.156250
9901,-35.156250
9902,-31.250000
9903,-31.250000
9904,-31.250000
9905,-31.250000
9906,-31.250000
9907,-31.250000
9908,-31.250000
9909,-31.250000
9910,-31.250000
9911,-31.250000
9912,-31.250000
9913,-31.250000
9914,-31.250000
9915,-31.250000
9916,-27.343750
9917,-27.343750
9918,-27.343750
9919,-27.343750
9920,-27.343750
9921,-27.343750
9922,-27.343750
9923,-27.343750
9924,-27.343750
9925,-27.343750
9926,-27.343750
9927,-23.437500
9928,-27.343750
9929,-27.343750
9930,-27.343750
9931,-23.437500
9932,-23.437500
9933,-23.437500
9934,-23.437500
9935,-23.437500
9936,-23.437500
9937,-23.437500
9938,-23.437500
9939,-23.437500
9940,-23.437500
9941,-23.437500
9942,-23.437500
9943,-23.437500
9944,-19.531250
9945,-19.531250
9946,-19.531250
9947,-19.531250
9948,-19.531250
9949,-19.531250
9950,-19.531250
9951,-19.531250
9952,-19.531250
9953,-19.531250
9954,-19.531250
9955,-19.531250
9956,-19.531250
9957,-19.531250
9958,-15.625000
9959,-19.531250
9960,-19.531250
9961,-15.625000
9962,-15.625000
9963,-15.625000
9964,-15.625000
9965,-15.625000
9966,-15.625000
9967,-15.625000
9968,-15.625000
9969,-15.625000
9970,-15.625000
9971,-15.625000
9972,-15.625000
9973,-11.718750
9974,-11.718750
9975,-11.718750
9976,-11.718750
9977,-11.718750
9978,-11.718750
9979,-11.718750
9980,-11.718750
9981,-11.718750
9982,-11.718750
9983,-11.718750
9984,-11.718750
9985,-7.812500
9986,-11.718750
9987,-7.812500
9988,-7.812500
9989,-7.812500
9990,-7.812500
9991,-7.812500
9992,-7.812500
9993,-7.812500
9994,-7.812500
9995,-7.812500
9996,-7.812500
9997,-7.812500
9998,-7.812500
9999,-3.906250
10000,-7.812500
