Channel              :,CH1
Frequency            :,857.1Hz
Period               :,1.167ms
PK-PK                :,166.0mV
Probe attenuation    :,1X
Voltage per ADC value:,0.122070mV
Time interval        :,2.00000us

index,CH1_Voltage(mV)
1,39.062500
2,39.062500
3,37.109375
4,37.109375
5,35.156250
6,35.156250
7,35.156250
8,33.203125
9,33.203125
10,33.203125
11,31.250000
12,29.296875
13,29.296875
14,29.296875
15,29.296875
16,27.343750
17,25.390625
18,27.343750
19,25.390625
20,25.390625
21,23.437500
22,23.437500
23,21.484375
24,21.484375
25,19.531250
26,19.531250
27,19.531250
28,19.531250
29,17.578125
30,17.578125
31,15.625000
32,15.625000
33,13.671875
34,13.671875
35,11.718750
36,11.718750
37,11.718750
38,9.765625
39,9.765625
40,7.812500
41,7.812500
42,5.859375
43,5.859375
44,3.906250
45,3.906250
46,3.906250
47,1.953125
48,1.953125
49,0.000000
50,0.000000
51,-1.953125
52,-1.953125
53,-1.953125
54,-3.906250
55,-5.859375
56,-5.859375
57,-5.859375
58,-7.812500
59,-7.812500
60,-9.765625
61,-9.765625
62,-11.718750
63,-11.718750
64,-13.671875
65,-13.671875
66,-15.625000
67,-15.625000
68,-15.625000
69,-17.578125
70,-17.578125
71,-19.531250
72,-19.531250
73,-21.484375
74,-21.484375
75,-23.437500
76,-23.437500
77,-25.390625
78,-25.390625
79,-25.390625
80,-27.343750
81,-29.296875
82,-29.296875
83,-29.296875
84,-31.250000
85,-31.250000
86,-33.203125
87,-33.203125
88,-33.203125
89,-35.156250
90,-35.156250
91,-37.109375
92,-37.109375
93,-37.109375
94,-39.062500
95,-39.062500
96,-41.015625
97,-41.015625
98,-42.968750
99,-42.968750
100,-42.968750
101,-44.921875
102,-44.921875
103,-46.875000
104,-46.875000
105,-48.828125
106,-48.828125
107,-48.828125
108,-50.781250
109,-50.781250
110,-50.781250
111,-52.734375
112,-52.734375
113,-54.687500
114,-54.687500
115,-54.687500
116,-56.640625
117,-56.640625
118,-58.593750
119,-56.640625
120,-58.593750
121,-58.593750
122,-60.546875
123,-60.546875
124,-60.546875
125,-60.546875
126,-62.500000
127,-62.500000
128,-64.453125
129,-64.453125
130,-64.453125
131,-66.406250
132,-66.406250
133,-68.359375
134,-68.359375
135,-68.359375
136,-68.359375
137,-70.312500
138,-70.312500
139,-70.312500
140,-70.312500
141,-72.265625
142,-72.265625
143,-74.218750
144,-74.218750
145,-74.218750
146,-74.218750
147,-74.218750
148,-76.171875
149,-76.171875
150,-76.171875
151,-76.171875
152,-78.125000
153,-78.125000
154,-78.125000
155,-78.125000
156,-78.125000
157,-80.078125
158,-80.078125
159,-80.078125
160,-80.078125
161,-82.031250
162,-82.031250
163,-82.031250
164,-82.031250
165,-82.031250
166,-83.984375
167,-83.984375
168,-83.984375
169,-83.984375
170,-83.984375
171,-83.984375
172,-83.984375
173,-83.984375
174,-85.937500
175,-83.984375
176,-85.937500
177,-85.937500
178,-85.937500
179,-85.937500
180,-85.937500
181,-85.937500
182,-85.937500
183,-87.890625
184,-87.890625
185,-87.890625
186,-85.937500
187,-87.890625
188,-87.890625
189,-87.890625
190,-87.890625
191,-87.890625
192,-87.890625
193,-87.890625
194,-89.843750
195,-87.890625
196,-87.890625
197,-87.890625
198,-87.890625
199,-89.843750
200,-87.890625
201,-89.843750
202,-89.843750
203,-89.843750
204,-89.843750
205,-89.843750
206,-87.890625
207,-89.843750
208,-89.843750
209,-89.843750
210,-89.843750
211,-87.890625
212,-87.890625
213,-89.843750
214,-89.843750
215,-89.843750
216,-87.890625
217,-87.890625
218,-89.843750
219,-87.890625
220,-87.890625
221,-87.890625
222,-87.890625
223,-87.890625
224,-87.890625
225,-87.890625
226,-87.890625
227,-85.937500
228,-87.890625
229,-85.937500
230,-85.937500
231,-85.937500
232,-85.937500
233,-85.937500
234,-85.937500
235,-85.937500
236,-83.984375
237,-83.984375
238,-83.984375
239,-83.984375
240,-83.984375
241,-82.031250
242,-82.031250
243,-82.031250
244,-82.031250
245,-82.031250
246,-82.031250
247,-80.078125
248,-80.078125
249,-80.078125
250,-80.078125
251,-80.078125
252,-78.125000
253,-78.125000
254,-78.125000
255,-78.125000
256,-78.125000
257,-78.125000
258,-76.171875
259,-76.171875
260,-76.171875
261,-74.218750
262,-74.218750
263,-74.218750
264,-74.218750
265,-72.265625
266,-72.265625
267,-72.265625
268,-70.312500
269,-70.312500
270,-70.312500
271,-70.312500
272,-68.359375
273,-68.359375
274,-68.359375
275,-66.406250
276,-66.406250
277,-66.406250
278,-64.453125
279,-64.453125
280,-64.453125
281,-64.453125
282,-62.500000
283,-62.500000
284,-60.546875
285,-60.546875
286,-58.593750
287,-58.593750
288,-58.593750
289,-58.593750
290,-58.593750
291,-56.640625
292,-56.640625
293,-54.687500
294,-54.687500
295,-54.687500
296,-52.734375
297,-52.734375
298,-50.781250
299,-50.781250
300,-48.828125
301,-48.828125
302,-48.828125
303,-46.875000
304,-46.875000
305,-44.921875
306,-44.921875
307,-44.921875
308,-42.968750
309,-42.968750
310,-41.015625
311,-41.015625
312,-41.015625
313,-39.062500
314,-39.062500
315,-37.109375
316,-37.109375
317,-37.109375
318,-35.156250
319,-35.156250
320,-35.156250
321,-33.203125
322,-33.203125
323,-31.250000
324,-31.250000
325,-29.296875
326,-29.296875
327,-29.296875
328,-27.343750
329,-25.390625
330,-25.390625
331,-25.390625
332,-23.437500
333,-23.437500
334,-21.484375
335,-21.484375
336,-19.531250
337,-19.531250
338,-19.531250
339,-17.578125
340,-17.578125
341,-15.625000
342,-15.625000
343,-15.625000
344,-13.671875
345,-13.671875
346,-11.718750
347,-11.718750
348,-9.765625
349,-9.765625
350,-7.812500
351,-7.812500
352,-5.859375
353,-5.859375
354,-3.906250
355,-3.906250
356,-1.953125
357,-1.953125
358,-1.953125
359,0.000000
360,0.000000
361,1.953125
362,1.953125
363,3.906250
364,3.906250
365,5.859375
366,5.859375
367,5.859375
368,7.812500
369,7.812500
370,9.765625
371,11.718750
372,11.718750
373,11.718750
374,13.671875
375,13.671875
376,15.625000
377,15.625000
378,15.625000
379,17.578125
380,17.578125
381,19.531250
382,19.531250
383,21.484375
384,21.484375
385,21.484375
386,23.437500
387,23.437500
388,25.390625
389,25.390625
390,25.390625
391,27.343750
392,27.343750
393,29.296875
394,29.296875
395,31.250000
396,31.250000
397,31.250000
398,33.203125
399,33.203125
400,33.203125
401,35.156250
402,35.156250
403,37.109375
404,37.109375
405,37.109375
406,37.109375
407,39.062500
408,39.062500
409,41.015625
410,41.015625
411,41.015625
412,42.968750
413,42.968750
414,42.968750
415,44.921875
416,44.921875
417,46.875000
418,46.875000
419,46.875000
420,48.828125
421,48.828125
422,50.781250
423,48.828125
424,50.781250
425,50.781250
426,50.781250
427,52.734375
428,52.734375
429,52.734375
430,54.687500
431,54.687500
432,54.687500
433,56.640625
434,56.640625
435,56.640625
436,58.593750
437,58.593750
438,58.593750
439,58.593750
440,58.593750
441,60.546875
442,62.500000
443,60.546875
444,62.500000
445,62.500000
446,62.500000
447,62.500000
448,62.500000
449,62.500000
450,64.453125
451,64.453125
452,66.406250
453,64.453125
454,66.406250
455,66.406250
456,66.406250
457,66.406250
458,66.406250
459,66.406250
460,68.359375
461,68.359375
462,68.359375
463,68.359375
464,68.359375
465,68.359375
466,68.359375
467,70.312500
468,70.312500
469,70.312500
470,70.312500
471,70.312500
472,70.312500
473,70.312500
474,70.312500
475,72.265625
476,72.265625
477,72.265625
478,70.312500
479,72.265625
480,72.265625
481,72.265625
482,72.265625
483,72.265625
484,72.265625
485,72.265625
486,74.218750
487,72.265625
488,72.265625
489,72.265625
490,72.265625
491,74.218750
492,72.265625
493,74.218750
494,72.265625
495,74.218750
496,72.265625
497,74.218750
498,74.218750
499,74.218750
500,72.265625
501,72.265625
502,74.218750
503,72.265625
504,74.218750
505,74.218750
506,72.265625
507,72.265625
508,72.265625
509,72.265625
510,72.265625
511,72.265625
512,72.265625
513,72.265625
514,72.265625
515,72.265625
516,70.312500
517,72.265625
518,70.312500
519,70.312500
520,70.312500
521,70.312500
522,70.312500
523,70.312500
524,70.312500
525,70.312500
526,68.359375
527,68.359375
528,68.359375
529,68.359375
530,68.359375
531,68.359375
532,66.406250
533,66.406250
534,66.406250
535,66.406250
536,66.406250
537,64.453125
538,64.453125
539,64.453125
540,64.453125
541,62.500000
542,62.500000
543,62.500000
544,62.500000
545,62.500000
546,60.546875
547,60.546875
548,60.546875
549,60.546875
550,60.546875
551,58.593750
552,58.593750
553,58.593750
554,56.640625
555,56.640625
556,56.640625
557,56.640625
558,54.687500
559,54.687500
560,54.687500
561,54.687500
562,52.734375
563,52.734375
564,52.734375
565,50.781250
566,50.781250
567,50.781250
568,48.828125
569,48.828125
570,48.828125
571,46.875000
572,46.875000
573,46.875000
574,44.921875
575,44.921875
576,44.921875
577,42.968750
578,42.968750
579,41.015625
580,41.015625
581,41.015625
582,41.015625
583,39.062500
584,39.062500
585,37.109375
586,37.109375
587,37.109375
588,35.156250
589,35.156250
590,35.156250
591,33.203125
592,33.203125
593,31.250000
594,31.250000
595,31.250000
596,29.296875
597,29.296875
598,27.343750
599,27.343750
600,27.343750
601,25.390625
602,25.390625
603,23.437500
604,23.437500
605,23.437500
606,21.484375
607,19.531250
608,19.531250
609,19.531250
610,17.578125
611,17.578125
612,17.578125
613,15.625000
614,15.625000
615,13.671875
616,13.671875
617,13.671875
618,11.718750
619,11.718750
620,9.765625
621,9.765625
622,7.812500
623,7.812500
624,7.812500
625,5.859375
626,3.906250
627,3.906250
628,3.906250
629,1.953125
630,1.953125
631,0.000000
632,0.000000
633,-1.953125
634,-1.953125
635,-3.906250
636,-3.906250
637,-3.906250
638,-5.859375
639,-5.859375
640,-7.812500
641,-7.812500
642,-7.812500
643,-9.765625
644,-11.718750
645,-11.718750
646,-13.671875
647,-13.671875
648,-13.671875
649,-15.625000
650,-15.625000
651,-17.578125
652,-19.531250
653,-19.531250
654,-19.531250
655,-21.484375
656,-21.484375
657,-23.437500
658,-23.437500
659,-25.390625
660,-25.390625
661,-25.390625
662,-27.343750
663,-27.343750
664,-29.296875
665,-29.296875
666,-31.250000
667,-31.250000
668,-33.203125
669,-33.203125
670,-35.156250
671,-35.156250
672,-35.156250
673,-37.109375
674,-37.109375
675,-35.156250
676,-39.062500
677,-41.015625
678,-41.015625
679,-41.015625
680,-42.968750
681,-42.968750
682,-44.921875
683,-44.921875
684,-44.921875
685,-44.921875
686,-46.875000
687,-46.875000
688,-48.828125
689,-48.828125
690,-50.781250
691,-50.781250
692,-52.734375
693,-52.734375
694,-52.734375
695,-54.687500
696,-54.687500
697,-54.687500
698,-56.640625
699,-56.640625
700,-56.640625
701,-58.593750
702,-60.546875
703,-60.546875
704,-60.546875
705,-60.546875
706,-62.500000
707,-62.500000
708,-64.453125
709,-64.453125
710,-64.453125
711,-64.453125
712,-66.406250
713,-66.406250
714,-66.406250
715,-68.359375
716,-68.359375
717,-68.359375
718,-68.359375
719,-70.312500
720,-70.312500
721,-70.312500
722,-70.312500
723,-72.265625
724,-72.265625
725,-72.265625
726,-74.218750
727,-74.218750
728,-74.218750
729,-76.171875
730,-76.171875
731,-76.171875
732,-76.171875
733,-78.125000
734,-78.125000
735,-78.125000
736,-78.125000
737,-80.078125
738,-80.078125
739,-80.078125
740,-80.078125
741,-80.078125
742,-80.078125
743,-80.078125
744,-82.031250
745,-82.031250
746,-82.031250
747,-82.031250
748,-82.031250
749,-82.031250
750,-83.984375
751,-83.984375
752,-83.984375
753,-83.984375
754,-83.984375
755,-83.984375
756,-85.937500
757,-85.937500
758,-85.937500
759,-85.937500
760,-85.937500
761,-85.937500
762,-85.937500
763,-85.937500
764,-87.890625
765,-87.890625
766,-87.890625
767,-87.890625
768,-87.890625
769,-87.890625
770,-87.890625
771,-87.890625
772,-87.890625
773,-87.890625
774,-87.890625
775,-89.843750
776,-87.890625
777,-89.843750
778,-89.843750
779,-89.843750
780,-89.843750
781,-89.843750
782,-89.843750
783,-89.843750
784,-89.843750
785,-89.843750
786,-89.843750
787,-89.843750
788,-89.843750
789,-89.843750
790,-89.843750
791,-89.843750
792,-89.843750
793,-89.843750
794,-89.843750
795,-89.843750
796,-89.843750
797,-87.890625
798,-87.890625
799,-89.843750
800,-89.843750
801,-89.843750
802,-87.890625
803,-87.890625
804,-87.890625
805,-87.890625
806,-87.890625
807,-87.890625
808,-87.890625
809,-87.890625
810,-85.937500
811,-85.937500
812,-85.937500
813,-85.937500
814,-85.937500
815,-85.937500
816,-85.937500
817,-85.937500
818,-83.984375
819,-83.984375
820,-83.984375
821,-83.984375
822,-83.984375
823,-83.984375
824,-82.031250
825,-82.031250
826,-82.031250
827,-82.031250
828,-80.078125
829,-80.078125
830,-80.078125
831,-80.078125
832,-80.078125
833,-80.078125
834,-78.125000
835,-78.125000
836,-78.125000
837,-78.125000
838,-78.125000
839,-76.171875
840,-76.171875
841,-76.171875
842,-76.171875
843,-74.218750
844,-74.218750
845,-74.218750
846,-72.265625
847,-72.265625
848,-72.265625
849,-70.312500
850,-72.265625
851,-70.312500
852,-70.312500
853,-70.312500
854,-70.312500
855,-68.359375
856,-68.359375
857,-66.406250
858,-66.406250
859,-66.406250
860,-66.406250
861,-64.453125
862,-64.453125
863,-62.500000
864,-62.500000
865,-62.500000
866,-60.546875
867,-60.546875
868,-58.593750
869,-58.593750
870,-58.593750
871,-58.593750
872,-56.640625
873,-56.640625
874,-54.687500
875,-54.687500
876,-54.687500
877,-52.734375
878,-52.734375
879,-50.781250
880,-50.781250
881,-50.781250
882,-48.828125
883,-48.828125
884,-46.875000
885,-46.875000
886,-46.875000
887,-44.921875
888,-44.921875
889,-42.968750
890,-42.968750
891,-42.968750
892,-41.015625
893,-41.015625
894,-41.015625
895,-39.062500
896,-37.109375
897,-37.109375
898,-37.109375
899,-37.109375
900,-35.156250
901,-35.156250
902,-33.203125
903,-33.203125
904,-31.250000
905,-31.250000
906,-31.250000
907,-29.296875
908,-29.296875
909,-27.343750
910,-27.343750
911,-27.343750
912,-25.390625
913,-25.390625
914,-23.437500
915,-21.484375
916,-21.484375
917,-21.484375
918,-19.531250
919,-19.531250
920,-17.578125
921,-17.578125
922,-17.578125
923,-15.625000
924,-15.625000
925,-13.671875
926,-13.671875
927,-11.718750
928,-11.718750
929,-11.718750
930,-9.765625
931,-9.765625
932,-7.812500
933,-7.812500
934,-5.859375
935,-3.906250
936,-3.906250
937,-3.906250
938,-1.953125
939,-1.953125
940,-1.953125
941,0.000000
942,1.953125
943,1.953125
944,1.953125
945,3.906250
946,3.906250
947,5.859375
948,5.859375
949,7.812500
950,7.812500
951,9.765625
952,9.765625
953,9.765625
954,11.718750
955,11.718750
956,13.671875
957,13.671875
958,15.625000
959,15.625000
960,15.625000
961,17.578125
962,17.578125
963,19.531250
964,19.531250
965,21.484375
966,21.484375
967,21.484375
968,23.437500
969,23.437500
970,25.390625
971,25.390625
972,27.343750
973,27.343750
974,27.343750
975,29.296875
976,29.296875
977,29.296875
978,31.250000
979,31.250000
980,31.250000
981,33.203125
982,33.203125
983,35.156250
984,35.156250
985,37.109375
986,37.109375
987,37.109375
988,39.062500
989,39.062500
990,39.062500
991,41.015625
992,41.015625
993,41.015625
994,42.968750
995,42.968750
996,42.968750
997,44.921875
998,44.921875
999,46.875000
1000,46.875000
1001,46.875000
1002,48.828125
1003,48.828125
1004,48.828125
1005,50.781250
1006,50.781250
1007,50.781250
1008,52.734375
1009,52.734375
1010,52.734375
1011,52.734375
1012,54.687500
1013,54.687500
1014,54.687500
1015,56.640625
1016,56.640625
1017,56.640625
1018,58.593750
1019,58.593750
1020,58.593750
1021,58.593750
1022,60.546875
1023,60.546875
1024,60.546875
1025,60.546875
1026,60.546875
1027,62.500000
1028,62.500000
1029,62.500000
1030,62.500000
1031,64.453125
1032,64.453125
1033,64.453125
1034,64.453125
1035,64.453125
1036,64.453125
1037,64.453125
1038,66.406250
1039,66.406250
1040,66.406250
1041,66.406250
1042,66.406250
1043,68.359375
1044,68.359375
1045,68.359375
1046,68.359375
1047,68.359375
1048,68.359375
1049,68.359375
1050,70.312500
1051,68.359375
1052,70.312500
1053,70.312500
1054,70.312500
1055,70.312500
1056,70.312500
1057,70.312500
1058,70.312500
1059,70.312500
1060,70.312500
1061,72.265625
1062,72.265625
1063,72.265625
1064,74.218750
1065,72.265625
1066,72.265625
1067,72.265625
1068,72.265625
1069,72.265625
1070,74.218750
1071,72.265625
1072,72.265625
1073,72.265625
1074,72.265625
1075,74.218750
1076,72.265625
1077,72.265625
1078,72.265625
1079,72.265625
1080,74.218750
1081,72.265625
1082,72.265625
1083,72.265625
1084,72.265625
1085,72.265625
1086,72.265625
1087,72.265625
1088,72.265625
1089,72.265625
1090,72.265625
1091,72.265625
1092,72.265625
1093,72.265625
1094,72.265625
1095,70.312500
1096,72.265625
1097,72.265625
1098,70.312500
1099,70.312500
1100,70.312500
1101,70.312500
1102,70.312500
1103,68.359375
1104,70.312500
1105,70.312500
1106,68.359375
1107,68.359375
1108,68.359375
1109,68.359375
1110,68.359375
1111,68.359375
1112,68.359375
1113,66.406250
1114,66.406250
1115,66.406250
1116,66.406250
1117,64.453125
1118,64.453125
1119,64.453125
1120,64.453125
1121,64.453125
1122,62.500000
1123,62.500000
1124,62.500000
1125,62.500000
1126,60.546875
1127,62.500000
1128,60.546875
1129,60.546875
1130,60.546875
1131,58.593750
1132,60.546875
1133,58.593750
1134,58.593750
1135,58.593750
1136,56.640625
1137,56.640625
1138,56.640625
1139,54.687500
1140,54.687500
1141,54.687500
1142,54.687500
1143,52.734375
1144,52.734375
1145,52.734375
1146,52.734375
1147,50.781250
1148,50.781250
1149,48.828125
1150,48.828125
1151,48.828125
1152,48.828125
1153,46.875000
1154,46.875000
1155,46.875000
1156,44.921875
1157,44.921875
1158,44.921875
1159,42.968750
1160,42.968750
1161,42.968750
1162,41.015625
1163,41.015625
1164,39.062500
1165,39.062500
1166,39.062500
1167,37.109375
1168,37.109375
1169,37.109375
1170,35.156250
1171,35.156250
1172,35.156250
1173,35.156250
1174,33.203125
1175,31.250000
1176,31.250000
1177,29.296875
1178,29.296875
1179,29.296875
1180,27.343750
1181,27.343750
1182,25.390625
1183,25.390625
1184,25.390625
1185,25.390625
1186,23.437500
1187,23.437500
1188,21.484375
1189,21.484375
1190,19.531250
1191,19.531250
1192,17.578125
1193,17.578125
1194,17.578125
1195,15.625000
1196,15.625000
1197,15.625000
1198,13.671875
1199,11.718750
1200,11.718750
1201,11.718750
1202,9.765625
1203,9.765625
1204,7.812500
1205,7.812500
1206,7.812500
1207,5.859375
1208,5.859375
1209,3.906250
1210,1.953125
1211,3.906250
1212,1.953125
1213,0.000000
1214,0.000000
1215,-1.953125
1216,-1.953125
1217,-3.906250
1218,-3.906250
1219,-3.906250
1220,-5.859375
1221,-5.859375
1222,-7.812500
1223,-7.812500
1224,-9.765625
1225,-9.765625
1226,-9.765625
1227,-11.718750
1228,-13.671875
1229,-13.671875
1230,-13.671875
1231,-15.625000
1232,-15.625000
1233,-17.578125
1234,-19.531250
1235,-19.531250
1236,-19.531250
1237,-21.484375
1238,-21.484375
1239,-21.484375
1240,-23.437500
1241,-23.437500
1242,-25.390625
1243,-27.343750
1244,-25.390625
1245,-27.343750
1246,-27.343750
1247,-29.296875
1248,-31.250000
1249,-31.250000
1250,-33.203125
1251,-33.203125
1252,-33.203125
1253,-35.156250
1254,-35.156250
1255,-37.109375
1256,-37.109375
1257,-37.109375
1258,-39.062500
1259,-39.062500
1260,-41.015625
1261,-41.015625
1262,-41.015625
1263,-42.968750
1264,-42.968750
1265,-44.921875
1266,-46.875000
1267,-44.921875
1268,-46.875000
1269,-46.875000
1270,-46.875000
1271,-48.828125
1272,-48.828125
1273,-50.781250
1274,-50.781250
1275,-50.781250
1276,-52.734375
1277,-54.687500
1278,-54.687500
1279,-54.687500
1280,-54.687500
1281,-56.640625
1282,-56.640625
1283,-58.593750
1284,-58.593750
1285,-58.593750
1286,-58.593750
1287,-60.546875
1288,-60.546875
1289,-62.500000
1290,-62.500000
1291,-62.500000
1292,-64.453125
1293,-64.453125
1294,-64.453125
1295,-66.406250
1296,-66.406250
1297,-66.406250
1298,-68.359375
1299,-68.359375
1300,-68.359375
1301,-70.312500
1302,-70.312500
1303,-70.312500
1304,-70.312500
1305,-70.312500
1306,-72.265625
1307,-72.265625
1308,-74.218750
1309,-74.218750
1310,-74.218750
1311,-74.218750
1312,-74.218750
1313,-76.171875
1314,-76.171875
1315,-76.171875
1316,-76.171875
1317,-78.125000
1318,-78.125000
1319,-78.125000
1320,-78.125000
1321,-78.125000
1322,-78.125000
1323,-80.078125
1324,-80.078125
1325,-80.078125
1326,-80.078125
1327,-80.078125
1328,-82.031250
1329,-82.031250
1330,-82.031250
1331,-82.031250
1332,-82.031250
1333,-83.984375
1334,-83.984375
1335,-83.984375
1336,-83.984375
1337,-83.984375
1338,-83.984375
1339,-83.984375
1340,-83.984375
1341,-83.984375
1342,-83.984375
1343,-85.937500
1344,-85.937500
1345,-85.937500
1346,-85.937500
1347,-85.937500
1348,-85.937500
1349,-85.937500
1350,-85.937500
1351,-87.890625
1352,-87.890625
1353,-87.890625
1354,-87.890625
1355,-87.890625
1356,-87.890625
1357,-87.890625
1358,-87.890625
1359,-87.890625
1360,-87.890625
1361,-87.890625
1362,-87.890625
1363,-89.843750
1364,-87.890625
1365,-87.890625
1366,-87.890625
1367,-87.890625
1368,-87.890625
1369,-87.890625
1370,-89.843750
1371,-89.843750
1372,-89.843750
1373,-89.843750
1374,-87.890625
1375,-87.890625
1376,-87.890625
1377,-87.890625
1378,-87.890625
1379,-87.890625
1380,-87.890625
1381,-87.890625
1382,-87.890625
1383,-87.890625
1384,-87.890625
1385,-87.890625
1386,-87.890625
1387,-85.937500
1388,-87.890625
1389,-85.937500
1390,-87.890625
1391,-85.937500
1392,-85.937500
1393,-85.937500
1394,-85.937500
1395,-83.984375
1396,-85.937500
1397,-83.984375
1398,-83.984375
1399,-83.984375
1400,-83.984375
1401,-82.031250
1402,-83.984375
1403,-83.984375
1404,-83.984375
1405,-82.031250
1406,-82.031250
1407,-82.031250
1408,-80.078125
1409,-82.031250
1410,-80.078125
1411,-80.078125
1412,-80.078125
1413,-80.078125
1414,-80.078125
1415,-80.078125
1416,-78.125000
1417,-78.125000
1418,-78.125000
1419,-76.171875
1420,-76.171875
1421,-76.171875
1422,-76.171875
1423,-76.171875
1424,-76.171875
1425,-74.218750
1426,-74.218750
1427,-74.218750
1428,-74.218750
1429,-72.265625
1430,-72.265625
1431,-72.265625
1432,-72.265625
1433,-70.312500
1434,-70.312500
1435,-68.359375
1436,-68.359375
1437,-68.359375
1438,-68.359375
1439,-66.406250
1440,-66.406250
1441,-66.406250
1442,-62.500000
1443,-64.453125
1444,-64.453125
1445,-64.453125
1446,-62.500000
1447,-62.500000
1448,-60.546875
1449,-62.500000
1450,-60.546875
1451,-60.546875
1452,-58.593750
1453,-58.593750
1454,-56.640625
1455,-56.640625
1456,-54.687500
1457,-54.687500
1458,-50.781250
1459,-52.734375
1460,-52.734375
1461,-52.734375
1462,-50.781250
1463,-50.781250
1464,-50.781250
1465,-48.828125
1466,-46.875000
1467,-46.875000
1468,-46.875000
1469,-44.921875
1470,-44.921875
1471,-44.921875
1472,-42.968750
1473,-42.968750
1474,-41.015625
1475,-41.015625
1476,-41.015625
1477,-39.062500
1478,-39.062500
1479,-37.109375
1480,-37.109375
1481,-37.109375
1482,-35.156250
1483,-35.156250
1484,-33.203125
1485,-33.203125
1486,-31.250000
1487,-31.250000
1488,-31.250000
1489,-29.296875
1490,-29.296875
1491,-29.296875
1492,-27.343750
1493,-25.390625
1494,-25.390625
1495,-25.390625
1496,-23.437500
1497,-23.437500
1498,-21.484375
1499,-21.484375
1500,-21.484375
1501,-19.531250
1502,-19.531250
1503,-17.578125
1504,-17.578125
1505,-15.625000
1506,-15.625000
1507,-15.625000
1508,-13.671875
1509,-13.671875
1510,-11.718750
1511,-9.765625
1512,-9.765625
1513,-9.765625
1514,-7.812500
1515,-7.812500
1516,-5.859375
1517,-5.859375
1518,-3.906250
1519,-3.906250
1520,-3.906250
1521,-1.953125
1522,-1.953125
1523,0.000000
1524,0.000000
1525,0.000000
1526,1.953125
1527,3.906250
1528,3.906250
1529,3.906250
1530,5.859375
1531,5.859375
1532,5.859375
1533,7.812500
1534,9.765625
1535,9.765625
1536,9.765625
1537,11.718750
1538,13.671875
1539,13.671875
1540,13.671875
1541,15.625000
1542,15.625000
1543,15.625000
1544,17.578125
1545,19.531250
1546,17.578125
1547,19.531250
1548,21.484375
1549,21.484375
1550,23.437500
1551,23.437500
1552,23.437500
1553,23.437500
1554,25.390625
1555,27.343750
1556,27.343750
1557,27.343750
1558,29.296875
1559,29.296875
1560,29.296875
1561,31.250000
1562,31.250000
1563,31.250000
1564,33.203125
1565,33.203125
1566,35.156250
1567,35.156250
1568,35.156250
1569,37.109375
1570,37.109375
1571,37.109375
1572,39.062500
1573,41.015625
1574,41.015625
1575,42.968750
1576,42.968750
1577,42.968750
1578,42.968750
1579,42.968750
1580,44.921875
1581,44.921875
1582,46.875000
1583,46.875000
1584,46.875000
1585,48.828125
1586,48.828125
1587,48.828125
1588,48.828125
1589,50.781250
1590,50.781250
1591,52.734375
1592,54.687500
1593,52.734375
1594,52.734375
1595,54.687500
1596,54.687500
1597,54.687500
1598,54.687500
1599,56.640625
1600,56.640625
1601,56.640625
1602,56.640625
1603,58.593750
1604,58.593750
1605,58.593750
1606,60.546875
1607,58.593750
1608,60.546875
1609,60.546875
1610,60.546875
1611,62.500000
1612,62.500000
1613,62.500000
1614,62.500000
1615,64.453125
1616,64.453125
1617,64.453125
1618,66.406250
1619,64.453125
1620,66.406250
1621,66.406250
1622,64.453125
1623,66.406250
1624,66.406250
1625,66.406250
1626,66.406250
1627,68.359375
1628,68.359375
1629,68.359375
1630,68.359375
1631,68.359375
1632,68.359375
1633,68.359375
1634,68.359375
1635,72.265625
1636,68.359375
1637,70.312500
1638,70.312500
1639,70.312500
1640,70.312500
1641,70.312500
1642,74.218750
1643,66.406250
1644,72.265625
1645,70.312500
1646,72.265625
1647,72.265625
1648,72.265625
1649,72.265625
1650,72.265625
1651,72.265625
1652,72.265625
1653,72.265625
1654,72.265625
1655,72.265625
1656,72.265625
1657,72.265625
1658,72.265625
1659,72.265625
1660,72.265625
1661,72.265625
1662,72.265625
1663,72.265625
1664,72.265625
1665,72.265625
1666,72.265625
1667,72.265625
1668,72.265625
1669,72.265625
1670,72.265625
1671,72.265625
1672,72.265625
1673,72.265625
1674,72.265625
1675,72.265625
1676,70.312500
1677,70.312500
1678,70.312500
1679,72.265625
1680,70.312500
1681,70.312500
1682,70.312500
1683,70.312500
1684,70.312500
1685,70.312500
1686,70.312500
1687,68.359375
1688,68.359375
1689,68.359375
1690,68.359375
1691,68.359375
1692,64.453125
1693,66.406250
1694,66.406250
1695,66.406250
1696,66.406250
1697,66.406250
1698,66.406250
1699,66.406250
1700,64.453125
1701,64.453125
1702,64.453125
1703,64.453125
1704,62.500000
1705,64.453125
1706,62.500000
1707,62.500000
1708,62.500000
1709,62.500000
1710,60.546875
1711,60.546875
1712,60.546875
1713,60.546875
1714,58.593750
1715,58.593750
1716,58.593750
1717,58.593750
1718,56.640625
1719,56.640625
1720,54.687500
1721,54.687500
1722,54.687500
1723,54.687500
1724,54.687500
1725,54.687500
1726,52.734375
1727,52.734375
1728,50.781250
1729,50.781250
1730,50.781250
1731,50.781250
1732,48.828125
1733,48.828125
1734,48.828125
1735,46.875000
1736,46.875000
1737,46.875000
1738,44.921875
1739,44.921875
1740,44.921875
1741,42.968750
1742,42.968750
1743,42.968750
1744,41.015625
1745,41.015625
1746,41.015625
1747,41.015625
1748,39.062500
1749,39.062500
1750,37.109375
1751,37.109375
1752,35.156250
1753,35.156250
1754,35.156250
1755,33.203125
1756,33.203125
1757,31.250000
1758,31.250000
1759,31.250000
1760,29.296875
1761,29.296875
1762,29.296875
1763,27.343750
1764,27.343750
1765,25.390625
1766,25.390625
1767,25.390625
1768,23.437500
1769,23.437500
1770,21.484375
1771,21.484375
1772,21.484375
1773,19.531250
1774,19.531250
1775,17.578125
1776,17.578125
1777,17.578125
1778,15.625000
1779,15.625000
1780,13.671875
1781,13.671875
1782,11.718750
1783,11.718750
1784,11.718750
1785,9.765625
1786,9.765625
1787,9.765625
1788,7.812500
1789,7.812500
1790,5.859375
1791,5.859375
1792,3.906250
1793,3.906250
1794,1.953125
1795,1.953125
1796,0.000000
1797,0.000000
1798,-1.953125
1799,-1.953125
1800,-1.953125
1801,-3.906250
1802,-1.953125
1803,-5.859375
1804,-5.859375
1805,-7.812500
1806,-7.812500
1807,-9.765625
1808,-9.765625
1809,-9.765625
1810,-11.718750
1811,-11.718750
1812,-13.671875
1813,-15.625000
1814,-15.625000
1815,-15.625000
1816,-17.578125
1817,-17.578125
1818,-19.531250
1819,-19.531250
1820,-21.484375
1821,-21.484375
1822,-21.484375
1823,-23.437500
1824,-23.437500
1825,-25.390625
1826,-25.390625
1827,-27.343750
1828,-27.343750
1829,-27.343750
1830,-29.296875
1831,-31.250000
1832,-31.250000
1833,-31.250000
1834,-33.203125
1835,-33.203125
1836,-35.156250
1837,-35.156250
1838,-35.156250
1839,-37.109375
1840,-37.109375
1841,-39.062500
1842,-39.062500
1843,-39.062500
1844,-41.015625
1845,-41.015625
1846,-42.968750
1847,-42.968750
1848,-44.921875
1849,-44.921875
1850,-44.921875
1851,-46.875000
1852,-46.875000
1853,-46.875000
1854,-48.828125
1855,-48.828125
1856,-50.781250
1857,-50.781250
1858,-50.781250
1859,-52.734375
1860,-52.734375
1861,-54.687500
1862,-54.687500
1863,-54.687500
1864,-56.640625
1865,-56.640625
1866,-56.640625
1867,-58.593750
1868,-58.593750
1869,-58.593750
1870,-60.546875
1871,-60.546875
1872,-60.546875
1873,-62.500000
1874,-62.500000
1875,-64.453125
1876,-64.453125
1877,-64.453125
1878,-66.406250
1879,-66.406250
1880,-66.406250
1881,-68.359375
1882,-68.359375
1883,-68.359375
1884,-68.359375
1885,-70.312500
1886,-74.218750
1887,-72.265625
1888,-72.265625
1889,-72.265625
1890,-72.265625
1891,-72.265625
1892,-72.265625
1893,-74.218750
1894,-74.218750
1895,-74.218750
1896,-74.218750
1897,-76.171875
1898,-76.171875
1899,-76.171875
1900,-76.171875
1901,-76.171875
1902,-78.125000
1903,-78.125000
1904,-78.125000
1905,-80.078125
1906,-80.078125
1907,-80.078125
1908,-80.078125
1909,-80.078125
1910,-80.078125
1911,-80.078125
1912,-82.031250
1913,-82.031250
1914,-82.031250
1915,-82.031250
1916,-82.031250
1917,-83.984375
1918,-83.984375
1919,-83.984375
1920,-83.984375
1921,-83.984375
1922,-83.984375
1923,-83.984375
1924,-85.937500
1925,-85.937500
1926,-85.937500
1927,-85.937500
1928,-85.937500
1929,-85.937500
1930,-85.937500
1931,-85.937500
1932,-85.937500
1933,-87.890625
1934,-87.890625
1935,-87.890625
1936,-87.890625
1937,-87.890625
1938,-87.890625
1939,-87.890625
1940,-87.890625
1941,-87.890625
1942,-87.890625
1943,-87.890625
1944,-87.890625
1945,-87.890625
1946,-87.890625
1947,-87.890625
1948,-89.843750
1949,-87.890625
1950,-89.843750
1951,-87.890625
1952,-87.890625
1953,-87.890625
1954,-87.890625
1955,-87.890625
1956,-87.890625
1957,-89.843750
1958,-89.843750
1959,-87.890625
1960,-87.890625
1961,-87.890625
1962,-87.890625
1963,-87.890625
1964,-87.890625
1965,-87.890625
1966,-87.890625
1967,-87.890625
1968,-87.890625
1969,-87.890625
1970,-87.890625
1971,-87.890625
1972,-87.890625
1973,-85.937500
1974,-85.937500
1975,-85.937500
1976,-85.937500
1977,-85.937500
1978,-85.937500
1979,-85.937500
1980,-85.937500
1981,-83.984375
1982,-83.984375
1983,-83.984375
1984,-83.984375
1985,-83.984375
1986,-83.984375
1987,-83.984375
1988,-82.031250
1989,-82.031250
1990,-82.031250
1991,-80.078125
1992,-82.031250
1993,-80.078125
1994,-82.031250
1995,-80.078125
1996,-80.078125
1997,-80.078125
1998,-80.078125
1999,-78.125000
2000,-78.125000
2001,-78.125000
2002,-78.125000
2003,-76.171875
2004,-76.171875
2005,-76.171875
2006,-76.171875
2007,-76.171875
2008,-74.218750
2009,-74.218750
2010,-74.218750
2011,-72.265625
2012,-72.265625
2013,-72.265625
2014,-72.265625
2015,-70.312500
2016,-70.312500
2017,-70.312500
2018,-68.359375
2019,-68.359375
2020,-68.359375
2021,-68.359375
2022,-68.359375
2023,-66.406250
2024,-66.406250
2025,-64.453125
2026,-64.453125
2027,-64.453125
2028,-62.500000
2029,-62.500000
2030,-62.500000
2031,-60.546875
2032,-60.546875
2033,-60.546875
2034,-58.593750
2035,-58.593750
2036,-58.593750
2037,-56.640625
2038,-56.640625
2039,-54.687500
2040,-54.687500
2041,-54.687500
2042,-52.734375
2043,-52.734375
2044,-50.781250
2045,-48.828125
2046,-48.828125
2047,-50.781250
2048,-48.828125
2049,-48.828125
2050,-46.875000
2051,-46.875000
2052,-44.921875
2053,-44.921875
2054,-42.968750
2055,-42.968750
2056,-42.968750
2057,-42.968750
2058,-41.015625
2059,-41.015625
2060,-39.062500
2061,-39.062500
2062,-37.109375
2063,-37.109375
2064,-35.156250
2065,-35.156250
2066,-35.156250
2067,-35.156250
2068,-33.203125
2069,-33.203125
2070,-31.250000
2071,-31.250000
2072,-29.296875
2073,-29.296875
2074,-27.343750
2075,-27.343750
2076,-27.343750
2077,-25.390625
2078,-25.390625
2079,-23.437500
2080,-23.437500
2081,-23.437500
2082,-21.484375
2083,-19.531250
2084,-19.531250
2085,-17.578125
2086,-17.578125
2087,-17.578125
2088,-15.625000
2089,-15.625000
2090,-13.671875
2091,-13.671875
2092,-13.671875
2093,-11.718750
2094,-11.718750
2095,-9.765625
2096,-9.765625
2097,-7.812500
2098,-7.812500
2099,-5.859375
2100,-5.859375
2101,-3.906250
2102,-3.906250
2103,-3.906250
2104,-1.953125
2105,0.000000
2106,0.000000
2107,0.000000
2108,0.000000
2109,1.953125
2110,3.906250
2111,3.906250
2112,5.859375
2113,5.859375
2114,5.859375
2115,7.812500
2116,7.812500
2117,9.765625
2118,9.765625
2119,11.718750
2120,11.718750
2121,13.671875
2122,13.671875
2123,13.671875
2124,15.625000
2125,15.625000
2126,17.578125
2127,17.578125
2128,19.531250
2129,19.531250
2130,19.531250
2131,21.484375
2132,21.484375
2133,21.484375
2134,23.437500
2135,23.437500
2136,25.390625
2137,25.390625
2138,25.390625
2139,27.343750
2140,29.296875
2141,27.343750
2142,29.296875
2143,31.250000
2144,31.250000
2145,33.203125
2146,33.203125
2147,33.203125
2148,35.156250
2149,35.156250
2150,35.156250
2151,37.109375
2152,37.109375
2153,37.109375
2154,39.062500
2155,39.062500
2156,39.062500
2157,41.015625
2158,41.015625
2159,42.968750
2160,42.968750
2161,42.968750
2162,44.921875
2163,44.921875
2164,44.921875
2165,44.921875
2166,46.875000
2167,46.875000
2168,46.875000
2169,48.828125
2170,48.828125
2171,48.828125
2172,48.828125
2173,50.781250
2174,50.781250
2175,52.734375
2176,52.734375
2177,54.687500
2178,54.687500
2179,54.687500
2180,54.687500
2181,54.687500
2182,56.640625
2183,56.640625
2184,56.640625
2185,58.593750
2186,58.593750
2187,58.593750
2188,58.593750
2189,60.546875
2190,60.546875
2191,60.546875
2192,60.546875
2193,60.546875
2194,62.500000
2195,62.500000
2196,62.500000
2197,62.500000
2198,62.500000
2199,62.500000
2200,64.453125
2201,64.453125
2202,64.453125
2203,64.453125
2204,64.453125
2205,66.406250
2206,66.406250
2207,66.406250
2208,66.406250
2209,66.406250
2210,66.406250
2211,68.359375
2212,68.359375
2213,68.359375
2214,68.359375
2215,68.359375
2216,68.359375
2217,68.359375
2218,68.359375
2219,70.312500
2220,68.359375
2221,68.359375
2222,70.312500
2223,70.312500
2224,70.312500
2225,70.312500
2226,70.312500
2227,70.312500
2228,70.312500
2229,70.312500
2230,70.312500
2231,72.265625
2232,70.312500
2233,72.265625
2234,72.265625
2235,72.265625
2236,72.265625
2237,72.265625
2238,74.218750
2239,74.218750
2240,74.218750
2241,72.265625
2242,72.265625
2243,72.265625
2244,72.265625
2245,72.265625
2246,72.265625
2247,72.265625
2248,72.265625
2249,72.265625
2250,72.265625
2251,72.265625
2252,72.265625
2253,72.265625
2254,70.312500
2255,70.312500
2256,70.312500
2257,72.265625
2258,72.265625
2259,70.312500
2260,70.312500
2261,70.312500
2262,72.265625
2263,72.265625
2264,70.312500
2265,70.312500
2266,68.359375
2267,66.406250
2268,68.359375
2269,68.359375
2270,66.406250
2271,68.359375
2272,68.359375
2273,64.453125
2274,68.359375
2275,68.359375
2276,66.406250
2277,66.406250
2278,66.406250
2279,66.406250
2280,66.406250
2281,66.406250
2282,66.406250
2283,64.453125
2284,64.453125
2285,64.453125
2286,64.453125
2287,62.500000
2288,62.500000
2289,62.500000
2290,62.500000
2291,62.500000
2292,60.546875
2293,60.546875
2294,60.546875
2295,60.546875
2296,60.546875
2297,58.593750
2298,58.593750
2299,58.593750
2300,58.593750
2301,58.593750
2302,56.640625
2303,56.640625
2304,56.640625
2305,54.687500
2306,54.687500
2307,54.687500
2308,52.734375
2309,52.734375
2310,52.734375
2311,52.734375
2312,50.781250
2313,50.781250
2314,50.781250
2315,50.781250
2316,48.828125
2317,46.875000
2318,46.875000
2319,46.875000
2320,46.875000
2321,44.921875
2322,44.921875
2323,44.921875
2324,44.921875
2325,42.968750
2326,42.968750
2327,41.015625
2328,41.015625
2329,41.015625
2330,39.062500
2331,39.062500
2332,37.109375
2333,37.109375
2334,37.109375
2335,37.109375
2336,35.156250
2337,35.156250
2338,35.156250
2339,33.203125
2340,31.250000
2341,31.250000
2342,31.250000
2343,29.296875
2344,29.296875
2345,27.343750
2346,27.343750
2347,27.343750
2348,25.390625
2349,25.390625
2350,23.437500
2351,23.437500
2352,23.437500
2353,21.484375
2354,21.484375
2355,19.531250
2356,19.531250
2357,19.531250
2358,17.578125
2359,17.578125
2360,15.625000
2361,15.625000
2362,13.671875
2363,13.671875
2364,13.671875
2365,11.718750
2366,11.718750
2367,11.718750
2368,9.765625
2369,7.812500
2370,7.812500
2371,7.812500
2372,5.859375
2373,5.859375
2374,5.859375
2375,3.906250
2376,3.906250
2377,1.953125
2378,1.953125
2379,0.000000
2380,0.000000
2381,0.000000
2382,-1.953125
2383,-3.906250
2384,-5.859375
2385,-5.859375
2386,-5.859375
2387,-3.906250
2388,-7.812500
2389,-7.812500
2390,-9.765625
2391,-11.718750
2392,-11.718750
2393,-11.718750
2394,-13.671875
2395,-13.671875
2396,-13.671875
2397,-15.625000
2398,-17.578125
2399,-17.578125
2400,-17.578125
2401,-19.531250
2402,-19.531250
2403,-19.531250
2404,-21.484375
2405,-23.437500
2406,-23.437500
2407,-25.390625
2408,-23.437500
2409,-25.390625
2410,-27.343750
2411,-27.343750
2412,-29.296875
2413,-29.296875
2414,-29.296875
2415,-31.250000
2416,-33.203125
2417,-33.203125
2418,-33.203125
2419,-39.062500
2420,-35.156250
2421,-37.109375
2422,-41.015625
2423,-37.109375
2424,-39.062500
2425,-39.062500
2426,-39.062500
2427,-41.015625
2428,-41.015625
2429,-42.968750
2430,-42.968750
2431,-44.921875
2432,-44.921875
2433,-44.921875
2434,-46.875000
2435,-46.875000
2436,-46.875000
2437,-48.828125
2438,-48.828125
2439,-50.781250
2440,-50.781250
2441,-52.734375
2442,-52.734375
2443,-52.734375
2444,-54.687500
2445,-54.687500
2446,-54.687500
2447,-54.687500
2448,-56.640625
2449,-56.640625
2450,-58.593750
2451,-58.593750
2452,-60.546875
2453,-60.546875
2454,-60.546875
2455,-62.500000
2456,-62.500000
2457,-62.500000
2458,-64.453125
2459,-64.453125
2460,-64.453125
2461,-66.406250
2462,-66.406250
2463,-66.406250
2464,-68.359375
2465,-68.359375
2466,-68.359375
2467,-70.312500
2468,-70.312500
2469,-70.312500
2470,-70.312500
2471,-70.312500
2472,-72.265625
2473,-72.265625
2474,-72.265625
2475,-74.218750
2476,-74.218750
2477,-74.218750
2478,-74.218750
2479,-76.171875
2480,-76.171875
2481,-76.171875
2482,-76.171875
2483,-76.171875
2484,-76.171875
2485,-78.125000
2486,-78.125000
2487,-78.125000
2488,-78.125000
2489,-80.078125
2490,-80.078125
2491,-80.078125
2492,-80.078125
2493,-80.078125
2494,-80.078125
2495,-82.031250
2496,-82.031250
2497,-82.031250
2498,-82.031250
2499,-82.031250
2500,-82.031250
2501,-83.984375
2502,-83.984375
2503,-83.984375
2504,-83.984375
2505,-83.984375
2506,-83.984375
2507,-83.984375
2508,-85.937500
2509,-85.937500
2510,-85.937500
2511,-85.937500
2512,-85.937500
2513,-85.937500
2514,-87.890625
2515,-85.937500
2516,-85.937500
2517,-87.890625
2518,-87.890625
2519,-87.890625
2520,-87.890625
2521,-87.890625
2522,-87.890625
2523,-87.890625
2524,-87.890625
2525,-87.890625
2526,-87.890625
2527,-87.890625
2528,-87.890625
2529,-89.843750
2530,-87.890625
2531,-87.890625
2532,-89.843750
2533,-89.843750
2534,-87.890625
2535,-87.890625
2536,-89.843750
2537,-87.890625
2538,-87.890625
2539,-87.890625
2540,-87.890625
2541,-87.890625
2542,-87.890625
2543,-87.890625
2544,-87.890625
2545,-87.890625
2546,-87.890625
2547,-87.890625
2548,-87.890625
2549,-87.890625
2550,-87.890625
2551,-87.890625
2552,-87.890625
2553,-87.890625
2554,-87.890625
2555,-85.937500
2556,-85.937500
2557,-85.937500
2558,-85.937500
2559,-85.937500
2560,-85.937500
2561,-85.937500
2562,-83.984375
2563,-83.984375
2564,-85.937500
2565,-83.984375
2566,-83.984375
2567,-83.984375
2568,-83.984375
2569,-82.031250
2570,-83.984375
2571,-83.984375
2572,-82.031250
2573,-82.031250
2574,-82.031250
2575,-80.078125
2576,-80.078125
2577,-82.031250
2578,-80.078125
2579,-80.078125
2580,-78.125000
2581,-80.078125
2582,-78.125000
2583,-80.078125
2584,-78.125000
2585,-78.125000
2586,-78.125000
2587,-76.171875
2588,-76.171875
2589,-76.171875
2590,-76.171875
2591,-74.218750
2592,-74.218750
2593,-74.218750
2594,-74.218750
2595,-72.265625
2596,-72.265625
2597,-72.265625
2598,-70.312500
2599,-70.312500
2600,-70.312500
2601,-70.312500
2602,-68.359375
2603,-68.359375
2604,-68.359375
2605,-66.406250
2606,-66.406250
2607,-64.453125
2608,-64.453125
2609,-64.453125
2610,-64.453125
2611,-62.500000
2612,-62.500000
2613,-60.546875
2614,-60.546875
2615,-60.546875
2616,-58.593750
2617,-58.593750
2618,-58.593750
2619,-56.640625
2620,-56.640625
2621,-56.640625
2622,-54.687500
2623,-54.687500
2624,-54.687500
2625,-52.734375
2626,-52.734375
2627,-54.687500
2628,-50.781250
2629,-50.781250
2630,-48.828125
2631,-48.828125
2632,-46.875000
2633,-46.875000
2634,-46.875000
2635,-44.921875
2636,-44.921875
2637,-44.921875
2638,-42.968750
2639,-42.968750
2640,-42.968750
2641,-41.015625
2642,-41.015625
2643,-39.062500
2644,-39.062500
2645,-37.109375
2646,-37.109375
2647,-35.156250
2648,-35.156250
2649,-35.156250
2650,-33.203125
2651,-33.203125
2652,-31.250000
2653,-31.250000
2654,-31.250000
2655,-29.296875
2656,-29.296875
2657,-27.343750
2658,-27.343750
2659,-25.390625
2660,-25.390625
2661,-25.390625
2662,-23.437500
2663,-21.484375
2664,-21.484375
2665,-21.484375
2666,-19.531250
2667,-19.531250
2668,-19.531250
2669,-17.578125
2670,-17.578125
2671,-15.625000
2672,-13.671875
2673,-13.671875
2674,-13.671875
2675,-11.718750
2676,-11.718750
2677,-11.718750
2678,-9.765625
2679,-9.765625
2680,-7.812500
2681,-7.812500
2682,-5.859375
2683,-5.859375
2684,-3.906250
2685,-3.906250
2686,-1.953125
2687,-1.953125
2688,-1.953125
2689,0.000000
2690,0.000000
2691,1.953125
2692,1.953125
2693,1.953125
2694,3.906250
2695,5.859375
2696,5.859375
2697,7.812500
2698,7.812500
2699,7.812500
2700,9.765625
2701,9.765625
2702,9.765625
2703,11.718750
2704,11.718750
2705,13.671875
2706,15.625000
2707,15.625000
2708,15.625000
2709,17.578125
2710,17.578125
2711,17.578125
2712,19.531250
2713,19.531250
2714,21.484375
2715,21.484375
2716,21.484375
2717,23.437500
2718,23.437500
2719,25.390625
2720,25.390625
2721,25.390625
2722,27.343750
2723,27.343750
2724,29.296875
2725,29.296875
2726,31.250000
2727,31.250000
2728,31.250000
2729,33.203125
2730,33.203125
2731,33.203125
2732,35.156250
2733,35.156250
2734,35.156250
2735,37.109375
2736,37.109375
2737,37.109375
2738,39.062500
2739,39.062500
2740,41.015625
2741,41.015625
2742,42.968750
2743,42.968750
2744,42.968750
2745,42.968750
2746,44.921875
2747,44.921875
2748,46.875000
2749,46.875000
2750,46.875000
2751,48.828125
2752,48.828125
2753,48.828125
2754,48.828125
2755,50.781250
2756,50.781250
2757,52.734375
2758,52.734375
2759,52.734375
2760,52.734375
2761,52.734375
2762,54.687500
2763,54.687500
2764,54.687500
2765,56.640625
2766,56.640625
2767,58.593750
2768,56.640625
2769,58.593750
2770,58.593750
2771,58.593750
2772,60.546875
2773,60.546875
2774,60.546875
2775,60.546875
2776,60.546875
2777,62.500000
2778,62.500000
2779,62.500000
2780,62.500000
2781,62.500000
2782,64.453125
2783,64.453125
2784,64.453125
2785,64.453125
2786,66.406250
2787,66.406250
2788,66.406250
2789,66.406250
2790,66.406250
2791,66.406250
2792,66.406250
2793,68.359375
2794,68.359375
2795,68.359375
2796,68.359375
2797,68.359375
2798,68.359375
2799,68.359375
2800,68.359375
2801,70.312500
2802,68.359375
2803,70.312500
2804,70.312500
2805,70.312500
2806,70.312500
2807,70.312500
2808,70.312500
2809,72.265625
2810,70.312500
2811,72.265625
2812,72.265625
2813,70.312500
2814,72.265625
2815,72.265625
2816,72.265625
2817,72.265625
2818,72.265625
2819,74.218750
2820,72.265625
2821,72.265625
2822,72.265625
2823,72.265625
2824,72.265625
2825,72.265625
2826,72.265625
2827,72.265625
2828,72.265625
2829,72.265625
2830,72.265625
2831,72.265625
2832,72.265625
2833,72.265625
2834,72.265625
2835,72.265625
2836,72.265625
2837,72.265625
2838,72.265625
2839,72.265625
2840,70.312500
2841,70.312500
2842,70.312500
2843,70.312500
2844,70.312500
2845,70.312500
2846,72.265625
2847,70.312500
2848,70.312500
2849,70.312500
2850,70.312500
2851,70.312500
2852,70.312500
2853,68.359375
2854,68.359375
2855,68.359375
2856,68.359375
2857,68.359375
2858,68.359375
2859,66.406250
2860,66.406250
2861,66.406250
2862,66.406250
2863,66.406250
2864,66.406250
2865,66.406250
2866,64.453125
2867,64.453125
2868,64.453125
2869,64.453125
2870,64.453125
2871,62.500000
2872,62.500000
2873,62.500000
2874,62.500000
2875,62.500000
2876,60.546875
2877,60.546875
2878,60.546875
2879,60.546875
2880,58.593750
2881,58.593750
2882,58.593750
2883,58.593750
2884,58.593750
2885,56.640625
2886,56.640625
2887,56.640625
2888,54.687500
2889,54.687500
2890,54.687500
2891,54.687500
2892,52.734375
2893,52.734375
2894,52.734375
2895,52.734375
2896,50.781250
2897,50.781250
2898,50.781250
2899,48.828125
2900,48.828125
2901,48.828125
2902,46.875000
2903,46.875000
2904,44.921875
2905,44.921875
2906,44.921875
2907,42.968750
2908,42.968750
2909,42.968750
2910,41.015625
2911,41.015625
2912,41.015625
2913,39.062500
2914,37.109375
2915,39.062500
2916,37.109375
2917,37.109375
2918,35.156250
2919,35.156250
2920,33.203125
2921,33.203125
2922,33.203125
2923,31.250000
2924,31.250000
2925,31.250000
2926,29.296875
2927,29.296875
2928,29.296875
2929,27.343750
2930,27.343750
2931,27.343750
2932,25.390625
2933,23.437500
2934,23.437500
2935,23.437500
2936,21.484375
2937,21.484375
2938,21.484375
2939,19.531250
2940,19.531250
2941,17.578125
2942,17.578125
2943,17.578125
2944,15.625000
2945,15.625000
2946,15.625000
2947,13.671875
2948,11.718750
2949,11.718750
2950,11.718750
2951,9.765625
2952,9.765625
2953,7.812500
2954,7.812500
2955,7.812500
2956,5.859375
2957,3.906250
2958,3.906250
2959,3.906250
2960,1.953125
2961,1.953125
2962,0.000000
2963,0.000000
2964,0.000000
2965,-1.953125
2966,-3.906250
2967,-3.906250
2968,-3.906250
2969,-5.859375
2970,-5.859375
2971,-7.812500
2972,-7.812500
2973,-9.765625
2974,-9.765625
2975,-11.718750
2976,-11.718750
2977,-11.718750
2978,-13.671875
2979,-13.671875
2980,-15.625000
2981,-17.578125
2982,-17.578125
2983,-17.578125
2984,-19.531250
2985,-19.531250
2986,-19.531250
2987,-21.484375
2988,-23.437500
2989,-23.437500
2990,-25.390625
2991,-25.390625
2992,-25.390625
2993,-27.343750
2994,-27.343750
2995,-29.296875
2996,-29.296875
2997,-31.250000
2998,-31.250000
2999,-31.250000
3000,-33.203125
3001,-33.203125
3002,-33.203125
3003,-35.156250
3004,-37.109375
3005,-37.109375
3006,-39.062500
3007,-39.062500
3008,-39.062500
3009,-41.015625
3010,-41.015625
3011,-41.015625
3012,-42.968750
3013,-42.968750
3014,-44.921875
3015,-44.921875
3016,-44.921875
3017,-46.875000
3018,-46.875000
3019,-48.828125
3020,-48.828125
3021,-48.828125
3022,-50.781250
3023,-50.781250
3024,-52.734375
3025,-52.734375
3026,-52.734375
3027,-54.687500
3028,-54.687500
3029,-54.687500
3030,-56.640625
3031,-56.640625
3032,-58.593750
3033,-58.593750
3034,-58.593750
3035,-58.593750
3036,-60.546875
3037,-60.546875
3038,-60.546875
3039,-62.500000
3040,-62.500000
3041,-64.453125
3042,-64.453125
3043,-64.453125
3044,-66.406250
3045,-66.406250
3046,-68.359375
3047,-68.359375
3048,-68.359375
3049,-68.359375
3050,-70.312500
3051,-70.312500
3052,-70.312500
3053,-70.312500
3054,-72.265625
3055,-72.265625
3056,-72.265625
3057,-74.218750
3058,-74.218750
3059,-74.218750
3060,-74.218750
3061,-74.218750
3062,-76.171875
3063,-76.171875
3064,-76.171875
3065,-76.171875
3066,-78.125000
3067,-78.125000
3068,-78.125000
3069,-78.125000
3070,-78.125000
3071,-80.078125
3072,-80.078125
3073,-80.078125
3074,-80.078125
3075,-82.031250
3076,-80.078125
3077,-82.031250
3078,-82.031250
3079,-82.031250
3080,-82.031250
3081,-82.031250
3082,-82.031250
3083,-82.031250
3084,-83.984375
3085,-83.984375
3086,-83.984375
3087,-83.984375
3088,-85.937500
3089,-83.984375
3090,-83.984375
3091,-85.937500
3092,-85.937500
3093,-85.937500
3094,-85.937500
3095,-85.937500
3096,-85.937500
3097,-85.937500
3098,-87.890625
3099,-87.890625
3100,-85.937500
3101,-87.890625
3102,-87.890625
3103,-87.890625
3104,-87.890625
3105,-87.890625
3106,-87.890625
3107,-87.890625
3108,-87.890625
3109,-87.890625
3110,-87.890625
3111,-87.890625
3112,-87.890625
3113,-89.843750
3114,-89.843750
3115,-87.890625
3116,-87.890625
3117,-89.843750
3118,-89.843750
3119,-89.843750
3120,-87.890625
3121,-89.843750
3122,-87.890625
3123,-89.843750
3124,-89.843750
3125,-87.890625
3126,-89.843750
3127,-89.843750
3128,-87.890625
3129,-87.890625
3130,-87.890625
3131,-87.890625
3132,-87.890625
3133,-87.890625
3134,-87.890625
3135,-87.890625
3136,-85.937500
3137,-87.890625
3138,-87.890625
3139,-87.890625
3140,-85.937500
3141,-85.937500
3142,-85.937500
3143,-85.937500
3144,-85.937500
3145,-85.937500
3146,-85.937500
3147,-83.984375
3148,-85.937500
3149,-83.984375
3150,-83.984375
3151,-83.984375
3152,-83.984375
3153,-83.984375
3154,-82.031250
3155,-83.984375
3156,-82.031250
3157,-82.031250
3158,-80.078125
3159,-82.031250
3160,-80.078125
3161,-82.031250
3162,-80.078125
3163,-80.078125
3164,-80.078125
3165,-80.078125
3166,-78.125000
3167,-78.125000
3168,-76.171875
3169,-76.171875
3170,-78.125000
3171,-76.171875
3172,-76.171875
3173,-76.171875
3174,-74.218750
3175,-74.218750
3176,-74.218750
3177,-74.218750
3178,-72.265625
3179,-72.265625
3180,-72.265625
3181,-72.265625
3182,-70.312500
3183,-70.312500
3184,-70.312500
3185,-68.359375
3186,-68.359375
3187,-68.359375
3188,-68.359375
3189,-66.406250
3190,-66.406250
3191,-66.406250
3192,-64.453125
3193,-64.453125
3194,-62.500000
3195,-62.500000
3196,-62.500000
3197,-60.546875
3198,-60.546875
3199,-60.546875
3200,-58.593750
3201,-58.593750
3202,-58.593750
3203,-56.640625
3204,-56.640625
3205,-56.640625
3206,-54.687500
3207,-52.734375
3208,-52.734375
3209,-52.734375
3210,-54.687500
3211,-50.781250
3212,-50.781250
3213,-48.828125
3214,-48.828125
3215,-48.828125
3216,-46.875000
3217,-46.875000
3218,-44.921875
3219,-44.921875
3220,-42.968750
3221,-42.968750
3222,-42.968750
3223,-41.015625
3224,-41.015625
3225,-41.015625
3226,-39.062500
3227,-39.062500
3228,-37.109375
3229,-37.109375
3230,-37.109375
3231,-35.156250
3232,-35.156250
3233,-33.203125
3234,-33.203125
3235,-31.250000
3236,-31.250000
3237,-29.296875
3238,-29.296875
3239,-29.296875
3240,-27.343750
3241,-27.343750
3242,-27.343750
3243,-25.390625
3244,-23.437500
3245,-21.484375
3246,-23.437500
3247,-21.484375
3248,-21.484375
3249,-21.484375
3250,-19.531250
3251,-17.578125
3252,-17.578125
3253,-17.578125
3254,-15.625000
3255,-13.671875
3256,-13.671875
3257,-13.671875
3258,-11.718750
3259,-11.718750
3260,-11.718750
3261,-9.765625
3262,-7.812500
3263,-7.812500
3264,-5.859375
3265,-5.859375
3266,-5.859375
3267,-3.906250
3268,-3.906250
3269,-3.906250
3270,-1.953125
3271,-1.953125
3272,0.000000
3273,1.953125
3274,1.953125
3275,1.953125
3276,3.906250
3277,3.906250
3278,5.859375
3279,5.859375
3280,5.859375
3281,7.812500
3282,7.812500
3283,9.765625
3284,9.765625
3285,9.765625
3286,11.718750
3287,11.718750
3288,13.671875
3289,13.671875
3290,15.625000
3291,15.625000
3292,17.578125
3293,17.578125
3294,17.578125
3295,19.531250
3296,19.531250
3297,21.484375
3298,21.484375
3299,21.484375
3300,23.437500
3301,23.437500
3302,25.390625
3303,25.390625
3304,27.343750
3305,27.343750
3306,29.296875
3307,29.296875
3308,29.296875
3309,31.250000
3310,31.250000
3311,31.250000
3312,33.203125
3313,33.203125
3314,35.156250
3315,35.156250
3316,35.156250
3317,37.109375
3318,39.062500
3319,37.109375
3320,39.062500
3321,41.015625
3322,41.015625
3323,41.015625
3324,41.015625
3325,41.015625
3326,42.968750
3327,42.968750
3328,44.921875
3329,44.921875
3330,44.921875
3331,46.875000
3332,48.828125
3333,46.875000
3334,48.828125
3335,48.828125
3336,50.781250
3337,50.781250
3338,50.781250
3339,50.781250
3340,52.734375
3341,52.734375
3342,52.734375
3343,54.687500
3344,54.687500
3345,54.687500
3346,56.640625
3347,56.640625
3348,56.640625
3349,56.640625
3350,58.593750
3351,58.593750
3352,58.593750
3353,58.593750
3354,58.593750
3355,60.546875
3356,60.546875
3357,60.546875
3358,62.500000
3359,62.500000
3360,62.500000
3361,62.500000
3362,62.500000
3363,62.500000
3364,64.453125
3365,64.453125
3366,64.453125
3367,66.406250
3368,64.453125
3369,66.406250
3370,66.406250
3371,66.406250
3372,66.406250
3373,66.406250
3374,66.406250
3375,68.359375
3376,68.359375
3377,68.359375
3378,68.359375
3379,68.359375
3380,70.312500
3381,70.312500
3382,70.312500
3383,70.312500
3384,70.312500
3385,70.312500
3386,70.312500
3387,70.312500
3388,70.312500
3389,70.312500
3390,72.265625
3391,72.265625
3392,72.265625
3393,72.265625
3394,72.265625
3395,72.265625
3396,72.265625
3397,72.265625
3398,72.265625
3399,72.265625
3400,72.265625
3401,72.265625
3402,72.265625
3403,72.265625
3404,74.218750
3405,72.265625
3406,74.218750
3407,72.265625
3408,72.265625
3409,74.218750
3410,72.265625
3411,72.265625
3412,74.218750
3413,74.218750
3414,72.265625
3415,74.218750
3416,72.265625
3417,72.265625
3418,72.265625
3419,72.265625
3420,72.265625
3421,72.265625
3422,72.265625
3423,72.265625
3424,72.265625
3425,72.265625
3426,70.312500
3427,70.312500
3428,70.312500
3429,70.312500
3430,70.312500
3431,70.312500
3432,70.312500
3433,70.312500
3434,70.312500
3435,68.359375
3436,70.312500
3437,70.312500
3438,68.359375
3439,68.359375
3440,68.359375
3441,68.359375
3442,66.406250
3443,68.359375
3444,68.359375
3445,66.406250
3446,66.406250
3447,66.406250
3448,64.453125
3449,66.406250
3450,66.406250
3451,64.453125
3452,64.453125
3453,64.453125
3454,64.453125
3455,62.500000
3456,62.500000
3457,62.500000
3458,62.500000
3459,62.500000
3460,60.546875
3461,60.546875
3462,60.546875
3463,60.546875
3464,58.593750
3465,58.593750
3466,58.593750
3467,56.640625
3468,58.593750
3469,56.640625
3470,56.640625
3471,56.640625
3472,54.687500
3473,54.687500
3474,54.687500
3475,54.687500
3476,52.734375
3477,52.734375
3478,52.734375
3479,50.781250
3480,50.781250
3481,48.828125
3482,48.828125
3483,48.828125
3484,48.828125
3485,48.828125
3486,46.875000
3487,46.875000
3488,44.921875
3489,44.921875
3490,44.921875
3491,42.968750
3492,42.968750
3493,41.015625
3494,41.015625
3495,41.015625
3496,39.062500
3497,39.062500
3498,39.062500
3499,39.062500
3500,37.109375
3501,37.109375
3502,35.156250
3503,35.156250
3504,33.203125
3505,33.203125
3506,33.203125
3507,31.250000
3508,31.250000
3509,29.296875
3510,29.296875
3511,29.296875
3512,29.296875
3513,27.343750
3514,25.390625
3515,25.390625
3516,25.390625
3517,23.437500
3518,23.437500
3519,23.437500
3520,21.484375
3521,21.484375
3522,19.531250
3523,19.531250
3524,17.578125
3525,17.578125
3526,17.578125
3527,15.625000
3528,15.625000
3529,13.671875
3530,13.671875
3531,11.718750
3532,11.718750
3533,11.718750
3534,9.765625
3535,9.765625
3536,7.812500
3537,7.812500
3538,5.859375
3539,5.859375
3540,3.906250
3541,3.906250
3542,3.906250
3543,1.953125
3544,1.953125
3545,0.000000
3546,0.000000
3547,-1.953125
3548,-1.953125
3549,-3.906250
3550,-1.953125
3551,-3.906250
3552,-7.812500
3553,-7.812500
3554,-7.812500
3555,-9.765625
3556,-9.765625
3557,-9.765625
3558,-11.718750
3559,-11.718750
3560,-13.671875
3561,-13.671875
3562,-15.625000
3563,-15.625000
3564,-15.625000
3565,-17.578125
3566,-19.531250
3567,-19.531250
3568,-19.531250
3569,-21.484375
3570,-23.437500
3571,-23.437500
3572,-23.437500
3573,-25.390625
3574,-25.390625
3575,-25.390625
3576,-27.343750
3577,-29.296875
3578,-29.296875
3579,-29.296875
3580,-31.250000
3581,-31.250000
3582,-33.203125
3583,-33.203125
3584,-35.156250
3585,-35.156250
3586,-37.109375
3587,-37.109375
3588,-37.109375
3589,-37.109375
3590,-39.062500
3591,-41.015625
3592,-41.015625
3593,-41.015625
3594,-42.968750
3595,-42.968750
3596,-42.968750
3597,-44.921875
3598,-46.875000
3599,-46.875000
3600,-46.875000
3601,-46.875000
3602,-48.828125
3603,-48.828125
3604,-50.781250
3605,-50.781250
3606,-52.734375
3607,-52.734375
3608,-52.734375
3609,-54.687500
3610,-54.687500
3611,-54.687500
3612,-56.640625
3613,-56.640625
3614,-56.640625
3615,-58.593750
3616,-58.593750
3617,-60.546875
3618,-60.546875
3619,-60.546875
3620,-62.500000
3621,-62.500000
3622,-62.500000
3623,-62.500000
3624,-64.453125
3625,-66.406250
3626,-66.406250
3627,-66.406250
3628,-66.406250
3629,-68.359375
3630,-68.359375
3631,-68.359375
3632,-68.359375
3633,-70.312500
3634,-70.312500
3635,-70.312500
3636,-72.265625
3637,-72.265625
3638,-72.265625
3639,-74.218750
3640,-74.218750
3641,-74.218750
3642,-74.218750
3643,-76.171875
3644,-76.171875
3645,-76.171875
3646,-76.171875
3647,-78.125000
3648,-78.125000
3649,-78.125000
3650,-78.125000
3651,-80.078125
3652,-80.078125
3653,-78.125000
3654,-80.078125
3655,-80.078125
3656,-80.078125
3657,-80.078125
3658,-82.031250
3659,-82.031250
3660,-82.031250
3661,-82.031250
3662,-82.031250
3663,-83.984375
3664,-83.984375
3665,-83.984375
3666,-83.984375
3667,-83.984375
3668,-83.984375
3669,-83.984375
3670,-85.937500
3671,-85.937500
3672,-85.937500
3673,-85.937500
3674,-85.937500
3675,-87.890625
3676,-85.937500
3677,-87.890625
3678,-87.890625
3679,-85.937500
3680,-87.890625
3681,-87.890625
3682,-87.890625
3683,-87.890625
3684,-87.890625
3685,-87.890625
3686,-87.890625
3687,-87.890625
3688,-87.890625
3689,-87.890625
3690,-89.843750
3691,-89.843750
3692,-89.843750
3693,-89.843750
3694,-87.890625
3695,-87.890625
3696,-89.843750
3697,-89.843750
3698,-89.843750
3699,-89.843750
3700,-89.843750
3701,-89.843750
3702,-89.843750
3703,-89.843750
3704,-89.843750
3705,-89.843750
3706,-89.843750
3707,-89.843750
3708,-89.843750
3709,-87.890625
3710,-87.890625
3711,-87.890625
3712,-89.843750
3713,-89.843750
3714,-87.890625
3715,-89.843750
3716,-87.890625
3717,-87.890625
3718,-87.890625
3719,-87.890625
3720,-87.890625
3721,-87.890625
3722,-87.890625
3723,-85.937500
3724,-87.890625
3725,-85.937500
3726,-85.937500
3727,-85.937500
3728,-85.937500
3729,-85.937500
3730,-85.937500
3731,-83.984375
3732,-83.984375
3733,-83.984375
3734,-83.984375
3735,-83.984375
3736,-83.984375
3737,-82.031250
3738,-82.031250
3739,-82.031250
3740,-82.031250
3741,-82.031250
3742,-80.078125
3743,-80.078125
3744,-80.078125
3745,-80.078125
3746,-80.078125
3747,-80.078125
3748,-78.125000
3749,-78.125000
3750,-78.125000
3751,-78.125000
3752,-76.171875
3753,-76.171875
3754,-76.171875
3755,-76.171875
3756,-74.218750
3757,-76.171875
3758,-74.218750
3759,-74.218750
3760,-74.218750
3761,-72.265625
3762,-72.265625
3763,-72.265625
3764,-70.312500
3765,-70.312500
3766,-70.312500
3767,-70.312500
3768,-68.359375
3769,-68.359375
3770,-66.406250
3771,-66.406250
3772,-66.406250
3773,-66.406250
3774,-64.453125
3775,-64.453125
3776,-66.406250
3777,-62.500000
3778,-62.500000
3779,-60.546875
3780,-60.546875
3781,-60.546875
3782,-58.593750
3783,-58.593750
3784,-58.593750
3785,-58.593750
3786,-56.640625
3787,-54.687500
3788,-54.687500
3789,-54.687500
3790,-52.734375
3791,-52.734375
3792,-50.781250
3793,-48.828125
3794,-48.828125
3795,-50.781250
3796,-48.828125
3797,-46.875000
3798,-46.875000
3799,-46.875000
3800,-44.921875
3801,-44.921875
3802,-44.921875
3803,-44.921875
3804,-42.968750
3805,-41.015625
3806,-41.015625
3807,-39.062500
3808,-39.062500
3809,-39.062500
3810,-37.109375
3811,-37.109375
3812,-37.109375
3813,-35.156250
3814,-33.203125
3815,-33.203125
3816,-33.203125
3817,-33.203125
3818,-31.250000
3819,-29.296875
3820,-25.390625
3821,-29.296875
3822,-27.343750
3823,-27.343750
3824,-27.343750
3825,-25.390625
3826,-25.390625
3827,-23.437500
3828,-23.437500
3829,-21.484375
3830,-21.484375
3831,-21.484375
3832,-19.531250
3833,-17.578125
3834,-17.578125
3835,-17.578125
3836,-15.625000
3837,-15.625000
3838,-15.625000
3839,-13.671875
3840,-11.718750
3841,-11.718750
3842,-9.765625
3843,-9.765625
3844,-7.812500
3845,-7.812500
3846,-7.812500
3847,-5.859375
3848,-3.906250
3849,-3.906250
3850,-3.906250
3851,-1.953125
3852,-1.953125
3853,0.000000
3854,0.000000
3855,1.953125
3856,1.953125
3857,1.953125
3858,3.906250
3859,3.906250
3860,5.859375
3861,7.812500
3862,7.812500
3863,7.812500
3864,7.812500
3865,9.765625
3866,9.765625
3867,11.718750
3868,11.718750
3869,13.671875
3870,13.671875
3871,13.671875
3872,15.625000
3873,15.625000
3874,17.578125
3875,17.578125
3876,19.531250
3877,19.531250
3878,19.531250
3879,21.484375
3880,21.484375
3881,23.437500
3882,23.437500
3883,23.437500
3884,25.390625
3885,25.390625
3886,27.343750
3887,27.343750
3888,27.343750
3889,29.296875
3890,29.296875
3891,31.250000
3892,31.250000
3893,33.203125
3894,33.203125
3895,33.203125
3896,35.156250
3897,35.156250
3898,35.156250
3899,37.109375
3900,37.109375
3901,37.109375
3902,39.062500
3903,41.015625
3904,41.015625
3905,41.015625
3906,41.015625
3907,42.968750
3908,42.968750
3909,42.968750
3910,44.921875
3911,44.921875
3912,46.875000
3913,46.875000
3914,46.875000
3915,48.828125
3916,48.828125
3917,48.828125
3918,50.781250
3919,50.781250
3920,50.781250
3921,50.781250
3922,52.734375
3923,52.734375
3924,52.734375
3925,54.687500
3926,54.687500
3927,54.687500
3928,54.687500
3929,56.640625
3930,56.640625
3931,58.593750
3932,58.593750
3933,58.593750
3934,58.593750
3935,58.593750
3936,60.546875
3937,60.546875
3938,60.546875
3939,60.546875
3940,60.546875
3941,62.500000
3942,62.500000
3943,62.500000
3944,62.500000
3945,62.500000
3946,62.500000
3947,64.453125
3948,64.453125
3949,64.453125
3950,64.453125
3951,66.406250
3952,64.453125
3953,66.406250
3954,66.406250
3955,66.406250
3956,68.359375
3957,68.359375
3958,68.359375
3959,68.359375
3960,68.359375
3961,68.359375
3962,68.359375
3963,70.312500
3964,70.312500
3965,70.312500
3966,70.312500
3967,70.312500
3968,70.312500
3969,70.312500
3970,70.312500
3971,70.312500
3972,70.312500
3973,72.265625
3974,72.265625
3975,72.265625
3976,72.265625
3977,72.265625
3978,72.265625
3979,72.265625
3980,72.265625
3981,72.265625
3982,74.218750
3983,72.265625
3984,72.265625
3985,72.265625
3986,74.218750
3987,74.218750
3988,72.265625
3989,72.265625
3990,72.265625
3991,74.218750
3992,74.218750
3993,72.265625
3994,72.265625
3995,72.265625
3996,72.265625
3997,72.265625
3998,72.265625
3999,72.265625
4000,72.265625
4001,72.265625
4002,72.265625
4003,72.265625
4004,72.265625
4005,72.265625
4006,72.265625
4007,72.265625
4008,72.265625
4009,72.265625
4010,70.312500
4011,70.312500
4012,70.312500
4013,70.312500
4014,70.312500
4015,70.312500
4016,70.312500
4017,70.312500
4018,68.359375
4019,68.359375
4020,68.359375
4021,68.359375
4022,68.359375
4023,68.359375
4024,68.359375
4025,68.359375
4026,66.406250
4027,66.406250
4028,66.406250
4029,66.406250
4030,64.453125
4031,64.453125
4032,64.453125
4033,64.453125
4034,64.453125
4035,64.453125
4036,64.453125
4037,62.500000
4038,62.500000
4039,62.500000
4040,60.546875
4041,62.500000
4042,60.546875
4043,60.546875
4044,60.546875
4045,60.546875
4046,58.593750
4047,58.593750
4048,58.593750
4049,56.640625
4050,56.640625
4051,56.640625
4052,56.640625
4053,54.687500
4054,54.687500
4055,54.687500
4056,54.687500
4057,52.734375
4058,52.734375
4059,52.734375
4060,52.734375
4061,50.781250
4062,48.828125
4063,48.828125
4064,48.828125
4065,48.828125
4066,48.828125
4067,46.875000
4068,46.875000
4069,46.875000
4070,44.921875
4071,44.921875
4072,42.968750
4073,42.968750
4074,42.968750
4075,41.015625
4076,41.015625
4077,41.015625
4078,39.062500
4079,39.062500
4080,39.062500
4081,37.109375
4082,37.109375
4083,37.109375
4084,35.156250
4085,33.203125
4086,35.156250
4087,33.203125
4088,33.203125
4089,31.250000
4090,31.250000
4091,29.296875
4092,29.296875
4093,29.296875
4094,27.343750
4095,27.343750
4096,25.390625
4097,25.390625
4098,25.390625
4099,23.437500
4100,23.437500
4101,21.484375
4102,21.484375
4103,21.484375
4104,19.531250
4105,19.531250
4106,17.578125
4107,17.578125
4108,15.625000
4109,15.625000
4110,15.625000
4111,13.671875
4112,13.671875
4113,13.671875
4114,11.718750
4115,9.765625
4116,9.765625
4117,9.765625
4118,7.812500
4119,7.812500
4120,5.859375
4121,5.859375
4122,5.859375
4123,3.906250
4124,1.953125
4125,1.953125
4126,1.953125
4127,0.000000
4128,0.000000
4129,-1.953125
4130,-3.906250
4131,-3.906250
4132,-3.906250
4133,-5.859375
4134,-5.859375
4135,-7.812500
4136,-7.812500
4137,-9.765625
4138,-9.765625
4139,-9.765625
4140,-11.718750
4141,-11.718750
4142,-13.671875
4143,-13.671875
4144,-15.625000
4145,-15.625000
4146,-15.625000
4147,-17.578125
4148,-17.578125
4149,-19.531250
4150,-21.484375
4151,-21.484375
4152,-23.437500
4153,-23.437500
4154,-23.437500
4155,-25.390625
4156,-25.390625
4157,-25.390625
4158,-27.343750
4159,-29.296875
4160,-29.296875
4161,-29.296875
4162,-31.250000
4163,-31.250000
4164,-33.203125
4165,-33.203125
4166,-33.203125
4167,-35.156250
4168,-35.156250
4169,-35.156250
4170,-37.109375
4171,-39.062500
4172,-41.015625
4173,-41.015625
4174,-41.015625
4175,-41.015625
4176,-42.968750
4177,-42.968750
4178,-44.921875
4179,-44.921875
4180,-44.921875
4181,-46.875000
4182,-46.875000
4183,-46.875000
4184,-48.828125
4185,-48.828125
4186,-50.781250
4187,-50.781250
4188,-50.781250
4189,-52.734375
4190,-52.734375
4191,-54.687500
4192,-54.687500
4193,-54.687500
4194,-56.640625
4195,-56.640625
4196,-56.640625
4197,-56.640625
4198,-58.593750
4199,-58.593750
4200,-60.546875
4201,-60.546875
4202,-62.500000
4203,-62.500000
4204,-62.500000
4205,-62.500000
4206,-64.453125
4207,-64.453125
4208,-66.406250
4209,-66.406250
4210,-66.406250
4211,-66.406250
4212,-68.359375
4213,-68.359375
4214,-68.359375
4215,-70.312500
4216,-70.312500
4217,-70.312500
4218,-70.312500
4219,-72.265625
4220,-72.265625
4221,-72.265625
4222,-74.218750
4223,-74.218750
4224,-74.218750
4225,-74.218750
4226,-76.171875
4227,-76.171875
4228,-76.171875
4229,-76.171875
4230,-76.171875
4231,-78.125000
4232,-78.125000
4233,-78.125000
4234,-78.125000
4235,-78.125000
4236,-80.078125
4237,-80.078125
4238,-80.078125
4239,-80.078125
4240,-80.078125
4241,-82.031250
4242,-82.031250
4243,-82.031250
4244,-82.031250
4245,-82.031250
4246,-82.031250
4247,-82.031250
4248,-83.984375
4249,-83.984375
4250,-83.984375
4251,-83.984375
4252,-83.984375
4253,-83.984375
4254,-85.937500
4255,-85.937500
4256,-85.937500
4257,-85.937500
4258,-85.937500
4259,-85.937500
4260,-85.937500
4261,-85.937500
4262,-85.937500
4263,-85.937500
4264,-87.890625
4265,-87.890625
4266,-87.890625
4267,-87.890625
4268,-87.890625
4269,-87.890625
4270,-87.890625
4271,-87.890625
4272,-87.890625
4273,-87.890625
4274,-87.890625
4275,-87.890625
4276,-87.890625
4277,-87.890625
4278,-89.843750
4279,-87.890625
4280,-87.890625
4281,-89.843750
4282,-87.890625
4283,-87.890625
4284,-89.843750
4285,-87.890625
4286,-87.890625
4287,-89.843750
4288,-89.843750
4289,-87.890625
4290,-87.890625
4291,-87.890625
4292,-87.890625
4293,-87.890625
4294,-87.890625
4295,-87.890625
4296,-87.890625
4297,-87.890625
4298,-87.890625
4299,-87.890625
4300,-87.890625
4301,-87.890625
4302,-85.937500
4303,-85.937500
4304,-85.937500
4305,-85.937500
4306,-85.937500
4307,-85.937500
4308,-85.937500
4309,-85.937500
4310,-83.984375
4311,-83.984375
4312,-83.984375
4313,-83.984375
4314,-83.984375
4315,-83.984375
4316,-83.984375
4317,-83.984375
4318,-82.031250
4319,-82.031250
4320,-82.031250
4321,-82.031250
4322,-82.031250
4323,-80.078125
4324,-80.078125
4325,-80.078125
4326,-80.078125
4327,-80.078125
4328,-80.078125
4329,-78.125000
4330,-78.125000
4331,-78.125000
4332,-78.125000
4333,-76.171875
4334,-76.171875
4335,-76.171875
4336,-76.171875
4337,-76.171875
4338,-74.218750
4339,-74.218750
4340,-74.218750
4341,-74.218750
4342,-74.218750
4343,-72.265625
4344,-72.265625
4345,-70.312500
4346,-70.312500
4347,-70.312500
4348,-70.312500
4349,-68.359375
4350,-68.359375
4351,-68.359375
4352,-66.406250
4353,-66.406250
4354,-66.406250
4355,-64.453125
4356,-64.453125
4357,-64.453125
4358,-62.500000
4359,-64.453125
4360,-62.500000
4361,-60.546875
4362,-60.546875
4363,-60.546875
4364,-58.593750
4365,-58.593750
4366,-58.593750
4367,-56.640625
4368,-56.640625
4369,-54.687500
4370,-54.687500
4371,-54.687500
4372,-52.734375
4373,-52.734375
4374,-52.734375
4375,-50.781250
4376,-50.781250
4377,-50.781250
4378,-48.828125
4379,-48.828125
4380,-46.875000
4381,-46.875000
4382,-46.875000
4383,-44.921875
4384,-44.921875
4385,-42.968750
4386,-42.968750
4387,-42.968750
4388,-41.015625
4389,-41.015625
4390,-39.062500
4391,-39.062500
4392,-37.109375
4393,-37.109375
4394,-37.109375
4395,-35.156250
4396,-35.156250
4397,-33.203125
4398,-33.203125
4399,-33.203125
4400,-33.203125
4401,-31.250000
4402,-29.296875
4403,-29.296875
4404,-29.296875
4405,-27.343750
4406,-27.343750
4407,-25.390625
4408,-25.390625
4409,-23.437500
4410,-23.437500
4411,-23.437500
4412,-21.484375
4413,-21.484375
4414,-19.531250
4415,-19.531250
4416,-19.531250
4417,-17.578125
4418,-15.625000
4419,-15.625000
4420,-15.625000
4421,-13.671875
4422,-13.671875
4423,-11.718750
4424,-11.718750
4425,-9.765625
4426,-9.765625
4427,-7.812500
4428,-7.812500
4429,-7.812500
4430,-5.859375
4431,-5.859375
4432,-3.906250
4433,-3.906250
4434,-1.953125
4435,-1.953125
4436,-1.953125
4437,0.000000
4438,1.953125
4439,1.953125
4440,1.953125
4441,3.906250
4442,3.906250
4443,5.859375
4444,5.859375
4445,7.812500
4446,7.812500
4447,7.812500
4448,9.765625
4449,9.765625
4450,11.718750
4451,11.718750
4452,13.671875
4453,13.671875
4454,13.671875
4455,15.625000
4456,17.578125
4457,17.578125
4458,17.578125
4459,19.531250
4460,19.531250
4461,21.484375
4462,21.484375
4463,21.484375
4464,21.484375
4465,23.437500
4466,23.437500
4467,25.390625
4468,25.390625
4469,27.343750
4470,27.343750
4471,27.343750
4472,29.296875
4473,29.296875
4474,31.250000
4475,31.250000
4476,31.250000
4477,33.203125
4478,33.203125
4479,35.156250
4480,35.156250
4481,35.156250
4482,37.109375
4483,37.109375
4484,37.109375
4485,39.062500
4486,39.062500
4487,39.062500
4488,41.015625
4489,41.015625
4490,42.968750
4491,42.968750
4492,42.968750
4493,44.921875
4494,44.921875
4495,46.875000
4496,46.875000
4497,46.875000
4498,46.875000
4499,48.828125
4500,48.828125
4501,48.828125
4502,48.828125
4503,50.781250
4504,52.734375
4505,52.734375
4506,52.734375
4507,52.734375
4508,54.687500
4509,54.687500
4510,54.687500
4511,54.687500
4512,54.687500
4513,56.640625
4514,56.640625
4515,56.640625
4516,58.593750
4517,58.593750
4518,58.593750
4519,58.593750
4520,60.546875
4521,60.546875
4522,60.546875
4523,60.546875
4524,62.500000
4525,62.500000
4526,62.500000
4527,62.500000
4528,62.500000
4529,62.500000
4530,64.453125
4531,64.453125
4532,64.453125
4533,64.453125
4534,64.453125
4535,66.406250
4536,66.406250
4537,66.406250
4538,66.406250
4539,68.359375
4540,68.359375
4541,68.359375
4542,68.359375
4543,68.359375
4544,68.359375
4545,68.359375
4546,68.359375
4547,68.359375
4548,70.312500
4549,70.312500
4550,70.312500
4551,70.312500
4552,70.312500
4553,70.312500
4554,70.312500
4555,70.312500
4556,70.312500
4557,72.265625
4558,72.265625
4559,72.265625
4560,72.265625
4561,72.265625
4562,72.265625
4563,72.265625
4564,72.265625
4565,72.265625
4566,72.265625
4567,72.265625
4568,72.265625
4569,72.265625
4570,72.265625
4571,72.265625
4572,72.265625
4573,72.265625
4574,72.265625
4575,72.265625
4576,72.265625
4577,72.265625
4578,72.265625
4579,72.265625
4580,72.265625
4581,72.265625
4582,72.265625
4583,72.265625
4584,72.265625
4585,72.265625
4586,72.265625
4587,70.312500
4588,72.265625
4589,72.265625
4590,70.312500
4591,70.312500
4592,70.312500
4593,70.312500
4594,70.312500
4595,70.312500
4596,70.312500
4597,70.312500
4598,70.312500
4599,70.312500
4600,68.359375
4601,68.359375
4602,68.359375
4603,68.359375
4604,68.359375
4605,66.406250
4606,68.359375
4607,68.359375
4608,66.406250
4609,66.406250
4610,66.406250
4611,66.406250
4612,64.453125
4613,64.453125
4614,66.406250
4615,64.453125
4616,64.453125
4617,62.500000
4618,62.500000
4619,62.500000
4620,62.500000
4621,62.500000
4622,62.500000
4623,60.546875
4624,60.546875
4625,60.546875
4626,60.546875
4627,60.546875
4628,58.593750
4629,58.593750
4630,58.593750
4631,58.593750
4632,58.593750
4633,56.640625
4634,56.640625
4635,56.640625
4636,54.687500
4637,54.687500
4638,54.687500
4639,54.687500
4640,54.687500
4641,52.734375
4642,52.734375
4643,50.781250
4644,50.781250
4645,50.781250
4646,50.781250
4647,48.828125
4648,48.828125
4649,46.875000
4650,46.875000
4651,46.875000
4652,44.921875
4653,44.921875
4654,44.921875
4655,42.968750
4656,42.968750
4657,41.015625
4658,41.015625
4659,41.015625
4660,41.015625
4661,39.062500
4662,39.062500
4663,37.109375
4664,37.109375
4665,37.109375
4666,35.156250
4667,35.156250
4668,35.156250
4669,33.203125
4670,33.203125
4671,33.203125
4672,31.250000
4673,31.250000
4674,29.296875
4675,29.296875
4676,29.296875
4677,27.343750
4678,27.343750
4679,25.390625
4680,25.390625
4681,25.390625
4682,23.437500
4683,23.437500
4684,21.484375
4685,21.484375
4686,19.531250
4687,19.531250
4688,19.531250
4689,17.578125
4690,17.578125
4691,15.625000
4692,15.625000
4693,15.625000
4694,13.671875
4695,13.671875
4696,11.718750
4697,11.718750
4698,11.718750
4699,9.765625
4700,9.765625
4701,7.812500
4702,7.812500
4703,5.859375
4704,5.859375
4705,3.906250
4706,3.906250
4707,1.953125
4708,1.953125
4709,1.953125
4710,0.000000
4711,0.000000
4712,-1.953125
4713,-3.906250
4714,-3.906250
4715,-3.906250
4716,-5.859375
4717,-5.859375
4718,-7.812500
4719,-7.812500
4720,-9.765625
4721,-9.765625
4722,-9.765625
4723,-11.718750
4724,-11.718750
4725,-13.671875
4726,-13.671875
4727,-15.625000
4728,-15.625000
4729,-17.578125
4730,-17.578125
4731,-19.531250
4732,-19.531250
4733,-19.531250
4734,-21.484375
4735,-21.484375
4736,-23.437500
4737,-23.437500
4738,-25.390625
4739,-25.390625
4740,-27.343750
4741,-27.343750
4742,-27.343750
4743,-29.296875
4744,-29.296875
4745,-29.296875
4746,-33.203125
4747,-33.203125
4748,-33.203125
4749,-33.203125
4750,-35.156250
4751,-35.156250
4752,-37.109375
4753,-37.109375
4754,-39.062500
4755,-39.062500
4756,-39.062500
4757,-41.015625
4758,-41.015625
4759,-41.015625
4760,-42.968750
4761,-42.968750
4762,-44.921875
4763,-44.921875
4764,-46.875000
4765,-46.875000
4766,-46.875000
4767,-48.828125
4768,-48.828125
4769,-50.781250
4770,-50.781250
4771,-50.781250
4772,-52.734375
4773,-52.734375
4774,-54.687500
4775,-54.687500
4776,-54.687500
4777,-56.640625
4778,-56.640625
4779,-56.640625
4780,-58.593750
4781,-58.593750
4782,-58.593750
4783,-60.546875
4784,-60.546875
4785,-60.546875
4786,-62.500000
4787,-62.500000
4788,-64.453125
4789,-64.453125
4790,-64.453125
4791,-62.500000
4792,-66.406250
4793,-66.406250
4794,-68.359375
4795,-68.359375
4796,-68.359375
4797,-68.359375
4798,-68.359375
4799,-70.312500
4800,-70.312500
4801,-70.312500
4802,-72.265625
4803,-72.265625
4804,-72.265625
4805,-72.265625
4806,-74.218750
4807,-74.218750
4808,-74.218750
4809,-74.218750
4810,-76.171875
4811,-76.171875
4812,-76.171875
4813,-78.125000
4814,-76.171875
4815,-78.125000
4816,-78.125000
4817,-78.125000
4818,-78.125000
4819,-78.125000
4820,-80.078125
4821,-80.078125
4822,-80.078125
4823,-80.078125
4824,-80.078125
4825,-82.031250
4826,-82.031250
4827,-82.031250
4828,-82.031250
4829,-82.031250
4830,-82.031250
4831,-83.984375
4832,-83.984375
4833,-83.984375
4834,-83.984375
4835,-83.984375
4836,-83.984375
4837,-83.984375
4838,-85.937500
4839,-85.937500
4840,-85.937500
4841,-85.937500
4842,-85.937500
4843,-85.937500
4844,-85.937500
4845,-87.890625
4846,-85.937500
4847,-87.890625
4848,-87.890625
4849,-87.890625
4850,-87.890625
4851,-87.890625
4852,-87.890625
4853,-87.890625
4854,-87.890625
4855,-87.890625
4856,-87.890625
4857,-87.890625
4858,-89.843750
4859,-87.890625
4860,-89.843750
4861,-87.890625
4862,-89.843750
4863,-87.890625
4864,-89.843750
4865,-89.843750
4866,-87.890625
4867,-89.843750
4868,-89.843750
4869,-89.843750
4870,-87.890625
4871,-87.890625
4872,-87.890625
4873,-87.890625
4874,-87.890625
4875,-87.890625
4876,-87.890625
4877,-87.890625
4878,-87.890625
4879,-87.890625
4880,-87.890625
4881,-87.890625
4882,-87.890625
4883,-87.890625
4884,-85.937500
4885,-87.890625
4886,-87.890625
4887,-87.890625
4888,-85.937500
4889,-85.937500
4890,-85.937500
4891,-83.984375
4892,-85.937500
4893,-85.937500
4894,-83.984375
4895,-85.937500
4896,-83.984375
4897,-83.984375
4898,-83.984375
4899,-83.984375
4900,-83.984375
4901,-83.984375
4902,-82.031250
4903,-82.031250
4904,-82.031250
4905,-82.031250
4906,-80.078125
4907,-80.078125
4908,-80.078125
4909,-80.078125
4910,-80.078125
4911,-80.078125
4912,-80.078125
4913,-78.125000
4914,-78.125000
4915,-78.125000
4916,-78.125000
4917,-78.125000
4918,-78.125000
4919,-76.171875
4920,-76.171875
4921,-74.218750
4922,-76.171875
4923,-74.218750
4924,-74.218750
4925,-72.265625
4926,-72.265625
4927,-72.265625
4928,-72.265625
4929,-70.312500
4930,-70.312500
4931,-70.312500
4932,-70.312500
4933,-68.359375
4934,-68.359375
4935,-68.359375
4936,-66.406250
4937,-66.406250
4938,-66.406250
4939,-64.453125
4940,-64.453125
4941,-64.453125
4942,-62.500000
4943,-62.500000
4944,-60.546875
4945,-60.546875
4946,-60.546875
4947,-60.546875
4948,-58.593750
4949,-58.593750
4950,-56.640625
4951,-56.640625
4952,-56.640625
4953,-54.687500
4954,-54.687500
4955,-52.734375
4956,-52.734375
4957,-52.734375
4958,-50.781250
4959,-50.781250
4960,-50.781250
4961,-48.828125
4962,-48.828125
4963,-48.828125
4964,-46.875000
4965,-46.875000
4966,-44.921875
4967,-44.921875
4968,-44.921875
4969,-42.968750
4970,-42.968750
4971,-41.015625
4972,-41.015625
4973,-41.015625
4974,-39.062500
4975,-39.062500
4976,-39.062500
4977,-37.109375
4978,-37.109375
4979,-35.156250
4980,-35.156250
4981,-35.156250
4982,-33.203125
4983,-31.250000
4984,-31.250000
4985,-31.250000
4986,-29.296875
4987,-29.296875
4988,-29.296875
4989,-27.343750
4990,-27.343750
4991,-25.390625
4992,-25.390625
4993,-23.437500
4994,-23.437500
4995,-21.484375
4996,-21.484375
4997,-19.531250
4998,-19.531250
4999,-19.531250
5000,-17.578125
5001,-17.578125
5002,-15.625000
5003,-13.671875
5004,-13.671875
5005,-13.671875
5006,-11.718750
5007,-11.718750
5008,-11.718750
5009,-9.765625
5010,-9.765625
5011,-7.812500
5012,-5.859375
5013,-5.859375
5014,-5.859375
5015,-3.906250
5016,-3.906250
5017,-1.953125
5018,-1.953125
5019,-1.953125
5020,0.000000
5021,0.000000
5022,1.953125
5023,1.953125
5024,3.906250
5025,3.906250
5026,5.859375
5027,5.859375
5028,5.859375
5029,7.812500
5030,7.812500
5031,9.765625
5032,9.765625
5033,9.765625
5034,11.718750
5035,11.718750
5036,13.671875
5037,13.671875
5038,15.625000
5039,15.625000
5040,17.578125
5041,17.578125
5042,17.578125
5043,19.531250
5044,19.531250
5045,21.484375
5046,21.484375
5047,23.437500
5048,23.437500
5049,23.437500
5050,25.390625
5051,25.390625
5052,25.390625
5053,27.343750
5054,29.296875
5055,29.296875
5056,29.296875
5057,31.250000
5058,31.250000
5059,31.250000
5060,33.203125
5061,33.203125
5062,35.156250
5063,33.203125
5064,35.156250
5065,37.109375
5066,37.109375
5067,37.109375
5068,39.062500
5069,39.062500
5070,39.062500
5071,41.015625
5072,41.015625
5073,42.968750
5074,42.968750
5075,44.921875
5076,44.921875
5077,44.921875
5078,44.921875
5079,46.875000
5080,46.875000
5081,46.875000
5082,48.828125
5083,48.828125
5084,48.828125
5085,50.781250
5086,50.781250
5087,50.781250
5088,52.734375
5089,52.734375
5090,52.734375
5091,54.687500
5092,54.687500
5093,54.687500
5094,54.687500
5095,56.640625
5096,56.640625
5097,56.640625
5098,56.640625
5099,58.593750
5100,56.640625
5101,58.593750
5102,58.593750
5103,60.546875
5104,60.546875
5105,60.546875
5106,60.546875
5107,62.500000
5108,62.500000
5109,62.500000
5110,62.500000
5111,62.500000
5112,64.453125
5113,64.453125
5114,64.453125
5115,64.453125
5116,64.453125
5117,64.453125
5118,66.406250
5119,66.406250
5120,66.406250
5121,66.406250
5122,66.406250
5123,68.359375
5124,68.359375
5125,68.359375
5126,68.359375
5127,68.359375
5128,68.359375
5129,68.359375
5130,70.312500
5131,70.312500
5132,70.312500
5133,70.312500
5134,70.312500
5135,70.312500
5136,70.312500
5137,70.312500
5138,70.312500
5139,70.312500
5140,70.312500
5141,72.265625
5142,72.265625
5143,72.265625
5144,72.265625
5145,72.265625
5146,72.265625
5147,72.265625
5148,72.265625
5149,72.265625
5150,72.265625
5151,72.265625
5152,72.265625
5153,72.265625
5154,72.265625
5155,72.265625
5156,72.265625
5157,72.265625
5158,72.265625
5159,72.265625
5160,72.265625
5161,72.265625
5162,72.265625
5163,72.265625
5164,72.265625
5165,72.265625
5166,72.265625
5167,72.265625
5168,72.265625
5169,72.265625
5170,72.265625
5171,72.265625
5172,72.265625
5173,72.265625
5174,72.265625
5175,72.265625
5176,70.312500
5177,70.312500
5178,70.312500
5179,70.312500
5180,70.312500
5181,70.312500
5182,70.312500
5183,68.359375
5184,68.359375
5185,68.359375
5186,68.359375
5187,68.359375
5188,68.359375
5189,68.359375
5190,68.359375
5191,66.406250
5192,68.359375
5193,66.406250
5194,66.406250
5195,66.406250
5196,66.406250
5197,66.406250
5198,64.453125
5199,64.453125
5200,64.453125
5201,64.453125
5202,64.453125
5203,62.500000
5204,62.500000
5205,62.500000
5206,62.500000
5207,62.500000
5208,60.546875
5209,60.546875
5210,58.593750
5211,58.593750
5212,58.593750
5213,58.593750
5214,58.593750
5215,58.593750
5216,56.640625
5217,56.640625
5218,56.640625
5219,54.687500
5220,54.687500
5221,54.687500
5222,54.687500
5223,52.734375
5224,52.734375
5225,52.734375
5226,50.781250
5227,50.781250
5228,50.781250
5229,48.828125
5230,48.828125
5231,48.828125
5232,46.875000
5233,46.875000
5234,46.875000
5235,44.921875
5236,44.921875
5237,44.921875
5238,44.921875
5239,42.968750
5240,42.968750
5241,41.015625
5242,41.015625
5243,41.015625
5244,39.062500
5245,39.062500
5246,39.062500
5247,37.109375
5248,37.109375
5249,35.156250
5250,35.156250
5251,33.203125
5252,33.203125
5253,33.203125
5254,31.250000
5255,31.250000
5256,31.250000
5257,29.296875
5258,29.296875
5259,27.343750
5260,27.343750
5261,27.343750
5262,25.390625
5263,25.390625
5264,25.390625
5265,23.437500
5266,23.437500
5267,23.437500
5268,21.484375
5269,19.531250
5270,19.531250
5271,19.531250
5272,17.578125
5273,17.578125
5274,17.578125
5275,15.625000
5276,15.625000
5277,13.671875
5278,13.671875
5279,11.718750
5280,11.718750
5281,9.765625
5282,9.765625
5283,7.812500
5284,7.812500
5285,5.859375
5286,5.859375
5287,5.859375
5288,3.906250
5289,5.859375
5290,1.953125
5291,1.953125
5292,0.000000
5293,0.000000
5294,0.000000
5295,-1.953125
5296,-1.953125
5297,-3.906250
5298,-3.906250
5299,-5.859375
5300,-5.859375
5301,-7.812500
5302,-7.812500
5303,-9.765625
5304,-9.765625
5305,-11.718750
5306,-11.718750
5307,-11.718750
5308,-13.671875
5309,-13.671875
5310,-15.625000
5311,-17.578125
5312,-17.578125
5313,-17.578125
5314,-19.531250
5315,-19.531250
5316,-21.484375
5317,-21.484375
5318,-21.484375
5319,-23.437500
5320,-23.437500
5321,-25.390625
5322,-25.390625
5323,-27.343750
5324,-27.343750
5325,-29.296875
5326,-29.296875
5327,-29.296875
5328,-31.250000
5329,-31.250000
5330,-33.203125
5331,-33.203125
5332,-35.156250
5333,-35.156250
5334,-35.156250
5335,-37.109375
5336,-37.109375
5337,-39.062500
5338,-39.062500
5339,-41.015625
5340,-41.015625
5341,-41.015625
5342,-42.968750
5343,-42.968750
5344,-44.921875
5345,-44.921875
5346,-46.875000
5347,-46.875000
5348,-46.875000
5349,-48.828125
5350,-48.828125
5351,-48.828125
5352,-48.828125
5353,-50.781250
5354,-52.734375
5355,-52.734375
5356,-52.734375
5357,-54.687500
5358,-54.687500
5359,-54.687500
5360,-56.640625
5361,-56.640625
5362,-58.593750
5363,-58.593750
5364,-58.593750
5365,-60.546875
5366,-60.546875
5367,-62.500000
5368,-62.500000
5369,-62.500000
5370,-62.500000
5371,-64.453125
5372,-64.453125
5373,-64.453125
5374,-66.406250
5375,-66.406250
5376,-66.406250
5377,-68.359375
5378,-68.359375
5379,-68.359375
5380,-70.312500
5381,-70.312500
5382,-70.312500
5383,-70.312500
5384,-72.265625
5385,-72.265625
5386,-72.265625
5387,-74.218750
5388,-74.218750
5389,-74.218750
5390,-74.218750
5391,-76.171875
5392,-74.218750
5393,-76.171875
5394,-78.125000
5395,-76.171875
5396,-78.125000
5397,-78.125000
5398,-78.125000
5399,-78.125000
5400,-78.125000
5401,-80.078125
5402,-80.078125
5403,-80.078125
5404,-80.078125
5405,-80.078125
5406,-82.031250
5407,-82.031250
5408,-82.031250
5409,-82.031250
5410,-82.031250
5411,-83.984375
5412,-83.984375
5413,-83.984375
5414,-83.984375
5415,-83.984375
5416,-83.984375
5417,-83.984375
5418,-83.984375
5419,-85.937500
5420,-85.937500
5421,-85.937500
5422,-85.937500
5423,-85.937500
5424,-85.937500
5425,-87.890625
5426,-85.937500
5427,-87.890625
5428,-85.937500
5429,-87.890625
5430,-87.890625
5431,-87.890625
5432,-87.890625
5433,-87.890625
5434,-87.890625
5435,-87.890625
5436,-87.890625
5437,-89.843750
5438,-89.843750
5439,-87.890625
5440,-89.843750
5441,-87.890625
5442,-89.843750
5443,-89.843750
5444,-89.843750
5445,-89.843750
5446,-89.843750
5447,-89.843750
5448,-89.843750
5449,-89.843750
5450,-89.843750
5451,-89.843750
5452,-89.843750
5453,-87.890625
5454,-89.843750
5455,-89.843750
5456,-89.843750
5457,-89.843750
5458,-89.843750
5459,-89.843750
5460,-87.890625
5461,-87.890625
5462,-87.890625
5463,-87.890625
5464,-87.890625
5465,-87.890625
5466,-87.890625
5467,-87.890625
5468,-87.890625
5469,-87.890625
5470,-85.937500
5471,-85.937500
5472,-85.937500
5473,-85.937500
5474,-85.937500
5475,-85.937500
5476,-85.937500
5477,-83.984375
5478,-83.984375
5479,-85.937500
5480,-83.984375
5481,-83.984375
5482,-83.984375
5483,-82.031250
5484,-82.031250
5485,-83.984375
5486,-82.031250
5487,-82.031250
5488,-82.031250
5489,-82.031250
5490,-82.031250
5491,-80.078125
5492,-80.078125
5493,-80.078125
5494,-80.078125
5495,-80.078125
5496,-78.125000
5497,-78.125000
5498,-78.125000
5499,-76.171875
5500,-76.171875
5501,-76.171875
5502,-76.171875
5503,-76.171875
5504,-74.218750
5505,-74.218750
5506,-74.218750
5507,-74.218750
5508,-72.265625
5509,-72.265625
5510,-72.265625
5511,-70.312500
5512,-70.312500
5513,-70.312500
5514,-68.359375
5515,-68.359375
5516,-68.359375
5517,-68.359375
5518,-68.359375
5519,-66.406250
5520,-66.406250
5521,-64.453125
5522,-64.453125
5523,-64.453125
5524,-62.500000
5525,-62.500000
5526,-62.500000
5527,-60.546875
5528,-60.546875
5529,-60.546875
5530,-58.593750
5531,-58.593750
5532,-58.593750
5533,-56.640625
5534,-56.640625
5535,-56.640625
5536,-54.687500
5537,-54.687500
5538,-54.687500
5539,-52.734375
5540,-52.734375
5541,-50.781250
5542,-50.781250
5543,-48.828125
5544,-48.828125
5545,-48.828125
5546,-48.828125
5547,-46.875000
5548,-44.921875
5549,-44.921875
5550,-44.921875
5551,-42.968750
5552,-42.968750
5553,-42.968750
5554,-41.015625
5555,-41.015625
5556,-41.015625
5557,-39.062500
5558,-39.062500
5559,-37.109375
5560,-37.109375
5561,-35.156250
5562,-35.156250
5563,-33.203125
5564,-33.203125
5565,-33.203125
5566,-31.250000
5567,-31.250000
5568,-29.296875
5569,-29.296875
5570,-29.296875
5571,-27.343750
5572,-27.343750
5573,-27.343750
5574,-25.390625
5575,-23.437500
5576,-23.437500
5577,-21.484375
5578,-21.484375
5579,-21.484375
5580,-19.531250
5581,-19.531250
5582,-17.578125
5583,-17.578125
5584,-15.625000
5585,-15.625000
5586,-15.625000
5587,-13.671875
5588,-11.718750
5589,-11.718750
5590,-9.765625
5591,-9.765625
5592,-9.765625
5593,-7.812500
5594,-7.812500
5595,-5.859375
5596,-5.859375
5597,-3.906250
5598,-3.906250
5599,-3.906250
5600,-1.953125
5601,0.000000
5602,0.000000
5603,0.000000
5604,1.953125
5605,1.953125
5606,1.953125
5607,3.906250
5608,5.859375
5609,5.859375
5610,5.859375
5611,7.812500
5612,7.812500
5613,9.765625
5614,9.765625
5615,9.765625
5616,11.718750
5617,11.718750
5618,13.671875
5619,13.671875
5620,15.625000
5621,15.625000
5622,17.578125
5623,17.578125
5624,19.531250
5625,19.531250
5626,19.531250
5627,21.484375
5628,21.484375
5629,23.437500
5630,23.437500
5631,23.437500
5632,25.390625
5633,25.390625
5634,25.390625
5635,27.343750
5636,27.343750
5637,29.296875
5638,29.296875
5639,31.250000
5640,31.250000
5641,31.250000
5642,31.250000
5643,33.203125
5644,35.156250
5645,35.156250
5646,35.156250
5647,37.109375
5648,37.109375
5649,39.062500
5650,39.062500
5651,39.062500
5652,41.015625
5653,41.015625
5654,41.015625
5655,42.968750
5656,42.968750
5657,42.968750
5658,42.968750
5659,44.921875
5660,44.921875
5661,46.875000
5662,46.875000
5663,46.875000
5664,48.828125
5665,48.828125
5666,48.828125
5667,50.781250
5668,50.781250
5669,50.781250
5670,52.734375
5671,52.734375
5672,52.734375
5673,54.687500
5674,54.687500
5675,54.687500
5676,54.687500
5677,56.640625
5678,56.640625
5679,56.640625
5680,56.640625
5681,58.593750
5682,58.593750
5683,58.593750
5684,58.593750
5685,60.546875
5686,60.546875
5687,60.546875
5688,60.546875
5689,62.500000
5690,62.500000
5691,62.500000
5692,62.500000
5693,62.500000
5694,64.453125
5695,64.453125
5696,64.453125
5697,64.453125
5698,64.453125
5699,66.406250
5700,66.406250
5701,66.406250
5702,66.406250
5703,66.406250
5704,68.359375
5705,68.359375
5706,68.359375
5707,68.359375
5708,68.359375
5709,68.359375
5710,70.312500
5711,68.359375
5712,70.312500
5713,70.312500
5714,70.312500
5715,70.312500
5716,72.265625
5717,70.312500
5718,70.312500
5719,70.312500
5720,70.312500
5721,72.265625
5722,72.265625
5723,72.265625
5724,72.265625
5725,72.265625
5726,72.265625
5727,72.265625
5728,72.265625
5729,72.265625
5730,72.265625
5731,74.218750
5732,72.265625
5733,72.265625
5734,72.265625
5735,72.265625
5736,72.265625
5737,74.218750
5738,72.265625
5739,72.265625
5740,72.265625
5741,72.265625
5742,72.265625
5743,72.265625
5744,72.265625
5745,72.265625
5746,72.265625
5747,72.265625
5748,72.265625
5749,72.265625
5750,72.265625
5751,72.265625
5752,72.265625
5753,72.265625
5754,72.265625
5755,72.265625
5756,72.265625
5757,72.265625
5758,70.312500
5759,70.312500
5760,70.312500
5761,70.312500
5762,70.312500
5763,68.359375
5764,70.312500
5765,70.312500
5766,68.359375
5767,68.359375
5768,68.359375
5769,68.359375
5770,68.359375
5771,66.406250
5772,68.359375
5773,66.406250
5774,66.406250
5775,66.406250
5776,66.406250
5777,64.453125
5778,64.453125
5779,66.406250
5780,64.453125
5781,64.453125
5782,64.453125
5783,64.453125
5784,62.500000
5785,62.500000
5786,62.500000
5787,62.500000
5788,62.500000
5789,62.500000
5790,60.546875
5791,60.546875
5792,60.546875
5793,58.593750
5794,60.546875
5795,58.593750
5796,58.593750
5797,58.593750
5798,56.640625
5799,58.593750
5800,56.640625
5801,54.687500
5802,54.687500
5803,54.687500
5804,54.687500
5805,52.734375
5806,52.734375
5807,52.734375
5808,50.781250
5809,50.781250
5810,50.781250
5811,48.828125
5812,50.781250
5813,48.828125
5814,48.828125
5815,46.875000
5816,46.875000
5817,44.921875
5818,44.921875
5819,44.921875
5820,42.968750
5821,42.968750
5822,42.968750
5823,42.968750
5824,41.015625
5825,41.015625
5826,39.062500
5827,39.062500
5828,37.109375
5829,37.109375
5830,37.109375
5831,37.109375
5832,35.156250
5833,35.156250
5834,35.156250
5835,33.203125
5836,33.203125
5837,31.250000
5838,31.250000
5839,29.296875
5840,29.296875
5841,29.296875
5842,29.296875
5843,27.343750
5844,25.390625
5845,25.390625
5846,25.390625
5847,23.437500
5848,23.437500
5849,21.484375
5850,21.484375
5851,19.531250
5852,21.484375
5853,19.531250
5854,19.531250
5855,17.578125
5856,17.578125
5857,15.625000
5858,15.625000
5859,15.625000
5860,13.671875
5861,11.718750
5862,11.718750
5863,11.718750
5864,9.765625
5865,9.765625
5866,7.812500
5867,7.812500
5868,5.859375
5869,5.859375
5870,5.859375
5871,3.906250
5872,3.906250
5873,1.953125
5874,1.953125
5875,0.000000
5876,0.000000
5877,0.000000
5878,-1.953125
5879,-1.953125
5880,-3.906250
5881,-3.906250
5882,-5.859375
5883,-7.812500
5884,-7.812500
5885,-7.812500
5886,-9.765625
5887,-9.765625
5888,-9.765625
5889,-11.718750
5890,-13.671875
5891,-13.671875
5892,-15.625000
5893,-15.625000
5894,-15.625000
5895,-17.578125
5896,-19.531250
5897,-19.531250
5898,-19.531250
5899,-21.484375
5900,-21.484375
5901,-23.437500
5902,-23.437500
5903,-25.390625
5904,-25.390625
5905,-25.390625
5906,-27.343750
5907,-27.343750
5908,-29.296875
5909,-29.296875
5910,-31.250000
5911,-31.250000
5912,-31.250000
5913,-33.203125
5914,-33.203125
5915,-35.156250
5916,-35.156250
5917,-37.109375
5918,-37.109375
5919,-39.062500
5920,-39.062500
5921,-39.062500
5922,-41.015625
5923,-41.015625
5924,-41.015625
5925,-42.968750
5926,-42.968750
5927,-44.921875
5928,-44.921875
5929,-46.875000
5930,-48.828125
5931,-46.875000
5932,-46.875000
5933,-48.828125
5934,-50.781250
5935,-50.781250
5936,-50.781250
5937,-52.734375
5938,-52.734375
5939,-52.734375
5940,-52.734375
5941,-54.687500
5942,-56.640625
5943,-56.640625
5944,-56.640625
5945,-56.640625
5946,-58.593750
5947,-58.593750
5948,-60.546875
5949,-60.546875
5950,-60.546875
5951,-62.500000
5952,-62.500000
5953,-62.500000
5954,-64.453125
5955,-64.453125
5956,-66.406250
5957,-66.406250
5958,-66.406250
5959,-66.406250
5960,-68.359375
5961,-68.359375
5962,-72.265625
5963,-70.312500
5964,-70.312500
5965,-70.312500
5966,-72.265625
5967,-72.265625
5968,-72.265625
5969,-72.265625
5970,-72.265625
5971,-74.218750
5972,-74.218750
5973,-74.218750
5974,-74.218750
5975,-76.171875
5976,-76.171875
5977,-76.171875
5978,-76.171875
5979,-78.125000
5980,-78.125000
5981,-78.125000
5982,-78.125000
5983,-78.125000
5984,-78.125000
5985,-78.125000
5986,-80.078125
5987,-80.078125
5988,-80.078125
5989,-80.078125
5990,-82.031250
5991,-82.031250
5992,-82.031250
5993,-82.031250
5994,-83.984375
5995,-82.031250
5996,-83.984375
5997,-83.984375
5998,-82.031250
5999,-85.937500
6000,-83.984375
6001,-83.984375
6002,-83.984375
6003,-83.984375
6004,-85.937500
6005,-85.937500
6006,-85.937500
6007,-85.937500
6008,-85.937500
6009,-87.890625
6010,-85.937500
6011,-85.937500
6012,-85.937500
6013,-87.890625
6014,-87.890625
6015,-87.890625
6016,-87.890625
6017,-87.890625
6018,-87.890625
6019,-87.890625
6020,-87.890625
6021,-87.890625
6022,-87.890625
6023,-87.890625
6024,-87.890625
6025,-89.843750
6026,-89.843750
6027,-87.890625
6028,-89.843750
6029,-87.890625
6030,-89.843750
6031,-89.843750
6032,-87.890625
6033,-89.843750
6034,-89.843750
6035,-87.890625
6036,-87.890625
6037,-87.890625
6038,-87.890625
6039,-87.890625
6040,-87.890625
6041,-87.890625
6042,-87.890625
6043,-87.890625
6044,-87.890625
6045,-87.890625
6046,-87.890625
6047,-87.890625
6048,-87.890625
6049,-85.937500
6050,-87.890625
6051,-85.937500
6052,-85.937500
6053,-85.937500
6054,-85.937500
6055,-85.937500
6056,-85.937500
6057,-85.937500
6058,-85.937500
6059,-85.937500
6060,-83.984375
6061,-83.984375
6062,-83.984375
6063,-82.031250
6064,-83.984375
6065,-85.937500
6066,-83.984375
6067,-80.078125
6068,-82.031250
6069,-82.031250
6070,-82.031250
6071,-82.031250
6072,-82.031250
6073,-80.078125
6074,-80.078125
6075,-80.078125
6076,-80.078125
6077,-80.078125
6078,-78.125000
6079,-78.125000
6080,-80.078125
6081,-76.171875
6082,-76.171875
6083,-74.218750
6084,-76.171875
6085,-76.171875
6086,-74.218750
6087,-74.218750
6088,-74.218750
6089,-72.265625
6090,-72.265625
6091,-74.218750
6092,-72.265625
6093,-72.265625
6094,-70.312500
6095,-70.312500
6096,-66.406250
6097,-70.312500
6098,-68.359375
6099,-68.359375
6100,-62.500000
6101,-66.406250
6102,-66.406250
6103,-66.406250
6104,-64.453125
6105,-64.453125
6106,-64.453125
6107,-62.500000
6108,-62.500000
6109,-62.500000
6110,-60.546875
6111,-60.546875
6112,-58.593750
6113,-58.593750
6114,-58.593750
6115,-56.640625
6116,-56.640625
6117,-56.640625
6118,-54.687500
6119,-54.687500
6120,-52.734375
6121,-52.734375
6122,-52.734375
6123,-52.734375
6124,-50.781250
6125,-50.781250
6126,-48.828125
6127,-48.828125
6128,-48.828125
6129,-46.875000
6130,-46.875000
6131,-44.921875
6132,-44.921875
6133,-44.921875
6134,-42.968750
6135,-42.968750
6136,-42.968750
6137,-41.015625
6138,-41.015625
6139,-39.062500
6140,-39.062500
6141,-39.062500
6142,-37.109375
6143,-37.109375
6144,-35.156250
6145,-35.156250
6146,-33.203125
6147,-33.203125
6148,-33.203125
6149,-31.250000
6150,-31.250000
6151,-31.250000
6152,-29.296875
6153,-29.296875
6154,-27.343750
6155,-25.390625
6156,-25.390625
6157,-25.390625
6158,-25.390625
6159,-23.437500
6160,-23.437500
6161,-21.484375
6162,-21.484375
6163,-19.531250
6164,-19.531250
6165,-17.578125
6166,-17.578125
6167,-15.625000
6168,-15.625000
6169,-15.625000
6170,-13.671875
6171,-13.671875
6172,-11.718750
6173,-9.765625
6174,-9.765625
6175,-9.765625
6176,-7.812500
6177,-7.812500
6178,-5.859375
6179,-5.859375
6180,-3.906250
6181,-3.906250
6182,-1.953125
6183,-1.953125
6184,-1.953125
6185,0.000000
6186,0.000000
6187,1.953125
6188,1.953125
6189,1.953125
6190,3.906250
6191,3.906250
6192,5.859375
6193,5.859375
6194,7.812500
6195,7.812500
6196,9.765625
6197,9.765625
6198,11.718750
6199,11.718750
6200,11.718750
6201,13.671875
6202,13.671875
6203,15.625000
6204,15.625000
6205,15.625000
6206,17.578125
6207,17.578125
6208,19.531250
6209,19.531250
6210,21.484375
6211,21.484375
6212,23.437500
6213,23.437500
6214,23.437500
6215,25.390625
6216,25.390625
6217,25.390625
6218,27.343750
6219,27.343750
6220,29.296875
6221,29.296875
6222,29.296875
6223,31.250000
6224,31.250000
6225,33.203125
6226,33.203125
6227,33.203125
6228,35.156250
6229,35.156250
6230,37.109375
6231,37.109375
6232,37.109375
6233,39.062500
6234,39.062500
6235,39.062500
6236,41.015625
6237,41.015625
6238,42.968750
6239,42.968750
6240,42.968750
6241,42.968750
6242,44.921875
6243,44.921875
6244,46.875000
6245,46.875000
6246,46.875000
6247,48.828125
6248,48.828125
6249,50.781250
6250,48.828125
6251,50.781250
6252,50.781250
6253,50.781250
6254,52.734375
6255,52.734375
6256,52.734375
6257,54.687500
6258,54.687500
6259,54.687500
6260,56.640625
6261,56.640625
6262,56.640625
6263,56.640625
6264,56.640625
6265,58.593750
6266,58.593750
6267,58.593750
6268,60.546875
6269,60.546875
6270,60.546875
6271,62.500000
6272,60.546875
6273,60.546875
6274,62.500000
6275,62.500000
6276,62.500000
6277,62.500000
6278,64.453125
6279,64.453125
6280,64.453125
6281,64.453125
6282,64.453125
6283,66.406250
6284,66.406250
6285,66.406250
6286,66.406250
6287,66.406250
6288,66.406250
6289,68.359375
6290,68.359375
6291,68.359375
6292,68.359375
6293,68.359375
6294,68.359375
6295,68.359375
6296,70.312500
6297,70.312500
6298,68.359375
6299,70.312500
6300,70.312500
6301,70.312500
6302,70.312500
6303,70.312500
6304,72.265625
6305,70.312500
6306,70.312500
6307,72.265625
6308,72.265625
6309,72.265625
6310,72.265625
6311,72.265625
6312,72.265625
6313,72.265625
6314,72.265625
6315,74.218750
6316,72.265625
6317,72.265625
6318,74.218750
6319,72.265625
6320,72.265625
6321,74.218750
6322,72.265625
6323,74.218750
6324,72.265625
6325,72.265625
6326,72.265625
6327,72.265625
6328,72.265625
6329,72.265625
6330,72.265625
6331,72.265625
6332,72.265625
6333,72.265625
6334,72.265625
6335,72.265625
6336,72.265625
6337,72.265625
6338,70.312500
6339,72.265625
6340,72.265625
6341,70.312500
6342,70.312500
6343,70.312500
6344,70.312500
6345,70.312500
6346,70.312500
6347,70.312500
6348,70.312500
6349,70.312500
6350,68.359375
6351,68.359375
6352,68.359375
6353,68.359375
6354,68.359375
6355,68.359375
6356,66.406250
6357,66.406250
6358,66.406250
6359,66.406250
6360,66.406250
6361,66.406250
6362,64.453125
6363,64.453125
6364,64.453125
6365,64.453125
6366,64.453125
6367,62.500000
6368,62.500000
6369,62.500000
6370,62.500000
6371,62.500000
6372,62.500000
6373,60.546875
6374,60.546875
6375,60.546875
6376,58.593750
6377,58.593750
6378,58.593750
6379,58.593750
6380,58.593750
6381,56.640625
6382,56.640625
6383,56.640625
6384,56.640625
6385,54.687500
6386,54.687500
6387,54.687500
6388,52.734375
6389,52.734375
6390,52.734375
6391,50.781250
6392,50.781250
6393,48.828125
6394,48.828125
6395,48.828125
6396,48.828125
6397,46.875000
6398,46.875000
6399,46.875000
6400,44.921875
6401,46.875000
6402,44.921875
6403,42.968750
6404,42.968750
6405,42.968750
6406,41.015625
6407,41.015625
6408,41.015625
6409,39.062500
6410,39.062500
6411,39.062500
6412,37.109375
6413,37.109375
6414,35.156250
6415,35.156250
6416,35.156250
6417,33.203125
6418,33.203125
6419,33.203125
6420,31.250000
6421,31.250000
6422,31.250000
6423,29.296875
6424,29.296875
6425,27.343750
6426,27.343750
6427,25.390625
6428,25.390625
6429,25.390625
6430,23.437500
6431,23.437500
6432,23.437500
6433,21.484375
6434,21.484375
6435,19.531250
6436,19.531250
6437,17.578125
6438,17.578125
6439,15.625000
6440,15.625000
6441,15.625000
6442,13.671875
6443,13.671875
6444,11.718750
6445,11.718750
6446,11.718750
6447,9.765625
6448,9.765625
6449,7.812500
6450,7.812500
6451,5.859375
6452,5.859375
6453,5.859375
6454,3.906250
6455,1.953125
6456,1.953125
6457,1.953125
6458,0.000000
6459,0.000000
6460,-1.953125
6461,-1.953125
6462,-3.906250
6463,-3.906250
6464,-5.859375
6465,-5.859375
6466,-7.812500
6467,-7.812500
6468,-7.812500
6469,-9.765625
6470,-9.765625
6471,-11.718750
6472,-13.671875
6473,-13.671875
6474,-13.671875
6475,-15.625000
6476,-15.625000
6477,-17.578125
6478,-17.578125
6479,-19.531250
6480,-19.531250
6481,-21.484375
6482,-21.484375
6483,-21.484375
6484,-23.437500
6485,-23.437500
6486,-25.390625
6487,-25.390625
6488,-27.343750
6489,-27.343750
6490,-29.296875
6491,-29.296875
6492,-29.296875
6493,-31.250000
6494,-31.250000
6495,-33.203125
6496,-33.203125
6497,-35.156250
6498,-35.156250
6499,-35.156250
6500,-37.109375
6501,-37.109375
6502,-37.109375
6503,-39.062500
6504,-39.062500
6505,-41.015625
6506,-41.015625
6507,-42.968750
6508,-42.968750
6509,-42.968750
6510,-44.921875
6511,-46.875000
6512,-46.875000
6513,-46.875000
6514,-46.875000
6515,-48.828125
6516,-50.781250
6517,-48.828125
6518,-50.781250
6519,-50.781250
6520,-52.734375
6521,-52.734375
6522,-52.734375
6523,-54.687500
6524,-56.640625
6525,-56.640625
6526,-56.640625
6527,-56.640625
6528,-58.593750
6529,-58.593750
6530,-60.546875
6531,-60.546875
6532,-60.546875
6533,-62.500000
6534,-62.500000
6535,-62.500000
6536,-64.453125
6537,-64.453125
6538,-64.453125
6539,-66.406250
6540,-66.406250
6541,-66.406250
6542,-68.359375
6543,-68.359375
6544,-68.359375
6545,-68.359375
6546,-70.312500
6547,-70.312500
6548,-70.312500
6549,-72.265625
6550,-72.265625
6551,-72.265625
6552,-72.265625
6553,-74.218750
6554,-74.218750
6555,-74.218750
6556,-74.218750
6557,-76.171875
6558,-76.171875
6559,-76.171875
6560,-76.171875
6561,-78.125000
6562,-78.125000
6563,-78.125000
6564,-78.125000
6565,-78.125000
6566,-80.078125
6567,-80.078125
6568,-80.078125
6569,-80.078125
6570,-80.078125
6571,-80.078125
6572,-82.031250
6573,-82.031250
6574,-82.031250
6575,-82.031250
6576,-82.031250
6577,-83.984375
6578,-83.984375
6579,-83.984375
6580,-83.984375
6581,-83.984375
6582,-85.937500
6583,-83.984375
6584,-85.937500
6585,-85.937500
6586,-85.937500
6587,-85.937500
6588,-85.937500
6589,-85.937500
6590,-85.937500
6591,-85.937500
6592,-85.937500
6593,-87.890625
6594,-87.890625
6595,-87.890625
6596,-87.890625
6597,-87.890625
6598,-87.890625
6599,-87.890625
6600,-87.890625
6601,-87.890625
6602,-87.890625
6603,-87.890625
6604,-89.843750
6605,-89.843750
6606,-87.890625
6607,-89.843750
6608,-89.843750
6609,-89.843750
6610,-89.843750
6611,-89.843750
6612,-89.843750
6613,-89.843750
6614,-89.843750
6615,-89.843750
6616,-89.843750
6617,-89.843750
6618,-89.843750
6619,-89.843750
6620,-89.843750
6621,-89.843750
6622,-87.890625
6623,-89.843750
6624,-89.843750
6625,-87.890625
6626,-87.890625
6627,-87.890625
6628,-87.890625
6629,-87.890625
6630,-87.890625
6631,-87.890625
6632,-87.890625
6633,-87.890625
6634,-85.937500
6635,-87.890625
6636,-87.890625
6637,-85.937500
6638,-85.937500
6639,-85.937500
6640,-85.937500
6641,-85.937500
6642,-83.984375
6643,-85.937500
6644,-85.937500
6645,-83.984375
6646,-83.984375
6647,-83.984375
6648,-83.984375
6649,-83.984375
6650,-83.984375
6651,-83.984375
6652,-83.984375
6653,-82.031250
6654,-82.031250
6655,-82.031250
6656,-82.031250
6657,-80.078125
6658,-80.078125
6659,-80.078125
6660,-80.078125
6661,-78.125000
6662,-80.078125
6663,-78.125000
6664,-78.125000
6665,-78.125000
6666,-76.171875
6667,-76.171875
6668,-76.171875
6669,-76.171875
6670,-74.218750
6671,-74.218750
6672,-74.218750
6673,-72.265625
6674,-72.265625
6675,-72.265625
6676,-72.265625
6677,-70.312500
6678,-70.312500
6679,-70.312500
6680,-68.359375
6681,-68.359375
6682,-68.359375
6683,-66.406250
6684,-66.406250
6685,-66.406250
6686,-66.406250
6687,-64.453125
6688,-64.453125
6689,-64.453125
6690,-62.500000
6691,-62.500000
6692,-62.500000
6693,-60.546875
6694,-60.546875
6695,-60.546875
6696,-58.593750
6697,-58.593750
6698,-58.593750
6699,-56.640625
6700,-56.640625
6701,-54.687500
6702,-54.687500
6703,-54.687500
6704,-52.734375
6705,-52.734375
6706,-52.734375
6707,-52.734375
6708,-50.781250
6709,-48.828125
6710,-48.828125
6711,-48.828125
6712,-46.875000
6713,-46.875000
6714,-46.875000
6715,-44.921875
6716,-44.921875
6717,-42.968750
6718,-41.015625
6719,-41.015625
6720,-41.015625
6721,-41.015625
6722,-39.062500
6723,-39.062500
6724,-37.109375
6725,-37.109375
6726,-37.109375
6727,-35.156250
6728,-35.156250
6729,-35.156250
6730,-33.203125
6731,-33.203125
6732,-31.250000
6733,-31.250000
6734,-29.296875
6735,-29.296875
6736,-27.343750
6737,-27.343750
6738,-27.343750
6739,-25.390625
6740,-25.390625
6741,-23.437500
6742,-23.437500
6743,-21.484375
6744,-21.484375
6745,-21.484375
6746,-19.531250
6747,-19.531250
6748,-17.578125
6749,-17.578125
6750,-15.625000
6751,-15.625000
6752,-15.625000
6753,-13.671875
6754,-11.718750
6755,-11.718750
6756,-11.718750
6757,-9.765625
6758,-9.765625
6759,-7.812500
6760,-7.812500
6761,-5.859375
6762,-3.906250
6763,-3.906250
6764,-3.906250
6765,-3.906250
6766,-1.953125
6767,-1.953125
6768,0.000000
6769,1.953125
6770,1.953125
6771,1.953125
6772,3.906250
6773,3.906250
6774,5.859375
6775,5.859375
6776,5.859375
6777,7.812500
6778,7.812500
6779,9.765625
6780,9.765625
6781,11.718750
6782,11.718750
6783,11.718750
6784,13.671875
6785,15.625000
6786,15.625000
6787,15.625000
6788,17.578125
6789,17.578125
6790,17.578125
6791,19.531250
6792,19.531250
6793,21.484375
6794,21.484375
6795,23.437500
6796,23.437500
6797,23.437500
6798,25.390625
6799,25.390625
6800,27.343750
6801,27.343750
6802,29.296875
6803,29.296875
6804,31.250000
6805,31.250000
6806,31.250000
6807,31.250000
6808,33.203125
6809,33.203125
6810,33.203125
6811,35.156250
6812,35.156250
6813,37.109375
6814,37.109375
6815,39.062500
6816,39.062500
6817,41.015625
6818,41.015625
6819,41.015625
6820,42.968750
6821,42.968750
6822,42.968750
6823,44.921875
6824,44.921875
6825,44.921875
6826,46.875000
6827,46.875000
6828,46.875000
6829,48.828125
6830,48.828125
6831,48.828125
6832,50.781250
6833,50.781250
6834,50.781250
6835,52.734375
6836,52.734375
6837,52.734375
6838,52.734375
6839,54.687500
6840,54.687500
6841,54.687500
6842,56.640625
6843,56.640625
6844,56.640625
6845,56.640625
6846,56.640625
6847,58.593750
6848,58.593750
6849,58.593750
6850,58.593750
6851,60.546875
6852,60.546875
6853,60.546875
6854,60.546875
6855,62.500000
6856,62.500000
6857,62.500000
6858,62.500000
6859,64.453125
6860,64.453125
6861,64.453125
6862,64.453125
6863,64.453125
6864,66.406250
6865,66.406250
6866,66.406250
6867,66.406250
6868,66.406250
6869,68.359375
6870,68.359375
6871,68.359375
6872,68.359375
6873,68.359375
6874,68.359375
6875,68.359375
6876,70.312500
6877,68.359375
6878,70.312500
6879,70.312500
6880,70.312500
6881,70.312500
6882,70.312500
6883,70.312500
6884,70.312500
6885,70.312500
6886,72.265625
6887,72.265625
6888,72.265625
6889,72.265625
6890,72.265625
6891,72.265625
6892,72.265625
6893,72.265625
6894,72.265625
6895,72.265625
6896,72.265625
6897,72.265625
6898,74.218750
6899,72.265625
6900,72.265625
6901,72.265625
6902,74.218750
6903,74.218750
6904,74.218750
6905,72.265625
6906,72.265625
6907,72.265625
6908,72.265625
6909,74.218750
6910,72.265625
6911,72.265625
6912,72.265625
6913,72.265625
6914,72.265625
6915,72.265625
6916,72.265625
6917,72.265625
6918,72.265625
6919,72.265625
6920,72.265625
6921,70.312500
6922,72.265625
6923,70.312500
6924,72.265625
6925,70.312500
6926,70.312500
6927,70.312500
6928,70.312500
6929,70.312500
6930,70.312500
6931,70.312500
6932,68.359375
6933,70.312500
6934,68.359375
6935,68.359375
6936,68.359375
6937,68.359375
6938,68.359375
6939,68.359375
6940,68.359375
6941,66.406250
6942,66.406250
6943,66.406250
6944,66.406250
6945,64.453125
6946,66.406250
6947,64.453125
6948,64.453125
6949,64.453125
6950,62.500000
6951,62.500000
6952,62.500000
6953,62.500000
6954,62.500000
6955,62.500000
6956,60.546875
6957,60.546875
6958,60.546875
6959,60.546875
6960,58.593750
6961,58.593750
6962,58.593750
6963,56.640625
6964,56.640625
6965,56.640625
6966,56.640625
6967,56.640625
6968,54.687500
6969,54.687500
6970,52.734375
6971,52.734375
6972,52.734375
6973,52.734375
6974,50.781250
6975,50.781250
6976,48.828125
6977,48.828125
6978,48.828125
6979,46.875000
6980,46.875000
6981,46.875000
6982,46.875000
6983,46.875000
6984,44.921875
6985,44.921875
6986,42.968750
6987,42.968750
6988,42.968750
6989,41.015625
6990,41.015625
6991,41.015625
6992,39.062500
6993,39.062500
6994,39.062500
6995,37.109375
6996,37.109375
6997,35.156250
6998,35.156250
6999,35.156250
7000,33.203125
7001,33.203125
7002,33.203125
7003,31.250000
7004,29.296875
7005,29.296875
7006,29.296875
7007,29.296875
7008,27.343750
7009,25.390625
7010,25.390625
7011,25.390625
7012,23.437500
7013,23.437500
7014,23.437500
7015,21.484375
7016,21.484375
7017,19.531250
7018,19.531250
7019,19.531250
7020,17.578125
7021,17.578125
7022,17.578125
7023,15.625000
7024,13.671875
7025,13.671875
7026,11.718750
7027,11.718750
7028,11.718750
7029,9.765625
7030,9.765625
7031,9.765625
7032,7.812500
7033,5.859375
7034,5.859375
7035,5.859375
7036,3.906250
7037,1.953125
7038,3.906250
7039,1.953125
7040,0.000000
7041,0.000000
7042,0.000000
7043,-1.953125
7044,-3.906250
7045,-3.906250
7046,-3.906250
7047,-5.859375
7048,-5.859375
7049,-7.812500
7050,-7.812500
7051,-9.765625
7052,-9.765625
7053,-11.718750
7054,-11.718750
7055,-13.671875
7056,-13.671875
7057,-15.625000
7058,-15.625000
7059,-17.578125
7060,-17.578125
7061,-19.531250
7062,-19.531250
7063,-19.531250
7064,-21.484375
7065,-21.484375
7066,-23.437500
7067,-23.437500
7068,-23.437500
7069,-25.390625
7070,-25.390625
7071,-27.343750
7072,-27.343750
7073,-27.343750
7074,-29.296875
7075,-29.296875
7076,-31.250000
7077,-31.250000
7078,-33.203125
7079,-35.156250
7080,-35.156250
7081,-35.156250
7082,-35.156250
7083,-37.109375
7084,-37.109375
7085,-39.062500
7086,-39.062500
7087,-41.015625
7088,-41.015625
7089,-42.968750
7090,-42.968750
7091,-44.921875
7092,-44.921875
7093,-44.921875
7094,-46.875000
7095,-46.875000
7096,-48.828125
7097,-48.828125
7098,-48.828125
7099,-50.781250
7100,-50.781250
7101,-50.781250
7102,-52.734375
7103,-52.734375
7104,-54.687500
7105,-54.687500
7106,-54.687500
7107,-54.687500
7108,-56.640625
7109,-56.640625
7110,-58.593750
7111,-58.593750
7112,-60.546875
7113,-60.546875
7114,-60.546875
7115,-62.500000
7116,-62.500000
7117,-62.500000
7118,-64.453125
7119,-64.453125
7120,-64.453125
7121,-66.406250
7122,-66.406250
7123,-66.406250
7124,-68.359375
7125,-68.359375
7126,-68.359375
7127,-68.359375
7128,-70.312500
7129,-70.312500
7130,-70.312500
7131,-72.265625
7132,-72.265625
7133,-72.265625
7134,-74.218750
7135,-74.218750
7136,-74.218750
7137,-74.218750
7138,-76.171875
7139,-76.171875
7140,-76.171875
7141,-76.171875
7142,-76.171875
7143,-78.125000
7144,-78.125000
7145,-78.125000
7146,-78.125000
7147,-80.078125
7148,-78.125000
7149,-80.078125
7150,-80.078125
7151,-80.078125
7152,-80.078125
7153,-82.031250
7154,-82.031250
7155,-82.031250
7156,-82.031250
7157,-82.031250
7158,-83.984375
7159,-83.984375
7160,-83.984375
7161,-83.984375
7162,-83.984375
7163,-83.984375
7164,-83.984375
7165,-83.984375
7166,-85.937500
7167,-85.937500
7168,-85.937500
7169,-85.937500
7170,-85.937500
7171,-85.937500
7172,-85.937500
7173,-85.937500
7174,-87.890625
7175,-87.890625
7176,-87.890625
7177,-87.890625
7178,-87.890625
7179,-87.890625
7180,-87.890625
7181,-87.890625
7182,-87.890625
7183,-87.890625
7184,-87.890625
7185,-87.890625
7186,-89.843750
7187,-89.843750
7188,-89.843750
7189,-89.843750
7190,-89.843750
7191,-89.843750
7192,-89.843750
7193,-89.843750
7194,-87.890625
7195,-89.843750
7196,-89.843750
7197,-89.843750
7198,-87.890625
7199,-89.843750
7200,-87.890625
7201,-87.890625
7202,-89.843750
7203,-89.843750
7204,-87.890625
7205,-89.843750
7206,-87.890625
7207,-87.890625
7208,-87.890625
7209,-87.890625
7210,-87.890625
7211,-87.890625
7212,-87.890625
7213,-87.890625
7214,-87.890625
7215,-87.890625
7216,-85.937500
7217,-85.937500
7218,-87.890625
7219,-85.937500
7220,-85.937500
7221,-85.937500
7222,-85.937500
7223,-85.937500
7224,-85.937500
7225,-85.937500
7226,-85.937500
7227,-83.984375
7228,-83.984375
7229,-83.984375
7230,-83.984375
7231,-83.984375
7232,-82.031250
7233,-83.984375
7234,-82.031250
7235,-82.031250
7236,-82.031250
7237,-82.031250
7238,-82.031250
7239,-80.078125
7240,-80.078125
7241,-80.078125
7242,-80.078125
7243,-78.125000
7244,-78.125000
7245,-78.125000
7246,-78.125000
7247,-78.125000
7248,-76.171875
7249,-76.171875
7250,-76.171875
7251,-76.171875
7252,-76.171875
7253,-74.218750
7254,-74.218750
7255,-74.218750
7256,-72.265625
7257,-72.265625
7258,-72.265625
7259,-72.265625
7260,-70.312500
7261,-70.312500
7262,-68.359375
7263,-68.359375
7264,-68.359375
7265,-68.359375
7266,-66.406250
7267,-66.406250
7268,-66.406250
7269,-64.453125
7270,-64.453125
7271,-64.453125
7272,-62.500000
7273,-62.500000
7274,-62.500000
7275,-60.546875
7276,-60.546875
7277,-60.546875
7278,-58.593750
7279,-58.593750
7280,-58.593750
7281,-56.640625
7282,-56.640625
7283,-56.640625
7284,-54.687500
7285,-54.687500
7286,-52.734375
7287,-52.734375
7288,-50.781250
7289,-50.781250
7290,-50.781250
7291,-48.828125
7292,-48.828125
7293,-46.875000
7294,-46.875000
7295,-46.875000
7296,-44.921875
7297,-44.921875
7298,-44.921875
7299,-42.968750
7300,-42.968750
7301,-41.015625
7302,-41.015625
7303,-41.015625
7304,-39.062500
7305,-39.062500
7306,-39.062500
7307,-37.109375
7308,-37.109375
7309,-35.156250
7310,-35.156250
7311,-33.203125
7312,-33.203125
7313,-33.203125
7314,-31.250000
7315,-31.250000
7316,-29.296875
7317,-29.296875
7318,-29.296875
7319,-27.343750
7320,-25.390625
7321,-25.390625
7322,-25.390625
7323,-23.437500
7324,-23.437500
7325,-23.437500
7326,-21.484375
7327,-19.531250
7328,-19.531250
7329,-19.531250
7330,-17.578125
7331,-17.578125
7332,-15.625000
7333,-15.625000
7334,-13.671875
7335,-13.671875
7336,-11.718750
7337,-11.718750
7338,-9.765625
7339,-9.765625
7340,-9.765625
7341,-7.812500
7342,-5.859375
7343,-5.859375
7344,-5.859375
7345,-3.906250
7346,-3.906250
7347,-3.906250
7348,-1.953125
7349,-1.953125
7350,0.000000
7351,0.000000
7352,1.953125
7353,1.953125
7354,3.906250
7355,3.906250
7356,5.859375
7357,5.859375
7358,5.859375
7359,7.812500
7360,7.812500
7361,9.765625
7362,9.765625
7363,9.765625
7364,11.718750
7365,11.718750
7366,13.671875
7367,13.671875
7368,15.625000
7369,15.625000
7370,17.578125
7371,17.578125
7372,17.578125
7373,19.531250
7374,19.531250
7375,21.484375
7376,21.484375
7377,23.437500
7378,23.437500
7379,23.437500
7380,25.390625
7381,25.390625
7382,27.343750
7383,27.343750
7384,27.343750
7385,29.296875
7386,29.296875
7387,29.296875
7388,31.250000
7389,31.250000
7390,33.203125
7391,33.203125
7392,35.156250
7393,35.156250
7394,35.156250
7395,37.109375
7396,37.109375
7397,39.062500
7398,39.062500
7399,39.062500
7400,41.015625
7401,41.015625
7402,41.015625
7403,42.968750
7404,42.968750
7405,42.968750
7406,44.921875
7407,44.921875
7408,44.921875
7409,46.875000
7410,46.875000
7411,46.875000
7412,48.828125
7413,48.828125
7414,48.828125
7415,50.781250
7416,50.781250
7417,50.781250
7418,50.781250
7419,52.734375
7420,52.734375
7421,52.734375
7422,54.687500
7423,54.687500
7424,56.640625
7425,54.687500
7426,56.640625
7427,56.640625
7428,58.593750
7429,58.593750
7430,58.593750
7431,58.593750
7432,58.593750
7433,60.546875
7434,60.546875
7435,60.546875
7436,60.546875
7437,60.546875
7438,62.500000
7439,62.500000
7440,62.500000
7441,62.500000
7442,64.453125
7443,64.453125
7444,64.453125
7445,64.453125
7446,64.453125
7447,64.453125
7448,64.453125
7449,66.406250
7450,66.406250
7451,66.406250
7452,66.406250
7453,68.359375
7454,68.359375
7455,68.359375
7456,68.359375
7457,68.359375
7458,68.359375
7459,68.359375
7460,68.359375
7461,70.312500
7462,70.312500
7463,70.312500
7464,70.312500
7465,70.312500
7466,70.312500
7467,70.312500
7468,70.312500
7469,70.312500
7470,72.265625
7471,72.265625
7472,72.265625
7473,72.265625
7474,72.265625
7475,72.265625
7476,72.265625
7477,72.265625
7478,72.265625
7479,72.265625
7480,72.265625
7481,72.265625
7482,72.265625
7483,72.265625
7484,72.265625
7485,72.265625
7486,72.265625
7487,72.265625
7488,72.265625
7489,72.265625
7490,72.265625
7491,72.265625
7492,72.265625
7493,72.265625
7494,72.265625
7495,72.265625
7496,72.265625
7497,72.265625
7498,72.265625
7499,72.265625
7500,72.265625
7501,72.265625
7502,70.312500
7503,72.265625
7504,72.265625
7505,72.265625
7506,70.312500
7507,70.312500
7508,70.312500
7509,70.312500
7510,70.312500
7511,70.312500
7512,70.312500
7513,68.359375
7514,68.359375
7515,68.359375
7516,68.359375
7517,68.359375
7518,68.359375
7519,66.406250
7520,68.359375
7521,66.406250
7522,66.406250
7523,66.406250
7524,66.406250
7525,66.406250
7526,64.453125
7527,66.406250
7528,64.453125
7529,64.453125
7530,64.453125
7531,64.453125
7532,62.500000
7533,62.500000
7534,62.500000
7535,62.500000
7536,62.500000
7537,60.546875
7538,60.546875
7539,60.546875
7540,60.546875
7541,60.546875
7542,58.593750
7543,58.593750
7544,56.640625
7545,58.593750
7546,56.640625
7547,56.640625
7548,56.640625
7549,54.687500
7550,54.687500
7551,54.687500
7552,52.734375
7553,52.734375
7554,52.734375
7555,52.734375
7556,50.781250
7557,50.781250
7558,50.781250
7559,48.828125
7560,48.828125
7561,48.828125
7562,46.875000
7563,46.875000
7564,46.875000
7565,44.921875
7566,44.921875
7567,44.921875
7568,42.968750
7569,42.968750
7570,42.968750
7571,41.015625
7572,41.015625
7573,41.015625
7574,39.062500
7575,39.062500
7576,37.109375
7577,37.109375
7578,37.109375
7579,35.156250
7580,35.156250
7581,35.156250
7582,33.203125
7583,33.203125
7584,33.203125
7585,31.250000
7586,31.250000
7587,29.296875
7588,29.296875
7589,27.343750
7590,27.343750
7591,27.343750
7592,25.390625
7593,25.390625
7594,25.390625
7595,23.437500
7596,23.437500
7597,23.437500
7598,21.484375
7599,21.484375
7600,19.531250
7601,19.531250
7602,17.578125
7603,17.578125
7604,17.578125
7605,15.625000
7606,15.625000
7607,13.671875
7608,13.671875
7609,11.718750
7610,11.718750
7611,9.765625
7612,9.765625
7613,9.765625
7614,7.812500
7615,7.812500
7616,5.859375
7617,5.859375
7618,3.906250
7619,3.906250
7620,1.953125
7621,1.953125
7622,0.000000
7623,0.000000
7624,0.000000
7625,-1.953125
7626,-3.906250
7627,-3.906250
7628,-3.906250
7629,-5.859375
7630,-3.906250
7631,-7.812500
7632,-7.812500
7633,-9.765625
7634,-11.718750
7635,-11.718750
7636,-11.718750
7637,-11.718750
7638,-13.671875
7639,-13.671875
7640,-15.625000
7641,-15.625000
7642,-17.578125
7643,-19.531250
7644,-19.531250
7645,-19.531250
7646,-19.531250
7647,-21.484375
7648,-21.484375
7649,-23.437500
7650,-23.437500
7651,-25.390625
7652,-25.390625
7653,-27.343750
7654,-27.343750
7655,-29.296875
7656,-29.296875
7657,-31.250000
7658,-31.250000
7659,-31.250000
7660,-33.203125
7661,-33.203125
7662,-35.156250
7663,-39.062500
7664,-35.156250
7665,-37.109375
7666,-37.109375
7667,-37.109375
7668,-39.062500
7669,-41.015625
7670,-41.015625
7671,-41.015625
7672,-42.968750
7673,-42.968750
7674,-44.921875
7675,-44.921875
7676,-44.921875
7677,-46.875000
7678,-46.875000
7679,-48.828125
7680,-48.828125
7681,-48.828125
7682,-50.781250
7683,-50.781250
7684,-50.781250
7685,-52.734375
7686,-52.734375
7687,-54.687500
7688,-54.687500
7689,-54.687500
7690,-56.640625
7691,-56.640625
7692,-56.640625
7693,-60.546875
7694,-58.593750
7695,-62.500000
7696,-60.546875
7697,-60.546875
7698,-60.546875
7699,-62.500000
7700,-62.500000
7701,-62.500000
7702,-62.500000
7703,-64.453125
7704,-64.453125
7705,-66.406250
7706,-66.406250
7707,-66.406250
7708,-68.359375
7709,-68.359375
7710,-70.312500
7711,-68.359375
7712,-72.265625
7713,-70.312500
7714,-70.312500
7715,-72.265625
7716,-72.265625
7717,-72.265625
7718,-74.218750
7719,-74.218750
7720,-74.218750
7721,-74.218750
7722,-76.171875
7723,-76.171875
7724,-76.171875
7725,-76.171875
7726,-78.125000
7727,-76.171875
7728,-78.125000
7729,-78.125000
7730,-78.125000
7731,-80.078125
7732,-80.078125
7733,-80.078125
7734,-80.078125
7735,-80.078125
7736,-80.078125
7737,-82.031250
7738,-82.031250
7739,-82.031250
7740,-82.031250
7741,-82.031250
7742,-82.031250
7743,-83.984375
7744,-83.984375
7745,-83.984375
7746,-83.984375
7747,-83.984375
7748,-83.984375
7749,-83.984375
7750,-85.937500
7751,-85.937500
7752,-85.937500
7753,-85.937500
7754,-85.937500
7755,-85.937500
7756,-87.890625
7757,-85.937500
7758,-87.890625
7759,-87.890625
7760,-87.890625
7761,-87.890625
7762,-87.890625
7763,-87.890625
7764,-87.890625
7765,-87.890625
7766,-87.890625
7767,-87.890625
7768,-87.890625
7769,-87.890625
7770,-87.890625
7771,-87.890625
7772,-89.843750
7773,-87.890625
7774,-87.890625
7775,-87.890625
7776,-89.843750
7777,-87.890625
7778,-87.890625
7779,-89.843750
7780,-89.843750
7781,-87.890625
7782,-89.843750
7783,-87.890625
7784,-87.890625
7785,-87.890625
7786,-87.890625
7787,-87.890625
7788,-87.890625
7789,-87.890625
7790,-87.890625
7791,-87.890625
7792,-87.890625
7793,-87.890625
7794,-87.890625
7795,-87.890625
7796,-87.890625
7797,-87.890625
7798,-85.937500
7799,-87.890625
7800,-87.890625
7801,-85.937500
7802,-85.937500
7803,-85.937500
7804,-85.937500
7805,-85.937500
7806,-85.937500
7807,-85.937500
7808,-83.984375
7809,-83.984375
7810,-83.984375
7811,-83.984375
7812,-83.984375
7813,-82.031250
7814,-83.984375
7815,-82.031250
7816,-82.031250
7817,-82.031250
7818,-82.031250
7819,-82.031250
7820,-82.031250
7821,-82.031250
7822,-80.078125
7823,-80.078125
7824,-80.078125
7825,-78.125000
7826,-80.078125
7827,-78.125000
7828,-78.125000
7829,-78.125000
7830,-76.171875
7831,-78.125000
7832,-76.171875
7833,-76.171875
7834,-76.171875
7835,-74.218750
7836,-74.218750
7837,-74.218750
7838,-72.265625
7839,-72.265625
7840,-72.265625
7841,-72.265625
7842,-70.312500
7843,-70.312500
7844,-70.312500
7845,-68.359375
7846,-68.359375
7847,-68.359375
7848,-68.359375
7849,-66.406250
7850,-66.406250
7851,-66.406250
7852,-64.453125
7853,-64.453125
7854,-64.453125
7855,-62.500000
7856,-62.500000
7857,-60.546875
7858,-62.500000
7859,-60.546875
7860,-58.593750
7861,-58.593750
7862,-58.593750
7863,-58.593750
7864,-56.640625
7865,-56.640625
7866,-54.687500
7867,-54.687500
7868,-54.687500
7869,-52.734375
7870,-52.734375
7871,-52.734375
7872,-50.781250
7873,-50.781250
7874,-48.828125
7875,-48.828125
7876,-46.875000
7877,-48.828125
7878,-46.875000
7879,-44.921875
7880,-44.921875
7881,-44.921875
7882,-42.968750
7883,-42.968750
7884,-42.968750
7885,-41.015625
7886,-39.062500
7887,-39.062500
7888,-39.062500
7889,-37.109375
7890,-37.109375
7891,-37.109375
7892,-35.156250
7893,-35.156250
7894,-35.156250
7895,-33.203125
7896,-33.203125
7897,-31.250000
7898,-31.250000
7899,-29.296875
7900,-29.296875
7901,-27.343750
7902,-27.343750
7903,-27.343750
7904,-25.390625
7905,-23.437500
7906,-25.390625
7907,-23.437500
7908,-23.437500
7909,-21.484375
7910,-21.484375
7911,-19.531250
7912,-19.531250
7913,-17.578125
7914,-17.578125
7915,-15.625000
7916,-15.625000
7917,-13.671875
7918,-13.671875
7919,-13.671875
7920,-11.718750
7921,-11.718750
7922,-9.765625
7923,-9.765625
7924,-7.812500
7925,-7.812500
7926,-5.859375
7927,-5.859375
7928,-3.906250
7929,-3.906250
7930,-3.906250
7931,-1.953125
7932,-1.953125
7933,0.000000
7934,0.000000
7935,1.953125
7936,1.953125
7937,1.953125
7938,3.906250
7939,5.859375
7940,5.859375
7941,7.812500
7942,7.812500
7943,7.812500
7944,9.765625
7945,9.765625
7946,9.765625
7947,11.718750
7948,11.718750
7949,13.671875
7950,13.671875
7951,13.671875
7952,15.625000
7953,17.578125
7954,17.578125
7955,17.578125
7956,17.578125
7957,19.531250
7958,21.484375
7959,21.484375
7960,21.484375
7961,23.437500
7962,23.437500
7963,23.437500
7964,25.390625
7965,27.343750
7966,27.343750
7967,27.343750
7968,29.296875
7969,29.296875
7970,29.296875
7971,31.250000
7972,31.250000
7973,31.250000
7974,33.203125
7975,35.156250
7976,35.156250
7977,35.156250
7978,37.109375
7979,37.109375
7980,37.109375
7981,37.109375
7982,39.062500
7983,39.062500
7984,41.015625
7985,41.015625
7986,41.015625
7987,42.968750
7988,42.968750
7989,44.921875
7990,44.921875
7991,44.921875
7992,44.921875
7993,46.875000
7994,46.875000
7995,46.875000
7996,48.828125
7997,48.828125
7998,48.828125
7999,50.781250
8000,50.781250
8001,50.781250
8002,52.734375
8003,52.734375
8004,54.687500
8005,54.687500
8006,54.687500
8007,54.687500
8008,56.640625
8009,56.640625
8010,56.640625
8011,58.593750
8012,58.593750
8013,58.593750
8014,58.593750
8015,58.593750
8016,58.593750
8017,60.546875
8018,60.546875
8019,62.500000
8020,62.500000
8021,60.546875
8022,62.500000
8023,62.500000
8024,62.500000
8025,62.500000
8026,64.453125
8027,64.453125
8028,64.453125
8029,64.453125
8030,64.453125
8031,66.406250
8032,66.406250
8033,66.406250
8034,66.406250
8035,66.406250
8036,66.406250
8037,68.359375
8038,68.359375
8039,68.359375
8040,68.359375
8041,68.359375
8042,68.359375
8043,68.359375
8044,70.312500
8045,70.312500
8046,72.265625
8047,70.312500
8048,70.312500
8049,70.312500
8050,70.312500
8051,70.312500
8052,70.312500
8053,72.265625
8054,70.312500
8055,72.265625
8056,72.265625
8057,70.312500
8058,72.265625
8059,72.265625
8060,72.265625
8061,72.265625
8062,72.265625
8063,72.265625
8064,72.265625
8065,72.265625
8066,72.265625
8067,72.265625
8068,72.265625
8069,72.265625
8070,72.265625
8071,72.265625
8072,72.265625
8073,72.265625
8074,72.265625
8075,72.265625
8076,72.265625
8077,72.265625
8078,72.265625
8079,72.265625
8080,72.265625
8081,72.265625
8082,72.265625
8083,72.265625
8084,72.265625
8085,72.265625
8086,72.265625
8087,70.312500
8088,70.312500
8089,70.312500
8090,70.312500
8091,70.312500
8092,70.312500
8093,70.312500
8094,70.312500
8095,70.312500
8096,70.312500
8097,70.312500
8098,68.359375
8099,68.359375
8100,68.359375
8101,68.359375
8102,68.359375
8103,68.359375
8104,66.406250
8105,66.406250
8106,66.406250
8107,66.406250
8108,66.406250
8109,66.406250
8110,66.406250
8111,64.453125
8112,64.453125
8113,64.453125
8114,64.453125
8115,62.500000
8116,62.500000
8117,62.500000
8118,62.500000
8119,62.500000
8120,62.500000
8121,60.546875
8122,60.546875
8123,60.546875
8124,60.546875
8125,58.593750
8126,58.593750
8127,58.593750
8128,58.593750
8129,56.640625
8130,56.640625
8131,56.640625
8132,54.687500
8133,54.687500
8134,54.687500
8135,54.687500
8136,52.734375
8137,52.734375
8138,52.734375
8139,50.781250
8140,50.781250
8141,50.781250
8142,50.781250
8143,48.828125
8144,48.828125
8145,46.875000
8146,46.875000
8147,46.875000
8148,46.875000
8149,44.921875
8150,44.921875
8151,42.968750
8152,42.968750
8153,42.968750
8154,41.015625
8155,41.015625
8156,39.062500
8157,39.062500
8158,39.062500
8159,39.062500
8160,37.109375
8161,35.156250
8162,37.109375
8163,35.156250
8164,35.156250
8165,33.203125
8166,33.203125
8167,33.203125
8168,31.250000
8169,31.250000
8170,29.296875
8171,29.296875
8172,29.296875
8173,27.343750
8174,27.343750
8175,27.343750
8176,25.390625
8177,25.390625
8178,23.437500
8179,23.437500
8180,23.437500
8181,21.484375
8182,21.484375
8183,19.531250
8184,19.531250
8185,17.578125
8186,17.578125
8187,17.578125
8188,15.625000
8189,15.625000
8190,13.671875
8191,13.671875
8192,11.718750
8193,11.718750
8194,9.765625
8195,9.765625
8196,9.765625
8197,7.812500
8198,7.812500
8199,5.859375
8200,5.859375
8201,3.906250
8202,3.906250
8203,1.953125
8204,1.953125
8205,1.953125
8206,0.000000
8207,0.000000
8208,-1.953125
8209,-1.953125
8210,-3.906250
8211,-3.906250
8212,-5.859375
8213,-5.859375
8214,-5.859375
8215,-7.812500
8216,-9.765625
8217,-9.765625
8218,-9.765625
8219,-11.718750
8220,-11.718750
8221,-13.671875
8222,-13.671875
8223,-15.625000
8224,-15.625000
8225,-17.578125
8226,-17.578125
8227,-19.531250
8228,-19.531250
8229,-19.531250
8230,-21.484375
8231,-21.484375
8232,-23.437500
8233,-25.390625
8234,-25.390625
8235,-25.390625
8236,-25.390625
8237,-27.343750
8238,-27.343750
8239,-29.296875
8240,-29.296875
8241,-31.250000
8242,-33.203125
8243,-33.203125
8244,-33.203125
8245,-33.203125
8246,-35.156250
8247,-35.156250
8248,-37.109375
8249,-37.109375
8250,-37.109375
8251,-39.062500
8252,-41.015625
8253,-41.015625
8254,-41.015625
8255,-42.968750
8256,-42.968750
8257,-42.968750
8258,-44.921875
8259,-44.921875
8260,-46.875000
8261,-46.875000
8262,-48.828125
8263,-48.828125
8264,-50.781250
8265,-50.781250
8266,-50.781250
8267,-50.781250
8268,-52.734375
8269,-52.734375
8270,-54.687500
8271,-54.687500
8272,-56.640625
8273,-56.640625
8274,-56.640625
8275,-56.640625
8276,-56.640625
8277,-58.593750
8278,-58.593750
8279,-60.546875
8280,-62.500000
8281,-62.500000
8282,-62.500000
8283,-62.500000
8284,-64.453125
8285,-62.500000
8286,-64.453125
8287,-66.406250
8288,-66.406250
8289,-66.406250
8290,-68.359375
8291,-68.359375
8292,-68.359375
8293,-68.359375
8294,-70.312500
8295,-70.312500
8296,-70.312500
8297,-72.265625
8298,-72.265625
8299,-72.265625
8300,-72.265625
8301,-74.218750
8302,-74.218750
8303,-74.218750
8304,-74.218750
8305,-76.171875
8306,-76.171875
8307,-76.171875
8308,-76.171875
8309,-78.125000
8310,-78.125000
8311,-78.125000
8312,-78.125000
8313,-78.125000
8314,-78.125000
8315,-80.078125
8316,-80.078125
8317,-80.078125
8318,-80.078125
8319,-80.078125
8320,-82.031250
8321,-82.031250
8322,-82.031250
8323,-82.031250
8324,-82.031250
8325,-83.984375
8326,-83.984375
8327,-83.984375
8328,-83.984375
8329,-83.984375
8330,-83.984375
8331,-85.937500
8332,-85.937500
8333,-85.937500
8334,-85.937500
8335,-85.937500
8336,-85.937500
8337,-85.937500
8338,-85.937500
8339,-87.890625
8340,-87.890625
8341,-87.890625
8342,-87.890625
8343,-87.890625
8344,-87.890625
8345,-87.890625
8346,-87.890625
8347,-87.890625
8348,-87.890625
8349,-87.890625
8350,-87.890625
8351,-89.843750
8352,-87.890625
8353,-89.843750
8354,-87.890625
8355,-89.843750
8356,-89.843750
8357,-89.843750
8358,-87.890625
8359,-89.843750
8360,-89.843750
8361,-89.843750
8362,-89.843750
8363,-89.843750
8364,-89.843750
8365,-89.843750
8366,-89.843750
8367,-89.843750
8368,-89.843750
8369,-89.843750
8370,-87.890625
8371,-89.843750
8372,-87.890625
8373,-87.890625
8374,-87.890625
8375,-87.890625
8376,-87.890625
8377,-87.890625
8378,-87.890625
8379,-87.890625
8380,-87.890625
8381,-87.890625
8382,-87.890625
8383,-85.937500
8384,-85.937500
8385,-85.937500
8386,-85.937500
8387,-85.937500
8388,-85.937500
8389,-85.937500
8390,-83.984375
8391,-83.984375
8392,-85.937500
8393,-83.984375
8394,-83.984375
8395,-83.984375
8396,-83.984375
8397,-83.984375
8398,-83.984375
8399,-82.031250
8400,-82.031250
8401,-82.031250
8402,-82.031250
8403,-82.031250
8404,-82.031250
8405,-80.078125
8406,-80.078125
8407,-80.078125
8408,-80.078125
8409,-80.078125
8410,-78.125000
8411,-78.125000
8412,-78.125000
8413,-78.125000
8414,-76.171875
8415,-76.171875
8416,-76.171875
8417,-76.171875
8418,-74.218750
8419,-74.218750
8420,-74.218750
8421,-74.218750
8422,-72.265625
8423,-72.265625
8424,-72.265625
8425,-70.312500
8426,-70.312500
8427,-70.312500
8428,-70.312500
8429,-68.359375
8430,-68.359375
8431,-68.359375
8432,-68.359375
8433,-66.406250
8434,-66.406250
8435,-64.453125
8436,-64.453125
8437,-64.453125
8438,-62.500000
8439,-62.500000
8440,-62.500000
8441,-62.500000
8442,-60.546875
8443,-58.593750
8444,-58.593750
8445,-58.593750
8446,-56.640625
8447,-56.640625
8448,-56.640625
8449,-56.640625
8450,-54.687500
8451,-54.687500
8452,-52.734375
8453,-52.734375
8454,-52.734375
8455,-50.781250
8456,-50.781250
8457,-50.781250
8458,-48.828125
8459,-48.828125
8460,-46.875000
8461,-46.875000
8462,-44.921875
8463,-44.921875
8464,-44.921875
8465,-44.921875
8466,-42.968750
8467,-41.015625
8468,-41.015625
8469,-41.015625
8470,-41.015625
8471,-39.062500
8472,-37.109375
8473,-37.109375
8474,-37.109375
8475,-35.156250
8476,-35.156250
8477,-35.156250
8478,-33.203125
8479,-33.203125
8480,-31.250000
8481,-31.250000
8482,-29.296875
8483,-29.296875
8484,-27.343750
8485,-27.343750
8486,-27.343750
8487,-25.390625
8488,-25.390625
8489,-23.437500
8490,-23.437500
8491,-21.484375
8492,-21.484375
8493,-19.531250
8494,-19.531250
8495,-19.531250
8496,-17.578125
8497,-15.625000
8498,-15.625000
8499,-15.625000
8500,-13.671875
8501,-13.671875
8502,-11.718750
8503,-11.718750
8504,-9.765625
8505,-9.765625
8506,-9.765625
8507,-7.812500
8508,-7.812500
8509,-5.859375
8510,-3.906250
8511,-5.859375
8512,-3.906250
8513,-3.906250
8514,-1.953125
8515,-1.953125
8516,0.000000
8517,0.000000
8518,0.000000
8519,1.953125
8520,3.906250
8521,3.906250
8522,3.906250
8523,5.859375
8524,7.812500
8525,7.812500
8526,7.812500
8527,9.765625
8528,9.765625
8529,9.765625
8530,11.718750
8531,11.718750
8532,13.671875
8533,13.671875
8534,13.671875
8535,15.625000
8536,17.578125
8537,17.578125
8538,17.578125
8539,19.531250
8540,19.531250
8541,21.484375
8542,21.484375
8543,21.484375
8544,23.437500
8545,23.437500
8546,25.390625
8547,25.390625
8548,27.343750
8549,27.343750
8550,27.343750
8551,29.296875
8552,29.296875
8553,31.250000
8554,31.250000
8555,31.250000
8556,33.203125
8557,33.203125
8558,35.156250
8559,35.156250
8560,35.156250
8561,37.109375
8562,37.109375
8563,39.062500
8564,39.062500
8565,39.062500
8566,41.015625
8567,41.015625
8568,42.968750
8569,42.968750
8570,42.968750
8571,44.921875
8572,44.921875
8573,44.921875
8574,46.875000
8575,46.875000
8576,46.875000
8577,46.875000
8578,48.828125
8579,48.828125
8580,50.781250
8581,50.781250
8582,50.781250
8583,52.734375
8584,52.734375
8585,52.734375
8586,52.734375
8587,54.687500
8588,54.687500
8589,54.687500
8590,54.687500
8591,56.640625
8592,56.640625
8593,56.640625
8594,56.640625
8595,58.593750
8596,58.593750
8597,58.593750
8598,60.546875
8599,60.546875
8600,60.546875
8601,62.500000
8602,60.546875
8603,62.500000
8604,62.500000
8605,62.500000
8606,62.500000
8607,64.453125
8608,64.453125
8609,64.453125
8610,64.453125
8611,64.453125
8612,64.453125
8613,66.406250
8614,66.406250
8615,66.406250
8616,66.406250
8617,66.406250
8618,68.359375
8619,68.359375
8620,68.359375
8621,68.359375
8622,68.359375
8623,68.359375
8624,68.359375
8625,68.359375
8626,70.312500
8627,70.312500
8628,70.312500
8629,70.312500
8630,70.312500
8631,70.312500
8632,70.312500
8633,72.265625
8634,72.265625
8635,72.265625
8636,72.265625
8637,72.265625
8638,72.265625
8639,72.265625
8640,72.265625
8641,72.265625
8642,72.265625
8643,72.265625
8644,72.265625
8645,72.265625
8646,72.265625
8647,74.218750
8648,72.265625
8649,72.265625
8650,74.218750
8651,72.265625
8652,74.218750
8653,72.265625
8654,74.218750
8655,74.218750
8656,72.265625
8657,72.265625
8658,72.265625
8659,72.265625
8660,72.265625
8661,72.265625
8662,72.265625
8663,72.265625
8664,72.265625
8665,72.265625
8666,72.265625
8667,72.265625
8668,72.265625
8669,72.265625
8670,72.265625
8671,72.265625
8672,72.265625
8673,72.265625
8674,70.312500
8675,70.312500
8676,70.312500
8677,70.312500
8678,68.359375
8679,70.312500
8680,68.359375
8681,68.359375
8682,68.359375
8683,68.359375
8684,68.359375
8685,68.359375
8686,68.359375
8687,66.406250
8688,68.359375
8689,66.406250
8690,66.406250
8691,66.406250
8692,66.406250
8693,66.406250
8694,66.406250
8695,64.453125
8696,64.453125
8697,64.453125
8698,64.453125
8699,62.500000
8700,62.500000
8701,62.500000
8702,62.500000
8703,60.546875
8704,62.500000
8705,60.546875
8706,60.546875
8707,60.546875
8708,58.593750
8709,58.593750
8710,58.593750
8711,56.640625
8712,56.640625
8713,56.640625
8714,56.640625
8715,56.640625
8716,54.687500
8717,54.687500
8718,52.734375
8719,52.734375
8720,52.734375
8721,52.734375
8722,50.781250
8723,50.781250
8724,50.781250
8725,48.828125
8726,50.781250
8727,48.828125
8728,46.875000
8729,46.875000
8730,46.875000
8731,44.921875
8732,44.921875
8733,44.921875
8734,42.968750
8735,42.968750
8736,42.968750
8737,41.015625
8738,41.015625
8739,39.062500
8740,39.062500
8741,39.062500
8742,39.062500
8743,39.062500
8744,37.109375
8745,35.156250
8746,35.156250
8747,35.156250
8748,33.203125
8749,33.203125
8750,33.203125
8751,31.250000
8752,31.250000
8753,29.296875
8754,29.296875
8755,29.296875
8756,27.343750
8757,27.343750
8758,27.343750
8759,25.390625
8760,23.437500
8761,23.437500
8762,23.437500
8763,21.484375
8764,21.484375
8765,21.484375
8766,19.531250
8767,19.531250
8768,17.578125
8769,17.578125
8770,15.625000
8771,15.625000
8772,15.625000
8773,13.671875
8774,13.671875
8775,11.718750
8776,11.718750
8777,9.765625
8778,9.765625
8779,9.765625
8780,7.812500
8781,7.812500
8782,5.859375
8783,5.859375
8784,3.906250
8785,3.906250
8786,1.953125
8787,1.953125
8788,0.000000
8789,0.000000
8790,-1.953125
8791,-1.953125
8792,-3.906250
8793,-3.906250
8794,-5.859375
8795,-5.859375
8796,-5.859375
8797,-7.812500
8798,-7.812500
8799,-9.765625
8800,-9.765625
8801,-9.765625
8802,-11.718750
8803,-11.718750
8804,-13.671875
8805,-13.671875
8806,-15.625000
8807,-15.625000
8808,-17.578125
8809,-17.578125
8810,-19.531250
8811,-19.531250
8812,-21.484375
8813,-21.484375
8814,-21.484375
8815,-23.437500
8816,-23.437500
8817,-25.390625
8818,-25.390625
8819,-27.343750
8820,-27.343750
8821,-27.343750
8822,-29.296875
8823,-31.250000
8824,-31.250000
8825,-31.250000
8826,-33.203125
8827,-33.203125
8828,-35.156250
8829,-35.156250
8830,-37.109375
8831,-37.109375
8832,-37.109375
8833,-39.062500
8834,-39.062500
8835,-41.015625
8836,-41.015625
8837,-41.015625
8838,-42.968750
8839,-42.968750
8840,-44.921875
8841,-46.875000
8842,-46.875000
8843,-46.875000
8844,-46.875000
8845,-48.828125
8846,-48.828125
8847,-50.781250
8848,-50.781250
8849,-50.781250
8850,-52.734375
8851,-52.734375
8852,-52.734375
8853,-54.687500
8854,-54.687500
8855,-56.640625
8856,-56.640625
8857,-56.640625
8858,-58.593750
8859,-58.593750
8860,-58.593750
8861,-60.546875
8862,-60.546875
8863,-60.546875
8864,-62.500000
8865,-62.500000
8866,-64.453125
8867,-64.453125
8868,-64.453125
8869,-64.453125
8870,-66.406250
8871,-66.406250
8872,-66.406250
8873,-68.359375
8874,-68.359375
8875,-68.359375
8876,-70.312500
8877,-70.312500
8878,-70.312500
8879,-72.265625
8880,-70.312500
8881,-72.265625
8882,-72.265625
8883,-74.218750
8884,-74.218750
8885,-74.218750
8886,-74.218750
8887,-76.171875
8888,-76.171875
8889,-76.171875
8890,-76.171875
8891,-76.171875
8892,-78.125000
8893,-78.125000
8894,-80.078125
8895,-78.125000
8896,-78.125000
8897,-80.078125
8898,-80.078125
8899,-80.078125
8900,-80.078125
8901,-82.031250
8902,-82.031250
8903,-82.031250
8904,-82.031250
8905,-82.031250
8906,-82.031250
8907,-83.984375
8908,-83.984375
8909,-83.984375
8910,-83.984375
8911,-83.984375
8912,-83.984375
8913,-85.937500
8914,-85.937500
8915,-85.937500
8916,-85.937500
8917,-85.937500
8918,-85.937500
8919,-87.890625
8920,-85.937500
8921,-85.937500
8922,-85.937500
8923,-85.937500
8924,-87.890625
8925,-87.890625
8926,-87.890625
8927,-87.890625
8928,-87.890625
8929,-87.890625
8930,-87.890625
8931,-87.890625
8932,-87.890625
8933,-87.890625
8934,-87.890625
8935,-89.843750
8936,-87.890625
8937,-87.890625
8938,-89.843750
8939,-87.890625
8940,-89.843750
8941,-89.843750
8942,-89.843750
8943,-89.843750
8944,-89.843750
8945,-89.843750
8946,-89.843750
8947,-89.843750
8948,-87.890625
8949,-89.843750
8950,-89.843750
8951,-89.843750
8952,-89.843750
8953,-87.890625
8954,-89.843750
8955,-87.890625
8956,-87.890625
8957,-89.843750
8958,-87.890625
8959,-87.890625
8960,-87.890625
8961,-87.890625
8962,-87.890625
8963,-87.890625
8964,-87.890625
8965,-87.890625
8966,-87.890625
8967,-85.937500
8968,-85.937500
8969,-85.937500
8970,-85.937500
8971,-85.937500
8972,-85.937500
8973,-85.937500
8974,-85.937500
8975,-83.984375
8976,-83.984375
8977,-83.984375
8978,-83.984375
8979,-83.984375
8980,-82.031250
8981,-83.984375
8982,-82.031250
8983,-82.031250
8984,-82.031250
8985,-82.031250
8986,-82.031250
8987,-80.078125
8988,-80.078125
8989,-80.078125
8990,-80.078125
8991,-80.078125
8992,-78.125000
8993,-78.125000
8994,-78.125000
8995,-78.125000
8996,-78.125000
8997,-78.125000
8998,-76.171875
8999,-76.171875
9000,-76.171875
9001,-74.218750
9002,-74.218750
9003,-74.218750
9004,-74.218750
9005,-72.265625
9006,-72.265625
9007,-70.312500
9008,-72.265625
9009,-70.312500
9010,-70.312500
9011,-70.312500
9012,-68.359375
9013,-68.359375
9014,-66.406250
9015,-66.406250
9016,-66.406250
9017,-64.453125
9018,-64.453125
9019,-64.453125
9020,-62.500000
9021,-62.500000
9022,-62.500000
9023,-62.500000
9024,-60.546875
9025,-60.546875
9026,-60.546875
9027,-58.593750
9028,-58.593750
9029,-56.640625
9030,-56.640625
9031,-56.640625
9032,-54.687500
9033,-54.687500
9034,-54.687500
9035,-52.734375
9036,-52.734375
9037,-50.781250
9038,-50.781250
9039,-50.781250
9040,-48.828125
9041,-48.828125
9042,-48.828125
9043,-46.875000
9044,-44.921875
9045,-44.921875
9046,-44.921875
9047,-44.921875
9048,-42.968750
9049,-42.968750
9050,-42.968750
9051,-41.015625
9052,-41.015625
9053,-39.062500
9054,-39.062500
9055,-37.109375
9056,-37.109375
9057,-35.156250
9058,-35.156250
9059,-35.156250
9060,-33.203125
9061,-33.203125
9062,-31.250000
9063,-31.250000
9064,-31.250000
9065,-29.296875
9066,-29.296875
9067,-27.343750
9068,-27.343750
9069,-25.390625
9070,-25.390625
9071,-23.437500
9072,-23.437500
9073,-23.437500
9074,-21.484375
9075,-21.484375
9076,-19.531250
9077,-19.531250
9078,-19.531250
9079,-15.625000
9080,-15.625000
9081,-15.625000
9082,-15.625000
9083,-13.671875
9084,-13.671875
9085,-11.718750
9086,-11.718750
9087,-9.765625
9088,-9.765625
9089,-7.812500
9090,-7.812500
9091,-5.859375
9092,-5.859375
9093,-5.859375
9094,-3.906250
9095,-1.953125
9096,-1.953125
9097,-1.953125
9098,0.000000
9099,0.000000
9100,1.953125
9101,1.953125
9102,3.906250
9103,3.906250
9104,3.906250
9105,5.859375
9106,5.859375
9107,7.812500
9108,7.812500
9109,7.812500
9110,9.765625
9111,9.765625
9112,11.718750
9113,11.718750
9114,13.671875
9115,13.671875
9116,13.671875
9117,15.625000
9118,15.625000
9119,17.578125
9120,17.578125
9121,19.531250
9122,19.531250
9123,21.484375
9124,21.484375
9125,21.484375
9126,23.437500
9127,23.437500
9128,23.437500
9129,25.390625
9130,25.390625
9131,27.343750
9132,27.343750
9133,27.343750
9134,29.296875
9135,29.296875
9136,31.250000
9137,31.250000
9138,31.250000
9139,33.203125
9140,35.156250
9141,35.156250
9142,35.156250
9143,35.156250
9144,37.109375
9145,39.062500
9146,39.062500
9147,39.062500
9148,41.015625
9149,41.015625
9150,41.015625
9151,42.968750
9152,42.968750
9153,42.968750
9154,44.921875
9155,44.921875
9156,46.875000
9157,46.875000
9158,46.875000
9159,46.875000
9160,48.828125
9161,48.828125
9162,48.828125
9163,50.781250
9164,50.781250
9165,50.781250
9166,52.734375
9167,52.734375
9168,52.734375
9169,54.687500
9170,54.687500
9171,54.687500
9172,54.687500
9173,56.640625
9174,56.640625
9175,56.640625
9176,58.593750
9177,58.593750
9178,58.593750
9179,58.593750
9180,58.593750
9181,60.546875
9182,60.546875
9183,60.546875
9184,62.500000
9185,60.546875
9186,62.500000
9187,62.500000
9188,62.500000
9189,62.500000
9190,62.500000
9191,64.453125
9192,64.453125
9193,64.453125
9194,64.453125
9195,66.406250
9196,66.406250
9197,66.406250
9198,66.406250
9199,66.406250
9200,66.406250
9201,68.359375
9202,68.359375
9203,68.359375
9204,68.359375
9205,70.312500
9206,66.406250
9207,68.359375
9208,70.312500
9209,70.312500
9210,70.312500
9211,70.312500
9212,70.312500
9213,70.312500
9214,70.312500
9215,72.265625
9216,72.265625
9217,72.265625
9218,72.265625
9219,72.265625
9220,72.265625
9221,72.265625
9222,72.265625
9223,72.265625
9224,72.265625
9225,72.265625
9226,74.218750
9227,72.265625
9228,72.265625
9229,72.265625
9230,72.265625
9231,74.218750
9232,74.218750
9233,74.218750
9234,72.265625
9235,72.265625
9236,74.218750
9237,74.218750
9238,72.265625
9239,74.218750
9240,74.218750
9241,74.218750
9242,74.218750
9243,72.265625
9244,72.265625
9245,72.265625
9246,72.265625
9247,72.265625
9248,72.265625
9249,72.265625
9250,72.265625
9251,72.265625
9252,72.265625
9253,70.312500
9254,72.265625
9255,70.312500
9256,70.312500
9257,70.312500
9258,70.312500
9259,70.312500
9260,70.312500
9261,70.312500
9262,70.312500
9263,70.312500
9264,68.359375
9265,68.359375
9266,68.359375
9267,68.359375
9268,68.359375
9269,68.359375
9270,68.359375
9271,68.359375
9272,66.406250
9273,66.406250
9274,66.406250
9275,66.406250
9276,66.406250
9277,64.453125
9278,64.453125
9279,64.453125
9280,64.453125
9281,64.453125
9282,62.500000
9283,62.500000
9284,62.500000
9285,62.500000
9286,62.500000
9287,60.546875
9288,60.546875
9289,60.546875
9290,58.593750
9291,58.593750
9292,58.593750
9293,58.593750
9294,58.593750
9295,56.640625
9296,56.640625
9297,56.640625
9298,56.640625
9299,54.687500
9300,54.687500
9301,52.734375
9302,52.734375
9303,52.734375
9304,50.781250
9305,50.781250
9306,50.781250
9307,50.781250
9308,50.781250
9309,48.828125
9310,48.828125
9311,46.875000
9312,46.875000
9313,46.875000
9314,44.921875
9315,44.921875
9316,44.921875
9317,42.968750
9318,42.968750
9319,42.968750
9320,41.015625
9321,41.015625
9322,41.015625
9323,39.062500
9324,39.062500
9325,39.062500
9326,37.109375
9327,37.109375
9328,35.156250
9329,35.156250
9330,35.156250
9331,33.203125
9332,33.203125
9333,31.250000
9334,31.250000
9335,31.250000
9336,29.296875
9337,29.296875
9338,27.343750
9339,27.343750
9340,27.343750
9341,25.390625
9342,25.390625
9343,25.390625
9344,23.437500
9345,23.437500
9346,21.484375
9347,21.484375
9348,19.531250
9349,19.531250
9350,17.578125
9351,17.578125
9352,17.578125
9353,15.625000
9354,15.625000
9355,13.671875
9356,13.671875
9357,13.671875
9358,11.718750
9359,11.718750
9360,9.765625
9361,9.765625
9362,7.812500
9363,7.812500
9364,5.859375
9365,5.859375
9366,3.906250
9367,3.906250
9368,1.953125
9369,1.953125
9370,1.953125
9371,0.000000
9372,0.000000
9373,-1.953125
9374,-1.953125
9375,-3.906250
9376,-3.906250
9377,-5.859375
9378,-5.859375
9379,-7.812500
9380,-7.812500
9381,-9.765625
9382,-9.765625
9383,-9.765625
9384,-11.718750
9385,-11.718750
9386,-13.671875
9387,-13.671875
9388,-15.625000
9389,-15.625000
9390,-15.625000
9391,-17.578125
9392,-19.531250
9393,-19.531250
9394,-19.531250
9395,-21.484375
9396,-21.484375
9397,-23.437500
9398,-23.437500
9399,-25.390625
9400,-27.343750
9401,-27.343750
9402,-27.343750
9403,-27.343750
9404,-29.296875
9405,-29.296875
9406,-31.250000
9407,-31.250000
9408,-33.203125
9409,-35.156250
9410,-35.156250
9411,-35.156250
9412,-35.156250
9413,-37.109375
9414,-37.109375
9415,-37.109375
9416,-39.062500
9417,-39.062500
9418,-41.015625
9419,-41.015625
9420,-42.968750
9421,-42.968750
9422,-44.921875
9423,-44.921875
9424,-44.921875
9425,-46.875000
9426,-46.875000
9427,-48.828125
9428,-48.828125
9429,-48.828125
9430,-50.781250
9431,-50.781250
9432,-50.781250
9433,-52.734375
9434,-52.734375
9435,-54.687500
9436,-54.687500
9437,-56.640625
9438,-56.640625
9439,-56.640625
9440,-56.640625
9441,-58.593750
9442,-58.593750
9443,-58.593750
9444,-60.546875
9445,-62.500000
9446,-60.546875
9447,-62.500000
9448,-64.453125
9449,-64.453125
9450,-64.453125
9451,-66.406250
9452,-64.453125
9453,-66.406250
9454,-66.406250
9455,-66.406250
9456,-68.359375
9457,-68.359375
9458,-70.312500
9459,-70.312500
9460,-70.312500
9461,-72.265625
9462,-72.265625
9463,-72.265625
9464,-72.265625
9465,-72.265625
9466,-74.218750
9467,-74.218750
9468,-74.218750
9469,-74.218750
9470,-76.171875
9471,-76.171875
9472,-76.171875
9473,-76.171875
9474,-78.125000
9475,-78.125000
9476,-78.125000
9477,-78.125000
9478,-80.078125
9479,-78.125000
9480,-80.078125
9481,-80.078125
9482,-80.078125
9483,-80.078125
9484,-82.031250
9485,-82.031250
9486,-82.031250
9487,-82.031250
9488,-82.031250
9489,-82.031250
9490,-83.984375
9491,-83.984375
9492,-83.984375
9493,-83.984375
9494,-83.984375
9495,-83.984375
9496,-83.984375
9497,-85.937500
9498,-85.937500
9499,-85.937500
9500,-85.937500
9501,-85.937500
9502,-85.937500
9503,-87.890625
9504,-87.890625
9505,-85.937500
9506,-87.890625
9507,-87.890625
9508,-87.890625
9509,-87.890625
9510,-87.890625
9511,-87.890625
9512,-87.890625
9513,-87.890625
9514,-89.843750
9515,-87.890625
9516,-89.843750
9517,-89.843750
9518,-87.890625
9519,-89.843750
9520,-89.843750
9521,-89.843750
9522,-89.843750
9523,-89.843750
9524,-89.843750
9525,-89.843750
9526,-89.843750
9527,-89.843750
9528,-89.843750
9529,-87.890625
9530,-89.843750
9531,-89.843750
9532,-89.843750
9533,-89.843750
9534,-89.843750
9535,-89.843750
9536,-89.843750
9537,-89.843750
9538,-87.890625
9539,-87.890625
9540,-87.890625
9541,-87.890625
9542,-87.890625
9543,-87.890625
9544,-87.890625
9545,-87.890625
9546,-87.890625
9547,-87.890625
9548,-87.890625
9549,-87.890625
9550,-85.937500
9551,-85.937500
9552,-85.937500
9553,-85.937500
9554,-85.937500
9555,-85.937500
9556,-85.937500
9557,-85.937500
9558,-83.984375
9559,-85.937500
9560,-83.984375
9561,-83.984375
9562,-83.984375
9563,-83.984375
9564,-82.031250
9565,-82.031250
9566,-82.031250
9567,-82.031250
9568,-82.031250
9569,-82.031250
9570,-80.078125
9571,-80.078125
9572,-80.078125
9573,-80.078125
9574,-78.125000
9575,-78.125000
9576,-78.125000
9577,-78.125000
9578,-78.125000
9579,-76.171875
9580,-78.125000
9581,-76.171875
9582,-74.218750
9583,-74.218750
9584,-74.218750
9585,-74.218750
9586,-74.218750
9587,-72.265625
9588,-72.265625
9589,-72.265625
9590,-72.265625
9591,-70.312500
9592,-70.312500
9593,-70.312500
9594,-70.312500
9595,-68.359375
9596,-68.359375
9597,-66.406250
9598,-66.406250
9599,-66.406250
9600,-64.453125
9601,-64.453125
9602,-64.453125
9603,-62.500000
9604,-62.500000
9605,-60.546875
9606,-62.500000
9607,-60.546875
9608,-58.593750
9609,-60.546875
9610,-58.593750
9611,-58.593750
9612,-56.640625
9613,-56.640625
9614,-56.640625
9615,-54.687500
9616,-54.687500
9617,-52.734375
9618,-52.734375
9619,-52.734375
9620,-50.781250
9621,-50.781250
9622,-48.828125
9623,-48.828125
9624,-48.828125
9625,-46.875000
9626,-46.875000
9627,-46.875000
9628,-44.921875
9629,-44.921875
9630,-42.968750
9631,-42.968750
9632,-41.015625
9633,-42.968750
9634,-41.015625
9635,-39.062500
9636,-39.062500
9637,-39.062500
9638,-37.109375
9639,-35.156250
9640,-35.156250
9641,-35.156250
9642,-33.203125
9643,-33.203125
9644,-33.203125
9645,-31.250000
9646,-31.250000
9647,-29.296875
9648,-29.296875
9649,-29.296875
9650,-27.343750
9651,-25.390625
9652,-25.390625
9653,-25.390625
9654,-23.437500
9655,-21.484375
9656,-21.484375
9657,-21.484375
9658,-19.531250
9659,-19.531250
9660,-19.531250
9661,-17.578125
9662,-17.578125
9663,-15.625000
9664,-15.625000
9665,-13.671875
9666,-13.671875
9667,-11.718750
9668,-11.718750
9669,-9.765625
9670,-9.765625
9671,-7.812500
9672,-7.812500
9673,-7.812500
9674,-5.859375
9675,-5.859375
9676,-3.906250
9677,-3.906250
9678,-1.953125
9679,-1.953125
9680,0.000000
9681,0.000000
9682,0.000000
9683,1.953125
9684,1.953125
9685,3.906250
9686,3.906250
9687,3.906250
9688,5.859375
9689,7.812500
9690,7.812500
9691,7.812500
9692,9.765625
9693,9.765625
9694,11.718750
9695,11.718750
9696,11.718750
9697,13.671875
9698,13.671875
9699,15.625000
9700,15.625000
9701,17.578125
9702,17.578125
9703,17.578125
9704,19.531250
9705,19.531250
9706,21.484375
9707,21.484375
9708,23.437500
9709,23.437500
9710,23.437500
9711,25.390625
9712,25.390625
9713,27.343750
9714,27.343750
9715,27.343750
9716,29.296875
9717,29.296875
9718,31.250000
9719,31.250000
9720,33.203125
9721,33.203125
9722,33.203125
9723,33.203125
9724,35.156250
9725,37.109375
9726,37.109375
9727,37.109375
9728,39.062500
9729,39.062500
9730,39.062500
9731,41.015625
9732,41.015625
9733,42.968750
9734,42.968750
9735,42.968750
9736,44.921875
9737,44.921875
9738,46.875000
9739,44.921875
9740,46.875000
9741,46.875000
9742,48.828125
9743,48.828125
9744,48.828125
9745,48.828125
9746,50.781250
9747,50.781250
9748,50.781250
9749,52.734375
9750,52.734375
9751,54.687500
9752,54.687500
9753,54.687500
9754,54.687500
9755,56.640625
9756,56.640625
9757,56.640625
9758,58.593750
9759,58.593750
9760,58.593750
9761,58.593750
9762,58.593750
9763,60.546875
9764,60.546875
9765,60.546875
9766,60.546875
9767,62.500000
9768,62.500000
9769,62.500000
9770,62.500000
9771,62.500000
9772,64.453125
9773,64.453125
9774,64.453125
9775,64.453125
9776,64.453125
9777,64.453125
9778,64.453125
9779,66.406250
9780,66.406250
9781,66.406250
9782,68.359375
9783,66.406250
9784,68.359375
9785,68.359375
9786,68.359375
9787,68.359375
9788,68.359375
9789,68.359375
9790,70.312500
9791,70.312500
9792,70.312500
9793,70.312500
9794,70.312500
9795,70.312500
9796,70.312500
9797,70.312500
9798,70.312500
9799,72.265625
9800,70.312500
9801,72.265625
9802,72.265625
9803,72.265625
9804,72.265625
9805,72.265625
9806,72.265625
9807,72.265625
9808,72.265625
9809,72.265625
9810,74.218750
9811,72.265625
9812,72.265625
9813,72.265625
9814,72.265625
9815,72.265625
9816,74.218750
9817,74.218750
9818,72.265625
9819,74.218750
9820,72.265625
9821,74.218750
9822,72.265625
9823,74.218750
9824,72.265625
9825,72.265625
9826,72.265625
9827,72.265625
9828,72.265625
9829,72.265625
9830,72.265625
9831,72.265625
9832,72.265625
9833,72.265625
9834,72.265625
9835,70.312500
9836,72.265625
9837,70.312500
9838,70.312500
9839,70.312500
9840,70.312500
9841,70.312500
9842,70.312500
9843,70.312500
9844,70.312500
9845,70.312500
9846,68.359375
9847,68.359375
9848,68.359375
9849,68.359375
9850,68.359375
9851,68.359375
9852,66.406250
9853,68.359375
9854,66.406250
9855,66.406250
9856,66.406250
9857,66.406250
9858,64.453125
9859,64.453125
9860,64.453125
9861,64.453125
9862,62.500000
9863,62.500000
9864,62.500000
9865,62.500000
9866,62.500000
9867,62.500000
9868,60.546875
9869,60.546875
9870,60.546875
9871,60.546875
9872,58.593750
9873,58.593750
9874,58.593750
9875,58.593750
9876,56.640625
9877,56.640625
9878,56.640625
9879,56.640625
9880,54.687500
9881,54.687500
9882,54.687500
9883,54.687500
9884,52.734375
9885,52.734375
9886,50.781250
9887,52.734375
9888,50.781250
9889,50.781250
9890,48.828125
9891,48.828125
9892,48.828125
9893,48.828125
9894,46.875000
9895,46.875000
9896,46.875000
9897,44.921875
9898,44.921875
9899,44.921875
9900,42.968750
9901,41.015625
9902,41.015625
9903,41.015625
9904,39.062500
9905,39.062500
9906,39.062500
9907,37.109375
9908,37.109375
9909,37.109375
9910,37.109375
9911,35.156250
9912,35.156250
9913,33.203125
9914,33.203125
9915,33.203125
9916,31.250000
9917,31.250000
9918,31.250000
9919,29.296875
9920,27.343750
9921,27.343750
9922,27.343750
9923,25.390625
9924,25.390625
9925,23.437500
9926,23.437500
9927,23.437500
9928,21.484375
9929,21.484375
9930,19.531250
9931,19.531250
9932,19.531250
9933,17.578125
9934,17.578125
9935,17.578125
9936,15.625000
9937,15.625000
9938,13.671875
9939,13.671875
9940,11.718750
9941,11.718750
9942,9.765625
9943,9.765625
9944,7.812500
9945,7.812500
9946,5.859375
9947,5.859375
9948,5.859375
9949,3.906250
9950,3.906250
9951,1.953125
9952,1.953125
9953,0.000000
9954,0.000000
9955,0.000000
9956,-1.953125
9957,-3.906250
9958,-3.906250
9959,-3.906250
9960,-5.859375
9961,-5.859375
9962,-7.812500
9963,-7.812500
9964,-9.765625
9965,-9.765625
9966,-9.765625
9967,-11.718750
9968,-13.671875
9969,-13.671875
9970,-13.671875
9971,-15.625000
9972,-15.625000
9973,-17.578125
9974,-17.578125
9975,-17.578125
9976,-19.531250
9977,-21.484375
9978,-21.484375
9979,-21.484375
9980,-23.437500
9981,-23.437500
9982,-25.390625
9983,-25.390625
9984,-27.343750
9985,-27.343750
9986,-29.296875
9987,-29.296875
9988,-29.296875
9989,-31.250000
9990,-31.250000
9991,-33.203125
9992,-33.203125
9993,-33.203125
9994,-35.156250
9995,-37.109375
9996,-37.109375
9997,-37.109375
9998,-39.062500
9999,-39.062500
10000,-41.015625
