Channel              :,CH1
Frequency            :,857.1Hz
Period               :,1.167ms
PK-PK                :,134.8mV
Probe attenuation    :,1X
Voltage per ADC value:,0.122070mV
Time interval        :,2.00000us

index,CH1_Voltage(mV)
1,31.250000
2,31.250000
3,31.250000
4,31.250000
5,31.250000
6,29.296875
7,29.296875
8,29.296875
9,27.343750
10,27.343750
11,27.343750
12,27.343750
13,25.390625
14,25.390625
15,25.390625
16,23.437500
17,23.437500
18,23.437500
19,23.437500
20,21.484375
21,21.484375
22,19.531250
23,19.531250
24,19.531250
25,19.531250
26,17.578125
27,17.578125
28,17.578125
29,15.625000
30,15.625000
31,15.625000
32,13.671875
33,13.671875
34,13.671875
35,11.718750
36,11.718750
37,9.765625
38,11.718750
39,7.812500
40,7.812500
41,7.812500
42,7.812500
43,5.859375
44,5.859375
45,5.859375
46,3.906250
47,3.906250
48,1.953125
49,1.953125
50,1.953125
51,0.000000
52,0.000000
53,0.000000
54,-1.953125
55,-1.953125
56,-1.953125
57,-3.906250
58,-3.906250
59,-3.906250
60,-5.859375
61,-5.859375
62,-5.859375
63,-7.812500
64,-7.812500
65,-9.765625
66,-9.765625
67,-11.718750
68,-11.718750
69,-11.718750
70,-13.671875
71,-13.671875
72,-13.671875
73,-15.625000
74,-15.625000
75,-17.578125
76,-17.578125
77,-19.531250
78,-19.531250
79,-21.484375
80,-21.484375
81,-21.484375
82,-23.437500
83,-23.437500
84,-23.437500
85,-25.390625
86,-25.390625
87,-27.343750
88,-27.343750
89,-27.343750
90,-29.296875
91,-29.296875
92,-31.250000
93,-29.296875
94,-31.250000
95,-33.203125
96,-33.203125
97,-33.203125
98,-35.156250
99,-35.156250
100,-37.109375
101,-37.109375
102,-37.109375
103,-39.062500
104,-39.062500
105,-39.062500
106,-41.015625
107,-39.062500
108,-41.015625
109,-41.015625
110,-42.968750
111,-42.968750
112,-42.968750
113,-44.921875
114,-44.921875
115,-44.921875
116,-44.921875
117,-46.875000
118,-46.875000
119,-48.828125
120,-48.828125
121,-48.828125
122,-50.781250
123,-50.781250
124,-50.781250
125,-52.734375
126,-52.734375
127,-52.734375
128,-54.687500
129,-54.687500
130,-54.687500
131,-54.687500
132,-56.640625
133,-56.640625
134,-56.640625
135,-56.640625
136,-56.640625
137,-58.593750
138,-58.593750
139,-60.546875
140,-60.546875
141,-60.546875
142,-60.546875
143,-62.500000
144,-62.500000
145,-62.500000
146,-62.500000
147,-64.453125
148,-62.500000
149,-64.453125
150,-64.453125
151,-64.453125
152,-66.406250
153,-66.406250
154,-66.406250
155,-66.406250
156,-66.406250
157,-66.406250
158,-68.359375
159,-68.359375
160,-68.359375
161,-68.359375
162,-68.359375
163,-68.359375
164,-68.359375
165,-68.359375
166,-70.312500
167,-70.312500
168,-70.312500
169,-72.265625
170,-70.312500
171,-70.312500
172,-72.265625
173,-70.312500
174,-72.265625
175,-72.265625
176,-72.265625
177,-72.265625
178,-72.265625
179,-72.265625
180,-72.265625
181,-74.218750
182,-74.218750
183,-74.218750
184,-74.218750
185,-74.218750
186,-74.218750
187,-74.218750
188,-74.218750
189,-74.218750
190,-74.218750
191,-74.218750
192,-74.218750
193,-74.218750
194,-76.171875
195,-76.171875
196,-74.218750
197,-76.171875
198,-76.171875
199,-76.171875
200,-76.171875
201,-76.171875
202,-76.171875
203,-76.171875
204,-76.171875
205,-76.171875
206,-76.171875
207,-76.171875
208,-76.171875
209,-76.171875
210,-76.171875
211,-76.171875
212,-76.171875
213,-76.171875
214,-76.171875
215,-76.171875
216,-76.171875
217,-76.171875
218,-76.171875
219,-76.171875
220,-74.218750
221,-74.218750
222,-74.218750
223,-76.171875
224,-74.218750
225,-74.218750
226,-74.218750
227,-74.218750
228,-74.218750
229,-74.218750
230,-74.218750
231,-72.265625
232,-72.265625
233,-74.218750
234,-72.265625
235,-72.265625
236,-72.265625
237,-72.265625
238,-72.265625
239,-70.312500
240,-72.265625
241,-70.312500
242,-70.312500
243,-70.312500
244,-70.312500
245,-70.312500
246,-68.359375
247,-70.312500
248,-68.359375
249,-68.359375
250,-68.359375
251,-68.359375
252,-66.406250
253,-66.406250
254,-66.406250
255,-66.406250
256,-66.406250
257,-66.406250
258,-64.453125
259,-64.453125
260,-64.453125
261,-62.500000
262,-64.453125
263,-62.500000
264,-62.500000
265,-62.500000
266,-62.500000
267,-60.546875
268,-60.546875
269,-60.546875
270,-58.593750
271,-58.593750
272,-58.593750
273,-58.593750
274,-58.593750
275,-56.640625
276,-56.640625
277,-56.640625
278,-54.687500
279,-54.687500
280,-54.687500
281,-54.687500
282,-54.687500
283,-52.734375
284,-52.734375
285,-52.734375
286,-50.781250
287,-50.781250
288,-50.781250
289,-50.781250
290,-48.828125
291,-48.828125
292,-46.875000
293,-46.875000
294,-46.875000
295,-44.921875
296,-44.921875
297,-44.921875
298,-44.921875
299,-42.968750
300,-42.968750
301,-42.968750
302,-41.015625
303,-41.015625
304,-41.015625
305,-41.015625
306,-39.062500
307,-39.062500
308,-37.109375
309,-37.109375
310,-37.109375
311,-37.109375
312,-35.156250
313,-35.156250
314,-33.203125
315,-33.203125
316,-33.203125
317,-31.250000
318,-31.250000
319,-31.250000
320,-29.296875
321,-29.296875
322,-27.343750
323,-27.343750
324,-27.343750
325,-27.343750
326,-25.390625
327,-25.390625
328,-25.390625
329,-23.437500
330,-23.437500
331,-21.484375
332,-21.484375
333,-19.531250
334,-19.531250
335,-19.531250
336,-17.578125
337,-17.578125
338,-17.578125
339,-15.625000
340,-15.625000
341,-15.625000
342,-15.625000
343,-13.671875
344,-11.718750
345,-11.718750
346,-11.718750
347,-9.765625
348,-9.765625
349,-9.765625
350,-7.812500
351,-7.812500
352,-7.812500
353,-5.859375
354,-5.859375
355,-3.906250
356,-3.906250
357,-3.906250
358,-1.953125
359,0.000000
360,0.000000
361,0.000000
362,0.000000
363,1.953125
364,1.953125
365,3.906250
366,3.906250
367,5.859375
368,5.859375
369,5.859375
370,7.812500
371,7.812500
372,7.812500
373,9.765625
374,9.765625
375,9.765625
376,9.765625
377,11.718750
378,13.671875
379,13.671875
380,13.671875
381,15.625000
382,15.625000
383,15.625000
384,17.578125
385,17.578125
386,17.578125
387,19.531250
388,19.531250
389,19.531250
390,21.484375
391,21.484375
392,21.484375
393,21.484375
394,23.437500
395,23.437500
396,25.390625
397,25.390625
398,27.343750
399,27.343750
400,27.343750
401,27.343750
402,29.296875
403,29.296875
404,29.296875
405,29.296875
406,31.250000
407,31.250000
408,31.250000
409,33.203125
410,33.203125
411,33.203125
412,35.156250
413,35.156250
414,35.156250
415,35.156250
416,37.109375
417,37.109375
418,37.109375
419,37.109375
420,39.062500
421,39.062500
422,39.062500
423,39.062500
424,41.015625
425,41.015625
426,41.015625
427,42.968750
428,41.015625
429,41.015625
430,42.968750
431,44.921875
432,42.968750
433,44.921875
434,44.921875
435,44.921875
436,44.921875
437,44.921875
438,44.921875
439,46.875000
440,46.875000
441,46.875000
442,46.875000
443,48.828125
444,48.828125
445,48.828125
446,48.828125
447,48.828125
448,48.828125
449,48.828125
450,50.781250
451,48.828125
452,50.781250
453,48.828125
454,50.781250
455,50.781250
456,50.781250
457,50.781250
458,52.734375
459,50.781250
460,50.781250
461,52.734375
462,52.734375
463,52.734375
464,52.734375
465,52.734375
466,52.734375
467,52.734375
468,54.687500
469,52.734375
470,52.734375
471,54.687500
472,54.687500
473,54.687500
474,54.687500
475,54.687500
476,54.687500
477,54.687500
478,54.687500
479,54.687500
480,54.687500
481,54.687500
482,54.687500
483,54.687500
484,54.687500
485,54.687500
486,54.687500
487,54.687500
488,54.687500
489,54.687500
490,54.687500
491,54.687500
492,54.687500
493,54.687500
494,54.687500
495,54.687500
496,56.640625
497,54.687500
498,54.687500
499,54.687500
500,54.687500
501,54.687500
502,54.687500
503,54.687500
504,54.687500
505,54.687500
506,54.687500
507,54.687500
508,54.687500
509,54.687500
510,54.687500
511,54.687500
512,54.687500
513,52.734375
514,52.734375
515,52.734375
516,54.687500
517,52.734375
518,52.734375
519,52.734375
520,52.734375
521,52.734375
522,52.734375
523,52.734375
524,52.734375
525,50.781250
526,50.781250
527,50.781250
528,50.781250
529,50.781250
530,50.781250
531,50.781250
532,48.828125
533,50.781250
534,50.781250
535,46.875000
536,48.828125
537,48.828125
538,48.828125
539,48.828125
540,46.875000
541,48.828125
542,48.828125
543,46.875000
544,46.875000
545,46.875000
546,46.875000
547,44.921875
548,46.875000
549,46.875000
550,44.921875
551,44.921875
552,44.921875
553,44.921875
554,44.921875
555,44.921875
556,42.968750
557,42.968750
558,42.968750
559,42.968750
560,42.968750
561,42.968750
562,42.968750
563,41.015625
564,41.015625
565,41.015625
566,39.062500
567,39.062500
568,39.062500
569,39.062500
570,39.062500
571,37.109375
572,37.109375
573,37.109375
574,37.109375
575,37.109375
576,37.109375
577,37.109375
578,35.156250
579,35.156250
580,35.156250
581,33.203125
582,33.203125
583,33.203125
584,31.250000
585,31.250000
586,31.250000
587,31.250000
588,29.296875
589,29.296875
590,29.296875
591,27.343750
592,27.343750
593,27.343750
594,27.343750
595,27.343750
596,25.390625
597,25.390625
598,23.437500
599,23.437500
600,23.437500
601,23.437500
602,23.437500
603,21.484375
604,21.484375
605,19.531250
606,19.531250
607,19.531250
608,17.578125
609,17.578125
610,17.578125
611,15.625000
612,15.625000
613,15.625000
614,13.671875
615,13.671875
616,13.671875
617,13.671875
618,11.718750
619,11.718750
620,9.765625
621,9.765625
622,9.765625
623,7.812500
624,7.812500
625,5.859375
626,5.859375
627,5.859375
628,5.859375
629,3.906250
630,3.906250
631,1.953125
632,1.953125
633,1.953125
634,0.000000
635,0.000000
636,0.000000
637,-1.953125
638,-1.953125
639,-1.953125
640,-3.906250
641,-5.859375
642,-3.906250
643,-5.859375
644,-5.859375
645,-5.859375
646,-7.812500
647,-9.765625
648,-9.765625
649,-11.718750
650,-11.718750
651,-11.718750
652,-13.671875
653,-13.671875
654,-13.671875
655,-15.625000
656,-15.625000
657,-17.578125
658,-17.578125
659,-17.578125
660,-19.531250
661,-19.531250
662,-21.484375
663,-21.484375
664,-23.437500
665,-23.437500
666,-23.437500
667,-25.390625
668,-25.390625
669,-27.343750
670,-27.343750
671,-27.343750
672,-29.296875
673,-29.296875
674,-29.296875
675,-29.296875
676,-31.250000
677,-31.250000
678,-33.203125
679,-33.203125
680,-35.156250
681,-35.156250
682,-35.156250
683,-37.109375
684,-37.109375
685,-37.109375
686,-39.062500
687,-39.062500
688,-39.062500
689,-41.015625
690,-41.015625
691,-42.968750
692,-42.968750
693,-42.968750
694,-44.921875
695,-44.921875
696,-44.921875
697,-44.921875
698,-46.875000
699,-46.875000
700,-46.875000
701,-48.828125
702,-48.828125
703,-48.828125
704,-50.781250
705,-50.781250
706,-50.781250
707,-50.781250
708,-52.734375
709,-52.734375
710,-54.687500
711,-54.687500
712,-54.687500
713,-54.687500
714,-54.687500
715,-56.640625
716,-56.640625
717,-56.640625
718,-58.593750
719,-58.593750
720,-58.593750
721,-58.593750
722,-58.593750
723,-60.546875
724,-60.546875
725,-60.546875
726,-60.546875
727,-62.500000
728,-62.500000
729,-62.500000
730,-64.453125
731,-64.453125
732,-64.453125
733,-64.453125
734,-64.453125
735,-66.406250
736,-64.453125
737,-66.406250
738,-66.406250
739,-66.406250
740,-66.406250
741,-68.359375
742,-68.359375
743,-68.359375
744,-68.359375
745,-70.312500
746,-70.312500
747,-70.312500
748,-70.312500
749,-70.312500
750,-70.312500
751,-70.312500
752,-72.265625
753,-72.265625
754,-72.265625
755,-72.265625
756,-72.265625
757,-72.265625
758,-72.265625
759,-72.265625
760,-74.218750
761,-74.218750
762,-74.218750
763,-74.218750
764,-74.218750
765,-74.218750
766,-74.218750
767,-74.218750
768,-74.218750
769,-74.218750
770,-74.218750
771,-76.171875
772,-76.171875
773,-74.218750
774,-76.171875
775,-74.218750
776,-76.171875
777,-76.171875
778,-76.171875
779,-76.171875
780,-76.171875
781,-76.171875
782,-76.171875
783,-76.171875
784,-76.171875
785,-76.171875
786,-76.171875
787,-76.171875
788,-76.171875
789,-76.171875
790,-76.171875
791,-76.171875
792,-76.171875
793,-76.171875
794,-76.171875
795,-76.171875
796,-76.171875
797,-76.171875
798,-76.171875
799,-76.171875
800,-76.171875
801,-76.171875
802,-74.218750
803,-76.171875
804,-76.171875
805,-76.171875
806,-74.218750
807,-74.218750
808,-74.218750
809,-74.218750
810,-74.218750
811,-74.218750
812,-74.218750
813,-74.218750
814,-74.218750
815,-72.265625
816,-72.265625
817,-72.265625
818,-72.265625
819,-72.265625
820,-72.265625
821,-72.265625
822,-72.265625
823,-72.265625
824,-70.312500
825,-70.312500
826,-70.312500
827,-70.312500
828,-70.312500
829,-70.312500
830,-68.359375
831,-68.359375
832,-68.359375
833,-68.359375
834,-68.359375
835,-68.359375
836,-66.406250
837,-66.406250
838,-66.406250
839,-66.406250
840,-64.453125
841,-64.453125
842,-64.453125
843,-64.453125
844,-62.500000
845,-64.453125
846,-62.500000
847,-62.500000
848,-62.500000
849,-62.500000
850,-60.546875
851,-60.546875
852,-58.593750
853,-58.593750
854,-58.593750
855,-58.593750
856,-58.593750
857,-58.593750
858,-58.593750
859,-56.640625
860,-56.640625
861,-54.687500
862,-56.640625
863,-54.687500
864,-54.687500
865,-54.687500
866,-52.734375
867,-52.734375
868,-52.734375
869,-52.734375
870,-50.781250
871,-50.781250
872,-50.781250
873,-48.828125
874,-48.828125
875,-48.828125
876,-46.875000
877,-46.875000
878,-46.875000
879,-46.875000
880,-44.921875
881,-44.921875
882,-42.968750
883,-42.968750
884,-42.968750
885,-42.968750
886,-41.015625
887,-41.015625
888,-41.015625
889,-39.062500
890,-39.062500
891,-37.109375
892,-37.109375
893,-37.109375
894,-37.109375
895,-35.156250
896,-35.156250
897,-33.203125
898,-33.203125
899,-33.203125
900,-31.250000
901,-31.250000
902,-31.250000
903,-29.296875
904,-29.296875
905,-29.296875
906,-27.343750
907,-27.343750
908,-25.390625
909,-25.390625
910,-25.390625
911,-25.390625
912,-23.437500
913,-23.437500
914,-21.484375
915,-21.484375
916,-21.484375
917,-19.531250
918,-19.531250
919,-19.531250
920,-17.578125
921,-17.578125
922,-15.625000
923,-15.625000
924,-13.671875
925,-13.671875
926,-13.671875
927,-13.671875
928,-11.718750
929,-11.718750
930,-9.765625
931,-9.765625
932,-9.765625
933,-7.812500
934,-7.812500
935,-5.859375
936,-5.859375
937,-3.906250
938,-3.906250
939,-3.906250
940,-3.906250
941,-1.953125
942,-1.953125
943,0.000000
944,0.000000
945,1.953125
946,1.953125
947,3.906250
948,3.906250
949,3.906250
950,3.906250
951,5.859375
952,5.859375
953,7.812500
954,7.812500
955,7.812500
956,9.765625
957,9.765625
958,11.718750
959,11.718750
960,11.718750
961,13.671875
962,13.671875
963,13.671875
964,15.625000
965,15.625000
966,15.625000
967,17.578125
968,17.578125
969,19.531250
970,19.531250
971,19.531250
972,21.484375
973,21.484375
974,21.484375
975,21.484375
976,23.437500
977,23.437500
978,25.390625
979,25.390625
980,25.390625
981,25.390625
982,27.343750
983,27.343750
984,27.343750
985,29.296875
986,29.296875
987,29.296875
988,31.250000
989,31.250000
990,31.250000
991,31.250000
992,33.203125
993,33.203125
994,33.203125
995,35.156250
996,35.156250
997,35.156250
998,37.109375
999,37.109375
1000,37.109375
1001,37.109375
1002,37.109375
1003,39.062500
1004,39.062500
1005,39.062500
1006,39.062500
1007,39.062500
1008,41.015625
1009,41.015625
1010,42.968750
1011,42.968750
1012,42.968750
1013,42.968750
1014,44.921875
1015,42.968750
1016,44.921875
1017,44.921875
1018,44.921875
1019,44.921875
1020,46.875000
1021,46.875000
1022,46.875000
1023,46.875000
1024,46.875000
1025,46.875000
1026,48.828125
1027,48.828125
1028,48.828125
1029,48.828125
1030,48.828125
1031,48.828125
1032,48.828125
1033,48.828125
1034,50.781250
1035,50.781250
1036,50.781250
1037,50.781250
1038,52.734375
1039,50.781250
1040,52.734375
1041,52.734375
1042,52.734375
1043,52.734375
1044,52.734375
1045,52.734375
1046,52.734375
1047,52.734375
1048,52.734375
1049,52.734375
1050,54.687500
1051,52.734375
1052,54.687500
1053,52.734375
1054,54.687500
1055,52.734375
1056,52.734375
1057,54.687500
1058,52.734375
1059,54.687500
1060,54.687500
1061,54.687500
1062,54.687500
1063,54.687500
1064,54.687500
1065,54.687500
1066,54.687500
1067,54.687500
1068,54.687500
1069,54.687500
1070,54.687500
1071,54.687500
1072,54.687500
1073,54.687500
1074,54.687500
1075,54.687500
1076,54.687500
1077,54.687500
1078,54.687500
1079,54.687500
1080,54.687500
1081,54.687500
1082,54.687500
1083,54.687500
1084,54.687500
1085,54.687500
1086,54.687500
1087,54.687500
1088,54.687500
1089,54.687500
1090,54.687500
1091,54.687500
1092,54.687500
1093,54.687500
1094,54.687500
1095,54.687500
1096,54.687500
1097,52.734375
1098,54.687500
1099,52.734375
1100,52.734375
1101,54.687500
1102,52.734375
1103,52.734375
1104,52.734375
1105,52.734375
1106,52.734375
1107,52.734375
1108,52.734375
1109,52.734375
1110,50.781250
1111,50.781250
1112,50.781250
1113,50.781250
1114,50.781250
1115,50.781250
1116,50.781250
1117,48.828125
1118,48.828125
1119,48.828125
1120,48.828125
1121,48.828125
1122,48.828125
1123,48.828125
1124,48.828125
1125,46.875000
1126,46.875000
1127,46.875000
1128,46.875000
1129,46.875000
1130,46.875000
1131,46.875000
1132,44.921875
1133,44.921875
1134,44.921875
1135,44.921875
1136,44.921875
1137,44.921875
1138,44.921875
1139,44.921875
1140,42.968750
1141,42.968750
1142,42.968750
1143,42.968750
1144,42.968750
1145,41.015625
1146,42.968750
1147,41.015625
1148,41.015625
1149,39.062500
1150,39.062500
1151,39.062500
1152,39.062500
1153,39.062500
1154,39.062500
1155,37.109375
1156,37.109375
1157,37.109375
1158,37.109375
1159,35.156250
1160,35.156250
1161,35.156250
1162,35.156250
1163,35.156250
1164,33.203125
1165,33.203125
1166,33.203125
1167,31.250000
1168,31.250000
1169,31.250000
1170,31.250000
1171,29.296875
1172,29.296875
1173,29.296875
1174,29.296875
1175,27.343750
1176,27.343750
1177,27.343750
1178,27.343750
1179,25.390625
1180,25.390625
1181,23.437500
1182,23.437500
1183,23.437500
1184,21.484375
1185,21.484375
1186,21.484375
1187,21.484375
1188,19.531250
1189,19.531250
1190,17.578125
1191,17.578125
1192,17.578125
1193,17.578125
1194,15.625000
1195,15.625000
1196,15.625000
1197,13.671875
1198,13.671875
1199,13.671875
1200,11.718750
1201,11.718750
1202,11.718750
1203,9.765625
1204,9.765625
1205,7.812500
1206,7.812500
1207,7.812500
1208,7.812500
1209,7.812500
1210,5.859375
1211,3.906250
1212,3.906250
1213,3.906250
1214,3.906250
1215,1.953125
1216,1.953125
1217,0.000000
1218,0.000000
1219,-1.953125
1220,-1.953125
1221,-1.953125
1222,-3.906250
1223,-3.906250
1224,-3.906250
1225,-5.859375
1226,-5.859375
1227,-7.812500
1228,-7.812500
1229,-9.765625
1230,-9.765625
1231,-9.765625
1232,-11.718750
1233,-11.718750
1234,-13.671875
1235,-13.671875
1236,-13.671875
1237,-15.625000
1238,-15.625000
1239,-17.578125
1240,-17.578125
1241,-17.578125
1242,-17.578125
1243,-19.531250
1244,-21.484375
1245,-21.484375
1246,-21.484375
1247,-23.437500
1248,-23.437500
1249,-25.390625
1250,-25.390625
1251,-25.390625
1252,-25.390625
1253,-29.296875
1254,-29.296875
1255,-29.296875
1256,-29.296875
1257,-29.296875
1258,-31.250000
1259,-31.250000
1260,-33.203125
1261,-33.203125
1262,-33.203125
1263,-35.156250
1264,-35.156250
1265,-35.156250
1266,-37.109375
1267,-37.109375
1268,-39.062500
1269,-39.062500
1270,-39.062500
1271,-39.062500
1272,-41.015625
1273,-41.015625
1274,-42.968750
1275,-42.968750
1276,-42.968750
1277,-42.968750
1278,-44.921875
1279,-44.921875
1280,-46.875000
1281,-46.875000
1282,-46.875000
1283,-46.875000
1284,-48.828125
1285,-48.828125
1286,-50.781250
1287,-50.781250
1288,-50.781250
1289,-50.781250
1290,-52.734375
1291,-52.734375
1292,-52.734375
1293,-54.687500
1294,-54.687500
1295,-54.687500
1296,-54.687500
1297,-56.640625
1298,-56.640625
1299,-56.640625
1300,-58.593750
1301,-58.593750
1302,-58.593750
1303,-58.593750
1304,-60.546875
1305,-60.546875
1306,-60.546875
1307,-60.546875
1308,-60.546875
1309,-62.500000
1310,-62.500000
1311,-60.546875
1312,-62.500000
1313,-62.500000
1314,-64.453125
1315,-64.453125
1316,-64.453125
1317,-64.453125
1318,-64.453125
1319,-68.359375
1320,-66.406250
1321,-66.406250
1322,-66.406250
1323,-68.359375
1324,-68.359375
1325,-68.359375
1326,-68.359375
1327,-70.312500
1328,-70.312500
1329,-68.359375
1330,-70.312500
1331,-70.312500
1332,-70.312500
1333,-70.312500
1334,-72.265625
1335,-70.312500
1336,-70.312500
1337,-72.265625
1338,-72.265625
1339,-72.265625
1340,-72.265625
1341,-72.265625
1342,-72.265625
1343,-74.218750
1344,-72.265625
1345,-74.218750
1346,-74.218750
1347,-74.218750
1348,-74.218750
1349,-74.218750
1350,-74.218750
1351,-74.218750
1352,-74.218750
1353,-74.218750
1354,-74.218750
1355,-76.171875
1356,-76.171875
1357,-76.171875
1358,-76.171875
1359,-76.171875
1360,-74.218750
1361,-76.171875
1362,-76.171875
1363,-76.171875
1364,-76.171875
1365,-76.171875
1366,-76.171875
1367,-76.171875
1368,-76.171875
1369,-76.171875
1370,-76.171875
1371,-76.171875
1372,-76.171875
1373,-76.171875
1374,-76.171875
1375,-76.171875
1376,-76.171875
1377,-76.171875
1378,-76.171875
1379,-76.171875
1380,-76.171875
1381,-76.171875
1382,-76.171875
1383,-76.171875
1384,-76.171875
1385,-76.171875
1386,-74.218750
1387,-74.218750
1388,-74.218750
1389,-74.218750
1390,-74.218750
1391,-74.218750
1392,-74.218750
1393,-74.218750
1394,-74.218750
1395,-74.218750
1396,-74.218750
1397,-74.218750
1398,-74.218750
1399,-72.265625
1400,-72.265625
1401,-72.265625
1402,-72.265625
1403,-72.265625
1404,-72.265625
1405,-72.265625
1406,-70.312500
1407,-70.312500
1408,-70.312500
1409,-70.312500
1410,-70.312500
1411,-68.359375
1412,-70.312500
1413,-68.359375
1414,-68.359375
1415,-68.359375
1416,-68.359375
1417,-68.359375
1418,-66.406250
1419,-66.406250
1420,-66.406250
1421,-66.406250
1422,-66.406250
1423,-64.453125
1424,-64.453125
1425,-64.453125
1426,-64.453125
1427,-64.453125
1428,-64.453125
1429,-62.500000
1430,-62.500000
1431,-60.546875
1432,-60.546875
1433,-60.546875
1434,-60.546875
1435,-60.546875
1436,-60.546875
1437,-58.593750
1438,-58.593750
1439,-58.593750
1440,-56.640625
1441,-58.593750
1442,-56.640625
1443,-56.640625
1444,-54.687500
1445,-54.687500
1446,-54.687500
1447,-54.687500
1448,-52.734375
1449,-52.734375
1450,-52.734375
1451,-52.734375
1452,-50.781250
1453,-50.781250
1454,-50.781250
1455,-50.781250
1456,-48.828125
1457,-48.828125
1458,-46.875000
1459,-46.875000
1460,-46.875000
1461,-44.921875
1462,-44.921875
1463,-44.921875
1464,-42.968750
1465,-42.968750
1466,-42.968750
1467,-42.968750
1468,-41.015625
1469,-41.015625
1470,-41.015625
1471,-39.062500
1472,-39.062500
1473,-39.062500
1474,-37.109375
1475,-37.109375
1476,-37.109375
1477,-35.156250
1478,-35.156250
1479,-35.156250
1480,-33.203125
1481,-33.203125
1482,-31.250000
1483,-31.250000
1484,-31.250000
1485,-31.250000
1486,-29.296875
1487,-29.296875
1488,-27.343750
1489,-27.343750
1490,-27.343750
1491,-25.390625
1492,-25.390625
1493,-25.390625
1494,-23.437500
1495,-21.484375
1496,-21.484375
1497,-21.484375
1498,-21.484375
1499,-19.531250
1500,-19.531250
1501,-19.531250
1502,-19.531250
1503,-15.625000
1504,-15.625000
1505,-15.625000
1506,-13.671875
1507,-13.671875
1508,-13.671875
1509,-13.671875
1510,-11.718750
1511,-11.718750
1512,-11.718750
1513,-9.765625
1514,-9.765625
1515,-7.812500
1516,-7.812500
1517,-5.859375
1518,-5.859375
1519,-5.859375
1520,-5.859375
1521,-3.906250
1522,-3.906250
1523,-1.953125
1524,-1.953125
1525,0.000000
1526,0.000000
1527,0.000000
1528,1.953125
1529,1.953125
1530,3.906250
1531,3.906250
1532,3.906250
1533,5.859375
1534,5.859375
1535,7.812500
1536,7.812500
1537,7.812500
1538,9.765625
1539,9.765625
1540,11.718750
1541,11.718750
1542,11.718750
1543,13.671875
1544,13.671875
1545,13.671875
1546,15.625000
1547,15.625000
1548,17.578125
1549,17.578125
1550,17.578125
1551,17.578125
1552,19.531250
1553,19.531250
1554,19.531250
1555,21.484375
1556,21.484375
1557,21.484375
1558,23.437500
1559,23.437500
1560,25.390625
1561,25.390625
1562,25.390625
1563,25.390625
1564,27.343750
1565,27.343750
1566,27.343750
1567,29.296875
1568,29.296875
1569,29.296875
1570,29.296875
1571,31.250000
1572,31.250000
1573,31.250000
1574,33.203125
1575,33.203125
1576,33.203125
1577,33.203125
1578,35.156250
1579,35.156250
1580,35.156250
1581,37.109375
1582,37.109375
1583,37.109375
1584,39.062500
1585,39.062500
1586,39.062500
1587,39.062500
1588,41.015625
1589,41.015625
1590,41.015625
1591,41.015625
1592,41.015625
1593,41.015625
1594,42.968750
1595,42.968750
1596,44.921875
1597,42.968750
1598,44.921875
1599,44.921875
1600,44.921875
1601,44.921875
1602,44.921875
1603,46.875000
1604,46.875000
1605,46.875000
1606,46.875000
1607,46.875000
1608,48.828125
1609,48.828125
1610,48.828125
1611,48.828125
1612,48.828125
1613,48.828125
1614,50.781250
1615,50.781250
1616,50.781250
1617,50.781250
1618,50.781250
1619,50.781250
1620,50.781250
1621,50.781250
1622,50.781250
1623,52.734375
1624,50.781250
1625,52.734375
1626,52.734375
1627,52.734375
1628,52.734375
1629,52.734375
1630,52.734375
1631,52.734375
1632,52.734375
1633,52.734375
1634,52.734375
1635,54.687500
1636,54.687500
1637,54.687500
1638,54.687500
1639,54.687500
1640,54.687500
1641,54.687500
1642,54.687500
1643,54.687500
1644,54.687500
1645,54.687500
1646,54.687500
1647,54.687500
1648,54.687500
1649,54.687500
1650,54.687500
1651,54.687500
1652,54.687500
1653,54.687500
1654,54.687500
1655,54.687500
1656,54.687500
1657,54.687500
1658,54.687500
1659,54.687500
1660,54.687500
1661,54.687500
1662,54.687500
1663,54.687500
1664,54.687500
1665,54.687500
1666,54.687500
1667,54.687500
1668,54.687500
1669,54.687500
1670,54.687500
1671,54.687500
1672,54.687500
1673,54.687500
1674,54.687500
1675,54.687500
1676,54.687500
1677,54.687500
1678,54.687500
1679,54.687500
1680,52.734375
1681,54.687500
1682,52.734375
1683,52.734375
1684,52.734375
1685,52.734375
1686,52.734375
1687,52.734375
1688,52.734375
1689,52.734375
1690,50.781250
1691,50.781250
1692,50.781250
1693,50.781250
1694,52.734375
1695,52.734375
1696,50.781250
1697,50.781250
1698,50.781250
1699,50.781250
1700,50.781250
1701,48.828125
1702,48.828125
1703,48.828125
1704,48.828125
1705,46.875000
1706,48.828125
1707,46.875000
1708,48.828125
1709,46.875000
1710,46.875000
1711,46.875000
1712,46.875000
1713,46.875000
1714,44.921875
1715,44.921875
1716,44.921875
1717,44.921875
1718,44.921875
1719,44.921875
1720,44.921875
1721,44.921875
1722,42.968750
1723,42.968750
1724,42.968750
1725,42.968750
1726,42.968750
1727,41.015625
1728,41.015625
1729,41.015625
1730,41.015625
1731,41.015625
1732,39.062500
1733,39.062500
1734,39.062500
1735,39.062500
1736,39.062500
1737,37.109375
1738,39.062500
1739,37.109375
1740,37.109375
1741,35.156250
1742,37.109375
1743,35.156250
1744,35.156250
1745,35.156250
1746,33.203125
1747,33.203125
1748,33.203125
1749,31.250000
1750,31.250000
1751,31.250000
1752,31.250000
1753,29.296875
1754,29.296875
1755,29.296875
1756,27.343750
1757,27.343750
1758,27.343750
1759,27.343750
1760,27.343750
1761,25.390625
1762,25.390625
1763,25.390625
1764,23.437500
1765,23.437500
1766,21.484375
1767,21.484375
1768,21.484375
1769,21.484375
1770,19.531250
1771,21.484375
1772,19.531250
1773,19.531250
1774,17.578125
1775,17.578125
1776,15.625000
1777,15.625000
1778,15.625000
1779,13.671875
1780,13.671875
1781,13.671875
1782,13.671875
1783,11.718750
1784,11.718750
1785,11.718750
1786,9.765625
1787,9.765625
1788,9.765625
1789,7.812500
1790,7.812500
1791,5.859375
1792,5.859375
1793,5.859375
1794,3.906250
1795,3.906250
1796,1.953125
1797,1.953125
1798,1.953125
1799,1.953125
1800,0.000000
1801,0.000000
1802,-1.953125
1803,-1.953125
1804,-3.906250
1805,-3.906250
1806,-3.906250
1807,-3.906250
1808,-5.859375
1809,-5.859375
1810,-7.812500
1811,-7.812500
1812,-9.765625
1813,-9.765625
1814,-9.765625
1815,-11.718750
1816,-11.718750
1817,-13.671875
1818,-13.671875
1819,-13.671875
1820,-15.625000
1821,-15.625000
1822,-15.625000
1823,-17.578125
1824,-17.578125
1825,-19.531250
1826,-19.531250
1827,-19.531250
1828,-21.484375
1829,-21.484375
1830,-23.437500
1831,-23.437500
1832,-25.390625
1833,-25.390625
1834,-27.343750
1835,-27.343750
1836,-27.343750
1837,-29.296875
1838,-29.296875
1839,-29.296875
1840,-31.250000
1841,-31.250000
1842,-33.203125
1843,-31.250000
1844,-33.203125
1845,-33.203125
1846,-35.156250
1847,-35.156250
1848,-37.109375
1849,-37.109375
1850,-37.109375
1851,-37.109375
1852,-39.062500
1853,-39.062500
1854,-41.015625
1855,-41.015625
1856,-41.015625
1857,-42.968750
1858,-42.968750
1859,-42.968750
1860,-44.921875
1861,-44.921875
1862,-44.921875
1863,-46.875000
1864,-46.875000
1865,-46.875000
1866,-46.875000
1867,-48.828125
1868,-48.828125
1869,-48.828125
1870,-50.781250
1871,-50.781250
1872,-50.781250
1873,-52.734375
1874,-52.734375
1875,-52.734375
1876,-54.687500
1877,-54.687500
1878,-54.687500
1879,-54.687500
1880,-54.687500
1881,-56.640625
1882,-56.640625
1883,-56.640625
1884,-58.593750
1885,-58.593750
1886,-58.593750
1887,-58.593750
1888,-60.546875
1889,-60.546875
1890,-60.546875
1891,-60.546875
1892,-62.500000
1893,-62.500000
1894,-62.500000
1895,-62.500000
1896,-64.453125
1897,-62.500000
1898,-64.453125
1899,-64.453125
1900,-64.453125
1901,-66.406250
1902,-66.406250
1903,-66.406250
1904,-66.406250
1905,-66.406250
1906,-66.406250
1907,-68.359375
1908,-68.359375
1909,-68.359375
1910,-68.359375
1911,-68.359375
1912,-70.312500
1913,-70.312500
1914,-70.312500
1915,-70.312500
1916,-70.312500
1917,-70.312500
1918,-72.265625
1919,-70.312500
1920,-72.265625
1921,-72.265625
1922,-72.265625
1923,-72.265625
1924,-72.265625
1925,-72.265625
1926,-72.265625
1927,-74.218750
1928,-74.218750
1929,-72.265625
1930,-74.218750
1931,-74.218750
1932,-74.218750
1933,-74.218750
1934,-74.218750
1935,-74.218750
1936,-74.218750
1937,-76.171875
1938,-76.171875
1939,-74.218750
1940,-76.171875
1941,-74.218750
1942,-76.171875
1943,-76.171875
1944,-74.218750
1945,-76.171875
1946,-76.171875
1947,-76.171875
1948,-76.171875
1949,-76.171875
1950,-76.171875
1951,-76.171875
1952,-76.171875
1953,-76.171875
1954,-76.171875
1955,-76.171875
1956,-76.171875
1957,-76.171875
1958,-76.171875
1959,-76.171875
1960,-76.171875
1961,-76.171875
1962,-76.171875
1963,-76.171875
1964,-76.171875
1965,-76.171875
1966,-76.171875
1967,-76.171875
1968,-74.218750
1969,-74.218750
1970,-74.218750
1971,-74.218750
1972,-74.218750
1973,-74.218750
1974,-76.171875
1975,-74.218750
1976,-74.218750
1977,-74.218750
1978,-72.265625
1979,-74.218750
1980,-72.265625
1981,-72.265625
1982,-72.265625
1983,-72.265625
1984,-72.265625
1985,-72.265625
1986,-72.265625
1987,-70.312500
1988,-70.312500
1989,-70.312500
1990,-70.312500
1991,-70.312500
1992,-68.359375
1993,-70.312500
1994,-68.359375
1995,-68.359375
1996,-68.359375
1997,-68.359375
1998,-68.359375
1999,-66.406250
2000,-66.406250
2001,-66.406250
2002,-66.406250
2003,-66.406250
2004,-64.453125
2005,-64.453125
2006,-64.453125
2007,-64.453125
2008,-64.453125
2009,-64.453125
2010,-62.500000
2011,-62.500000
2012,-62.500000
2013,-62.500000
2014,-62.500000
2015,-62.500000
2016,-60.546875
2017,-60.546875
2018,-58.593750
2019,-60.546875
2020,-58.593750
2021,-58.593750
2022,-58.593750
2023,-58.593750
2024,-56.640625
2025,-56.640625
2026,-56.640625
2027,-54.687500
2028,-54.687500
2029,-54.687500
2030,-54.687500
2031,-52.734375
2032,-52.734375
2033,-52.734375
2034,-50.781250
2035,-50.781250
2036,-50.781250
2037,-50.781250
2038,-48.828125
2039,-48.828125
2040,-46.875000
2041,-46.875000
2042,-46.875000
2043,-46.875000
2044,-44.921875
2045,-44.921875
2046,-42.968750
2047,-42.968750
2048,-41.015625
2049,-41.015625
2050,-41.015625
2051,-39.062500
2052,-44.921875
2053,-39.062500
2054,-37.109375
2055,-39.062500
2056,-39.062500
2057,-37.109375
2058,-37.109375
2059,-35.156250
2060,-35.156250
2061,-33.203125
2062,-35.156250
2063,-33.203125
2064,-33.203125
2065,-31.250000
2066,-31.250000
2067,-31.250000
2068,-29.296875
2069,-29.296875
2070,-29.296875
2071,-27.343750
2072,-27.343750
2073,-25.390625
2074,-25.390625
2075,-25.390625
2076,-23.437500
2077,-23.437500
2078,-23.437500
2079,-21.484375
2080,-21.484375
2081,-19.531250
2082,-19.531250
2083,-19.531250
2084,-19.531250
2085,-17.578125
2086,-17.578125
2087,-15.625000
2088,-13.671875
2089,-15.625000
2090,-13.671875
2091,-11.718750
2092,-13.671875
2093,-11.718750
2094,-11.718750
2095,-9.765625
2096,-9.765625
2097,-9.765625
2098,-7.812500
2099,-5.859375
2100,-7.812500
2101,-5.859375
2102,-5.859375
2103,-3.906250
2104,-3.906250
2105,-1.953125
2106,-1.953125
2107,-1.953125
2108,0.000000
2109,0.000000
2110,0.000000
2111,1.953125
2112,1.953125
2113,3.906250
2114,3.906250
2115,3.906250
2116,5.859375
2117,5.859375
2118,7.812500
2119,7.812500
2120,9.765625
2121,9.765625
2122,9.765625
2123,11.718750
2124,11.718750
2125,11.718750
2126,13.671875
2127,13.671875
2128,13.671875
2129,15.625000
2130,17.578125
2131,15.625000
2132,17.578125
2133,17.578125
2134,17.578125
2135,19.531250
2136,19.531250
2137,19.531250
2138,21.484375
2139,21.484375
2140,23.437500
2141,23.437500
2142,23.437500
2143,23.437500
2144,25.390625
2145,25.390625
2146,25.390625
2147,27.343750
2148,27.343750
2149,27.343750
2150,27.343750
2151,29.296875
2152,29.296875
2153,31.250000
2154,31.250000
2155,31.250000
2156,31.250000
2157,31.250000
2158,33.203125
2159,33.203125
2160,33.203125
2161,33.203125
2162,35.156250
2163,35.156250
2164,35.156250
2165,37.109375
2166,37.109375
2167,39.062500
2168,39.062500
2169,39.062500
2170,39.062500
2171,39.062500
2172,39.062500
2173,41.015625
2174,41.015625
2175,41.015625
2176,41.015625
2177,42.968750
2178,42.968750
2179,42.968750
2180,42.968750
2181,42.968750
2182,44.921875
2183,44.921875
2184,44.921875
2185,44.921875
2186,44.921875
2187,46.875000
2188,46.875000
2189,46.875000
2190,46.875000
2191,46.875000
2192,46.875000
2193,48.828125
2194,48.828125
2195,48.828125
2196,48.828125
2197,48.828125
2198,48.828125
2199,48.828125
2200,50.781250
2201,50.781250
2202,50.781250
2203,50.781250
2204,50.781250
2205,50.781250
2206,50.781250
2207,52.734375
2208,52.734375
2209,52.734375
2210,52.734375
2211,52.734375
2212,52.734375
2213,52.734375
2214,52.734375
2215,52.734375
2216,52.734375
2217,52.734375
2218,52.734375
2219,54.687500
2220,52.734375
2221,54.687500
2222,52.734375
2223,54.687500
2224,54.687500
2225,54.687500
2226,52.734375
2227,52.734375
2228,56.640625
2229,54.687500
2230,54.687500
2231,54.687500
2232,54.687500
2233,50.781250
2234,54.687500
2235,54.687500
2236,54.687500
2237,54.687500
2238,54.687500
2239,54.687500
2240,54.687500
2241,54.687500
2242,54.687500
2243,54.687500
2244,54.687500
2245,54.687500
2246,54.687500
2247,54.687500
2248,54.687500
2249,54.687500
2250,54.687500
2251,54.687500
2252,54.687500
2253,54.687500
2254,54.687500
2255,54.687500
2256,54.687500
2257,52.734375
2258,54.687500
2259,54.687500
2260,52.734375
2261,52.734375
2262,52.734375
2263,52.734375
2264,52.734375
2265,52.734375
2266,52.734375
2267,52.734375
2268,52.734375
2269,52.734375
2270,52.734375
2271,52.734375
2272,50.781250
2273,50.781250
2274,50.781250
2275,50.781250
2276,50.781250
2277,50.781250
2278,50.781250
2279,48.828125
2280,48.828125
2281,48.828125
2282,48.828125
2283,48.828125
2284,50.781250
2285,48.828125
2286,48.828125
2287,48.828125
2288,48.828125
2289,46.875000
2290,48.828125
2291,46.875000
2292,46.875000
2293,48.828125
2294,46.875000
2295,46.875000
2296,44.921875
2297,44.921875
2298,44.921875
2299,44.921875
2300,44.921875
2301,42.968750
2302,44.921875
2303,42.968750
2304,42.968750
2305,42.968750
2306,42.968750
2307,42.968750
2308,42.968750
2309,41.015625
2310,41.015625
2311,41.015625
2312,41.015625
2313,39.062500
2314,39.062500
2315,39.062500
2316,39.062500
2317,39.062500
2318,39.062500
2319,37.109375
2320,37.109375
2321,37.109375
2322,37.109375
2323,35.156250
2324,35.156250
2325,35.156250
2326,35.156250
2327,35.156250
2328,35.156250
2329,33.203125
2330,33.203125
2331,33.203125
2332,31.250000
2333,31.250000
2334,31.250000
2335,31.250000
2336,29.296875
2337,29.296875
2338,29.296875
2339,29.296875
2340,27.343750
2341,27.343750
2342,27.343750
2343,27.343750
2344,25.390625
2345,25.390625
2346,23.437500
2347,23.437500
2348,23.437500
2349,21.484375
2350,23.437500
2351,21.484375
2352,21.484375
2353,19.531250
2354,19.531250
2355,17.578125
2356,17.578125
2357,17.578125
2358,15.625000
2359,15.625000
2360,15.625000
2361,15.625000
2362,13.671875
2363,13.671875
2364,13.671875
2365,11.718750
2366,11.718750
2367,11.718750
2368,11.718750
2369,9.765625
2370,9.765625
2371,7.812500
2372,7.812500
2373,7.812500
2374,7.812500
2375,5.859375
2376,3.906250
2377,3.906250
2378,3.906250
2379,3.906250
2380,1.953125
2381,1.953125
2382,0.000000
2383,0.000000
2384,0.000000
2385,-1.953125
2386,-1.953125
2387,-3.906250
2388,-3.906250
2389,-5.859375
2390,-5.859375
2391,-5.859375
2392,-7.812500
2393,-7.812500
2394,-7.812500
2395,-9.765625
2396,-9.765625
2397,-9.765625
2398,-11.718750
2399,-13.671875
2400,-13.671875
2401,-13.671875
2402,-13.671875
2403,-15.625000
2404,-15.625000
2405,-17.578125
2406,-17.578125
2407,-19.531250
2408,-19.531250
2409,-19.531250
2410,-19.531250
2411,-21.484375
2412,-23.437500
2413,-23.437500
2414,-23.437500
2415,-25.390625
2416,-25.390625
2417,-25.390625
2418,-25.390625
2419,-27.343750
2420,-27.343750
2421,-29.296875
2422,-29.296875
2423,-29.296875
2424,-31.250000
2425,-31.250000
2426,-33.203125
2427,-33.203125
2428,-33.203125
2429,-35.156250
2430,-35.156250
2431,-35.156250
2432,-37.109375
2433,-37.109375
2434,-39.062500
2435,-39.062500
2436,-39.062500
2437,-41.015625
2438,-41.015625
2439,-41.015625
2440,-42.968750
2441,-42.968750
2442,-42.968750
2443,-42.968750
2444,-44.921875
2445,-44.921875
2446,-44.921875
2447,-46.875000
2448,-46.875000
2449,-48.828125
2450,-48.828125
2451,-48.828125
2452,-48.828125
2453,-48.828125
2454,-50.781250
2455,-50.781250
2456,-52.734375
2457,-52.734375
2458,-52.734375
2459,-54.687500
2460,-52.734375
2461,-54.687500
2462,-52.734375
2463,-54.687500
2464,-56.640625
2465,-56.640625
2466,-56.640625
2467,-58.593750
2468,-58.593750
2469,-58.593750
2470,-60.546875
2471,-58.593750
2472,-60.546875
2473,-60.546875
2474,-62.500000
2475,-62.500000
2476,-62.500000
2477,-62.500000
2478,-62.500000
2479,-62.500000
2480,-64.453125
2481,-64.453125
2482,-64.453125
2483,-64.453125
2484,-64.453125
2485,-66.406250
2486,-66.406250
2487,-66.406250
2488,-66.406250
2489,-68.359375
2490,-66.406250
2491,-68.359375
2492,-68.359375
2493,-68.359375
2494,-68.359375
2495,-68.359375
2496,-68.359375
2497,-70.312500
2498,-70.312500
2499,-70.312500
2500,-70.312500
2501,-70.312500
2502,-70.312500
2503,-70.312500
2504,-70.312500
2505,-72.265625
2506,-72.265625
2507,-72.265625
2508,-72.265625
2509,-72.265625
2510,-72.265625
2511,-72.265625
2512,-72.265625
2513,-72.265625
2514,-72.265625
2515,-74.218750
2516,-74.218750
2517,-74.218750
2518,-74.218750
2519,-74.218750
2520,-74.218750
2521,-74.218750
2522,-74.218750
2523,-74.218750
2524,-74.218750
2525,-76.171875
2526,-74.218750
2527,-76.171875
2528,-74.218750
2529,-76.171875
2530,-74.218750
2531,-76.171875
2532,-76.171875
2533,-76.171875
2534,-76.171875
2535,-76.171875
2536,-76.171875
2537,-76.171875
2538,-76.171875
2539,-76.171875
2540,-76.171875
2541,-76.171875
2542,-76.171875
2543,-74.218750
2544,-76.171875
2545,-76.171875
2546,-76.171875
2547,-74.218750
2548,-74.218750
2549,-74.218750
2550,-76.171875
2551,-74.218750
2552,-74.218750
2553,-74.218750
2554,-74.218750
2555,-74.218750
2556,-74.218750
2557,-74.218750
2558,-74.218750
2559,-74.218750
2560,-74.218750
2561,-74.218750
2562,-72.265625
2563,-72.265625
2564,-72.265625
2565,-72.265625
2566,-72.265625
2567,-72.265625
2568,-72.265625
2569,-70.312500
2570,-70.312500
2571,-70.312500
2572,-70.312500
2573,-70.312500
2574,-70.312500
2575,-68.359375
2576,-68.359375
2577,-68.359375
2578,-68.359375
2579,-68.359375
2580,-68.359375
2581,-68.359375
2582,-66.406250
2583,-66.406250
2584,-66.406250
2585,-66.406250
2586,-64.453125
2587,-64.453125
2588,-66.406250
2589,-64.453125
2590,-64.453125
2591,-64.453125
2592,-64.453125
2593,-62.500000
2594,-62.500000
2595,-62.500000
2596,-62.500000
2597,-60.546875
2598,-60.546875
2599,-60.546875
2600,-60.546875
2601,-60.546875
2602,-58.593750
2603,-58.593750
2604,-58.593750
2605,-58.593750
2606,-56.640625
2607,-56.640625
2608,-56.640625
2609,-54.687500
2610,-56.640625
2611,-54.687500
2612,-54.687500
2613,-54.687500
2614,-52.734375
2615,-52.734375
2616,-52.734375
2617,-50.781250
2618,-50.781250
2619,-50.781250
2620,-50.781250
2621,-48.828125
2622,-48.828125
2623,-48.828125
2624,-46.875000
2625,-46.875000
2626,-46.875000
2627,-44.921875
2628,-44.921875
2629,-44.921875
2630,-42.968750
2631,-44.921875
2632,-42.968750
2633,-41.015625
2634,-41.015625
2635,-41.015625
2636,-41.015625
2637,-41.015625
2638,-39.062500
2639,-39.062500
2640,-37.109375
2641,-37.109375
2642,-35.156250
2643,-35.156250
2644,-35.156250
2645,-35.156250
2646,-35.156250
2647,-33.203125
2648,-31.250000
2649,-31.250000
2650,-31.250000
2651,-29.296875
2652,-29.296875
2653,-27.343750
2654,-27.343750
2655,-27.343750
2656,-27.343750
2657,-25.390625
2658,-25.390625
2659,-23.437500
2660,-23.437500
2661,-23.437500
2662,-23.437500
2663,-21.484375
2664,-21.484375
2665,-21.484375
2666,-19.531250
2667,-19.531250
2668,-17.578125
2669,-17.578125
2670,-15.625000
2671,-15.625000
2672,-15.625000
2673,-13.671875
2674,-13.671875
2675,-13.671875
2676,-11.718750
2677,-11.718750
2678,-9.765625
2679,-9.765625
2680,-7.812500
2681,-7.812500
2682,-7.812500
2683,-7.812500
2684,-5.859375
2685,-5.859375
2686,-3.906250
2687,-3.906250
2688,-1.953125
2689,-1.953125
2690,-1.953125
2691,0.000000
2692,0.000000
2693,0.000000
2694,1.953125
2695,1.953125
2696,3.906250
2697,3.906250
2698,3.906250
2699,5.859375
2700,5.859375
2701,5.859375
2702,7.812500
2703,7.812500
2704,9.765625
2705,9.765625
2706,11.718750
2707,11.718750
2708,11.718750
2709,11.718750
2710,13.671875
2711,13.671875
2712,13.671875
2713,15.625000
2714,15.625000
2715,17.578125
2716,17.578125
2717,19.531250
2718,19.531250
2719,19.531250
2720,19.531250
2721,21.484375
2722,21.484375
2723,21.484375
2724,23.437500
2725,23.437500
2726,23.437500
2727,25.390625
2728,25.390625
2729,25.390625
2730,25.390625
2731,27.343750
2732,27.343750
2733,29.296875
2734,29.296875
2735,29.296875
2736,29.296875
2737,31.250000
2738,31.250000
2739,31.250000
2740,33.203125
2741,33.203125
2742,33.203125
2743,33.203125
2744,35.156250
2745,35.156250
2746,35.156250
2747,35.156250
2748,37.109375
2749,37.109375
2750,37.109375
2751,37.109375
2752,39.062500
2753,39.062500
2754,39.062500
2755,39.062500
2756,41.015625
2757,41.015625
2758,41.015625
2759,41.015625
2760,42.968750
2761,42.968750
2762,42.968750
2763,42.968750
2764,44.921875
2765,44.921875
2766,44.921875
2767,44.921875
2768,46.875000
2769,44.921875
2770,44.921875
2771,46.875000
2772,46.875000
2773,46.875000
2774,46.875000
2775,46.875000
2776,48.828125
2777,48.828125
2778,48.828125
2779,48.828125
2780,48.828125
2781,48.828125
2782,48.828125
2783,50.781250
2784,50.781250
2785,50.781250
2786,50.781250
2787,50.781250
2788,50.781250
2789,50.781250
2790,50.781250
2791,50.781250
2792,52.734375
2793,52.734375
2794,52.734375
2795,52.734375
2796,52.734375
2797,52.734375
2798,52.734375
2799,52.734375
2800,52.734375
2801,52.734375
2802,52.734375
2803,52.734375
2804,52.734375
2805,54.687500
2806,54.687500
2807,54.687500
2808,54.687500
2809,54.687500
2810,54.687500
2811,54.687500
2812,54.687500
2813,54.687500
2814,54.687500
2815,54.687500
2816,54.687500
2817,54.687500
2818,54.687500
2819,54.687500
2820,54.687500
2821,54.687500
2822,54.687500
2823,54.687500
2824,54.687500
2825,54.687500
2826,54.687500
2827,54.687500
2828,54.687500
2829,54.687500
2830,50.781250
2831,54.687500
2832,54.687500
2833,54.687500
2834,54.687500
2835,54.687500
2836,54.687500
2837,54.687500
2838,54.687500
2839,54.687500
2840,54.687500
2841,54.687500
2842,54.687500
2843,52.734375
2844,52.734375
2845,54.687500
2846,52.734375
2847,54.687500
2848,52.734375
2849,52.734375
2850,52.734375
2851,52.734375
2852,52.734375
2853,52.734375
2854,52.734375
2855,52.734375
2856,52.734375
2857,50.781250
2858,50.781250
2859,50.781250
2860,50.781250
2861,50.781250
2862,50.781250
2863,50.781250
2864,50.781250
2865,48.828125
2866,46.875000
2867,48.828125
2868,48.828125
2869,48.828125
2870,48.828125
2871,48.828125
2872,48.828125
2873,46.875000
2874,46.875000
2875,46.875000
2876,46.875000
2877,46.875000
2878,46.875000
2879,46.875000
2880,44.921875
2881,44.921875
2882,44.921875
2883,44.921875
2884,44.921875
2885,44.921875
2886,44.921875
2887,42.968750
2888,42.968750
2889,44.921875
2890,42.968750
2891,42.968750
2892,42.968750
2893,41.015625
2894,41.015625
2895,41.015625
2896,41.015625
2897,39.062500
2898,39.062500
2899,39.062500
2900,39.062500
2901,39.062500
2902,39.062500
2903,37.109375
2904,37.109375
2905,37.109375
2906,37.109375
2907,37.109375
2908,35.156250
2909,35.156250
2910,35.156250
2911,35.156250
2912,33.203125
2913,33.203125
2914,31.250000
2915,33.203125
2916,31.250000
2917,31.250000
2918,31.250000
2919,29.296875
2920,29.296875
2921,29.296875
2922,29.296875
2923,27.343750
2924,27.343750
2925,27.343750
2926,27.343750
2927,25.390625
2928,25.390625
2929,25.390625
2930,25.390625
2931,23.437500
2932,23.437500
2933,21.484375
2934,21.484375
2935,21.484375
2936,21.484375
2937,19.531250
2938,19.531250
2939,19.531250
2940,17.578125
2941,17.578125
2942,17.578125
2943,17.578125
2944,15.625000
2945,15.625000
2946,13.671875
2947,13.671875
2948,13.671875
2949,11.718750
2950,11.718750
2951,9.765625
2952,9.765625
2953,9.765625
2954,7.812500
2955,7.812500
2956,7.812500
2957,5.859375
2958,5.859375
2959,3.906250
2960,5.859375
2961,3.906250
2962,1.953125
2963,1.953125
2964,1.953125
2965,1.953125
2966,0.000000
2967,0.000000
2968,-1.953125
2969,-1.953125
2970,-3.906250
2971,-3.906250
2972,-5.859375
2973,-5.859375
2974,-5.859375
2975,-5.859375
2976,-7.812500
2977,-7.812500
2978,-9.765625
2979,-9.765625
2980,-9.765625
2981,-11.718750
2982,-11.718750
2983,-13.671875
2984,-11.718750
2985,-15.625000
2986,-15.625000
2987,-15.625000
2988,-17.578125
2989,-17.578125
2990,-19.531250
2991,-19.531250
2992,-21.484375
2993,-21.484375
2994,-21.484375
2995,-23.437500
2996,-23.437500
2997,-23.437500
2998,-25.390625
2999,-25.390625
3000,-25.390625
3001,-27.343750
3002,-27.343750
3003,-27.343750
3004,-29.296875
3005,-29.296875
3006,-29.296875
3007,-31.250000
3008,-35.156250
3009,-33.203125
3010,-33.203125
3011,-35.156250
3012,-35.156250
3013,-35.156250
3014,-37.109375
3015,-37.109375
3016,-37.109375
3017,-37.109375
3018,-39.062500
3019,-39.062500
3020,-41.015625
3021,-41.015625
3022,-41.015625
3023,-42.968750
3024,-42.968750
3025,-44.921875
3026,-44.921875
3027,-44.921875
3028,-44.921875
3029,-44.921875
3030,-46.875000
3031,-46.875000
3032,-48.828125
3033,-48.828125
3034,-48.828125
3035,-50.781250
3036,-50.781250
3037,-50.781250
3038,-50.781250
3039,-52.734375
3040,-52.734375
3041,-54.687500
3042,-52.734375
3043,-54.687500
3044,-54.687500
3045,-54.687500
3046,-56.640625
3047,-56.640625
3048,-54.687500
3049,-56.640625
3050,-58.593750
3051,-58.593750
3052,-58.593750
3053,-58.593750
3054,-58.593750
3055,-60.546875
3056,-60.546875
3057,-62.500000
3058,-62.500000
3059,-62.500000
3060,-64.453125
3061,-62.500000
3062,-64.453125
3063,-64.453125
3064,-64.453125
3065,-64.453125
3066,-64.453125
3067,-66.406250
3068,-68.359375
3069,-66.406250
3070,-66.406250
3071,-66.406250
3072,-68.359375
3073,-68.359375
3074,-68.359375
3075,-68.359375
3076,-68.359375
3077,-68.359375
3078,-70.312500
3079,-70.312500
3080,-70.312500
3081,-70.312500
3082,-70.312500
3083,-70.312500
3084,-70.312500
3085,-72.265625
3086,-72.265625
3087,-72.265625
3088,-72.265625
3089,-72.265625
3090,-72.265625
3091,-72.265625
3092,-72.265625
3093,-72.265625
3094,-72.265625
3095,-74.218750
3096,-74.218750
3097,-74.218750
3098,-74.218750
3099,-76.171875
3100,-74.218750
3101,-74.218750
3102,-74.218750
3103,-74.218750
3104,-76.171875
3105,-76.171875
3106,-76.171875
3107,-74.218750
3108,-74.218750
3109,-76.171875
3110,-76.171875
3111,-76.171875
3112,-76.171875
3113,-76.171875
3114,-76.171875
3115,-76.171875
3116,-76.171875
3117,-76.171875
3118,-76.171875
3119,-76.171875
3120,-76.171875
3121,-76.171875
3122,-76.171875
3123,-76.171875
3124,-76.171875
3125,-76.171875
3126,-76.171875
3127,-76.171875
3128,-76.171875
3129,-76.171875
3130,-76.171875
3131,-76.171875
3132,-76.171875
3133,-76.171875
3134,-76.171875
3135,-74.218750
3136,-74.218750
3137,-76.171875
3138,-74.218750
3139,-74.218750
3140,-74.218750
3141,-74.218750
3142,-74.218750
3143,-74.218750
3144,-72.265625
3145,-74.218750
3146,-74.218750
3147,-72.265625
3148,-72.265625
3149,-72.265625
3150,-72.265625
3151,-72.265625
3152,-72.265625
3153,-72.265625
3154,-72.265625
3155,-70.312500
3156,-70.312500
3157,-70.312500
3158,-70.312500
3159,-70.312500
3160,-70.312500
3161,-68.359375
3162,-68.359375
3163,-68.359375
3164,-68.359375
3165,-68.359375
3166,-66.406250
3167,-68.359375
3168,-66.406250
3169,-66.406250
3170,-66.406250
3171,-66.406250
3172,-66.406250
3173,-64.453125
3174,-64.453125
3175,-64.453125
3176,-62.500000
3177,-62.500000
3178,-62.500000
3179,-62.500000
3180,-62.500000
3181,-62.500000
3182,-60.546875
3183,-60.546875
3184,-60.546875
3185,-58.593750
3186,-60.546875
3187,-58.593750
3188,-58.593750
3189,-58.593750
3190,-56.640625
3191,-56.640625
3192,-56.640625
3193,-56.640625
3194,-54.687500
3195,-54.687500
3196,-54.687500
3197,-52.734375
3198,-52.734375
3199,-50.781250
3200,-50.781250
3201,-50.781250
3202,-50.781250
3203,-46.875000
3204,-50.781250
3205,-48.828125
3206,-48.828125
3207,-46.875000
3208,-50.781250
3209,-46.875000
3210,-46.875000
3211,-44.921875
3212,-44.921875
3213,-44.921875
3214,-42.968750
3215,-42.968750
3216,-41.015625
3217,-41.015625
3218,-41.015625
3219,-39.062500
3220,-39.062500
3221,-39.062500
3222,-37.109375
3223,-37.109375
3224,-37.109375
3225,-37.109375
3226,-35.156250
3227,-35.156250
3228,-33.203125
3229,-33.203125
3230,-33.203125
3231,-31.250000
3232,-31.250000
3233,-31.250000
3234,-31.250000
3235,-29.296875
3236,-29.296875
3237,-29.296875
3238,-27.343750
3239,-25.390625
3240,-25.390625
3241,-25.390625
3242,-21.484375
3243,-23.437500
3244,-23.437500
3245,-23.437500
3246,-21.484375
3247,-21.484375
3248,-19.531250
3249,-19.531250
3250,-19.531250
3251,-17.578125
3252,-17.578125
3253,-15.625000
3254,-15.625000
3255,-15.625000
3256,-13.671875
3257,-13.671875
3258,-13.671875
3259,-11.718750
3260,-11.718750
3261,-9.765625
3262,-9.765625
3263,-9.765625
3264,-7.812500
3265,-7.812500
3266,-7.812500
3267,-5.859375
3268,-5.859375
3269,-3.906250
3270,-3.906250
3271,-1.953125
3272,-1.953125
3273,-1.953125
3274,0.000000
3275,0.000000
3276,0.000000
3277,1.953125
3278,3.906250
3279,3.906250
3280,3.906250
3281,5.859375
3282,5.859375
3283,5.859375
3284,7.812500
3285,7.812500
3286,9.765625
3287,9.765625
3288,9.765625
3289,9.765625
3290,11.718750
3291,11.718750
3292,13.671875
3293,13.671875
3294,13.671875
3295,15.625000
3296,15.625000
3297,15.625000
3298,17.578125
3299,17.578125
3300,17.578125
3301,19.531250
3302,19.531250
3303,19.531250
3304,21.484375
3305,21.484375
3306,21.484375
3307,23.437500
3308,23.437500
3309,25.390625
3310,25.390625
3311,25.390625
3312,25.390625
3313,27.343750
3314,27.343750
3315,27.343750
3316,29.296875
3317,29.296875
3318,29.296875
3319,29.296875
3320,29.296875
3321,31.250000
3322,31.250000
3323,33.203125
3324,33.203125
3325,33.203125
3326,35.156250
3327,35.156250
3328,35.156250
3329,35.156250
3330,37.109375
3331,37.109375
3332,37.109375
3333,37.109375
3334,39.062500
3335,39.062500
3336,39.062500
3337,39.062500
3338,41.015625
3339,41.015625
3340,41.015625
3341,41.015625
3342,42.968750
3343,42.968750
3344,42.968750
3345,42.968750
3346,42.968750
3347,44.921875
3348,44.921875
3349,44.921875
3350,46.875000
3351,44.921875
3352,46.875000
3353,46.875000
3354,46.875000
3355,46.875000
3356,46.875000
3357,46.875000
3358,48.828125
3359,48.828125
3360,48.828125
3361,48.828125
3362,48.828125
3363,48.828125
3364,48.828125
3365,50.781250
3366,50.781250
3367,50.781250
3368,50.781250
3369,50.781250
3370,50.781250
3371,50.781250
3372,50.781250
3373,50.781250
3374,52.734375
3375,52.734375
3376,52.734375
3377,52.734375
3378,52.734375
3379,52.734375
3380,52.734375
3381,52.734375
3382,52.734375
3383,52.734375
3384,54.687500
3385,54.687500
3386,54.687500
3387,54.687500
3388,54.687500
3389,54.687500
3390,54.687500
3391,54.687500
3392,54.687500
3393,54.687500
3394,54.687500
3395,54.687500
3396,54.687500
3397,54.687500
3398,54.687500
3399,54.687500
3400,54.687500
3401,56.640625
3402,54.687500
3403,54.687500
3404,54.687500
3405,54.687500
3406,54.687500
3407,56.640625
3408,54.687500
3409,54.687500
3410,54.687500
3411,54.687500
3412,54.687500
3413,54.687500
3414,54.687500
3415,54.687500
3416,54.687500
3417,54.687500
3418,54.687500
3419,54.687500
3420,54.687500
3421,54.687500
3422,52.734375
3423,52.734375
3424,54.687500
3425,54.687500
3426,54.687500
3427,54.687500
3428,52.734375
3429,54.687500
3430,54.687500
3431,52.734375
3432,52.734375
3433,52.734375
3434,52.734375
3435,52.734375
3436,52.734375
3437,52.734375
3438,52.734375
3439,50.781250
3440,50.781250
3441,50.781250
3442,50.781250
3443,50.781250
3444,50.781250
3445,50.781250
3446,50.781250
3447,48.828125
3448,50.781250
3449,48.828125
3450,48.828125
3451,48.828125
3452,48.828125
3453,48.828125
3454,48.828125
3455,48.828125
3456,48.828125
3457,48.828125
3458,46.875000
3459,46.875000
3460,46.875000
3461,46.875000
3462,46.875000
3463,46.875000
3464,44.921875
3465,44.921875
3466,44.921875
3467,44.921875
3468,44.921875
3469,44.921875
3470,42.968750
3471,42.968750
3472,42.968750
3473,42.968750
3474,42.968750
3475,42.968750
3476,42.968750
3477,41.015625
3478,41.015625
3479,41.015625
3480,41.015625
3481,39.062500
3482,39.062500
3483,39.062500
3484,39.062500
3485,39.062500
3486,37.109375
3487,37.109375
3488,37.109375
3489,37.109375
3490,37.109375
3491,35.156250
3492,35.156250
3493,35.156250
3494,35.156250
3495,33.203125
3496,33.203125
3497,33.203125
3498,31.250000
3499,31.250000
3500,31.250000
3501,31.250000
3502,29.296875
3503,29.296875
3504,29.296875
3505,29.296875
3506,27.343750
3507,27.343750
3508,27.343750
3509,27.343750
3510,25.390625
3511,25.390625
3512,25.390625
3513,23.437500
3514,23.437500
3515,21.484375
3516,23.437500
3517,21.484375
3518,21.484375
3519,19.531250
3520,19.531250
3521,19.531250
3522,19.531250
3523,17.578125
3524,17.578125
3525,15.625000
3526,15.625000
3527,15.625000
3528,13.671875
3529,13.671875
3530,13.671875
3531,11.718750
3532,11.718750
3533,11.718750
3534,9.765625
3535,9.765625
3536,9.765625
3537,7.812500
3538,7.812500
3539,7.812500
3540,5.859375
3541,5.859375
3542,5.859375
3543,3.906250
3544,3.906250
3545,1.953125
3546,1.953125
3547,1.953125
3548,0.000000
3549,0.000000
3550,-1.953125
3551,-1.953125
3552,-1.953125
3553,-3.906250
3554,-3.906250
3555,-5.859375
3556,-5.859375
3557,-7.812500
3558,-7.812500
3559,-7.812500
3560,-7.812500
3561,-9.765625
3562,-9.765625
3563,-11.718750
3564,-11.718750
3565,-13.671875
3566,-11.718750
3567,-13.671875
3568,-15.625000
3569,-15.625000
3570,-17.578125
3571,-17.578125
3572,-17.578125
3573,-19.531250
3574,-19.531250
3575,-21.484375
3576,-21.484375
3577,-23.437500
3578,-23.437500
3579,-23.437500
3580,-23.437500
3581,-25.390625
3582,-27.343750
3583,-27.343750
3584,-27.343750
3585,-27.343750
3586,-29.296875
3587,-29.296875
3588,-29.296875
3589,-31.250000
3590,-31.250000
3591,-33.203125
3592,-33.203125
3593,-33.203125
3594,-35.156250
3595,-35.156250
3596,-37.109375
3597,-37.109375
3598,-37.109375
3599,-39.062500
3600,-39.062500
3601,-39.062500
3602,-42.968750
3603,-41.015625
3604,-44.921875
3605,-42.968750
3606,-42.968750
3607,-42.968750
3608,-42.968750
3609,-44.921875
3610,-44.921875
3611,-46.875000
3612,-46.875000
3613,-46.875000
3614,-46.875000
3615,-46.875000
3616,-48.828125
3617,-50.781250
3618,-50.781250
3619,-50.781250
3620,-50.781250
3621,-52.734375
3622,-52.734375
3623,-52.734375
3624,-54.687500
3625,-54.687500
3626,-54.687500
3627,-56.640625
3628,-56.640625
3629,-54.687500
3630,-56.640625
3631,-56.640625
3632,-58.593750
3633,-58.593750
3634,-60.546875
3635,-60.546875
3636,-60.546875
3637,-60.546875
3638,-62.500000
3639,-62.500000
3640,-62.500000
3641,-62.500000
3642,-62.500000
3643,-64.453125
3644,-64.453125
3645,-64.453125
3646,-64.453125
3647,-66.406250
3648,-64.453125
3649,-66.406250
3650,-66.406250
3651,-68.359375
3652,-68.359375
3653,-66.406250
3654,-68.359375
3655,-68.359375
3656,-68.359375
3657,-68.359375
3658,-70.312500
3659,-70.312500
3660,-70.312500
3661,-70.312500
3662,-70.312500
3663,-70.312500
3664,-70.312500
3665,-70.312500
3666,-72.265625
3667,-72.265625
3668,-72.265625
3669,-72.265625
3670,-72.265625
3671,-72.265625
3672,-72.265625
3673,-74.218750
3674,-74.218750
3675,-74.218750
3676,-74.218750
3677,-74.218750
3678,-74.218750
3679,-74.218750
3680,-74.218750
3681,-74.218750
3682,-74.218750
3683,-76.171875
3684,-74.218750
3685,-74.218750
3686,-76.171875
3687,-76.171875
3688,-76.171875
3689,-76.171875
3690,-76.171875
3691,-76.171875
3692,-76.171875
3693,-76.171875
3694,-76.171875
3695,-76.171875
3696,-76.171875
3697,-76.171875
3698,-76.171875
3699,-78.125000
3700,-76.171875
3701,-76.171875
3702,-76.171875
3703,-76.171875
3704,-76.171875
3705,-76.171875
3706,-76.171875
3707,-76.171875
3708,-76.171875
3709,-76.171875
3710,-76.171875
3711,-76.171875
3712,-76.171875
3713,-76.171875
3714,-76.171875
3715,-76.171875
3716,-76.171875
3717,-76.171875
3718,-76.171875
3719,-76.171875
3720,-76.171875
3721,-74.218750
3722,-74.218750
3723,-74.218750
3724,-74.218750
3725,-74.218750
3726,-74.218750
3727,-74.218750
3728,-74.218750
3729,-74.218750
3730,-74.218750
3731,-72.265625
3732,-72.265625
3733,-72.265625
3734,-70.312500
3735,-72.265625
3736,-72.265625
3737,-70.312500
3738,-70.312500
3739,-70.312500
3740,-70.312500
3741,-70.312500
3742,-70.312500
3743,-70.312500
3744,-68.359375
3745,-68.359375
3746,-68.359375
3747,-68.359375
3748,-68.359375
3749,-68.359375
3750,-68.359375
3751,-66.406250
3752,-66.406250
3753,-66.406250
3754,-66.406250
3755,-64.453125
3756,-64.453125
3757,-64.453125
3758,-64.453125
3759,-64.453125
3760,-64.453125
3761,-62.500000
3762,-62.500000
3763,-62.500000
3764,-62.500000
3765,-60.546875
3766,-62.500000
3767,-60.546875
3768,-58.593750
3769,-60.546875
3770,-58.593750
3771,-58.593750
3772,-58.593750
3773,-56.640625
3774,-56.640625
3775,-56.640625
3776,-54.687500
3777,-54.687500
3778,-54.687500
3779,-54.687500
3780,-52.734375
3781,-52.734375
3782,-52.734375
3783,-50.781250
3784,-50.781250
3785,-50.781250
3786,-48.828125
3787,-50.781250
3788,-48.828125
3789,-48.828125
3790,-46.875000
3791,-48.828125
3792,-46.875000
3793,-44.921875
3794,-44.921875
3795,-44.921875
3796,-42.968750
3797,-42.968750
3798,-42.968750
3799,-41.015625
3800,-42.968750
3801,-39.062500
3802,-39.062500
3803,-39.062500
3804,-39.062500
3805,-37.109375
3806,-37.109375
3807,-37.109375
3808,-35.156250
3809,-35.156250
3810,-35.156250
3811,-33.203125
3812,-33.203125
3813,-33.203125
3814,-31.250000
3815,-31.250000
3816,-31.250000
3817,-29.296875
3818,-29.296875
3819,-29.296875
3820,-27.343750
3821,-27.343750
3822,-25.390625
3823,-25.390625
3824,-25.390625
3825,-23.437500
3826,-23.437500
3827,-23.437500
3828,-21.484375
3829,-21.484375
3830,-19.531250
3831,-19.531250
3832,-19.531250
3833,-17.578125
3834,-15.625000
3835,-17.578125
3836,-15.625000
3837,-13.671875
3838,-13.671875
3839,-13.671875
3840,-13.671875
3841,-11.718750
3842,-11.718750
3843,-9.765625
3844,-9.765625
3845,-7.812500
3846,-7.812500
3847,-7.812500
3848,-7.812500
3849,-5.859375
3850,-5.859375
3851,-5.859375
3852,-3.906250
3853,-3.906250
3854,-1.953125
3855,0.000000
3856,0.000000
3857,0.000000
3858,0.000000
3859,1.953125
3860,1.953125
3861,3.906250
3862,3.906250
3863,3.906250
3864,5.859375
3865,5.859375
3866,5.859375
3867,7.812500
3868,7.812500
3869,9.765625
3870,9.765625
3871,9.765625
3872,11.718750
3873,11.718750
3874,13.671875
3875,13.671875
3876,13.671875
3877,15.625000
3878,15.625000
3879,15.625000
3880,17.578125
3881,17.578125
3882,17.578125
3883,19.531250
3884,19.531250
3885,19.531250
3886,21.484375
3887,21.484375
3888,21.484375
3889,23.437500
3890,23.437500
3891,23.437500
3892,25.390625
3893,25.390625
3894,25.390625
3895,25.390625
3896,27.343750
3897,27.343750
3898,27.343750
3899,29.296875
3900,29.296875
3901,31.250000
3902,31.250000
3903,31.250000
3904,31.250000
3905,31.250000
3906,33.203125
3907,33.203125
3908,35.156250
3909,35.156250
3910,35.156250
3911,35.156250
3912,37.109375
3913,37.109375
3914,37.109375
3915,37.109375
3916,37.109375
3917,39.062500
3918,39.062500
3919,39.062500
3920,41.015625
3921,41.015625
3922,41.015625
3923,42.968750
3924,42.968750
3925,42.968750
3926,42.968750
3927,42.968750
3928,44.921875
3929,44.921875
3930,44.921875
3931,44.921875
3932,44.921875
3933,46.875000
3934,46.875000
3935,46.875000
3936,46.875000
3937,46.875000
3938,46.875000
3939,46.875000
3940,48.828125
3941,48.828125
3942,48.828125
3943,48.828125
3944,48.828125
3945,48.828125
3946,50.781250
3947,50.781250
3948,50.781250
3949,50.781250
3950,50.781250
3951,50.781250
3952,50.781250
3953,52.734375
3954,52.734375
3955,52.734375
3956,52.734375
3957,52.734375
3958,52.734375
3959,52.734375
3960,52.734375
3961,52.734375
3962,52.734375
3963,52.734375
3964,52.734375
3965,54.687500
3966,52.734375
3967,54.687500
3968,54.687500
3969,54.687500
3970,54.687500
3971,54.687500
3972,54.687500
3973,54.687500
3974,54.687500
3975,54.687500
3976,54.687500
3977,54.687500
3978,54.687500
3979,54.687500
3980,54.687500
3981,54.687500
3982,56.640625
3983,56.640625
3984,54.687500
3985,54.687500
3986,54.687500
3987,54.687500
3988,54.687500
3989,54.687500
3990,56.640625
3991,54.687500
3992,54.687500
3993,54.687500
3994,54.687500
3995,54.687500
3996,54.687500
3997,54.687500
3998,54.687500
3999,54.687500
4000,54.687500
4001,54.687500
4002,54.687500
4003,54.687500
4004,54.687500
4005,54.687500
4006,54.687500
4007,54.687500
4008,54.687500
4009,52.734375
4010,52.734375
4011,54.687500
4012,52.734375
4013,52.734375
4014,52.734375
4015,54.687500
4016,52.734375
4017,52.734375
4018,52.734375
4019,52.734375
4020,52.734375
4021,50.781250
4022,52.734375
4023,50.781250
4024,50.781250
4025,50.781250
4026,50.781250
4027,50.781250
4028,50.781250
4029,50.781250
4030,50.781250
4031,48.828125
4032,48.828125
4033,50.781250
4034,48.828125
4035,48.828125
4036,48.828125
4037,48.828125
4038,48.828125
4039,46.875000
4040,46.875000
4041,46.875000
4042,46.875000
4043,46.875000
4044,46.875000
4045,46.875000
4046,44.921875
4047,44.921875
4048,44.921875
4049,44.921875
4050,44.921875
4051,44.921875
4052,44.921875
4053,44.921875
4054,42.968750
4055,42.968750
4056,42.968750
4057,42.968750
4058,41.015625
4059,41.015625
4060,41.015625
4061,41.015625
4062,41.015625
4063,41.015625
4064,39.062500
4065,39.062500
4066,39.062500
4067,39.062500
4068,39.062500
4069,37.109375
4070,37.109375
4071,37.109375
4072,37.109375
4073,35.156250
4074,35.156250
4075,35.156250
4076,35.156250
4077,33.203125
4078,33.203125
4079,33.203125
4080,33.203125
4081,31.250000
4082,31.250000
4083,31.250000
4084,29.296875
4085,29.296875
4086,29.296875
4087,29.296875
4088,27.343750
4089,27.343750
4090,27.343750
4091,27.343750
4092,25.390625
4093,25.390625
4094,25.390625
4095,23.437500
4096,23.437500
4097,23.437500
4098,21.484375
4099,21.484375
4100,21.484375
4101,21.484375
4102,19.531250
4103,19.531250
4104,17.578125
4105,17.578125
4106,17.578125
4107,17.578125
4108,15.625000
4109,15.625000
4110,15.625000
4111,15.625000
4112,13.671875
4113,11.718750
4114,11.718750
4115,11.718750
4116,9.765625
4117,9.765625
4118,9.765625
4119,7.812500
4120,7.812500
4121,7.812500
4122,7.812500
4123,5.859375
4124,3.906250
4125,3.906250
4126,3.906250
4127,3.906250
4128,1.953125
4129,1.953125
4130,0.000000
4131,0.000000
4132,0.000000
4133,-1.953125
4134,-1.953125
4135,-3.906250
4136,-3.906250
4137,-3.906250
4138,-5.859375
4139,-7.812500
4140,-7.812500
4141,-7.812500
4142,-7.812500
4143,-9.765625
4144,-9.765625
4145,-9.765625
4146,-11.718750
4147,-11.718750
4148,-13.671875
4149,-13.671875
4150,-15.625000
4151,-15.625000
4152,-15.625000
4153,-17.578125
4154,-17.578125
4155,-17.578125
4156,-19.531250
4157,-19.531250
4158,-21.484375
4159,-21.484375
4160,-23.437500
4161,-23.437500
4162,-23.437500
4163,-25.390625
4164,-25.390625
4165,-27.343750
4166,-27.343750
4167,-27.343750
4168,-29.296875
4169,-29.296875
4170,-29.296875
4171,-31.250000
4172,-31.250000
4173,-33.203125
4174,-33.203125
4175,-33.203125
4176,-35.156250
4177,-35.156250
4178,-35.156250
4179,-37.109375
4180,-37.109375
4181,-37.109375
4182,-39.062500
4183,-39.062500
4184,-41.015625
4185,-41.015625
4186,-41.015625
4187,-42.968750
4188,-42.968750
4189,-42.968750
4190,-44.921875
4191,-44.921875
4192,-44.921875
4193,-46.875000
4194,-46.875000
4195,-46.875000
4196,-46.875000
4197,-48.828125
4198,-48.828125
4199,-48.828125
4200,-50.781250
4201,-50.781250
4202,-50.781250
4203,-50.781250
4204,-52.734375
4205,-52.734375
4206,-52.734375
4207,-54.687500
4208,-54.687500
4209,-54.687500
4210,-56.640625
4211,-56.640625
4212,-56.640625
4213,-58.593750
4214,-58.593750
4215,-58.593750
4216,-58.593750
4217,-60.546875
4218,-60.546875
4219,-60.546875
4220,-60.546875
4221,-60.546875
4222,-62.500000
4223,-62.500000
4224,-62.500000
4225,-62.500000
4226,-64.453125
4227,-64.453125
4228,-64.453125
4229,-64.453125
4230,-64.453125
4231,-66.406250
4232,-66.406250
4233,-66.406250
4234,-66.406250
4235,-66.406250
4236,-66.406250
4237,-68.359375
4238,-68.359375
4239,-68.359375
4240,-68.359375
4241,-68.359375
4242,-68.359375
4243,-70.312500
4244,-70.312500
4245,-70.312500
4246,-70.312500
4247,-70.312500
4248,-70.312500
4249,-72.265625
4250,-72.265625
4251,-72.265625
4252,-72.265625
4253,-72.265625
4254,-74.218750
4255,-72.265625
4256,-72.265625
4257,-74.218750
4258,-74.218750
4259,-74.218750
4260,-74.218750
4261,-74.218750
4262,-74.218750
4263,-74.218750
4264,-76.171875
4265,-74.218750
4266,-74.218750
4267,-76.171875
4268,-76.171875
4269,-76.171875
4270,-76.171875
4271,-76.171875
4272,-76.171875
4273,-76.171875
4274,-76.171875
4275,-76.171875
4276,-76.171875
4277,-76.171875
4278,-76.171875
4279,-78.125000
4280,-76.171875
4281,-76.171875
4282,-76.171875
4283,-76.171875
4284,-76.171875
4285,-76.171875
4286,-78.125000
4287,-76.171875
4288,-76.171875
4289,-76.171875
4290,-76.171875
4291,-76.171875
4292,-76.171875
4293,-78.125000
4294,-76.171875
4295,-76.171875
4296,-76.171875
4297,-76.171875
4298,-76.171875
4299,-76.171875
4300,-76.171875
4301,-76.171875
4302,-74.218750
4303,-76.171875
4304,-74.218750
4305,-74.218750
4306,-74.218750
4307,-74.218750
4308,-74.218750
4309,-74.218750
4310,-74.218750
4311,-74.218750
4312,-72.265625
4313,-72.265625
4314,-72.265625
4315,-72.265625
4316,-72.265625
4317,-72.265625
4318,-72.265625
4319,-72.265625
4320,-70.312500
4321,-70.312500
4322,-70.312500
4323,-70.312500
4324,-70.312500
4325,-70.312500
4326,-70.312500
4327,-68.359375
4328,-68.359375
4329,-68.359375
4330,-68.359375
4331,-68.359375
4332,-66.406250
4333,-66.406250
4334,-66.406250
4335,-66.406250
4336,-66.406250
4337,-64.453125
4338,-64.453125
4339,-64.453125
4340,-64.453125
4341,-64.453125
4342,-62.500000
4343,-62.500000
4344,-62.500000
4345,-62.500000
4346,-62.500000
4347,-60.546875
4348,-60.546875
4349,-60.546875
4350,-60.546875
4351,-58.593750
4352,-58.593750
4353,-58.593750
4354,-58.593750
4355,-58.593750
4356,-56.640625
4357,-56.640625
4358,-56.640625
4359,-54.687500
4360,-54.687500
4361,-52.734375
4362,-52.734375
4363,-52.734375
4364,-52.734375
4365,-52.734375
4366,-50.781250
4367,-50.781250
4368,-50.781250
4369,-48.828125
4370,-48.828125
4371,-48.828125
4372,-46.875000
4373,-46.875000
4374,-46.875000
4375,-46.875000
4376,-44.921875
4377,-44.921875
4378,-42.968750
4379,-42.968750
4380,-42.968750
4381,-41.015625
4382,-41.015625
4383,-41.015625
4384,-39.062500
4385,-39.062500
4386,-39.062500
4387,-37.109375
4388,-37.109375
4389,-37.109375
4390,-35.156250
4391,-35.156250
4392,-33.203125
4393,-33.203125
4394,-33.203125
4395,-33.203125
4396,-31.250000
4397,-31.250000
4398,-31.250000
4399,-31.250000
4400,-29.296875
4401,-29.296875
4402,-27.343750
4403,-27.343750
4404,-27.343750
4405,-25.390625
4406,-25.390625
4407,-23.437500
4408,-23.437500
4409,-23.437500
4410,-21.484375
4411,-21.484375
4412,-21.484375
4413,-21.484375
4414,-19.531250
4415,-19.531250
4416,-17.578125
4417,-17.578125
4418,-15.625000
4419,-17.578125
4420,-13.671875
4421,-13.671875
4422,-13.671875
4423,-13.671875
4424,-11.718750
4425,-11.718750
4426,-9.765625
4427,-9.765625
4428,-9.765625
4429,-7.812500
4430,-5.859375
4431,-5.859375
4432,-5.859375
4433,-3.906250
4434,-3.906250
4435,-3.906250
4436,-1.953125
4437,-1.953125
4438,0.000000
4439,0.000000
4440,0.000000
4441,1.953125
4442,1.953125
4443,3.906250
4444,3.906250
4445,5.859375
4446,5.859375
4447,5.859375
4448,7.812500
4449,7.812500
4450,7.812500
4451,9.765625
4452,9.765625
4453,9.765625
4454,11.718750
4455,11.718750
4456,11.718750
4457,13.671875
4458,13.671875
4459,15.625000
4460,15.625000
4461,15.625000
4462,17.578125
4463,17.578125
4464,17.578125
4465,17.578125
4466,19.531250
4467,19.531250
4468,19.531250
4469,21.484375
4470,21.484375
4471,21.484375
4472,23.437500
4473,23.437500
4474,23.437500
4475,25.390625
4476,25.390625
4477,27.343750
4478,27.343750
4479,27.343750
4480,29.296875
4481,29.296875
4482,29.296875
4483,29.296875
4484,31.250000
4485,31.250000
4486,31.250000
4487,33.203125
4488,33.203125
4489,33.203125
4490,35.156250
4491,35.156250
4492,35.156250
4493,35.156250
4494,37.109375
4495,35.156250
4496,37.109375
4497,39.062500
4498,39.062500
4499,39.062500
4500,39.062500
4501,39.062500
4502,41.015625
4503,41.015625
4504,41.015625
4505,41.015625
4506,41.015625
4507,42.968750
4508,42.968750
4509,42.968750
4510,42.968750
4511,44.921875
4512,44.921875
4513,44.921875
4514,44.921875
4515,46.875000
4516,46.875000
4517,46.875000
4518,46.875000
4519,46.875000
4520,46.875000
4521,46.875000
4522,48.828125
4523,48.828125
4524,48.828125
4525,48.828125
4526,48.828125
4527,48.828125
4528,48.828125
4529,50.781250
4530,50.781250
4531,50.781250
4532,50.781250
4533,50.781250
4534,50.781250
4535,50.781250
4536,52.734375
4537,52.734375
4538,52.734375
4539,52.734375
4540,52.734375
4541,52.734375
4542,52.734375
4543,52.734375
4544,52.734375
4545,52.734375
4546,54.687500
4547,54.687500
4548,52.734375
4549,54.687500
4550,54.687500
4551,54.687500
4552,54.687500
4553,54.687500
4554,54.687500
4555,54.687500
4556,54.687500
4557,54.687500
4558,52.734375
4559,54.687500
4560,58.593750
4561,54.687500
4562,54.687500
4563,54.687500
4564,54.687500
4565,54.687500
4566,54.687500
4567,54.687500
4568,56.640625
4569,54.687500
4570,54.687500
4571,54.687500
4572,56.640625
4573,54.687500
4574,54.687500
4575,54.687500
4576,54.687500
4577,56.640625
4578,56.640625
4579,54.687500
4580,54.687500
4581,54.687500
4582,54.687500
4583,54.687500
4584,54.687500
4585,54.687500
4586,54.687500
4587,54.687500
4588,54.687500
4589,54.687500
4590,54.687500
4591,54.687500
4592,54.687500
4593,54.687500
4594,54.687500
4595,56.640625
4596,52.734375
4597,52.734375
4598,52.734375
4599,52.734375
4600,52.734375
4601,52.734375
4602,52.734375
4603,52.734375
4604,50.781250
4605,52.734375
4606,50.781250
4607,50.781250
4608,50.781250
4609,50.781250
4610,50.781250
4611,50.781250
4612,50.781250
4613,48.828125
4614,48.828125
4615,48.828125
4616,48.828125
4617,48.828125
4618,48.828125
4619,48.828125
4620,46.875000
4621,48.828125
4622,46.875000
4623,46.875000
4624,46.875000
4625,46.875000
4626,46.875000
4627,46.875000
4628,46.875000
4629,44.921875
4630,44.921875
4631,44.921875
4632,44.921875
4633,44.921875
4634,44.921875
4635,44.921875
4636,42.968750
4637,42.968750
4638,42.968750
4639,42.968750
4640,41.015625
4641,42.968750
4642,41.015625
4643,41.015625
4644,41.015625
4645,41.015625
4646,39.062500
4647,39.062500
4648,39.062500
4649,39.062500
4650,39.062500
4651,37.109375
4652,37.109375
4653,37.109375
4654,37.109375
4655,37.109375
4656,35.156250
4657,35.156250
4658,35.156250
4659,33.203125
4660,33.203125
4661,33.203125
4662,31.250000
4663,31.250000
4664,31.250000
4665,31.250000
4666,29.296875
4667,29.296875
4668,29.296875
4669,29.296875
4670,27.343750
4671,27.343750
4672,27.343750
4673,25.390625
4674,25.390625
4675,25.390625
4676,25.390625
4677,23.437500
4678,23.437500
4679,23.437500
4680,23.437500
4681,21.484375
4682,19.531250
4683,19.531250
4684,19.531250
4685,19.531250
4686,19.531250
4687,19.531250
4688,17.578125
4689,17.578125
4690,15.625000
4691,13.671875
4692,15.625000
4693,13.671875
4694,13.671875
4695,11.718750
4696,11.718750
4697,11.718750
4698,11.718750
4699,9.765625
4700,9.765625
4701,9.765625
4702,7.812500
4703,7.812500
4704,7.812500
4705,5.859375
4706,5.859375
4707,3.906250
4708,3.906250
4709,3.906250
4710,1.953125
4711,1.953125
4712,1.953125
4713,0.000000
4714,0.000000
4715,-1.953125
4716,-1.953125
4717,-3.906250
4718,-3.906250
4719,-3.906250
4720,-5.859375
4721,-3.906250
4722,-5.859375
4723,-7.812500
4724,-7.812500
4725,-9.765625
4726,-9.765625
4727,-9.765625
4728,-11.718750
4729,-11.718750
4730,-13.671875
4731,-13.671875
4732,-13.671875
4733,-15.625000
4734,-15.625000
4735,-17.578125
4736,-17.578125
4737,-17.578125
4738,-19.531250
4739,-19.531250
4740,-21.484375
4741,-21.484375
4742,-21.484375
4743,-23.437500
4744,-23.437500
4745,-23.437500
4746,-25.390625
4747,-25.390625
4748,-25.390625
4749,-27.343750
4750,-29.296875
4751,-29.296875
4752,-29.296875
4753,-29.296875
4754,-31.250000
4755,-31.250000
4756,-33.203125
4757,-33.203125
4758,-33.203125
4759,-35.156250
4760,-35.156250
4761,-35.156250
4762,-37.109375
4763,-37.109375
4764,-37.109375
4765,-39.062500
4766,-39.062500
4767,-39.062500
4768,-41.015625
4769,-41.015625
4770,-41.015625
4771,-42.968750
4772,-42.968750
4773,-42.968750
4774,-44.921875
4775,-44.921875
4776,-46.875000
4777,-46.875000
4778,-46.875000
4779,-48.828125
4780,-48.828125
4781,-48.828125
4782,-48.828125
4783,-48.828125
4784,-50.781250
4785,-50.781250
4786,-52.734375
4787,-52.734375
4788,-52.734375
4789,-54.687500
4790,-54.687500
4791,-54.687500
4792,-54.687500
4793,-56.640625
4794,-56.640625
4795,-56.640625
4796,-58.593750
4797,-58.593750
4798,-58.593750
4799,-58.593750
4800,-60.546875
4801,-60.546875
4802,-60.546875
4803,-60.546875
4804,-62.500000
4805,-62.500000
4806,-62.500000
4807,-62.500000
4808,-62.500000
4809,-62.500000
4810,-64.453125
4811,-64.453125
4812,-64.453125
4813,-64.453125
4814,-66.406250
4815,-66.406250
4816,-66.406250
4817,-66.406250
4818,-68.359375
4819,-68.359375
4820,-68.359375
4821,-68.359375
4822,-68.359375
4823,-68.359375
4824,-68.359375
4825,-68.359375
4826,-70.312500
4827,-70.312500
4828,-70.312500
4829,-70.312500
4830,-70.312500
4831,-70.312500
4832,-72.265625
4833,-72.265625
4834,-72.265625
4835,-72.265625
4836,-72.265625
4837,-72.265625
4838,-72.265625
4839,-74.218750
4840,-74.218750
4841,-74.218750
4842,-74.218750
4843,-74.218750
4844,-74.218750
4845,-74.218750
4846,-74.218750
4847,-74.218750
4848,-74.218750
4849,-74.218750
4850,-76.171875
4851,-76.171875
4852,-74.218750
4853,-76.171875
4854,-76.171875
4855,-76.171875
4856,-76.171875
4857,-76.171875
4858,-76.171875
4859,-76.171875
4860,-76.171875
4861,-76.171875
4862,-76.171875
4863,-76.171875
4864,-76.171875
4865,-76.171875
4866,-76.171875
4867,-76.171875
4868,-76.171875
4869,-76.171875
4870,-76.171875
4871,-76.171875
4872,-76.171875
4873,-76.171875
4874,-76.171875
4875,-76.171875
4876,-76.171875
4877,-76.171875
4878,-76.171875
4879,-76.171875
4880,-76.171875
4881,-76.171875
4882,-76.171875
4883,-76.171875
4884,-76.171875
4885,-74.218750
4886,-74.218750
4887,-74.218750
4888,-74.218750
4889,-74.218750
4890,-74.218750
4891,-74.218750
4892,-74.218750
4893,-74.218750
4894,-72.265625
4895,-72.265625
4896,-72.265625
4897,-72.265625
4898,-72.265625
4899,-72.265625
4900,-72.265625
4901,-72.265625
4902,-70.312500
4903,-70.312500
4904,-70.312500
4905,-70.312500
4906,-70.312500
4907,-70.312500
4908,-68.359375
4909,-68.359375
4910,-68.359375
4911,-68.359375
4912,-68.359375
4913,-68.359375
4914,-68.359375
4915,-66.406250
4916,-66.406250
4917,-66.406250
4918,-66.406250
4919,-66.406250
4920,-64.453125
4921,-64.453125
4922,-64.453125
4923,-64.453125
4924,-64.453125
4925,-62.500000
4926,-62.500000
4927,-62.500000
4928,-62.500000
4929,-60.546875
4930,-60.546875
4931,-60.546875
4932,-60.546875
4933,-58.593750
4934,-58.593750
4935,-58.593750
4936,-58.593750
4937,-56.640625
4938,-56.640625
4939,-56.640625
4940,-56.640625
4941,-54.687500
4942,-54.687500
4943,-54.687500
4944,-52.734375
4945,-52.734375
4946,-52.734375
4947,-52.734375
4948,-50.781250
4949,-50.781250
4950,-50.781250
4951,-48.828125
4952,-48.828125
4953,-48.828125
4954,-48.828125
4955,-46.875000
4956,-46.875000
4957,-44.921875
4958,-44.921875
4959,-44.921875
4960,-44.921875
4961,-42.968750
4962,-42.968750
4963,-41.015625
4964,-41.015625
4965,-41.015625
4966,-39.062500
4967,-41.015625
4968,-39.062500
4969,-39.062500
4970,-37.109375
4971,-37.109375
4972,-35.156250
4973,-35.156250
4974,-35.156250
4975,-35.156250
4976,-33.203125
4977,-33.203125
4978,-33.203125
4979,-31.250000
4980,-31.250000
4981,-29.296875
4982,-29.296875
4983,-29.296875
4984,-29.296875
4985,-27.343750
4986,-27.343750
4987,-27.343750
4988,-25.390625
4989,-25.390625
4990,-25.390625
4991,-23.437500
4992,-21.484375
4993,-21.484375
4994,-21.484375
4995,-19.531250
4996,-19.531250
4997,-19.531250
4998,-17.578125
4999,-17.578125
5000,-17.578125
5001,-15.625000
5002,-15.625000
5003,-15.625000
5004,-13.671875
5005,-13.671875
5006,-11.718750
5007,-11.718750
5008,-9.765625
5009,-9.765625
5010,-9.765625
5011,-7.812500
5012,-7.812500
5013,-5.859375
5014,-5.859375
5015,-5.859375
5016,-3.906250
5017,-3.906250
5018,-1.953125
5019,-1.953125
5020,-1.953125
5021,0.000000
5022,0.000000
5023,1.953125
5024,1.953125
5025,1.953125
5026,1.953125
5027,3.906250
5028,3.906250
5029,5.859375
5030,5.859375
5031,5.859375
5032,7.812500
5033,7.812500
5034,9.765625
5035,9.765625
5036,9.765625
5037,11.718750
5038,11.718750
5039,13.671875
5040,13.671875
5041,13.671875
5042,15.625000
5043,15.625000
5044,15.625000
5045,17.578125
5046,17.578125
5047,17.578125
5048,19.531250
5049,19.531250
5050,19.531250
5051,21.484375
5052,21.484375
5053,21.484375
5054,23.437500
5055,23.437500
5056,23.437500
5057,25.390625
5058,25.390625
5059,25.390625
5060,27.343750
5061,27.343750
5062,27.343750
5063,29.296875
5064,29.296875
5065,29.296875
5066,29.296875
5067,29.296875
5068,31.250000
5069,31.250000
5070,33.203125
5071,33.203125
5072,33.203125
5073,33.203125
5074,35.156250
5075,35.156250
5076,35.156250
5077,35.156250
5078,37.109375
5079,37.109375
5080,37.109375
5081,39.062500
5082,39.062500
5083,39.062500
5084,39.062500
5085,39.062500
5086,41.015625
5087,41.015625
5088,41.015625
5089,41.015625
5090,42.968750
5091,42.968750
5092,42.968750
5093,42.968750
5094,44.921875
5095,44.921875
5096,44.921875
5097,44.921875
5098,44.921875
5099,46.875000
5100,46.875000
5101,46.875000
5102,46.875000
5103,46.875000
5104,46.875000
5105,48.828125
5106,48.828125
5107,48.828125
5108,48.828125
5109,48.828125
5110,50.781250
5111,48.828125
5112,48.828125
5113,50.781250
5114,50.781250
5115,50.781250
5116,50.781250
5117,50.781250
5118,50.781250
5119,50.781250
5120,50.781250
5121,52.734375
5122,52.734375
5123,52.734375
5124,52.734375
5125,52.734375
5126,52.734375
5127,52.734375
5128,52.734375
5129,52.734375
5130,52.734375
5131,52.734375
5132,54.687500
5133,54.687500
5134,54.687500
5135,54.687500
5136,52.734375
5137,54.687500
5138,54.687500
5139,54.687500
5140,54.687500
5141,54.687500
5142,54.687500
5143,54.687500
5144,54.687500
5145,54.687500
5146,54.687500
5147,54.687500
5148,56.640625
5149,54.687500
5150,54.687500
5151,54.687500
5152,54.687500
5153,54.687500
5154,54.687500
5155,54.687500
5156,54.687500
5157,54.687500
5158,54.687500
5159,54.687500
5160,54.687500
5161,54.687500
5162,54.687500
5163,54.687500
5164,54.687500
5165,54.687500
5166,54.687500
5167,54.687500
5168,54.687500
5169,54.687500
5170,54.687500
5171,54.687500
5172,54.687500
5173,54.687500
5174,52.734375
5175,54.687500
5176,52.734375
5177,52.734375
5178,52.734375
5179,52.734375
5180,52.734375
5181,52.734375
5182,52.734375
5183,52.734375
5184,52.734375
5185,52.734375
5186,52.734375
5187,50.781250
5188,50.781250
5189,50.781250
5190,50.781250
5191,50.781250
5192,50.781250
5193,50.781250
5194,50.781250
5195,48.828125
5196,50.781250
5197,48.828125
5198,48.828125
5199,48.828125
5200,46.875000
5201,48.828125
5202,48.828125
5203,48.828125
5204,48.828125
5205,46.875000
5206,46.875000
5207,46.875000
5208,46.875000
5209,46.875000
5210,46.875000
5211,46.875000
5212,44.921875
5213,44.921875
5214,44.921875
5215,44.921875
5216,44.921875
5217,42.968750
5218,42.968750
5219,42.968750
5220,42.968750
5221,42.968750
5222,42.968750
5223,42.968750
5224,41.015625
5225,41.015625
5226,41.015625
5227,41.015625
5228,39.062500
5229,39.062500
5230,39.062500
5231,39.062500
5232,39.062500
5233,37.109375
5234,37.109375
5235,37.109375
5236,37.109375
5237,37.109375
5238,35.156250
5239,35.156250
5240,35.156250
5241,35.156250
5242,33.203125
5243,33.203125
5244,31.250000
5245,31.250000
5246,31.250000
5247,31.250000
5248,29.296875
5249,29.296875
5250,29.296875
5251,29.296875
5252,29.296875
5253,27.343750
5254,27.343750
5255,27.343750
5256,27.343750
5257,25.390625
5258,25.390625
5259,25.390625
5260,23.437500
5261,23.437500
5262,23.437500
5263,21.484375
5264,21.484375
5265,21.484375
5266,21.484375
5267,19.531250
5268,19.531250
5269,19.531250
5270,17.578125
5271,17.578125
5272,17.578125
5273,15.625000
5274,15.625000
5275,15.625000
5276,13.671875
5277,13.671875
5278,13.671875
5279,11.718750
5280,11.718750
5281,9.765625
5282,9.765625
5283,9.765625
5284,7.812500
5285,7.812500
5286,7.812500
5287,5.859375
5288,5.859375
5289,5.859375
5290,5.859375
5291,3.906250
5292,3.906250
5293,1.953125
5294,1.953125
5295,0.000000
5296,0.000000
5297,0.000000
5298,-1.953125
5299,-1.953125
5300,-3.906250
5301,-3.906250
5302,-3.906250
5303,-5.859375
5304,-5.859375
5305,-7.812500
5306,-7.812500
5307,-7.812500
5308,-9.765625
5309,-9.765625
5310,-11.718750
5311,-11.718750
5312,-11.718750
5313,-13.671875
5314,-13.671875
5315,-15.625000
5316,-15.625000
5317,-15.625000
5318,-17.578125
5319,-17.578125
5320,-17.578125
5321,-19.531250
5322,-19.531250
5323,-19.531250
5324,-21.484375
5325,-23.437500
5326,-23.437500
5327,-23.437500
5328,-23.437500
5329,-25.390625
5330,-27.343750
5331,-27.343750
5332,-27.343750
5333,-27.343750
5334,-29.296875
5335,-29.296875
5336,-29.296875
5337,-31.250000
5338,-33.203125
5339,-33.203125
5340,-33.203125
5341,-33.203125
5342,-35.156250
5343,-35.156250
5344,-35.156250
5345,-37.109375
5346,-37.109375
5347,-37.109375
5348,-39.062500
5349,-39.062500
5350,-39.062500
5351,-41.015625
5352,-41.015625
5353,-41.015625
5354,-42.968750
5355,-42.968750
5356,-42.968750
5357,-44.921875
5358,-44.921875
5359,-46.875000
5360,-46.875000
5361,-46.875000
5362,-46.875000
5363,-48.828125
5364,-48.828125
5365,-48.828125
5366,-50.781250
5367,-50.781250
5368,-50.781250
5369,-50.781250
5370,-52.734375
5371,-52.734375
5372,-52.734375
5373,-54.687500
5374,-54.687500
5375,-56.640625
5376,-56.640625
5377,-56.640625
5378,-56.640625
5379,-58.593750
5380,-56.640625
5381,-58.593750
5382,-58.593750
5383,-58.593750
5384,-60.546875
5385,-60.546875
5386,-60.546875
5387,-60.546875
5388,-62.500000
5389,-62.500000
5390,-62.500000
5391,-62.500000
5392,-64.453125
5393,-64.453125
5394,-64.453125
5395,-64.453125
5396,-64.453125
5397,-64.453125
5398,-66.406250
5399,-66.406250
5400,-66.406250
5401,-66.406250
5402,-66.406250
5403,-68.359375
5404,-68.359375
5405,-68.359375
5406,-68.359375
5407,-68.359375
5408,-70.312500
5409,-70.312500
5410,-70.312500
5411,-70.312500
5412,-70.312500
5413,-70.312500
5414,-70.312500
5415,-70.312500
5416,-72.265625
5417,-72.265625
5418,-74.218750
5419,-72.265625
5420,-72.265625
5421,-72.265625
5422,-72.265625
5423,-72.265625
5424,-74.218750
5425,-74.218750
5426,-74.218750
5427,-74.218750
5428,-74.218750
5429,-74.218750
5430,-74.218750
5431,-74.218750
5432,-74.218750
5433,-74.218750
5434,-76.171875
5435,-76.171875
5436,-74.218750
5437,-76.171875
5438,-76.171875
5439,-76.171875
5440,-76.171875
5441,-76.171875
5442,-76.171875
5443,-76.171875
5444,-76.171875
5445,-76.171875
5446,-76.171875
5447,-76.171875
5448,-76.171875
5449,-76.171875
5450,-76.171875
5451,-74.218750
5452,-76.171875
5453,-76.171875
5454,-76.171875
5455,-76.171875
5456,-76.171875
5457,-76.171875
5458,-76.171875
5459,-76.171875
5460,-76.171875
5461,-76.171875
5462,-76.171875
5463,-76.171875
5464,-76.171875
5465,-74.218750
5466,-74.218750
5467,-74.218750
5468,-74.218750
5469,-76.171875
5470,-74.218750
5471,-74.218750
5472,-74.218750
5473,-74.218750
5474,-74.218750
5475,-72.265625
5476,-72.265625
5477,-72.265625
5478,-72.265625
5479,-72.265625
5480,-72.265625
5481,-72.265625
5482,-70.312500
5483,-70.312500
5484,-70.312500
5485,-70.312500
5486,-70.312500
5487,-70.312500
5488,-70.312500
5489,-70.312500
5490,-70.312500
5491,-68.359375
5492,-68.359375
5493,-68.359375
5494,-68.359375
5495,-66.406250
5496,-68.359375
5497,-66.406250
5498,-66.406250
5499,-68.359375
5500,-66.406250
5501,-66.406250
5502,-64.453125
5503,-64.453125
5504,-64.453125
5505,-64.453125
5506,-64.453125
5507,-64.453125
5508,-62.500000
5509,-62.500000
5510,-62.500000
5511,-62.500000
5512,-60.546875
5513,-60.546875
5514,-60.546875
5515,-58.593750
5516,-58.593750
5517,-58.593750
5518,-58.593750
5519,-56.640625
5520,-56.640625
5521,-56.640625
5522,-56.640625
5523,-54.687500
5524,-54.687500
5525,-54.687500
5526,-54.687500
5527,-52.734375
5528,-52.734375
5529,-52.734375
5530,-52.734375
5531,-50.781250
5532,-48.828125
5533,-50.781250
5534,-48.828125
5535,-48.828125
5536,-46.875000
5537,-46.875000
5538,-46.875000
5539,-46.875000
5540,-46.875000
5541,-44.921875
5542,-42.968750
5543,-44.921875
5544,-42.968750
5545,-42.968750
5546,-41.015625
5547,-41.015625
5548,-41.015625
5549,-39.062500
5550,-39.062500
5551,-39.062500
5552,-39.062500
5553,-37.109375
5554,-37.109375
5555,-35.156250
5556,-35.156250
5557,-35.156250
5558,-35.156250
5559,-33.203125
5560,-33.203125
5561,-33.203125
5562,-31.250000
5563,-31.250000
5564,-31.250000
5565,-29.296875
5566,-29.296875
5567,-27.343750
5568,-27.343750
5569,-27.343750
5570,-25.390625
5571,-25.390625
5572,-25.390625
5573,-23.437500
5574,-23.437500
5575,-23.437500
5576,-21.484375
5577,-21.484375
5578,-19.531250
5579,-19.531250
5580,-19.531250
5581,-19.531250
5582,-17.578125
5583,-15.625000
5584,-15.625000
5585,-15.625000
5586,-13.671875
5587,-13.671875
5588,-13.671875
5589,-11.718750
5590,-11.718750
5591,-9.765625
5592,-9.765625
5593,-9.765625
5594,-7.812500
5595,-7.812500
5596,-5.859375
5597,-5.859375
5598,-3.906250
5599,-3.906250
5600,-3.906250
5601,-3.906250
5602,-1.953125
5603,0.000000
5604,-1.953125
5605,0.000000
5606,0.000000
5607,1.953125
5608,1.953125
5609,3.906250
5610,3.906250
5611,3.906250
5612,5.859375
5613,5.859375
5614,7.812500
5615,7.812500
5616,7.812500
5617,9.765625
5618,9.765625
5619,9.765625
5620,11.718750
5621,11.718750
5622,13.671875
5623,13.671875
5624,13.671875
5625,15.625000
5626,15.625000
5627,15.625000
5628,17.578125
5629,17.578125
5630,17.578125
5631,19.531250
5632,19.531250
5633,19.531250
5634,21.484375
5635,21.484375
5636,21.484375
5637,23.437500
5638,23.437500
5639,23.437500
5640,25.390625
5641,25.390625
5642,25.390625
5643,25.390625
5644,27.343750
5645,27.343750
5646,27.343750
5647,29.296875
5648,29.296875
5649,31.250000
5650,31.250000
5651,31.250000
5652,31.250000
5653,33.203125
5654,33.203125
5655,33.203125
5656,33.203125
5657,35.156250
5658,35.156250
5659,35.156250
5660,37.109375
5661,37.109375
5662,37.109375
5663,37.109375
5664,39.062500
5665,39.062500
5666,39.062500
5667,39.062500
5668,41.015625
5669,41.015625
5670,41.015625
5671,41.015625
5672,41.015625
5673,42.968750
5674,42.968750
5675,42.968750
5676,42.968750
5677,44.921875
5678,44.921875
5679,44.921875
5680,44.921875
5681,44.921875
5682,46.875000
5683,48.828125
5684,46.875000
5685,46.875000
5686,46.875000
5687,46.875000
5688,46.875000
5689,48.828125
5690,48.828125
5691,48.828125
5692,48.828125
5693,48.828125
5694,48.828125
5695,50.781250
5696,50.781250
5697,50.781250
5698,46.875000
5699,48.828125
5700,48.828125
5701,50.781250
5702,50.781250
5703,52.734375
5704,52.734375
5705,50.781250
5706,52.734375
5707,52.734375
5708,52.734375
5709,52.734375
5710,52.734375
5711,52.734375
5712,52.734375
5713,50.781250
5714,52.734375
5715,54.687500
5716,54.687500
5717,58.593750
5718,52.734375
5719,54.687500
5720,54.687500
5721,54.687500
5722,54.687500
5723,54.687500
5724,54.687500
5725,54.687500
5726,54.687500
5727,54.687500
5728,54.687500
5729,54.687500
5730,54.687500
5731,54.687500
5732,58.593750
5733,56.640625
5734,54.687500
5735,54.687500
5736,54.687500
5737,54.687500
5738,54.687500
5739,54.687500
5740,54.687500
5741,54.687500
5742,54.687500
5743,54.687500
5744,54.687500
5745,54.687500
5746,54.687500
5747,54.687500
5748,54.687500
5749,54.687500
5750,54.687500
5751,54.687500
5752,54.687500
5753,54.687500
5754,54.687500
5755,54.687500
5756,54.687500
5757,52.734375
5758,54.687500
5759,54.687500
5760,52.734375
5761,52.734375
5762,52.734375
5763,52.734375
5764,50.781250
5765,52.734375
5766,54.687500
5767,52.734375
5768,50.781250
5769,52.734375
5770,52.734375
5771,50.781250
5772,50.781250
5773,50.781250
5774,50.781250
5775,50.781250
5776,50.781250
5777,50.781250
5778,50.781250
5779,50.781250
5780,50.781250
5781,50.781250
5782,46.875000
5783,46.875000
5784,46.875000
5785,48.828125
5786,48.828125
5787,48.828125
5788,48.828125
5789,46.875000
5790,46.875000
5791,46.875000
5792,46.875000
5793,46.875000
5794,44.921875
5795,46.875000
5796,44.921875
5797,44.921875
5798,44.921875
5799,44.921875
5800,44.921875
5801,42.968750
5802,42.968750
5803,42.968750
5804,42.968750
5805,42.968750
5806,42.968750
5807,41.015625
5808,41.015625
5809,41.015625
5810,39.062500
5811,39.062500
5812,39.062500
5813,39.062500
5814,39.062500
5815,39.062500
5816,37.109375
5817,37.109375
5818,37.109375
5819,37.109375
5820,37.109375
5821,35.156250
5822,35.156250
5823,35.156250
5824,35.156250
5825,35.156250
5826,33.203125
5827,33.203125
5828,31.250000
5829,31.250000
5830,31.250000
5831,31.250000
5832,29.296875
5833,29.296875
5834,29.296875
5835,29.296875
5836,27.343750
5837,27.343750
5838,27.343750
5839,25.390625
5840,25.390625
5841,25.390625
5842,25.390625
5843,23.437500
5844,23.437500
5845,23.437500
5846,23.437500
5847,21.484375
5848,21.484375
5849,19.531250
5850,19.531250
5851,19.531250
5852,19.531250
5853,17.578125
5854,17.578125
5855,17.578125
5856,17.578125
5857,15.625000
5858,15.625000
5859,13.671875
5860,13.671875
5861,13.671875
5862,11.718750
5863,11.718750
5864,11.718750
5865,9.765625
5866,9.765625
5867,7.812500
5868,7.812500
5869,7.812500
5870,5.859375
5871,5.859375
5872,5.859375
5873,3.906250
5874,3.906250
5875,3.906250
5876,1.953125
5877,1.953125
5878,0.000000
5879,0.000000
5880,0.000000
5881,-1.953125
5882,-1.953125
5883,-3.906250
5884,-3.906250
5885,-3.906250
5886,-5.859375
5887,-5.859375
5888,-5.859375
5889,-7.812500
5890,-7.812500
5891,-9.765625
5892,-9.765625
5893,-9.765625
5894,-11.718750
5895,-11.718750
5896,-13.671875
5897,-13.671875
5898,-15.625000
5899,-15.625000
5900,-15.625000
5901,-17.578125
5902,-17.578125
5903,-17.578125
5904,-19.531250
5905,-19.531250
5906,-21.484375
5907,-21.484375
5908,-23.437500
5909,-23.437500
5910,-23.437500
5911,-25.390625
5912,-25.390625
5913,-25.390625
5914,-27.343750
5915,-27.343750
5916,-29.296875
5917,-29.296875
5918,-29.296875
5919,-31.250000
5920,-31.250000
5921,-31.250000
5922,-33.203125
5923,-33.203125
5924,-35.156250
5925,-35.156250
5926,-35.156250
5927,-37.109375
5928,-37.109375
5929,-37.109375
5930,-37.109375
5931,-39.062500
5932,-39.062500
5933,-39.062500
5934,-41.015625
5935,-41.015625
5936,-42.968750
5937,-42.968750
5938,-42.968750
5939,-42.968750
5940,-44.921875
5941,-44.921875
5942,-44.921875
5943,-46.875000
5944,-46.875000
5945,-48.828125
5946,-48.828125
5947,-48.828125
5948,-48.828125
5949,-48.828125
5950,-50.781250
5951,-50.781250
5952,-52.734375
5953,-52.734375
5954,-52.734375
5955,-54.687500
5956,-54.687500
5957,-54.687500
5958,-56.640625
5959,-56.640625
5960,-56.640625
5961,-56.640625
5962,-58.593750
5963,-58.593750
5964,-58.593750
5965,-58.593750
5966,-60.546875
5967,-60.546875
5968,-60.546875
5969,-60.546875
5970,-60.546875
5971,-62.500000
5972,-62.500000
5973,-64.453125
5974,-62.500000
5975,-62.500000
5976,-64.453125
5977,-64.453125
5978,-66.406250
5979,-64.453125
5980,-66.406250
5981,-66.406250
5982,-66.406250
5983,-66.406250
5984,-66.406250
5985,-68.359375
5986,-68.359375
5987,-68.359375
5988,-68.359375
5989,-70.312500
5990,-70.312500
5991,-68.359375
5992,-70.312500
5993,-70.312500
5994,-70.312500
5995,-70.312500
5996,-70.312500
5997,-72.265625
5998,-72.265625
5999,-72.265625
6000,-72.265625
6001,-72.265625
6002,-72.265625
6003,-72.265625
6004,-72.265625
6005,-72.265625
6006,-74.218750
6007,-74.218750
6008,-74.218750
6009,-74.218750
6010,-74.218750
6011,-74.218750
6012,-74.218750
6013,-74.218750
6014,-74.218750
6015,-76.171875
6016,-74.218750
6017,-74.218750
6018,-76.171875
6019,-76.171875
6020,-76.171875
6021,-76.171875
6022,-76.171875
6023,-76.171875
6024,-76.171875
6025,-76.171875
6026,-76.171875
6027,-76.171875
6028,-76.171875
6029,-76.171875
6030,-76.171875
6031,-76.171875
6032,-76.171875
6033,-76.171875
6034,-76.171875
6035,-76.171875
6036,-76.171875
6037,-76.171875
6038,-76.171875
6039,-76.171875
6040,-76.171875
6041,-76.171875
6042,-76.171875
6043,-76.171875
6044,-76.171875
6045,-76.171875
6046,-76.171875
6047,-76.171875
6048,-76.171875
6049,-76.171875
6050,-76.171875
6051,-74.218750
6052,-74.218750
6053,-74.218750
6054,-74.218750
6055,-74.218750
6056,-74.218750
6057,-72.265625
6058,-72.265625
6059,-72.265625
6060,-72.265625
6061,-72.265625
6062,-72.265625
6063,-72.265625
6064,-70.312500
6065,-72.265625
6066,-70.312500
6067,-70.312500
6068,-70.312500
6069,-70.312500
6070,-70.312500
6071,-70.312500
6072,-70.312500
6073,-70.312500
6074,-68.359375
6075,-68.359375
6076,-68.359375
6077,-68.359375
6078,-68.359375
6079,-66.406250
6080,-66.406250
6081,-66.406250
6082,-66.406250
6083,-66.406250
6084,-66.406250
6085,-64.453125
6086,-64.453125
6087,-64.453125
6088,-64.453125
6089,-62.500000
6090,-64.453125
6091,-62.500000
6092,-62.500000
6093,-62.500000
6094,-60.546875
6095,-60.546875
6096,-60.546875
6097,-60.546875
6098,-60.546875
6099,-58.593750
6100,-58.593750
6101,-58.593750
6102,-58.593750
6103,-56.640625
6104,-56.640625
6105,-56.640625
6106,-56.640625
6107,-54.687500
6108,-54.687500
6109,-52.734375
6110,-52.734375
6111,-52.734375
6112,-52.734375
6113,-50.781250
6114,-50.781250
6115,-50.781250
6116,-48.828125
6117,-48.828125
6118,-48.828125
6119,-48.828125
6120,-46.875000
6121,-46.875000
6122,-46.875000
6123,-46.875000
6124,-44.921875
6125,-44.921875
6126,-42.968750
6127,-42.968750
6128,-42.968750
6129,-41.015625
6130,-41.015625
6131,-41.015625
6132,-39.062500
6133,-39.062500
6134,-39.062500
6135,-39.062500
6136,-37.109375
6137,-37.109375
6138,-35.156250
6139,-35.156250
6140,-35.156250
6141,-35.156250
6142,-33.203125
6143,-33.203125
6144,-33.203125
6145,-31.250000
6146,-31.250000
6147,-29.296875
6148,-29.296875
6149,-29.296875
6150,-27.343750
6151,-27.343750
6152,-25.390625
6153,-25.390625
6154,-25.390625
6155,-25.390625
6156,-23.437500
6157,-23.437500
6158,-21.484375
6159,-21.484375
6160,-21.484375
6161,-19.531250
6162,-19.531250
6163,-19.531250
6164,-17.578125
6165,-17.578125
6166,-17.578125
6167,-15.625000
6168,-13.671875
6169,-13.671875
6170,-13.671875
6171,-13.671875
6172,-11.718750
6173,-9.765625
6174,-9.765625
6175,-9.765625
6176,-7.812500
6177,-7.812500
6178,-5.859375
6179,-5.859375
6180,-5.859375
6181,-5.859375
6182,-3.906250
6183,-3.906250
6184,-1.953125
6185,-1.953125
6186,-1.953125
6187,0.000000
6188,0.000000
6189,1.953125
6190,1.953125
6191,3.906250
6192,3.906250
6193,3.906250
6194,3.906250
6195,5.859375
6196,7.812500
6197,7.812500
6198,7.812500
6199,7.812500
6200,9.765625
6201,9.765625
6202,11.718750
6203,11.718750
6204,11.718750
6205,13.671875
6206,13.671875
6207,15.625000
6208,15.625000
6209,15.625000
6210,17.578125
6211,17.578125
6212,17.578125
6213,17.578125
6214,19.531250
6215,19.531250
6216,21.484375
6217,21.484375
6218,21.484375
6219,21.484375
6220,23.437500
6221,23.437500
6222,25.390625
6223,25.390625
6224,25.390625
6225,27.343750
6226,27.343750
6227,27.343750
6228,27.343750
6229,29.296875
6230,29.296875
6231,29.296875
6232,31.250000
6233,31.250000
6234,31.250000
6235,31.250000
6236,33.203125
6237,33.203125
6238,33.203125
6239,33.203125
6240,35.156250
6241,35.156250
6242,37.109375
6243,37.109375
6244,37.109375
6245,37.109375
6246,39.062500
6247,39.062500
6248,37.109375
6249,39.062500
6250,41.015625
6251,41.015625
6252,41.015625
6253,41.015625
6254,42.968750
6255,42.968750
6256,42.968750
6257,42.968750
6258,42.968750
6259,42.968750
6260,44.921875
6261,44.921875
6262,44.921875
6263,44.921875
6264,46.875000
6265,44.921875
6266,46.875000
6267,46.875000
6268,48.828125
6269,46.875000
6270,46.875000
6271,48.828125
6272,48.828125
6273,48.828125
6274,48.828125
6275,48.828125
6276,50.781250
6277,50.781250
6278,50.781250
6279,50.781250
6280,50.781250
6281,50.781250
6282,50.781250
6283,50.781250
6284,50.781250
6285,50.781250
6286,50.781250
6287,52.734375
6288,52.734375
6289,52.734375
6290,52.734375
6291,52.734375
6292,52.734375
6293,52.734375
6294,52.734375
6295,52.734375
6296,52.734375
6297,52.734375
6298,54.687500
6299,52.734375
6300,54.687500
6301,52.734375
6302,54.687500
6303,56.640625
6304,54.687500
6305,54.687500
6306,54.687500
6307,54.687500
6308,54.687500
6309,54.687500
6310,54.687500
6311,54.687500
6312,54.687500
6313,56.640625
6314,56.640625
6315,54.687500
6316,54.687500
6317,54.687500
6318,54.687500
6319,54.687500
6320,54.687500
6321,54.687500
6322,54.687500
6323,56.640625
6324,54.687500
6325,54.687500
6326,54.687500
6327,54.687500
6328,54.687500
6329,54.687500
6330,54.687500
6331,54.687500
6332,54.687500
6333,54.687500
6334,54.687500
6335,54.687500
6336,54.687500
6337,54.687500
6338,54.687500
6339,52.734375
6340,54.687500
6341,52.734375
6342,52.734375
6343,52.734375
6344,52.734375
6345,52.734375
6346,52.734375
6347,52.734375
6348,52.734375
6349,52.734375
6350,52.734375
6351,52.734375
6352,52.734375
6353,50.781250
6354,50.781250
6355,50.781250
6356,52.734375
6357,50.781250
6358,50.781250
6359,50.781250
6360,50.781250
6361,48.828125
6362,48.828125
6363,50.781250
6364,48.828125
6365,48.828125
6366,48.828125
6367,48.828125
6368,48.828125
6369,48.828125
6370,48.828125
6371,46.875000
6372,46.875000
6373,46.875000
6374,46.875000
6375,46.875000
6376,46.875000
6377,46.875000
6378,44.921875
6379,44.921875
6380,44.921875
6381,44.921875
6382,44.921875
6383,44.921875
6384,42.968750
6385,42.968750
6386,42.968750
6387,42.968750
6388,41.015625
6389,42.968750
6390,41.015625
6391,41.015625
6392,41.015625
6393,41.015625
6394,39.062500
6395,39.062500
6396,39.062500
6397,39.062500
6398,39.062500
6399,37.109375
6400,37.109375
6401,37.109375
6402,37.109375
6403,37.109375
6404,35.156250
6405,35.156250
6406,35.156250
6407,33.203125
6408,33.203125
6409,33.203125
6410,33.203125
6411,31.250000
6412,31.250000
6413,31.250000
6414,31.250000
6415,29.296875
6416,29.296875
6417,29.296875
6418,27.343750
6419,27.343750
6420,27.343750
6421,25.390625
6422,27.343750
6423,25.390625
6424,25.390625
6425,25.390625
6426,23.437500
6427,23.437500
6428,23.437500
6429,21.484375
6430,21.484375
6431,21.484375
6432,19.531250
6433,19.531250
6434,19.531250
6435,19.531250
6436,17.578125
6437,17.578125
6438,17.578125
6439,15.625000
6440,15.625000
6441,13.671875
6442,13.671875
6443,13.671875
6444,13.671875
6445,11.718750
6446,11.718750
6447,11.718750
6448,9.765625
6449,9.765625
6450,7.812500
6451,7.812500
6452,7.812500
6453,5.859375
6454,5.859375
6455,3.906250
6456,3.906250
6457,3.906250
6458,1.953125
6459,1.953125
6460,1.953125
6461,0.000000
6462,0.000000
6463,0.000000
6464,-1.953125
6465,-3.906250
6466,-3.906250
6467,-3.906250
6468,-5.859375
6469,-5.859375
6470,-5.859375
6471,-7.812500
6472,-7.812500
6473,-7.812500
6474,-9.765625
6475,-9.765625
6476,-9.765625
6477,-11.718750
6478,-13.671875
6479,-13.671875
6480,-13.671875
6481,-15.625000
6482,-15.625000
6483,-17.578125
6484,-17.578125
6485,-17.578125
6486,-19.531250
6487,-19.531250
6488,-19.531250
6489,-21.484375
6490,-21.484375
6491,-21.484375
6492,-23.437500
6493,-23.437500
6494,-25.390625
6495,-25.390625
6496,-25.390625
6497,-27.343750
6498,-27.343750
6499,-27.343750
6500,-29.296875
6501,-29.296875
6502,-31.250000
6503,-31.250000
6504,-31.250000
6505,-33.203125
6506,-33.203125
6507,-35.156250
6508,-35.156250
6509,-35.156250
6510,-37.109375
6511,-37.109375
6512,-39.062500
6513,-37.109375
6514,-39.062500
6515,-39.062500
6516,-39.062500
6517,-41.015625
6518,-41.015625
6519,-42.968750
6520,-42.968750
6521,-42.968750
6522,-42.968750
6523,-44.921875
6524,-44.921875
6525,-46.875000
6526,-46.875000
6527,-46.875000
6528,-46.875000
6529,-48.828125
6530,-48.828125
6531,-50.781250
6532,-50.781250
6533,-50.781250
6534,-50.781250
6535,-52.734375
6536,-52.734375
6537,-52.734375
6538,-54.687500
6539,-54.687500
6540,-54.687500
6541,-54.687500
6542,-56.640625
6543,-56.640625
6544,-56.640625
6545,-58.593750
6546,-58.593750
6547,-58.593750
6548,-60.546875
6549,-60.546875
6550,-60.546875
6551,-60.546875
6552,-60.546875
6553,-60.546875
6554,-62.500000
6555,-62.500000
6556,-62.500000
6557,-62.500000
6558,-62.500000
6559,-64.453125
6560,-64.453125
6561,-64.453125
6562,-66.406250
6563,-66.406250
6564,-64.453125
6565,-66.406250
6566,-66.406250
6567,-68.359375
6568,-66.406250
6569,-68.359375
6570,-68.359375
6571,-68.359375
6572,-68.359375
6573,-70.312500
6574,-68.359375
6575,-68.359375
6576,-70.312500
6577,-70.312500
6578,-70.312500
6579,-72.265625
6580,-70.312500
6581,-70.312500
6582,-72.265625
6583,-72.265625
6584,-72.265625
6585,-72.265625
6586,-72.265625
6587,-72.265625
6588,-72.265625
6589,-72.265625
6590,-74.218750
6591,-74.218750
6592,-74.218750
6593,-74.218750
6594,-74.218750
6595,-74.218750
6596,-74.218750
6597,-74.218750
6598,-74.218750
6599,-76.171875
6600,-74.218750
6601,-76.171875
6602,-76.171875
6603,-76.171875
6604,-76.171875
6605,-76.171875
6606,-76.171875
6607,-76.171875
6608,-76.171875
6609,-76.171875
6610,-76.171875
6611,-76.171875
6612,-76.171875
6613,-76.171875
6614,-76.171875
6615,-76.171875
6616,-76.171875
6617,-76.171875
6618,-76.171875
6619,-76.171875
6620,-76.171875
6621,-76.171875
6622,-76.171875
6623,-76.171875
6624,-76.171875
6625,-76.171875
6626,-76.171875
6627,-76.171875
6628,-74.218750
6629,-76.171875
6630,-74.218750
6631,-74.218750
6632,-76.171875
6633,-74.218750
6634,-74.218750
6635,-74.218750
6636,-74.218750
6637,-74.218750
6638,-74.218750
6639,-72.265625
6640,-72.265625
6641,-74.218750
6642,-72.265625
6643,-72.265625
6644,-72.265625
6645,-72.265625
6646,-72.265625
6647,-72.265625
6648,-72.265625
6649,-70.312500
6650,-70.312500
6651,-70.312500
6652,-70.312500
6653,-70.312500
6654,-70.312500
6655,-68.359375
6656,-70.312500
6657,-68.359375
6658,-68.359375
6659,-68.359375
6660,-68.359375
6661,-66.406250
6662,-68.359375
6663,-66.406250
6664,-66.406250
6665,-66.406250
6666,-66.406250
6667,-64.453125
6668,-64.453125
6669,-64.453125
6670,-64.453125
6671,-64.453125
6672,-62.500000
6673,-62.500000
6674,-62.500000
6675,-62.500000
6676,-62.500000
6677,-60.546875
6678,-60.546875
6679,-60.546875
6680,-60.546875
6681,-58.593750
6682,-58.593750
6683,-58.593750
6684,-56.640625
6685,-56.640625
6686,-56.640625
6687,-56.640625
6688,-56.640625
6689,-54.687500
6690,-54.687500
6691,-54.687500
6692,-52.734375
6693,-52.734375
6694,-52.734375
6695,-52.734375
6696,-50.781250
6697,-50.781250
6698,-50.781250
6699,-48.828125
6700,-48.828125
6701,-48.828125
6702,-46.875000
6703,-46.875000
6704,-46.875000
6705,-46.875000
6706,-44.921875
6707,-44.921875
6708,-44.921875
6709,-42.968750
6710,-42.968750
6711,-42.968750
6712,-41.015625
6713,-41.015625
6714,-39.062500
6715,-39.062500
6716,-39.062500
6717,-39.062500
6718,-37.109375
6719,-37.109375
6720,-37.109375
6721,-35.156250
6722,-35.156250
6723,-35.156250
6724,-33.203125
6725,-33.203125
6726,-33.203125
6727,-31.250000
6728,-31.250000
6729,-31.250000
6730,-29.296875
6731,-29.296875
6732,-27.343750
6733,-27.343750
6734,-27.343750
6735,-27.343750
6736,-25.390625
6737,-25.390625
6738,-23.437500
6739,-23.437500
6740,-23.437500
6741,-21.484375
6742,-21.484375
6743,-21.484375
6744,-19.531250
6745,-19.531250
6746,-19.531250
6747,-17.578125
6748,-15.625000
6749,-15.625000
6750,-15.625000
6751,-15.625000
6752,-13.671875
6753,-13.671875
6754,-13.671875
6755,-11.718750
6756,-9.765625
6757,-9.765625
6758,-9.765625
6759,-7.812500
6760,-7.812500
6761,-7.812500
6762,-5.859375
6763,-5.859375
6764,-3.906250
6765,-3.906250
6766,-3.906250
6767,-1.953125
6768,-1.953125
6769,-1.953125
6770,0.000000
6771,0.000000
6772,1.953125
6773,1.953125
6774,3.906250
6775,3.906250
6776,5.859375
6777,5.859375
6778,5.859375
6779,7.812500
6780,7.812500
6781,7.812500
6782,9.765625
6783,9.765625
6784,9.765625
6785,11.718750
6786,11.718750
6787,13.671875
6788,13.671875
6789,13.671875
6790,13.671875
6791,15.625000
6792,15.625000
6793,15.625000
6794,17.578125
6795,17.578125
6796,19.531250
6797,19.531250
6798,19.531250
6799,21.484375
6800,21.484375
6801,21.484375
6802,23.437500
6803,23.437500
6804,23.437500
6805,23.437500
6806,25.390625
6807,25.390625
6808,25.390625
6809,27.343750
6810,27.343750
6811,29.296875
6812,29.296875
6813,29.296875
6814,29.296875
6815,31.250000
6816,31.250000
6817,31.250000
6818,31.250000
6819,33.203125
6820,33.203125
6821,33.203125
6822,35.156250
6823,35.156250
6824,35.156250
6825,35.156250
6826,37.109375
6827,37.109375
6828,37.109375
6829,37.109375
6830,39.062500
6831,39.062500
6832,39.062500
6833,41.015625
6834,41.015625
6835,41.015625
6836,41.015625
6837,42.968750
6838,42.968750
6839,42.968750
6840,42.968750
6841,42.968750
6842,44.921875
6843,44.921875
6844,44.921875
6845,44.921875
6846,44.921875
6847,46.875000
6848,44.921875
6849,44.921875
6850,46.875000
6851,46.875000
6852,46.875000
6853,46.875000
6854,46.875000
6855,48.828125
6856,48.828125
6857,48.828125
6858,48.828125
6859,48.828125
6860,50.781250
6861,50.781250
6862,50.781250
6863,50.781250
6864,50.781250
6865,50.781250
6866,50.781250
6867,50.781250
6868,50.781250
6869,50.781250
6870,52.734375
6871,52.734375
6872,52.734375
6873,52.734375
6874,52.734375
6875,52.734375
6876,52.734375
6877,52.734375
6878,52.734375
6879,52.734375
6880,52.734375
6881,52.734375
6882,52.734375
6883,54.687500
6884,54.687500
6885,54.687500
6886,54.687500
6887,54.687500
6888,54.687500
6889,54.687500
6890,54.687500
6891,54.687500
6892,54.687500
6893,54.687500
6894,54.687500
6895,54.687500
6896,54.687500
6897,54.687500
6898,54.687500
6899,54.687500
6900,54.687500
6901,54.687500
6902,54.687500
6903,54.687500
6904,54.687500
6905,54.687500
6906,54.687500
6907,54.687500
6908,54.687500
6909,54.687500
6910,54.687500
6911,54.687500
6912,54.687500
6913,54.687500
6914,54.687500
6915,54.687500
6916,54.687500
6917,54.687500
6918,54.687500
6919,54.687500
6920,54.687500
6921,52.734375
6922,54.687500
6923,54.687500
6924,52.734375
6925,52.734375
6926,52.734375
6927,52.734375
6928,52.734375
6929,52.734375
6930,52.734375
6931,52.734375
6932,52.734375
6933,52.734375
6934,52.734375
6935,50.781250
6936,50.781250
6937,50.781250
6938,50.781250
6939,50.781250
6940,50.781250
6941,50.781250
6942,50.781250
6943,50.781250
6944,50.781250
6945,48.828125
6946,48.828125
6947,48.828125
6948,48.828125
6949,48.828125
6950,48.828125
6951,46.875000
6952,48.828125
6953,46.875000
6954,46.875000
6955,46.875000
6956,46.875000
6957,46.875000
6958,46.875000
6959,46.875000
6960,44.921875
6961,44.921875
6962,44.921875
6963,44.921875
6964,42.968750
6965,44.921875
6966,42.968750
6967,42.968750
6968,42.968750
6969,42.968750
6970,42.968750
6971,42.968750
6972,41.015625
6973,41.015625
6974,41.015625
6975,41.015625
6976,41.015625
6977,39.062500
6978,39.062500
6979,39.062500
6980,37.109375
6981,37.109375
6982,37.109375
6983,37.109375
6984,37.109375
6985,37.109375
6986,35.156250
6987,35.156250
6988,35.156250
6989,35.156250
6990,33.203125
6991,33.203125
6992,33.203125
6993,33.203125
6994,33.203125
6995,31.250000
6996,31.250000
6997,29.296875
6998,29.296875
6999,29.296875
7000,29.296875
7001,27.343750
7002,27.343750
7003,27.343750
7004,25.390625
7005,25.390625
7006,25.390625
7007,25.390625
7008,25.390625
7009,23.437500
7010,23.437500
7011,23.437500
7012,21.484375
7013,21.484375
7014,21.484375
7015,19.531250
7016,19.531250
7017,19.531250
7018,17.578125
7019,17.578125
7020,17.578125
7021,17.578125
7022,15.625000
7023,15.625000
7024,15.625000
7025,13.671875
7026,13.671875
7027,11.718750
7028,11.718750
7029,11.718750
7030,9.765625
7031,9.765625
7032,9.765625
7033,9.765625
7034,7.812500
7035,5.859375
7036,7.812500
7037,5.859375
7038,3.906250
7039,3.906250
7040,3.906250
7041,1.953125
7042,1.953125
7043,0.000000
7044,0.000000
7045,0.000000
7046,-1.953125
7047,-1.953125
7048,-3.906250
7049,-3.906250
7050,-3.906250
7051,-3.906250
7052,-5.859375
7053,-7.812500
7054,-7.812500
7055,-7.812500
7056,-7.812500
7057,-9.765625
7058,-9.765625
7059,-11.718750
7060,-11.718750
7061,-11.718750
7062,-13.671875
7063,-15.625000
7064,-15.625000
7065,-15.625000
7066,-17.578125
7067,-17.578125
7068,-17.578125
7069,-19.531250
7070,-19.531250
7071,-21.484375
7072,-21.484375
7073,-21.484375
7074,-23.437500
7075,-23.437500
7076,-23.437500
7077,-25.390625
7078,-25.390625
7079,-25.390625
7080,-27.343750
7081,-29.296875
7082,-27.343750
7083,-29.296875
7084,-29.296875
7085,-31.250000
7086,-31.250000
7087,-33.203125
7088,-33.203125
7089,-33.203125
7090,-33.203125
7091,-35.156250
7092,-35.156250
7093,-37.109375
7094,-37.109375
7095,-37.109375
7096,-39.062500
7097,-39.062500
7098,-39.062500
7099,-41.015625
7100,-41.015625
7101,-41.015625
7102,-42.968750
7103,-42.968750
7104,-42.968750
7105,-44.921875
7106,-44.921875
7107,-44.921875
7108,-46.875000
7109,-46.875000
7110,-46.875000
7111,-48.828125
7112,-48.828125
7113,-50.781250
7114,-48.828125
7115,-50.781250
7116,-52.734375
7117,-52.734375
7118,-52.734375
7119,-52.734375
7120,-54.687500
7121,-54.687500
7122,-54.687500
7123,-54.687500
7124,-56.640625
7125,-56.640625
7126,-56.640625
7127,-56.640625
7128,-58.593750
7129,-58.593750
7130,-58.593750
7131,-58.593750
7132,-60.546875
7133,-60.546875
7134,-60.546875
7135,-60.546875
7136,-60.546875
7137,-60.546875
7138,-62.500000
7139,-62.500000
7140,-62.500000
7141,-64.453125
7142,-64.453125
7143,-64.453125
7144,-64.453125
7145,-66.406250
7146,-64.453125
7147,-66.406250
7148,-66.406250
7149,-66.406250
7150,-66.406250
7151,-68.359375
7152,-66.406250
7153,-68.359375
7154,-68.359375
7155,-68.359375
7156,-70.312500
7157,-68.359375
7158,-70.312500
7159,-70.312500
7160,-70.312500
7161,-70.312500
7162,-70.312500
7163,-70.312500
7164,-72.265625
7165,-72.265625
7166,-72.265625
7167,-72.265625
7168,-72.265625
7169,-72.265625
7170,-74.218750
7171,-72.265625
7172,-74.218750
7173,-74.218750
7174,-74.218750
7175,-74.218750
7176,-74.218750
7177,-74.218750
7178,-74.218750
7179,-74.218750
7180,-76.171875
7181,-74.218750
7182,-76.171875
7183,-76.171875
7184,-76.171875
7185,-76.171875
7186,-76.171875
7187,-76.171875
7188,-76.171875
7189,-76.171875
7190,-76.171875
7191,-76.171875
7192,-76.171875
7193,-76.171875
7194,-76.171875
7195,-76.171875
7196,-76.171875
7197,-76.171875
7198,-76.171875
7199,-76.171875
7200,-76.171875
7201,-76.171875
7202,-76.171875
7203,-76.171875
7204,-76.171875
7205,-76.171875
7206,-76.171875
7207,-76.171875
7208,-76.171875
7209,-76.171875
7210,-76.171875
7211,-76.171875
7212,-76.171875
7213,-76.171875
7214,-76.171875
7215,-74.218750
7216,-74.218750
7217,-74.218750
7218,-74.218750
7219,-74.218750
7220,-74.218750
7221,-74.218750
7222,-74.218750
7223,-74.218750
7224,-72.265625
7225,-72.265625
7226,-72.265625
7227,-72.265625
7228,-72.265625
7229,-72.265625
7230,-72.265625
7231,-72.265625
7232,-70.312500
7233,-70.312500
7234,-70.312500
7235,-70.312500
7236,-70.312500
7237,-70.312500
7238,-70.312500
7239,-68.359375
7240,-70.312500
7241,-68.359375
7242,-68.359375
7243,-68.359375
7244,-68.359375
7245,-66.406250
7246,-66.406250
7247,-66.406250
7248,-66.406250
7249,-66.406250
7250,-66.406250
7251,-64.453125
7252,-64.453125
7253,-64.453125
7254,-64.453125
7255,-64.453125
7256,-62.500000
7257,-62.500000
7258,-62.500000
7259,-62.500000
7260,-62.500000
7261,-60.546875
7262,-60.546875
7263,-60.546875
7264,-60.546875
7265,-58.593750
7266,-58.593750
7267,-56.640625
7268,-56.640625
7269,-56.640625
7270,-56.640625
7271,-56.640625
7272,-54.687500
7273,-54.687500
7274,-54.687500
7275,-52.734375
7276,-52.734375
7277,-52.734375
7278,-52.734375
7279,-50.781250
7280,-50.781250
7281,-50.781250
7282,-48.828125
7283,-48.828125
7284,-48.828125
7285,-46.875000
7286,-46.875000
7287,-46.875000
7288,-46.875000
7289,-44.921875
7290,-44.921875
7291,-44.921875
7292,-42.968750
7293,-42.968750
7294,-42.968750
7295,-41.015625
7296,-41.015625
7297,-41.015625
7298,-41.015625
7299,-39.062500
7300,-39.062500
7301,-37.109375
7302,-37.109375
7303,-37.109375
7304,-35.156250
7305,-35.156250
7306,-35.156250
7307,-33.203125
7308,-33.203125
7309,-33.203125
7310,-33.203125
7311,-31.250000
7312,-29.296875
7313,-29.296875
7314,-29.296875
7315,-29.296875
7316,-27.343750
7317,-27.343750
7318,-27.343750
7319,-25.390625
7320,-25.390625
7321,-25.390625
7322,-23.437500
7323,-23.437500
7324,-23.437500
7325,-21.484375
7326,-19.531250
7327,-19.531250
7328,-19.531250
7329,-17.578125
7330,-17.578125
7331,-15.625000
7332,-15.625000
7333,-15.625000
7334,-13.671875
7335,-13.671875
7336,-13.671875
7337,-11.718750
7338,-11.718750
7339,-9.765625
7340,-9.765625
7341,-9.765625
7342,-7.812500
7343,-7.812500
7344,-7.812500
7345,-5.859375
7346,-5.859375
7347,-3.906250
7348,-3.906250
7349,-1.953125
7350,-1.953125
7351,-1.953125
7352,0.000000
7353,0.000000
7354,0.000000
7355,1.953125
7356,1.953125
7357,3.906250
7358,3.906250
7359,5.859375
7360,5.859375
7361,5.859375
7362,7.812500
7363,7.812500
7364,7.812500
7365,7.812500
7366,9.765625
7367,9.765625
7368,11.718750
7369,11.718750
7370,11.718750
7371,13.671875
7372,13.671875
7373,15.625000
7374,15.625000
7375,15.625000
7376,17.578125
7377,17.578125
7378,17.578125
7379,19.531250
7380,19.531250
7381,19.531250
7382,21.484375
7383,21.484375
7384,21.484375
7385,21.484375
7386,23.437500
7387,23.437500
7388,23.437500
7389,25.390625
7390,25.390625
7391,27.343750
7392,27.343750
7393,27.343750
7394,29.296875
7395,29.296875
7396,27.343750
7397,29.296875
7398,31.250000
7399,31.250000
7400,31.250000
7401,31.250000
7402,33.203125
7403,33.203125
7404,33.203125
7405,35.156250
7406,35.156250
7407,35.156250
7408,37.109375
7409,37.109375
7410,37.109375
7411,37.109375
7412,37.109375
7413,39.062500
7414,39.062500
7415,39.062500
7416,41.015625
7417,41.015625
7418,41.015625
7419,41.015625
7420,41.015625
7421,42.968750
7422,42.968750
7423,44.921875
7424,44.921875
7425,42.968750
7426,44.921875
7427,44.921875
7428,44.921875
7429,46.875000
7430,44.921875
7431,44.921875
7432,46.875000
7433,46.875000
7434,46.875000
7435,46.875000
7436,46.875000
7437,46.875000
7438,48.828125
7439,48.828125
7440,48.828125
7441,48.828125
7442,48.828125
7443,48.828125
7444,50.781250
7445,48.828125
7446,50.781250
7447,50.781250
7448,48.828125
7449,50.781250
7450,50.781250
7451,50.781250
7452,52.734375
7453,50.781250
7454,52.734375
7455,52.734375
7456,50.781250
7457,52.734375
7458,52.734375
7459,52.734375
7460,52.734375
7461,54.687500
7462,52.734375
7463,52.734375
7464,52.734375
7465,54.687500
7466,54.687500
7467,54.687500
7468,54.687500
7469,54.687500
7470,54.687500
7471,54.687500
7472,54.687500
7473,54.687500
7474,54.687500
7475,54.687500
7476,54.687500
7477,54.687500
7478,54.687500
7479,56.640625
7480,54.687500
7481,54.687500
7482,54.687500
7483,56.640625
7484,54.687500
7485,54.687500
7486,54.687500
7487,52.734375
7488,54.687500
7489,54.687500
7490,54.687500
7491,54.687500
7492,54.687500
7493,54.687500
7494,54.687500
7495,54.687500
7496,54.687500
7497,54.687500
7498,54.687500
7499,54.687500
7500,54.687500
7501,54.687500
7502,54.687500
7503,54.687500
7504,54.687500
7505,54.687500
7506,52.734375
7507,52.734375
7508,52.734375
7509,52.734375
7510,52.734375
7511,52.734375
7512,52.734375
7513,52.734375
7514,52.734375
7515,52.734375
7516,52.734375
7517,52.734375
7518,50.781250
7519,50.781250
7520,50.781250
7521,54.687500
7522,50.781250
7523,50.781250
7524,50.781250
7525,50.781250
7526,50.781250
7527,50.781250
7528,50.781250
7529,48.828125
7530,48.828125
7531,48.828125
7532,48.828125
7533,48.828125
7534,48.828125
7535,48.828125
7536,46.875000
7537,46.875000
7538,46.875000
7539,46.875000
7540,46.875000
7541,46.875000
7542,46.875000
7543,44.921875
7544,44.921875
7545,44.921875
7546,44.921875
7547,44.921875
7548,44.921875
7549,42.968750
7550,42.968750
7551,42.968750
7552,42.968750
7553,42.968750
7554,42.968750
7555,41.015625
7556,41.015625
7557,41.015625
7558,41.015625
7559,41.015625
7560,39.062500
7561,39.062500
7562,39.062500
7563,39.062500
7564,39.062500
7565,37.109375
7566,37.109375
7567,35.156250
7568,37.109375
7569,35.156250
7570,35.156250
7571,35.156250
7572,35.156250
7573,33.203125
7574,33.203125
7575,33.203125
7576,31.250000
7577,31.250000
7578,31.250000
7579,31.250000
7580,31.250000
7581,29.296875
7582,29.296875
7583,27.343750
7584,27.343750
7585,27.343750
7586,27.343750
7587,25.390625
7588,25.390625
7589,25.390625
7590,25.390625
7591,23.437500
7592,23.437500
7593,23.437500
7594,23.437500
7595,21.484375
7596,21.484375
7597,19.531250
7598,19.531250
7599,19.531250
7600,17.578125
7601,17.578125
7602,17.578125
7603,17.578125
7604,15.625000
7605,15.625000
7606,15.625000
7607,13.671875
7608,13.671875
7609,13.671875
7610,11.718750
7611,11.718750
7612,11.718750
7613,9.765625
7614,9.765625
7615,7.812500
7616,7.812500
7617,7.812500
7618,7.812500
7619,5.859375
7620,3.906250
7621,3.906250
7622,3.906250
7623,3.906250
7624,1.953125
7625,1.953125
7626,0.000000
7627,0.000000
7628,0.000000
7629,-1.953125
7630,-1.953125
7631,-1.953125
7632,-3.906250
7633,-3.906250
7634,-5.859375
7635,-5.859375
7636,-7.812500
7637,-7.812500
7638,-9.765625
7639,-9.765625
7640,-9.765625
7641,-9.765625
7642,-11.718750
7643,-13.671875
7644,-13.671875
7645,-13.671875
7646,-15.625000
7647,-15.625000
7648,-15.625000
7649,-17.578125
7650,-17.578125
7651,-19.531250
7652,-21.484375
7653,-19.531250
7654,-21.484375
7655,-21.484375
7656,-23.437500
7657,-23.437500
7658,-23.437500
7659,-25.390625
7660,-25.390625
7661,-27.343750
7662,-27.343750
7663,-27.343750
7664,-27.343750
7665,-31.250000
7666,-29.296875
7667,-31.250000
7668,-31.250000
7669,-33.203125
7670,-35.156250
7671,-33.203125
7672,-33.203125
7673,-35.156250
7674,-35.156250
7675,-37.109375
7676,-37.109375
7677,-37.109375
7678,-39.062500
7679,-39.062500
7680,-39.062500
7681,-39.062500
7682,-41.015625
7683,-41.015625
7684,-42.968750
7685,-42.968750
7686,-42.968750
7687,-44.921875
7688,-44.921875
7689,-44.921875
7690,-46.875000
7691,-46.875000
7692,-46.875000
7693,-48.828125
7694,-48.828125
7695,-48.828125
7696,-50.781250
7697,-50.781250
7698,-48.828125
7699,-52.734375
7700,-52.734375
7701,-52.734375
7702,-52.734375
7703,-52.734375
7704,-54.687500
7705,-54.687500
7706,-54.687500
7707,-56.640625
7708,-54.687500
7709,-56.640625
7710,-58.593750
7711,-58.593750
7712,-58.593750
7713,-58.593750
7714,-60.546875
7715,-60.546875
7716,-60.546875
7717,-60.546875
7718,-60.546875
7719,-62.500000
7720,-62.500000
7721,-62.500000
7722,-62.500000
7723,-62.500000
7724,-64.453125
7725,-64.453125
7726,-64.453125
7727,-64.453125
7728,-64.453125
7729,-66.406250
7730,-66.406250
7731,-66.406250
7732,-66.406250
7733,-68.359375
7734,-68.359375
7735,-68.359375
7736,-68.359375
7737,-70.312500
7738,-70.312500
7739,-68.359375
7740,-70.312500
7741,-70.312500
7742,-70.312500
7743,-70.312500
7744,-70.312500
7745,-72.265625
7746,-72.265625
7747,-72.265625
7748,-72.265625
7749,-72.265625
7750,-72.265625
7751,-74.218750
7752,-72.265625
7753,-74.218750
7754,-74.218750
7755,-74.218750
7756,-74.218750
7757,-74.218750
7758,-74.218750
7759,-74.218750
7760,-74.218750
7761,-74.218750
7762,-76.171875
7763,-74.218750
7764,-74.218750
7765,-76.171875
7766,-76.171875
7767,-76.171875
7768,-76.171875
7769,-76.171875
7770,-76.171875
7771,-76.171875
7772,-76.171875
7773,-76.171875
7774,-76.171875
7775,-76.171875
7776,-76.171875
7777,-76.171875
7778,-76.171875
7779,-76.171875
7780,-76.171875
7781,-76.171875
7782,-76.171875
7783,-76.171875
7784,-76.171875
7785,-76.171875
7786,-76.171875
7787,-76.171875
7788,-76.171875
7789,-76.171875
7790,-76.171875
7791,-76.171875
7792,-76.171875
7793,-76.171875
7794,-76.171875
7795,-74.218750
7796,-74.218750
7797,-74.218750
7798,-74.218750
7799,-74.218750
7800,-74.218750
7801,-74.218750
7802,-74.218750
7803,-74.218750
7804,-74.218750
7805,-74.218750
7806,-72.265625
7807,-72.265625
7808,-72.265625
7809,-72.265625
7810,-72.265625
7811,-72.265625
7812,-72.265625
7813,-72.265625
7814,-72.265625
7815,-72.265625
7816,-70.312500
7817,-70.312500
7818,-70.312500
7819,-70.312500
7820,-70.312500
7821,-68.359375
7822,-68.359375
7823,-68.359375
7824,-68.359375
7825,-68.359375
7826,-68.359375
7827,-68.359375
7828,-66.406250
7829,-66.406250
7830,-66.406250
7831,-66.406250
7832,-66.406250
7833,-64.453125
7834,-64.453125
7835,-64.453125
7836,-64.453125
7837,-62.500000
7838,-62.500000
7839,-62.500000
7840,-62.500000
7841,-62.500000
7842,-60.546875
7843,-60.546875
7844,-60.546875
7845,-58.593750
7846,-58.593750
7847,-58.593750
7848,-58.593750
7849,-58.593750
7850,-56.640625
7851,-56.640625
7852,-56.640625
7853,-56.640625
7854,-54.687500
7855,-54.687500
7856,-54.687500
7857,-54.687500
7858,-52.734375
7859,-52.734375
7860,-52.734375
7861,-50.781250
7862,-50.781250
7863,-50.781250
7864,-48.828125
7865,-48.828125
7866,-48.828125
7867,-46.875000
7868,-46.875000
7869,-46.875000
7870,-46.875000
7871,-44.921875
7872,-44.921875
7873,-44.921875
7874,-42.968750
7875,-42.968750
7876,-42.968750
7877,-42.968750
7878,-41.015625
7879,-41.015625
7880,-39.062500
7881,-39.062500
7882,-39.062500
7883,-37.109375
7884,-37.109375
7885,-37.109375
7886,-35.156250
7887,-35.156250
7888,-35.156250
7889,-35.156250
7890,-33.203125
7891,-33.203125
7892,-31.250000
7893,-31.250000
7894,-29.296875
7895,-31.250000
7896,-29.296875
7897,-27.343750
7898,-27.343750
7899,-27.343750
7900,-27.343750
7901,-25.390625
7902,-25.390625
7903,-23.437500
7904,-23.437500
7905,-23.437500
7906,-21.484375
7907,-21.484375
7908,-21.484375
7909,-19.531250
7910,-19.531250
7911,-19.531250
7912,-17.578125
7913,-17.578125
7914,-15.625000
7915,-15.625000
7916,-15.625000
7917,-13.671875
7918,-13.671875
7919,-11.718750
7920,-11.718750
7921,-11.718750
7922,-9.765625
7923,-9.765625
7924,-7.812500
7925,-7.812500
7926,-5.859375
7927,-5.859375
7928,-5.859375
7929,-5.859375
7930,-3.906250
7931,-1.953125
7932,-1.953125
7933,-1.953125
7934,0.000000
7935,0.000000
7936,0.000000
7937,1.953125
7938,1.953125
7939,1.953125
7940,3.906250
7941,3.906250
7942,5.859375
7943,5.859375
7944,7.812500
7945,7.812500
7946,7.812500
7947,7.812500
7948,9.765625
7949,9.765625
7950,11.718750
7951,11.718750
7952,11.718750
7953,13.671875
7954,13.671875
7955,13.671875
7956,15.625000
7957,15.625000
7958,17.578125
7959,17.578125
7960,17.578125
7961,19.531250
7962,19.531250
7963,19.531250
7964,19.531250
7965,21.484375
7966,21.484375
7967,23.437500
7968,23.437500
7969,23.437500
7970,23.437500
7971,25.390625
7972,25.390625
7973,25.390625
7974,27.343750
7975,27.343750
7976,27.343750
7977,29.296875
7978,29.296875
7979,29.296875
7980,29.296875
7981,31.250000
7982,31.250000
7983,31.250000
7984,33.203125
7985,33.203125
7986,33.203125
7987,33.203125
7988,35.156250
7989,35.156250
7990,35.156250
7991,37.109375
7992,37.109375
7993,39.062500
7994,37.109375
7995,39.062500
7996,39.062500
7997,39.062500
7998,41.015625
7999,41.015625
8000,41.015625
8001,41.015625
8002,42.968750
8003,42.968750
8004,42.968750
8005,42.968750
8006,42.968750
8007,42.968750
8008,44.921875
8009,44.921875
8010,44.921875
8011,44.921875
8012,44.921875
8013,44.921875
8014,46.875000
8015,46.875000
8016,46.875000
8017,46.875000
8018,46.875000
8019,46.875000
8020,48.828125
8021,48.828125
8022,48.828125
8023,48.828125
8024,48.828125
8025,48.828125
8026,50.781250
8027,50.781250
8028,50.781250
8029,50.781250
8030,50.781250
8031,50.781250
8032,50.781250
8033,50.781250
8034,50.781250
8035,52.734375
8036,52.734375
8037,52.734375
8038,52.734375
8039,52.734375
8040,52.734375
8041,52.734375
8042,52.734375
8043,52.734375
8044,52.734375
8045,54.687500
8046,52.734375
8047,54.687500
8048,54.687500
8049,54.687500
8050,54.687500
8051,54.687500
8052,54.687500
8053,54.687500
8054,52.734375
8055,54.687500
8056,54.687500
8057,54.687500
8058,54.687500
8059,54.687500
8060,54.687500
8061,54.687500
8062,54.687500
8063,54.687500
8064,56.640625
8065,54.687500
8066,54.687500
8067,54.687500
8068,54.687500
8069,54.687500
8070,54.687500
8071,54.687500
8072,54.687500
8073,54.687500
8074,54.687500
8075,54.687500
8076,54.687500
8077,54.687500
8078,54.687500
8079,54.687500
8080,54.687500
8081,54.687500
8082,54.687500
8083,54.687500
8084,54.687500
8085,54.687500
8086,52.734375
8087,54.687500
8088,54.687500
8089,52.734375
8090,52.734375
8091,52.734375
8092,52.734375
8093,52.734375
8094,52.734375
8095,52.734375
8096,52.734375
8097,52.734375
8098,52.734375
8099,52.734375
8100,50.781250
8101,50.781250
8102,50.781250
8103,50.781250
8104,50.781250
8105,50.781250
8106,50.781250
8107,48.828125
8108,50.781250
8109,50.781250
8110,48.828125
8111,48.828125
8112,48.828125
8113,48.828125
8114,48.828125
8115,48.828125
8116,48.828125
8117,46.875000
8118,48.828125
8119,46.875000
8120,46.875000
8121,46.875000
8122,46.875000
8123,46.875000
8124,46.875000
8125,46.875000
8126,44.921875
8127,44.921875
8128,44.921875
8129,44.921875
8130,42.968750
8131,44.921875
8132,42.968750
8133,42.968750
8134,42.968750
8135,42.968750
8136,41.015625
8137,41.015625
8138,41.015625
8139,41.015625
8140,41.015625
8141,41.015625
8142,39.062500
8143,39.062500
8144,39.062500
8145,39.062500
8146,37.109375
8147,37.109375
8148,37.109375
8149,37.109375
8150,37.109375
8151,35.156250
8152,35.156250
8153,35.156250
8154,35.156250
8155,35.156250
8156,33.203125
8157,33.203125
8158,33.203125
8159,31.250000
8160,31.250000
8161,31.250000
8162,31.250000
8163,29.296875
8164,29.296875
8165,29.296875
8166,27.343750
8167,27.343750
8168,27.343750
8169,27.343750
8170,27.343750
8171,25.390625
8172,25.390625
8173,23.437500
8174,23.437500
8175,23.437500
8176,21.484375
8177,21.484375
8178,21.484375
8179,21.484375
8180,21.484375
8181,19.531250
8182,19.531250
8183,19.531250
8184,17.578125
8185,17.578125
8186,15.625000
8187,15.625000
8188,15.625000
8189,15.625000
8190,13.671875
8191,13.671875
8192,11.718750
8193,11.718750
8194,11.718750
8195,11.718750
8196,9.765625
8197,9.765625
8198,7.812500
8199,7.812500
8200,5.859375
8201,5.859375
8202,5.859375
8203,5.859375
8204,3.906250
8205,3.906250
8206,1.953125
8207,1.953125
8208,1.953125
8209,0.000000
8210,0.000000
8211,-1.953125
8212,-1.953125
8213,-1.953125
8214,-3.906250
8215,-3.906250
8216,-3.906250
8217,-5.859375
8218,-5.859375
8219,-7.812500
8220,-7.812500
8221,-7.812500
8222,-9.765625
8223,-11.718750
8224,-9.765625
8225,-11.718750
8226,-11.718750
8227,-13.671875
8228,-13.671875
8229,-13.671875
8230,-15.625000
8231,-17.578125
8232,-17.578125
8233,-17.578125
8234,-19.531250
8235,-19.531250
8236,-21.484375
8237,-21.484375
8238,-21.484375
8239,-21.484375
8240,-23.437500
8241,-23.437500
8242,-25.390625
8243,-25.390625
8244,-25.390625
8245,-27.343750
8246,-27.343750
8247,-27.343750
8248,-29.296875
8249,-29.296875
8250,-29.296875
8251,-31.250000
8252,-33.203125
8253,-31.250000
8254,-33.203125
8255,-33.203125
8256,-35.156250
8257,-35.156250
8258,-35.156250
8259,-37.109375
8260,-37.109375
8261,-39.062500
8262,-39.062500
8263,-39.062500
8264,-41.015625
8265,-41.015625
8266,-41.015625
8267,-42.968750
8268,-42.968750
8269,-42.968750
8270,-42.968750
8271,-44.921875
8272,-44.921875
8273,-46.875000
8274,-46.875000
8275,-46.875000
8276,-48.828125
8277,-48.828125
8278,-50.781250
8279,-48.828125
8280,-50.781250
8281,-50.781250
8282,-52.734375
8283,-52.734375
8284,-52.734375
8285,-52.734375
8286,-52.734375
8287,-54.687500
8288,-54.687500
8289,-54.687500
8290,-56.640625
8291,-56.640625
8292,-56.640625
8293,-56.640625
8294,-58.593750
8295,-58.593750
8296,-58.593750
8297,-58.593750
8298,-60.546875
8299,-60.546875
8300,-60.546875
8301,-60.546875
8302,-62.500000
8303,-62.500000
8304,-62.500000
8305,-62.500000
8306,-64.453125
8307,-64.453125
8308,-64.453125
8309,-64.453125
8310,-64.453125
8311,-64.453125
8312,-66.406250
8313,-66.406250
8314,-66.406250
8315,-66.406250
8316,-66.406250
8317,-66.406250
8318,-68.359375
8319,-68.359375
8320,-68.359375
8321,-68.359375
8322,-68.359375
8323,-68.359375
8324,-70.312500
8325,-70.312500
8326,-70.312500
8327,-70.312500
8328,-70.312500
8329,-70.312500
8330,-72.265625
8331,-72.265625
8332,-72.265625
8333,-72.265625
8334,-72.265625
8335,-72.265625
8336,-72.265625
8337,-74.218750
8338,-74.218750
8339,-74.218750
8340,-74.218750
8341,-74.218750
8342,-74.218750
8343,-74.218750
8344,-74.218750
8345,-76.171875
8346,-74.218750
8347,-74.218750
8348,-74.218750
8349,-74.218750
8350,-76.171875
8351,-76.171875
8352,-76.171875
8353,-76.171875
8354,-76.171875
8355,-76.171875
8356,-76.171875
8357,-76.171875
8358,-76.171875
8359,-76.171875
8360,-76.171875
8361,-76.171875
8362,-76.171875
8363,-76.171875
8364,-76.171875
8365,-76.171875
8366,-76.171875
8367,-76.171875
8368,-76.171875
8369,-74.218750
8370,-76.171875
8371,-76.171875
8372,-76.171875
8373,-76.171875
8374,-76.171875
8375,-74.218750
8376,-74.218750
8377,-76.171875
8378,-74.218750
8379,-74.218750
8380,-74.218750
8381,-74.218750
8382,-74.218750
8383,-74.218750
8384,-74.218750
8385,-74.218750
8386,-74.218750
8387,-74.218750
8388,-74.218750
8389,-74.218750
8390,-72.265625
8391,-72.265625
8392,-72.265625
8393,-72.265625
8394,-72.265625
8395,-72.265625
8396,-70.312500
8397,-70.312500
8398,-70.312500
8399,-70.312500
8400,-70.312500
8401,-70.312500
8402,-70.312500
8403,-70.312500
8404,-68.359375
8405,-68.359375
8406,-68.359375
8407,-68.359375
8408,-68.359375
8409,-68.359375
8410,-66.406250
8411,-66.406250
8412,-66.406250
8413,-66.406250
8414,-66.406250
8415,-66.406250
8416,-64.453125
8417,-64.453125
8418,-64.453125
8419,-64.453125
8420,-64.453125
8421,-62.500000
8422,-62.500000
8423,-62.500000
8424,-62.500000
8425,-60.546875
8426,-60.546875
8427,-60.546875
8428,-58.593750
8429,-58.593750
8430,-58.593750
8431,-58.593750
8432,-58.593750
8433,-56.640625
8434,-56.640625
8435,-56.640625
8436,-54.687500
8437,-56.640625
8438,-54.687500
8439,-54.687500
8440,-54.687500
8441,-52.734375
8442,-52.734375
8443,-52.734375
8444,-52.734375
8445,-50.781250
8446,-50.781250
8447,-50.781250
8448,-48.828125
8449,-48.828125
8450,-48.828125
8451,-46.875000
8452,-46.875000
8453,-46.875000
8454,-44.921875
8455,-44.921875
8456,-44.921875
8457,-42.968750
8458,-42.968750
8459,-42.968750
8460,-41.015625
8461,-41.015625
8462,-41.015625
8463,-39.062500
8464,-39.062500
8465,-39.062500
8466,-39.062500
8467,-37.109375
8468,-37.109375
8469,-35.156250
8470,-35.156250
8471,-35.156250
8472,-35.156250
8473,-33.203125
8474,-31.250000
8475,-33.203125
8476,-31.250000
8477,-31.250000
8478,-29.296875
8479,-29.296875
8480,-29.296875
8481,-27.343750
8482,-27.343750
8483,-27.343750
8484,-25.390625
8485,-25.390625
8486,-25.390625
8487,-23.437500
8488,-23.437500
8489,-21.484375
8490,-21.484375
8491,-21.484375
8492,-19.531250
8493,-19.531250
8494,-19.531250
8495,-17.578125
8496,-17.578125
8497,-15.625000
8498,-15.625000
8499,-15.625000
8500,-13.671875
8501,-13.671875
8502,-11.718750
8503,-11.718750
8504,-11.718750
8505,-11.718750
8506,-9.765625
8507,-9.765625
8508,-7.812500
8509,-7.812500
8510,-5.859375
8511,-5.859375
8512,-3.906250
8513,-3.906250
8514,-3.906250
8515,-1.953125
8516,-1.953125
8517,-1.953125
8518,0.000000
8519,0.000000
8520,1.953125
8521,1.953125
8522,1.953125
8523,1.953125
8524,3.906250
8525,5.859375
8526,5.859375
8527,5.859375
8528,7.812500
8529,7.812500
8530,9.765625
8531,9.765625
8532,9.765625
8533,11.718750
8534,11.718750
8535,11.718750
8536,13.671875
8537,13.671875
8538,13.671875
8539,13.671875
8540,15.625000
8541,15.625000
8542,17.578125
8543,17.578125
8544,17.578125
8545,17.578125
8546,19.531250
8547,19.531250
8548,21.484375
8549,21.484375
8550,21.484375
8551,23.437500
8552,23.437500
8553,23.437500
8554,25.390625
8555,25.390625
8556,25.390625
8557,25.390625
8558,27.343750
8559,27.343750
8560,27.343750
8561,29.296875
8562,29.296875
8563,31.250000
8564,31.250000
8565,31.250000
8566,31.250000
8567,31.250000
8568,33.203125
8569,33.203125
8570,35.156250
8571,33.203125
8572,35.156250
8573,35.156250
8574,37.109375
8575,37.109375
8576,37.109375
8577,37.109375
8578,39.062500
8579,39.062500
8580,39.062500
8581,41.015625
8582,41.015625
8583,41.015625
8584,41.015625
8585,41.015625
8586,41.015625
8587,42.968750
8588,42.968750
8589,42.968750
8590,42.968750
8591,44.921875
8592,44.921875
8593,44.921875
8594,44.921875
8595,44.921875
8596,46.875000
8597,46.875000
8598,46.875000
8599,46.875000
8600,46.875000
8601,46.875000
8602,48.828125
8603,48.828125
8604,48.828125
8605,48.828125
8606,48.828125
8607,48.828125
8608,48.828125
8609,48.828125
8610,50.781250
8611,50.781250
8612,50.781250
8613,50.781250
8614,50.781250
8615,50.781250
8616,50.781250
8617,52.734375
8618,52.734375
8619,52.734375
8620,52.734375
8621,52.734375
8622,52.734375
8623,52.734375
8624,54.687500
8625,52.734375
8626,52.734375
8627,52.734375
8628,54.687500
8629,54.687500
8630,54.687500
8631,54.687500
8632,54.687500
8633,54.687500
8634,54.687500
8635,54.687500
8636,54.687500
8637,54.687500
8638,52.734375
8639,54.687500
8640,54.687500
8641,54.687500
8642,54.687500
8643,56.640625
8644,54.687500
8645,54.687500
8646,54.687500
8647,54.687500
8648,54.687500
8649,54.687500
8650,54.687500
8651,54.687500
8652,54.687500
8653,56.640625
8654,54.687500
8655,54.687500
8656,54.687500
8657,54.687500
8658,54.687500
8659,54.687500
8660,54.687500
8661,54.687500
8662,54.687500
8663,54.687500
8664,54.687500
8665,54.687500
8666,54.687500
8667,52.734375
8668,54.687500
8669,54.687500
8670,52.734375
8671,52.734375
8672,52.734375
8673,52.734375
8674,54.687500
8675,52.734375
8676,52.734375
8677,52.734375
8678,52.734375
8679,52.734375
8680,52.734375
8681,52.734375
8682,52.734375
8683,50.781250
8684,52.734375
8685,50.781250
8686,50.781250
8687,50.781250
8688,50.781250
8689,50.781250
8690,50.781250
8691,50.781250
8692,50.781250
8693,50.781250
8694,48.828125
8695,48.828125
8696,48.828125
8697,48.828125
8698,48.828125
8699,46.875000
8700,48.828125
8701,48.828125
8702,48.828125
8703,46.875000
8704,46.875000
8705,46.875000
8706,46.875000
8707,46.875000
8708,46.875000
8709,44.921875
8710,44.921875
8711,44.921875
8712,44.921875
8713,44.921875
8714,44.921875
8715,42.968750
8716,42.968750
8717,42.968750
8718,42.968750
8719,42.968750
8720,41.015625
8721,41.015625
8722,42.968750
8723,41.015625
8724,41.015625
8725,41.015625
8726,39.062500
8727,39.062500
8728,39.062500
8729,39.062500
8730,37.109375
8731,37.109375
8732,37.109375
8733,37.109375
8734,35.156250
8735,35.156250
8736,35.156250
8737,35.156250
8738,35.156250
8739,33.203125
8740,33.203125
8741,33.203125
8742,31.250000
8743,31.250000
8744,31.250000
8745,31.250000
8746,31.250000
8747,29.296875
8748,29.296875
8749,29.296875
8750,27.343750
8751,27.343750
8752,27.343750
8753,25.390625
8754,25.390625
8755,25.390625
8756,23.437500
8757,23.437500
8758,23.437500
8759,23.437500
8760,23.437500
8761,21.484375
8762,21.484375
8763,21.484375
8764,19.531250
8765,19.531250
8766,19.531250
8767,19.531250
8768,17.578125
8769,17.578125
8770,15.625000
8771,15.625000
8772,15.625000
8773,13.671875
8774,13.671875
8775,13.671875
8776,11.718750
8777,11.718750
8778,11.718750
8779,9.765625
8780,9.765625
8781,9.765625
8782,7.812500
8783,7.812500
8784,5.859375
8785,5.859375
8786,5.859375
8787,3.906250
8788,3.906250
8789,1.953125
8790,1.953125
8791,1.953125
8792,0.000000
8793,0.000000
8794,0.000000
8795,-1.953125
8796,-1.953125
8797,-3.906250
8798,-3.906250
8799,-3.906250
8800,-5.859375
8801,-5.859375
8802,-5.859375
8803,-7.812500
8804,-9.765625
8805,-9.765625
8806,-9.765625
8807,-11.718750
8808,-11.718750
8809,-11.718750
8810,-13.671875
8811,-13.671875
8812,-15.625000
8813,-15.625000
8814,-15.625000
8815,-17.578125
8816,-17.578125
8817,-17.578125
8818,-19.531250
8819,-19.531250
8820,-21.484375
8821,-21.484375
8822,-21.484375
8823,-23.437500
8824,-23.437500
8825,-25.390625
8826,-25.390625
8827,-25.390625
8828,-27.343750
8829,-27.343750
8830,-29.296875
8831,-29.296875
8832,-31.250000
8833,-29.296875
8834,-31.250000
8835,-31.250000
8836,-33.203125
8837,-33.203125
8838,-33.203125
8839,-35.156250
8840,-35.156250
8841,-37.109375
8842,-37.109375
8843,-37.109375
8844,-39.062500
8845,-39.062500
8846,-39.062500
8847,-39.062500
8848,-41.015625
8849,-41.015625
8850,-42.968750
8851,-42.968750
8852,-42.968750
8853,-44.921875
8854,-44.921875
8855,-44.921875
8856,-46.875000
8857,-46.875000
8858,-46.875000
8859,-46.875000
8860,-48.828125
8861,-50.781250
8862,-50.781250
8863,-50.781250
8864,-50.781250
8865,-52.734375
8866,-52.734375
8867,-52.734375
8868,-52.734375
8869,-54.687500
8870,-54.687500
8871,-54.687500
8872,-56.640625
8873,-56.640625
8874,-56.640625
8875,-56.640625
8876,-58.593750
8877,-58.593750
8878,-58.593750
8879,-60.546875
8880,-58.593750
8881,-60.546875
8882,-60.546875
8883,-60.546875
8884,-60.546875
8885,-62.500000
8886,-62.500000
8887,-62.500000
8888,-62.500000
8889,-64.453125
8890,-64.453125
8891,-64.453125
8892,-64.453125
8893,-66.406250
8894,-66.406250
8895,-66.406250
8896,-66.406250
8897,-66.406250
8898,-66.406250
8899,-68.359375
8900,-68.359375
8901,-68.359375
8902,-68.359375
8903,-68.359375
8904,-68.359375
8905,-68.359375
8906,-70.312500
8907,-70.312500
8908,-70.312500
8909,-70.312500
8910,-70.312500
8911,-72.265625
8912,-72.265625
8913,-72.265625
8914,-72.265625
8915,-72.265625
8916,-72.265625
8917,-74.218750
8918,-72.265625
8919,-74.218750
8920,-74.218750
8921,-74.218750
8922,-74.218750
8923,-74.218750
8924,-74.218750
8925,-74.218750
8926,-74.218750
8927,-74.218750
8928,-74.218750
8929,-76.171875
8930,-74.218750
8931,-76.171875
8932,-76.171875
8933,-76.171875
8934,-76.171875
8935,-76.171875
8936,-76.171875
8937,-76.171875
8938,-76.171875
8939,-76.171875
8940,-76.171875
8941,-76.171875
8942,-76.171875
8943,-76.171875
8944,-76.171875
8945,-78.125000
8946,-76.171875
8947,-76.171875
8948,-76.171875
8949,-76.171875
8950,-76.171875
8951,-76.171875
8952,-76.171875
8953,-76.171875
8954,-76.171875
8955,-76.171875
8956,-76.171875
8957,-76.171875
8958,-76.171875
8959,-76.171875
8960,-74.218750
8961,-76.171875
8962,-76.171875
8963,-74.218750
8964,-74.218750
8965,-74.218750
8966,-74.218750
8967,-74.218750
8968,-74.218750
8969,-74.218750
8970,-74.218750
8971,-74.218750
8972,-74.218750
8973,-74.218750
8974,-72.265625
8975,-72.265625
8976,-72.265625
8977,-72.265625
8978,-72.265625
8979,-72.265625
8980,-70.312500
8981,-70.312500
8982,-70.312500
8983,-70.312500
8984,-70.312500
8985,-70.312500
8986,-70.312500
8987,-70.312500
8988,-68.359375
8989,-70.312500
8990,-68.359375
8991,-68.359375
8992,-68.359375
8993,-68.359375
8994,-68.359375
8995,-68.359375
8996,-66.406250
8997,-66.406250
8998,-66.406250
8999,-66.406250
9000,-64.453125
9001,-64.453125
9002,-64.453125
9003,-64.453125
9004,-62.500000
9005,-62.500000
9006,-62.500000
9007,-62.500000
9008,-60.546875
9009,-60.546875
9010,-60.546875
9011,-60.546875
9012,-60.546875
9013,-56.640625
9014,-58.593750
9015,-58.593750
9016,-58.593750
9017,-56.640625
9018,-56.640625
9019,-54.687500
9020,-54.687500
9021,-54.687500
9022,-54.687500
9023,-54.687500
9024,-52.734375
9025,-52.734375
9026,-52.734375
9027,-50.781250
9028,-50.781250
9029,-50.781250
9030,-48.828125
9031,-48.828125
9032,-48.828125
9033,-48.828125
9034,-48.828125
9035,-46.875000
9036,-46.875000
9037,-44.921875
9038,-44.921875
9039,-44.921875
9040,-42.968750
9041,-42.968750
9042,-42.968750
9043,-41.015625
9044,-41.015625
9045,-41.015625
9046,-39.062500
9047,-39.062500
9048,-39.062500
9049,-39.062500
9050,-37.109375
9051,-37.109375
9052,-37.109375
9053,-35.156250
9054,-35.156250
9055,-35.156250
9056,-33.203125
9057,-33.203125
9058,-33.203125
9059,-31.250000
9060,-31.250000
9061,-29.296875
9062,-29.296875
9063,-29.296875
9064,-27.343750
9065,-29.296875
9066,-27.343750
9067,-25.390625
9068,-25.390625
9069,-25.390625
9070,-23.437500
9071,-23.437500
9072,-21.484375
9073,-21.484375
9074,-21.484375
9075,-19.531250
9076,-19.531250
9077,-19.531250
9078,-17.578125
9079,-17.578125
9080,-15.625000
9081,-15.625000
9082,-15.625000
9083,-13.671875
9084,-13.671875
9085,-11.718750
9086,-11.718750
9087,-11.718750
9088,-9.765625
9089,-9.765625
9090,-7.812500
9091,-7.812500
9092,-5.859375
9093,-5.859375
9094,-5.859375
9095,-3.906250
9096,-3.906250
9097,-1.953125
9098,-1.953125
9099,-1.953125
9100,-1.953125
9101,0.000000
9102,0.000000
9103,1.953125
9104,1.953125
9105,3.906250
9106,3.906250
9107,3.906250
9108,5.859375
9109,5.859375
9110,7.812500
9111,7.812500
9112,7.812500
9113,9.765625
9114,9.765625
9115,9.765625
9116,11.718750
9117,11.718750
9118,11.718750
9119,11.718750
9120,13.671875
9121,15.625000
9122,15.625000
9123,15.625000
9124,17.578125
9125,17.578125
9126,17.578125
9127,17.578125
9128,19.531250
9129,19.531250
9130,19.531250
9131,21.484375
9132,21.484375
9133,23.437500
9134,23.437500
9135,25.390625
9136,25.390625
9137,25.390625
9138,25.390625
9139,27.343750
9140,27.343750
9141,29.296875
9142,29.296875
9143,29.296875
9144,29.296875
9145,29.296875
9146,31.250000
9147,31.250000
9148,31.250000
9149,33.203125
9150,33.203125
9151,33.203125
9152,35.156250
9153,35.156250
9154,35.156250
9155,35.156250
9156,35.156250
9157,37.109375
9158,39.062500
9159,37.109375
9160,39.062500
9161,39.062500
9162,39.062500
9163,41.015625
9164,41.015625
9165,41.015625
9166,41.015625
9167,41.015625
9168,42.968750
9169,42.968750
9170,42.968750
9171,42.968750
9172,44.921875
9173,44.921875
9174,44.921875
9175,44.921875
9176,44.921875
9177,44.921875
9178,46.875000
9179,46.875000
9180,46.875000
9181,46.875000
9182,48.828125
9183,48.828125
9184,48.828125
9185,48.828125
9186,48.828125
9187,48.828125
9188,48.828125
9189,48.828125
9190,50.781250
9191,50.781250
9192,50.781250
9193,50.781250
9194,50.781250
9195,50.781250
9196,50.781250
9197,50.781250
9198,52.734375
9199,52.734375
9200,52.734375
9201,52.734375
9202,52.734375
9203,52.734375
9204,52.734375
9205,52.734375
9206,54.687500
9207,54.687500
9208,54.687500
9209,52.734375
9210,54.687500
9211,54.687500
9212,54.687500
9213,54.687500
9214,54.687500
9215,54.687500
9216,54.687500
9217,54.687500
9218,54.687500
9219,54.687500
9220,54.687500
9221,54.687500
9222,54.687500
9223,54.687500
9224,54.687500
9225,54.687500
9226,54.687500
9227,56.640625
9228,54.687500
9229,54.687500
9230,54.687500
9231,54.687500
9232,56.640625
9233,54.687500
9234,56.640625
9235,54.687500
9236,54.687500
9237,54.687500
9238,56.640625
9239,54.687500
9240,54.687500
9241,54.687500
9242,54.687500
9243,54.687500
9244,54.687500
9245,56.640625
9246,54.687500
9247,54.687500
9248,54.687500
9249,54.687500
9250,54.687500
9251,54.687500
9252,54.687500
9253,54.687500
9254,54.687500
9255,54.687500
9256,54.687500
9257,54.687500
9258,52.734375
9259,52.734375
9260,52.734375
9261,52.734375
9262,52.734375
9263,52.734375
9264,52.734375
9265,52.734375
9266,50.781250
9267,52.734375
9268,50.781250
9269,50.781250
9270,50.781250
9271,50.781250
9272,50.781250
9273,50.781250
9274,50.781250
9275,48.828125
9276,50.781250
9277,48.828125
9278,48.828125
9279,50.781250
9280,48.828125
9281,48.828125
9282,46.875000
9283,48.828125
9284,48.828125
9285,46.875000
9286,46.875000
9287,46.875000
9288,46.875000
9289,46.875000
9290,46.875000
9291,44.921875
9292,44.921875
9293,44.921875
9294,44.921875
9295,44.921875
9296,44.921875
9297,42.968750
9298,42.968750
9299,42.968750
9300,42.968750
9301,42.968750
9302,42.968750
9303,41.015625
9304,41.015625
9305,41.015625
9306,41.015625
9307,41.015625
9308,39.062500
9309,39.062500
9310,39.062500
9311,37.109375
9312,37.109375
9313,37.109375
9314,37.109375
9315,37.109375
9316,35.156250
9317,35.156250
9318,35.156250
9319,35.156250
9320,35.156250
9321,33.203125
9322,33.203125
9323,33.203125
9324,33.203125
9325,31.250000
9326,31.250000
9327,31.250000
9328,29.296875
9329,29.296875
9330,29.296875
9331,29.296875
9332,27.343750
9333,27.343750
9334,27.343750
9335,27.343750
9336,25.390625
9337,25.390625
9338,25.390625
9339,25.390625
9340,23.437500
9341,23.437500
9342,21.484375
9343,21.484375
9344,21.484375
9345,19.531250
9346,19.531250
9347,19.531250
9348,19.531250
9349,17.578125
9350,17.578125
9351,17.578125
9352,15.625000
9353,15.625000
9354,15.625000
9355,13.671875
9356,13.671875
9357,11.718750
9358,11.718750
9359,11.718750
9360,9.765625
9361,9.765625
9362,9.765625
9363,9.765625
9364,7.812500
9365,7.812500
9366,5.859375
9367,5.859375
9368,5.859375
9369,3.906250
9370,3.906250
9371,1.953125
9372,1.953125
9373,1.953125
9374,0.000000
9375,0.000000
9376,0.000000
9377,-1.953125
9378,-1.953125
9379,-3.906250
9380,-3.906250
9381,-3.906250
9382,-5.859375
9383,-5.859375
9384,-7.812500
9385,-7.812500
9386,-7.812500
9387,-9.765625
9388,-9.765625
9389,-11.718750
9390,-11.718750
9391,-11.718750
9392,-13.671875
9393,-13.671875
9394,-15.625000
9395,-15.625000
9396,-15.625000
9397,-17.578125
9398,-17.578125
9399,-19.531250
9400,-19.531250
9401,-19.531250
9402,-19.531250
9403,-21.484375
9404,-23.437500
9405,-23.437500
9406,-23.437500
9407,-23.437500
9408,-25.390625
9409,-25.390625
9410,-27.343750
9411,-27.343750
9412,-27.343750
9413,-29.296875
9414,-29.296875
9415,-31.250000
9416,-31.250000
9417,-31.250000
9418,-33.203125
9419,-33.203125
9420,-35.156250
9421,-35.156250
9422,-35.156250
9423,-35.156250
9424,-37.109375
9425,-37.109375
9426,-39.062500
9427,-39.062500
9428,-39.062500
9429,-39.062500
9430,-41.015625
9431,-42.968750
9432,-42.968750
9433,-42.968750
9434,-44.921875
9435,-44.921875
9436,-44.921875
9437,-44.921875
9438,-46.875000
9439,-46.875000
9440,-48.828125
9441,-48.828125
9442,-48.828125
9443,-48.828125
9444,-50.781250
9445,-50.781250
9446,-52.734375
9447,-52.734375
9448,-52.734375
9449,-52.734375
9450,-54.687500
9451,-54.687500
9452,-54.687500
9453,-54.687500
9454,-56.640625
9455,-56.640625
9456,-56.640625
9457,-56.640625
9458,-58.593750
9459,-58.593750
9460,-58.593750
9461,-58.593750
9462,-60.546875
9463,-60.546875
9464,-60.546875
9465,-60.546875
9466,-62.500000
9467,-62.500000
9468,-62.500000
9469,-62.500000
9470,-64.453125
9471,-64.453125
9472,-64.453125
9473,-64.453125
9474,-64.453125
9475,-66.406250
9476,-66.406250
9477,-66.406250
9478,-66.406250
9479,-68.359375
9480,-66.406250
9481,-68.359375
9482,-68.359375
9483,-68.359375
9484,-68.359375
9485,-70.312500
9486,-68.359375
9487,-70.312500
9488,-70.312500
9489,-70.312500
9490,-70.312500
9491,-70.312500
9492,-72.265625
9493,-72.265625
9494,-70.312500
9495,-72.265625
9496,-72.265625
9497,-72.265625
9498,-72.265625
9499,-72.265625
9500,-74.218750
9501,-74.218750
9502,-74.218750
9503,-74.218750
9504,-74.218750
9505,-74.218750
9506,-74.218750
9507,-76.171875
9508,-74.218750
9509,-76.171875
9510,-74.218750
9511,-74.218750
9512,-76.171875
9513,-76.171875
9514,-76.171875
9515,-76.171875
9516,-76.171875
9517,-76.171875
9518,-78.125000
9519,-76.171875
9520,-76.171875
9521,-76.171875
9522,-76.171875
9523,-76.171875
9524,-76.171875
9525,-76.171875
9526,-78.125000
9527,-76.171875
9528,-76.171875
9529,-78.125000
9530,-76.171875
9531,-76.171875
9532,-76.171875
9533,-76.171875
9534,-76.171875
9535,-76.171875
9536,-76.171875
9537,-76.171875
9538,-76.171875
9539,-76.171875
9540,-76.171875
9541,-76.171875
9542,-76.171875
9543,-76.171875
9544,-76.171875
9545,-74.218750
9546,-74.218750
9547,-74.218750
9548,-74.218750
9549,-74.218750
9550,-74.218750
9551,-76.171875
9552,-74.218750
9553,-74.218750
9554,-74.218750
9555,-74.218750
9556,-72.265625
9557,-72.265625
9558,-72.265625
9559,-72.265625
9560,-72.265625
9561,-72.265625
9562,-72.265625
9563,-72.265625
9564,-72.265625
9565,-70.312500
9566,-70.312500
9567,-70.312500
9568,-70.312500
9569,-70.312500
9570,-70.312500
9571,-68.359375
9572,-68.359375
9573,-66.406250
9574,-68.359375
9575,-68.359375
9576,-68.359375
9577,-66.406250
9578,-66.406250
9579,-66.406250
9580,-66.406250
9581,-66.406250
9582,-64.453125
9583,-64.453125
9584,-62.500000
9585,-64.453125
9586,-62.500000
9587,-62.500000
9588,-62.500000
9589,-62.500000
9590,-62.500000
9591,-62.500000
9592,-60.546875
9593,-60.546875
9594,-60.546875
9595,-58.593750
9596,-58.593750
9597,-56.640625
9598,-58.593750
9599,-56.640625
9600,-56.640625
9601,-56.640625
9602,-56.640625
9603,-54.687500
9604,-54.687500
9605,-54.687500
9606,-52.734375
9607,-52.734375
9608,-52.734375
9609,-50.781250
9610,-50.781250
9611,-50.781250
9612,-50.781250
9613,-48.828125
9614,-48.828125
9615,-48.828125
9616,-46.875000
9617,-46.875000
9618,-46.875000
9619,-44.921875
9620,-44.921875
9621,-44.921875
9622,-44.921875
9623,-42.968750
9624,-42.968750
9625,-41.015625
9626,-41.015625
9627,-41.015625
9628,-39.062500
9629,-39.062500
9630,-39.062500
9631,-37.109375
9632,-37.109375
9633,-37.109375
9634,-35.156250
9635,-35.156250
9636,-35.156250
9637,-35.156250
9638,-33.203125
9639,-33.203125
9640,-33.203125
9641,-31.250000
9642,-31.250000
9643,-29.296875
9644,-29.296875
9645,-29.296875
9646,-27.343750
9647,-27.343750
9648,-25.390625
9649,-25.390625
9650,-25.390625
9651,-25.390625
9652,-23.437500
9653,-23.437500
9654,-21.484375
9655,-21.484375
9656,-19.531250
9657,-21.484375
9658,-19.531250
9659,-19.531250
9660,-17.578125
9661,-15.625000
9662,-15.625000
9663,-15.625000
9664,-15.625000
9665,-13.671875
9666,-13.671875
9667,-11.718750
9668,-11.718750
9669,-9.765625
9670,-11.718750
9671,-9.765625
9672,-7.812500
9673,-7.812500
9674,-7.812500
9675,-5.859375
9676,-5.859375
9677,-3.906250
9678,-3.906250
9679,-3.906250
9680,-1.953125
9681,-1.953125
9682,-1.953125
9683,0.000000
9684,0.000000
9685,1.953125
9686,1.953125
9687,1.953125
9688,3.906250
9689,3.906250
9690,5.859375
9691,5.859375
9692,5.859375
9693,7.812500
9694,7.812500
9695,7.812500
9696,9.765625
9697,9.765625
9698,11.718750
9699,11.718750
9700,11.718750
9701,11.718750
9702,13.671875
9703,13.671875
9704,15.625000
9705,15.625000
9706,15.625000
9707,17.578125
9708,17.578125
9709,19.531250
9710,19.531250
9711,19.531250
9712,21.484375
9713,21.484375
9714,21.484375
9715,21.484375
9716,23.437500
9717,23.437500
9718,25.390625
9719,25.390625
9720,25.390625
9721,25.390625
9722,27.343750
9723,27.343750
9724,27.343750
9725,29.296875
9726,29.296875
9727,29.296875
9728,31.250000
9729,31.250000
9730,31.250000
9731,31.250000
9732,33.203125
9733,33.203125
9734,33.203125
9735,35.156250
9736,35.156250
9737,35.156250
9738,35.156250
9739,37.109375
9740,37.109375
9741,37.109375
9742,39.062500
9743,39.062500
9744,39.062500
9745,39.062500
9746,41.015625
9747,41.015625
9748,41.015625
9749,41.015625
9750,42.968750
9751,41.015625
9752,42.968750
9753,42.968750
9754,42.968750
9755,42.968750
9756,44.921875
9757,44.921875
9758,44.921875
9759,44.921875
9760,44.921875
9761,46.875000
9762,46.875000
9763,46.875000
9764,46.875000
9765,46.875000
9766,46.875000
9767,48.828125
9768,48.828125
9769,48.828125
9770,48.828125
9771,48.828125
9772,48.828125
9773,50.781250
9774,48.828125
9775,50.781250
9776,50.781250
9777,50.781250
9778,50.781250
9779,50.781250
9780,50.781250
9781,52.734375
9782,50.781250
9783,52.734375
9784,52.734375
9785,52.734375
9786,52.734375
9787,52.734375
9788,52.734375
9789,52.734375
9790,52.734375
9791,54.687500
9792,52.734375
9793,54.687500
9794,54.687500
9795,54.687500
9796,54.687500
9797,54.687500
9798,54.687500
9799,54.687500
9800,54.687500
9801,54.687500
9802,54.687500
9803,54.687500
9804,54.687500
9805,54.687500
9806,56.640625
9807,56.640625
9808,54.687500
9809,56.640625
9810,54.687500
9811,56.640625
9812,54.687500
9813,56.640625
9814,54.687500
9815,54.687500
9816,54.687500
9817,56.640625
9818,54.687500
9819,56.640625
9820,54.687500
9821,54.687500
9822,54.687500
9823,54.687500
9824,54.687500
9825,54.687500
9826,54.687500
9827,54.687500
9828,54.687500
9829,54.687500
9830,54.687500
9831,54.687500
9832,54.687500
9833,54.687500
9834,54.687500
9835,54.687500
9836,54.687500
9837,52.734375
9838,52.734375
9839,52.734375
9840,52.734375
9841,52.734375
9842,52.734375
9843,50.781250
9844,52.734375
9845,52.734375
9846,52.734375
9847,52.734375
9848,52.734375
9849,50.781250
9850,50.781250
9851,50.781250
9852,50.781250
9853,50.781250
9854,50.781250
9855,50.781250
9856,50.781250
9857,50.781250
9858,50.781250
9859,48.828125
9860,48.828125
9861,48.828125
9862,48.828125
9863,48.828125
9864,48.828125
9865,48.828125
9866,48.828125
9867,48.828125
9868,46.875000
9869,46.875000
9870,46.875000
9871,46.875000
9872,46.875000
9873,44.921875
9874,44.921875
9875,44.921875
9876,44.921875
9877,44.921875
9878,44.921875
9879,44.921875
9880,44.921875
9881,42.968750
9882,42.968750
9883,42.968750
9884,42.968750
9885,41.015625
9886,41.015625
9887,41.015625
9888,41.015625
9889,39.062500
9890,41.015625
9891,39.062500
9892,39.062500
9893,39.062500
9894,37.109375
9895,37.109375
9896,37.109375
9897,37.109375
9898,37.109375
9899,35.156250
9900,35.156250
9901,35.156250
9902,35.156250
9903,35.156250
9904,33.203125
9905,33.203125
9906,33.203125
9907,31.250000
9908,31.250000
9909,31.250000
9910,31.250000
9911,29.296875
9912,29.296875
9913,29.296875
9914,27.343750
9915,27.343750
9916,27.343750
9917,27.343750
9918,27.343750
9919,25.390625
9920,25.390625
9921,25.390625
9922,23.437500
9923,23.437500
9924,23.437500
9925,21.484375
9926,21.484375
9927,21.484375
9928,19.531250
9929,19.531250
9930,19.531250
9931,19.531250
9932,17.578125
9933,17.578125
9934,17.578125
9935,15.625000
9936,15.625000
9937,15.625000
9938,13.671875
9939,13.671875
9940,11.718750
9941,11.718750
9942,11.718750
9943,11.718750
9944,9.765625
9945,9.765625
9946,7.812500
9947,7.812500
9948,7.812500
9949,5.859375
9950,5.859375
9951,5.859375
9952,3.906250
9953,3.906250
9954,1.953125
9955,1.953125
9956,1.953125
9957,0.000000
9958,0.000000
9959,0.000000
9960,-1.953125
9961,-1.953125
9962,-3.906250
9963,-3.906250
9964,-3.906250
9965,-5.859375
9966,-5.859375
9967,-7.812500
9968,-7.812500
9969,-9.765625
9970,-9.765625
9971,-11.718750
9972,-11.718750
9973,-11.718750
9974,-13.671875
9975,-13.671875
9976,-13.671875
9977,-15.625000
9978,-15.625000
9979,-15.625000
9980,-17.578125
9981,-17.578125
9982,-19.531250
9983,-19.531250
9984,-19.531250
9985,-21.484375
9986,-21.484375
9987,-21.484375
9988,-23.437500
9989,-23.437500
9990,-25.390625
9991,-25.390625
9992,-25.390625
9993,-27.343750
9994,-27.343750
9995,-29.296875
9996,-29.296875
9997,-31.250000
9998,-29.296875
9999,-31.250000
10000,-31.250000
