Channel              :,CH1
Frequency            :,858.4Hz
Period               :,1.165ms
PK-PK                :,164.1mV
Probe attenuation    :,1X
Voltage per ADC value:,0.122070mV
Time interval        :,2.00000us

index,CH1_Voltage(mV)
1,37.109375
2,37.109375
3,37.109375
4,35.156250
5,35.156250
6,35.156250
7,33.203125
8,31.250000
9,31.250000
10,31.250000
11,29.296875
12,29.296875
13,29.296875
14,27.343750
15,27.343750
16,25.390625
17,25.390625
18,23.437500
19,23.437500
20,23.437500
21,21.484375
22,21.484375
23,21.484375
24,19.531250
25,17.578125
26,17.578125
27,15.625000
28,15.625000
29,15.625000
30,13.671875
31,13.671875
32,11.718750
33,11.718750
34,9.765625
35,9.765625
36,7.812500
37,7.812500
38,7.812500
39,5.859375
40,5.859375
41,3.906250
42,3.906250
43,1.953125
44,1.953125
45,0.000000
46,0.000000
47,-1.953125
48,-1.953125
49,-1.953125
50,-3.906250
51,-3.906250
52,-5.859375
53,-5.859375
54,-7.812500
55,-7.812500
56,-9.765625
57,-9.765625
58,-11.718750
59,-11.718750
60,-13.671875
61,-13.671875
62,-13.671875
63,-15.625000
64,-15.625000
65,-17.578125
66,-17.578125
67,-17.578125
68,-19.531250
69,-21.484375
70,-21.484375
71,-21.484375
72,-23.437500
73,-23.437500
74,-25.390625
75,-25.390625
76,-27.343750
77,-27.343750
78,-27.343750
79,-29.296875
80,-29.296875
81,-31.250000
82,-31.250000
83,-33.203125
84,-33.203125
85,-33.203125
86,-35.156250
87,-35.156250
88,-35.156250
89,-37.109375
90,-39.062500
91,-39.062500
92,-39.062500
93,-41.015625
94,-41.015625
95,-42.968750
96,-44.921875
97,-42.968750
98,-44.921875
99,-46.875000
100,-46.875000
101,-46.875000
102,-48.828125
103,-48.828125
104,-50.781250
105,-50.781250
106,-50.781250
107,-52.734375
108,-52.734375
109,-52.734375
110,-54.687500
111,-54.687500
112,-54.687500
113,-56.640625
114,-56.640625
115,-56.640625
116,-58.593750
117,-58.593750
118,-60.546875
119,-60.546875
120,-60.546875
121,-60.546875
122,-60.546875
123,-62.500000
124,-62.500000
125,-64.453125
126,-64.453125
127,-64.453125
128,-64.453125
129,-64.453125
130,-66.406250
131,-66.406250
132,-68.359375
133,-68.359375
134,-68.359375
135,-68.359375
136,-70.312500
137,-70.312500
138,-70.312500
139,-72.265625
140,-72.265625
141,-72.265625
142,-72.265625
143,-72.265625
144,-74.218750
145,-74.218750
146,-74.218750
147,-74.218750
148,-76.171875
149,-76.171875
150,-76.171875
151,-78.125000
152,-78.125000
153,-78.125000
154,-78.125000
155,-78.125000
156,-80.078125
157,-80.078125
158,-80.078125
159,-80.078125
160,-80.078125
161,-80.078125
162,-82.031250
163,-82.031250
164,-82.031250
165,-82.031250
166,-82.031250
167,-83.984375
168,-83.984375
169,-83.984375
170,-83.984375
171,-83.984375
172,-85.937500
173,-85.937500
174,-85.937500
175,-85.937500
176,-85.937500
177,-85.937500
178,-85.937500
179,-85.937500
180,-85.937500
181,-85.937500
182,-87.890625
183,-85.937500
184,-85.937500
185,-87.890625
186,-87.890625
187,-87.890625
188,-87.890625
189,-87.890625
190,-87.890625
191,-87.890625
192,-87.890625
193,-87.890625
194,-87.890625
195,-87.890625
196,-87.890625
197,-87.890625
198,-87.890625
199,-87.890625
200,-87.890625
201,-87.890625
202,-87.890625
203,-89.843750
204,-87.890625
205,-87.890625
206,-87.890625
207,-87.890625
208,-89.843750
209,-89.843750
210,-87.890625
211,-87.890625
212,-87.890625
213,-87.890625
214,-87.890625
215,-87.890625
216,-87.890625
217,-87.890625
218,-87.890625
219,-87.890625
220,-85.937500
221,-87.890625
222,-85.937500
223,-85.937500
224,-85.937500
225,-85.937500
226,-85.937500
227,-85.937500
228,-85.937500
229,-85.937500
230,-85.937500
231,-83.984375
232,-83.984375
233,-83.984375
234,-83.984375
235,-83.984375
236,-82.031250
237,-82.031250
238,-82.031250
239,-82.031250
240,-82.031250
241,-82.031250
242,-80.078125
243,-80.078125
244,-80.078125
245,-80.078125
246,-80.078125
247,-78.125000
248,-78.125000
249,-78.125000
250,-78.125000
251,-76.171875
252,-76.171875
253,-76.171875
254,-76.171875
255,-76.171875
256,-74.218750
257,-74.218750
258,-74.218750
259,-74.218750
260,-72.265625
261,-72.265625
262,-72.265625
263,-72.265625
264,-70.312500
265,-70.312500
266,-70.312500
267,-70.312500
268,-68.359375
269,-68.359375
270,-68.359375
271,-66.406250
272,-66.406250
273,-66.406250
274,-66.406250
275,-64.453125
276,-64.453125
277,-64.453125
278,-62.500000
279,-62.500000
280,-62.500000
281,-60.546875
282,-60.546875
283,-58.593750
284,-60.546875
285,-58.593750
286,-58.593750
287,-56.640625
288,-56.640625
289,-56.640625
290,-56.640625
291,-54.687500
292,-54.687500
293,-52.734375
294,-52.734375
295,-52.734375
296,-50.781250
297,-50.781250
298,-50.781250
299,-48.828125
300,-48.828125
301,-46.875000
302,-46.875000
303,-46.875000
304,-44.921875
305,-44.921875
306,-44.921875
307,-42.968750
308,-42.968750
309,-41.015625
310,-41.015625
311,-41.015625
312,-39.062500
313,-39.062500
314,-39.062500
315,-37.109375
316,-35.156250
317,-35.156250
318,-35.156250
319,-33.203125
320,-33.203125
321,-31.250000
322,-31.250000
323,-31.250000
324,-29.296875
325,-29.296875
326,-27.343750
327,-27.343750
328,-25.390625
329,-25.390625
330,-25.390625
331,-23.437500
332,-23.437500
333,-21.484375
334,-21.484375
335,-21.484375
336,-19.531250
337,-17.578125
338,-17.578125
339,-17.578125
340,-15.625000
341,-15.625000
342,-13.671875
343,-13.671875
344,-11.718750
345,-11.718750
346,-11.718750
347,-9.765625
348,-9.765625
349,-7.812500
350,-7.812500
351,-5.859375
352,-5.859375
353,-3.906250
354,-3.906250
355,-3.906250
356,-1.953125
357,-1.953125
358,0.000000
359,0.000000
360,1.953125
361,1.953125
362,3.906250
363,3.906250
364,5.859375
365,5.859375
366,5.859375
367,7.812500
368,9.765625
369,9.765625
370,9.765625
371,11.718750
372,11.718750
373,13.671875
374,13.671875
375,15.625000
376,15.625000
377,17.578125
378,17.578125
379,17.578125
380,19.531250
381,19.531250
382,21.484375
383,21.484375
384,21.484375
385,23.437500
386,25.390625
387,25.390625
388,25.390625
389,27.343750
390,27.343750
391,27.343750
392,29.296875
393,29.296875
394,31.250000
395,31.250000
396,33.203125
397,33.203125
398,35.156250
399,35.156250
400,35.156250
401,35.156250
402,37.109375
403,37.109375
404,39.062500
405,39.062500
406,39.062500
407,39.062500
408,41.015625
409,41.015625
410,42.968750
411,42.968750
412,42.968750
413,44.921875
414,44.921875
415,44.921875
416,46.875000
417,46.875000
418,46.875000
419,48.828125
420,48.828125
421,48.828125
422,50.781250
423,50.781250
424,50.781250
425,50.781250
426,52.734375
427,52.734375
428,54.687500
429,52.734375
430,52.734375
431,54.687500
432,56.640625
433,56.640625
434,56.640625
435,56.640625
436,56.640625
437,58.593750
438,58.593750
439,58.593750
440,60.546875
441,60.546875
442,60.546875
443,60.546875
444,60.546875
445,60.546875
446,62.500000
447,62.500000
448,62.500000
449,64.453125
450,64.453125
451,64.453125
452,64.453125
453,64.453125
454,66.406250
455,66.406250
456,66.406250
457,66.406250
458,66.406250
459,66.406250
460,66.406250
461,68.359375
462,68.359375
463,68.359375
464,68.359375
465,68.359375
466,68.359375
467,70.312500
468,70.312500
469,70.312500
470,70.312500
471,70.312500
472,70.312500
473,72.265625
474,72.265625
475,72.265625
476,70.312500
477,72.265625
478,72.265625
479,72.265625
480,72.265625
481,72.265625
482,72.265625
483,72.265625
484,72.265625
485,72.265625
486,74.218750
487,72.265625
488,74.218750
489,72.265625
490,74.218750
491,72.265625
492,72.265625
493,74.218750
494,74.218750
495,74.218750
496,74.218750
497,72.265625
498,72.265625
499,74.218750
500,72.265625
501,74.218750
502,72.265625
503,72.265625
504,72.265625
505,72.265625
506,72.265625
507,72.265625
508,72.265625
509,72.265625
510,72.265625
511,72.265625
512,72.265625
513,72.265625
514,72.265625
515,70.312500
516,72.265625
517,70.312500
518,70.312500
519,70.312500
520,70.312500
521,70.312500
522,68.359375
523,70.312500
524,68.359375
525,70.312500
526,68.359375
527,68.359375
528,68.359375
529,68.359375
530,68.359375
531,66.406250
532,66.406250
533,66.406250
534,66.406250
535,64.453125
536,64.453125
537,64.453125
538,64.453125
539,64.453125
540,62.500000
541,62.500000
542,62.500000
543,62.500000
544,60.546875
545,60.546875
546,60.546875
547,60.546875
548,58.593750
549,58.593750
550,58.593750
551,58.593750
552,56.640625
553,56.640625
554,56.640625
555,54.687500
556,54.687500
557,54.687500
558,52.734375
559,52.734375
560,52.734375
561,52.734375
562,52.734375
563,50.781250
564,50.781250
565,50.781250
566,48.828125
567,48.828125
568,48.828125
569,46.875000
570,46.875000
571,46.875000
572,44.921875
573,44.921875
574,44.921875
575,42.968750
576,42.968750
577,42.968750
578,41.015625
579,41.015625
580,39.062500
581,39.062500
582,39.062500
583,37.109375
584,37.109375
585,37.109375
586,35.156250
587,35.156250
588,35.156250
589,33.203125
590,33.203125
591,31.250000
592,31.250000
593,29.296875
594,29.296875
595,29.296875
596,27.343750
597,25.390625
598,25.390625
599,25.390625
600,25.390625
601,23.437500
602,21.484375
603,21.484375
604,21.484375
605,19.531250
606,19.531250
607,17.578125
608,17.578125
609,17.578125
610,15.625000
611,15.625000
612,13.671875
613,13.671875
614,13.671875
615,11.718750
616,9.765625
617,9.765625
618,9.765625
619,7.812500
620,7.812500
621,5.859375
622,5.859375
623,3.906250
624,3.906250
625,3.906250
626,1.953125
627,1.953125
628,0.000000
629,-1.953125
630,-1.953125
631,-1.953125
632,-3.906250
633,-3.906250
634,-5.859375
635,-5.859375
636,-3.906250
637,-7.812500
638,-7.812500
639,-9.765625
640,-9.765625
641,-9.765625
642,-11.718750
643,-13.671875
644,-13.671875
645,-15.625000
646,-15.625000
647,-15.625000
648,-17.578125
649,-17.578125
650,-19.531250
651,-21.484375
652,-21.484375
653,-21.484375
654,-23.437500
655,-23.437500
656,-25.390625
657,-25.390625
658,-25.390625
659,-27.343750
660,-27.343750
661,-29.296875
662,-29.296875
663,-29.296875
664,-31.250000
665,-33.203125
666,-33.203125
667,-35.156250
668,-35.156250
669,-35.156250
670,-37.109375
671,-37.109375
672,-39.062500
673,-39.062500
674,-39.062500
675,-41.015625
676,-41.015625
677,-42.968750
678,-42.968750
679,-41.015625
680,-44.921875
681,-44.921875
682,-44.921875
683,-46.875000
684,-46.875000
685,-48.828125
686,-48.828125
687,-48.828125
688,-50.781250
689,-50.781250
690,-52.734375
691,-52.734375
692,-52.734375
693,-54.687500
694,-54.687500
695,-54.687500
696,-56.640625
697,-56.640625
698,-58.593750
699,-58.593750
700,-58.593750
701,-58.593750
702,-60.546875
703,-60.546875
704,-60.546875
705,-62.500000
706,-62.500000
707,-62.500000
708,-64.453125
709,-64.453125
710,-64.453125
711,-66.406250
712,-66.406250
713,-66.406250
714,-66.406250
715,-66.406250
716,-68.359375
717,-68.359375
718,-70.312500
719,-70.312500
720,-70.312500
721,-70.312500
722,-72.265625
723,-72.265625
724,-72.265625
725,-72.265625
726,-72.265625
727,-74.218750
728,-74.218750
729,-74.218750
730,-74.218750
731,-76.171875
732,-76.171875
733,-76.171875
734,-78.125000
735,-78.125000
736,-78.125000
737,-78.125000
738,-78.125000
739,-80.078125
740,-80.078125
741,-80.078125
742,-80.078125
743,-80.078125
744,-80.078125
745,-80.078125
746,-82.031250
747,-82.031250
748,-82.031250
749,-83.984375
750,-82.031250
751,-82.031250
752,-83.984375
753,-83.984375
754,-83.984375
755,-83.984375
756,-85.937500
757,-83.984375
758,-83.984375
759,-85.937500
760,-85.937500
761,-85.937500
762,-85.937500
763,-85.937500
764,-85.937500
765,-85.937500
766,-85.937500
767,-85.937500
768,-85.937500
769,-87.890625
770,-87.890625
771,-87.890625
772,-87.890625
773,-87.890625
774,-87.890625
775,-87.890625
776,-87.890625
777,-87.890625
778,-87.890625
779,-87.890625
780,-87.890625
781,-87.890625
782,-87.890625
783,-87.890625
784,-87.890625
785,-87.890625
786,-87.890625
787,-87.890625
788,-87.890625
789,-87.890625
790,-87.890625
791,-87.890625
792,-87.890625
793,-87.890625
794,-87.890625
795,-87.890625
796,-87.890625
797,-87.890625
798,-87.890625
799,-85.937500
800,-87.890625
801,-87.890625
802,-85.937500
803,-85.937500
804,-85.937500
805,-85.937500
806,-85.937500
807,-85.937500
808,-85.937500
809,-85.937500
810,-85.937500
811,-83.984375
812,-85.937500
813,-83.984375
814,-83.984375
815,-83.984375
816,-83.984375
817,-83.984375
818,-82.031250
819,-82.031250
820,-82.031250
821,-82.031250
822,-82.031250
823,-82.031250
824,-80.078125
825,-80.078125
826,-80.078125
827,-80.078125
828,-80.078125
829,-78.125000
830,-78.125000
831,-78.125000
832,-78.125000
833,-78.125000
834,-78.125000
835,-76.171875
836,-76.171875
837,-76.171875
838,-74.218750
839,-74.218750
840,-74.218750
841,-74.218750
842,-72.265625
843,-72.265625
844,-72.265625
845,-72.265625
846,-72.265625
847,-70.312500
848,-70.312500
849,-68.359375
850,-68.359375
851,-68.359375
852,-66.406250
853,-68.359375
854,-66.406250
855,-66.406250
856,-66.406250
857,-64.453125
858,-64.453125
859,-64.453125
860,-64.453125
861,-62.500000
862,-62.500000
863,-60.546875
864,-60.546875
865,-60.546875
866,-58.593750
867,-58.593750
868,-58.593750
869,-58.593750
870,-56.640625
871,-56.640625
872,-54.687500
873,-54.687500
874,-54.687500
875,-54.687500
876,-52.734375
877,-52.734375
878,-50.781250
879,-50.781250
880,-50.781250
881,-50.781250
882,-48.828125
883,-46.875000
884,-46.875000
885,-46.875000
886,-46.875000
887,-44.921875
888,-44.921875
889,-42.968750
890,-42.968750
891,-42.968750
892,-41.015625
893,-41.015625
894,-39.062500
895,-39.062500
896,-37.109375
897,-37.109375
898,-37.109375
899,-37.109375
900,-35.156250
901,-33.203125
902,-33.203125
903,-33.203125
904,-31.250000
905,-31.250000
906,-31.250000
907,-29.296875
908,-29.296875
909,-27.343750
910,-27.343750
911,-25.390625
912,-25.390625
913,-23.437500
914,-23.437500
915,-23.437500
916,-21.484375
917,-21.484375
918,-19.531250
919,-19.531250
920,-17.578125
921,-17.578125
922,-15.625000
923,-15.625000
924,-13.671875
925,-13.671875
926,-11.718750
927,-11.718750
928,-11.718750
929,-9.765625
930,-9.765625
931,-7.812500
932,-7.812500
933,-5.859375
934,-5.859375
935,-5.859375
936,-3.906250
937,-3.906250
938,-1.953125
939,-1.953125
940,0.000000
941,0.000000
942,1.953125
943,1.953125
944,1.953125
945,3.906250
946,3.906250
947,5.859375
948,5.859375
949,7.812500
950,7.812500
951,9.765625
952,9.765625
953,9.765625
954,11.718750
955,13.671875
956,13.671875
957,13.671875
958,15.625000
959,15.625000
960,17.578125
961,17.578125
962,17.578125
963,19.531250
964,19.531250
965,21.484375
966,21.484375
967,21.484375
968,23.437500
969,25.390625
970,25.390625
971,25.390625
972,27.343750
973,27.343750
974,29.296875
975,29.296875
976,29.296875
977,31.250000
978,31.250000
979,33.203125
980,33.203125
981,33.203125
982,33.203125
983,35.156250
984,35.156250
985,37.109375
986,37.109375
987,39.062500
988,39.062500
989,39.062500
990,41.015625
991,41.015625
992,41.015625
993,42.968750
994,42.968750
995,44.921875
996,44.921875
997,44.921875
998,44.921875
999,44.921875
1000,46.875000
1001,48.828125
1002,48.828125
1003,48.828125
1004,48.828125
1005,48.828125
1006,50.781250
1007,50.781250
1008,52.734375
1009,52.734375
1010,52.734375
1011,52.734375
1012,52.734375
1013,54.687500
1014,54.687500
1015,56.640625
1016,56.640625
1017,56.640625
1018,56.640625
1019,56.640625
1020,58.593750
1021,58.593750
1022,58.593750
1023,60.546875
1024,60.546875
1025,60.546875
1026,60.546875
1027,60.546875
1028,62.500000
1029,62.500000
1030,62.500000
1031,62.500000
1032,64.453125
1033,64.453125
1034,64.453125
1035,64.453125
1036,64.453125
1037,66.406250
1038,66.406250
1039,66.406250
1040,66.406250
1041,68.359375
1042,68.359375
1043,68.359375
1044,68.359375
1045,68.359375
1046,68.359375
1047,68.359375
1048,70.312500
1049,70.312500
1050,70.312500
1051,70.312500
1052,70.312500
1053,70.312500
1054,70.312500
1055,70.312500
1056,70.312500
1057,72.265625
1058,70.312500
1059,72.265625
1060,72.265625
1061,72.265625
1062,72.265625
1063,72.265625
1064,72.265625
1065,72.265625
1066,72.265625
1067,72.265625
1068,72.265625
1069,72.265625
1070,72.265625
1071,72.265625
1072,72.265625
1073,72.265625
1074,72.265625
1075,72.265625
1076,72.265625
1077,72.265625
1078,74.218750
1079,74.218750
1080,72.265625
1081,74.218750
1082,72.265625
1083,72.265625
1084,72.265625
1085,72.265625
1086,72.265625
1087,72.265625
1088,72.265625
1089,72.265625
1090,72.265625
1091,72.265625
1092,72.265625
1093,72.265625
1094,72.265625
1095,72.265625
1096,70.312500
1097,72.265625
1098,70.312500
1099,70.312500
1100,70.312500
1101,70.312500
1102,70.312500
1103,70.312500
1104,70.312500
1105,68.359375
1106,68.359375
1107,68.359375
1108,70.312500
1109,68.359375
1110,68.359375
1111,68.359375
1112,68.359375
1113,66.406250
1114,66.406250
1115,66.406250
1116,66.406250
1117,66.406250
1118,64.453125
1119,64.453125
1120,64.453125
1121,64.453125
1122,62.500000
1123,62.500000
1124,62.500000
1125,60.546875
1126,62.500000
1127,60.546875
1128,60.546875
1129,60.546875
1130,58.593750
1131,58.593750
1132,58.593750
1133,58.593750
1134,56.640625
1135,56.640625
1136,56.640625
1137,56.640625
1138,54.687500
1139,54.687500
1140,54.687500
1141,52.734375
1142,52.734375
1143,52.734375
1144,50.781250
1145,50.781250
1146,50.781250
1147,50.781250
1148,48.828125
1149,48.828125
1150,46.875000
1151,48.828125
1152,46.875000
1153,46.875000
1154,44.921875
1155,44.921875
1156,44.921875
1157,42.968750
1158,42.968750
1159,42.968750
1160,42.968750
1161,41.015625
1162,41.015625
1163,39.062500
1164,39.062500
1165,39.062500
1166,37.109375
1167,37.109375
1168,35.156250
1169,37.109375
1170,33.203125
1171,33.203125
1172,33.203125
1173,33.203125
1174,31.250000
1175,29.296875
1176,31.250000
1177,29.296875
1178,27.343750
1179,27.343750
1180,27.343750
1181,25.390625
1182,25.390625
1183,23.437500
1184,23.437500
1185,21.484375
1186,21.484375
1187,21.484375
1188,19.531250
1189,19.531250
1190,19.531250
1191,17.578125
1192,15.625000
1193,15.625000
1194,15.625000
1195,13.671875
1196,13.671875
1197,11.718750
1198,11.718750
1199,9.765625
1200,9.765625
1201,7.812500
1202,7.812500
1203,7.812500
1204,5.859375
1205,5.859375
1206,3.906250
1207,3.906250
1208,1.953125
1209,1.953125
1210,1.953125
1211,0.000000
1212,-1.953125
1213,-1.953125
1214,-3.906250
1215,-3.906250
1216,-3.906250
1217,-5.859375
1218,-5.859375
1219,-7.812500
1220,-7.812500
1221,-7.812500
1222,-9.765625
1223,-9.765625
1224,-11.718750
1225,-13.671875
1226,-11.718750
1227,-13.671875
1228,-15.625000
1229,-15.625000
1230,-17.578125
1231,-17.578125
1232,-17.578125
1233,-19.531250
1234,-21.484375
1235,-21.484375
1236,-21.484375
1237,-23.437500
1238,-23.437500
1239,-25.390625
1240,-25.390625
1241,-27.343750
1242,-27.343750
1243,-27.343750
1244,-29.296875
1245,-31.250000
1246,-31.250000
1247,-31.250000
1248,-33.203125
1249,-33.203125
1250,-35.156250
1251,-35.156250
1252,-35.156250
1253,-33.203125
1254,-37.109375
1255,-39.062500
1256,-39.062500
1257,-39.062500
1258,-41.015625
1259,-41.015625
1260,-42.968750
1261,-42.968750
1262,-42.968750
1263,-44.921875
1264,-44.921875
1265,-46.875000
1266,-46.875000
1267,-46.875000
1268,-48.828125
1269,-48.828125
1270,-50.781250
1271,-50.781250
1272,-50.781250
1273,-50.781250
1274,-52.734375
1275,-52.734375
1276,-54.687500
1277,-54.687500
1278,-56.640625
1279,-54.687500
1280,-56.640625
1281,-56.640625
1282,-56.640625
1283,-58.593750
1284,-58.593750
1285,-60.546875
1286,-60.546875
1287,-60.546875
1288,-62.500000
1289,-62.500000
1290,-62.500000
1291,-64.453125
1292,-64.453125
1293,-64.453125
1294,-64.453125
1295,-66.406250
1296,-66.406250
1297,-66.406250
1298,-68.359375
1299,-68.359375
1300,-68.359375
1301,-70.312500
1302,-70.312500
1303,-70.312500
1304,-70.312500
1305,-70.312500
1306,-72.265625
1307,-72.265625
1308,-72.265625
1309,-74.218750
1310,-74.218750
1311,-74.218750
1312,-74.218750
1313,-74.218750
1314,-76.171875
1315,-76.171875
1316,-76.171875
1317,-78.125000
1318,-78.125000
1319,-78.125000
1320,-78.125000
1321,-78.125000
1322,-80.078125
1323,-80.078125
1324,-78.125000
1325,-80.078125
1326,-80.078125
1327,-82.031250
1328,-82.031250
1329,-82.031250
1330,-82.031250
1331,-82.031250
1332,-82.031250
1333,-82.031250
1334,-83.984375
1335,-83.984375
1336,-83.984375
1337,-83.984375
1338,-83.984375
1339,-83.984375
1340,-83.984375
1341,-83.984375
1342,-85.937500
1343,-85.937500
1344,-85.937500
1345,-85.937500
1346,-85.937500
1347,-85.937500
1348,-87.890625
1349,-85.937500
1350,-85.937500
1351,-85.937500
1352,-85.937500
1353,-87.890625
1354,-85.937500
1355,-85.937500
1356,-87.890625
1357,-87.890625
1358,-87.890625
1359,-87.890625
1360,-87.890625
1361,-87.890625
1362,-87.890625
1363,-87.890625
1364,-87.890625
1365,-87.890625
1366,-87.890625
1367,-87.890625
1368,-87.890625
1369,-87.890625
1370,-87.890625
1371,-87.890625
1372,-87.890625
1373,-87.890625
1374,-87.890625
1375,-87.890625
1376,-87.890625
1377,-87.890625
1378,-87.890625
1379,-87.890625
1380,-87.890625
1381,-87.890625
1382,-87.890625
1383,-87.890625
1384,-85.937500
1385,-85.937500
1386,-85.937500
1387,-85.937500
1388,-85.937500
1389,-85.937500
1390,-85.937500
1391,-85.937500
1392,-85.937500
1393,-85.937500
1394,-85.937500
1395,-83.984375
1396,-83.984375
1397,-83.984375
1398,-83.984375
1399,-83.984375
1400,-83.984375
1401,-82.031250
1402,-82.031250
1403,-82.031250
1404,-82.031250
1405,-82.031250
1406,-80.078125
1407,-80.078125
1408,-80.078125
1409,-80.078125
1410,-80.078125
1411,-78.125000
1412,-78.125000
1413,-78.125000
1414,-78.125000
1415,-76.171875
1416,-78.125000
1417,-76.171875
1418,-76.171875
1419,-76.171875
1420,-74.218750
1421,-74.218750
1422,-74.218750
1423,-74.218750
1424,-74.218750
1425,-72.265625
1426,-72.265625
1427,-72.265625
1428,-72.265625
1429,-70.312500
1430,-70.312500
1431,-70.312500
1432,-70.312500
1433,-68.359375
1434,-68.359375
1435,-68.359375
1436,-66.406250
1437,-66.406250
1438,-66.406250
1439,-64.453125
1440,-64.453125
1441,-64.453125
1442,-64.453125
1443,-62.500000
1444,-62.500000
1445,-62.500000
1446,-60.546875
1447,-60.546875
1448,-60.546875
1449,-58.593750
1450,-58.593750
1451,-58.593750
1452,-58.593750
1453,-56.640625
1454,-56.640625
1455,-54.687500
1456,-54.687500
1457,-54.687500
1458,-54.687500
1459,-52.734375
1460,-52.734375
1461,-52.734375
1462,-50.781250
1463,-50.781250
1464,-48.828125
1465,-48.828125
1466,-48.828125
1467,-46.875000
1468,-44.921875
1469,-46.875000
1470,-44.921875
1471,-44.921875
1472,-42.968750
1473,-42.968750
1474,-41.015625
1475,-41.015625
1476,-41.015625
1477,-39.062500
1478,-39.062500
1479,-37.109375
1480,-37.109375
1481,-37.109375
1482,-35.156250
1483,-35.156250
1484,-33.203125
1485,-33.203125
1486,-31.250000
1487,-31.250000
1488,-29.296875
1489,-29.296875
1490,-29.296875
1491,-27.343750
1492,-27.343750
1493,-27.343750
1494,-23.437500
1495,-25.390625
1496,-23.437500
1497,-23.437500
1498,-21.484375
1499,-21.484375
1500,-19.531250
1501,-19.531250
1502,-17.578125
1503,-17.578125
1504,-15.625000
1505,-15.625000
1506,-15.625000
1507,-13.671875
1508,-13.671875
1509,-11.718750
1510,-11.718750
1511,-9.765625
1512,-9.765625
1513,-9.765625
1514,-7.812500
1515,-7.812500
1516,-5.859375
1517,-5.859375
1518,-3.906250
1519,-3.906250
1520,-3.906250
1521,-1.953125
1522,0.000000
1523,0.000000
1524,0.000000
1525,1.953125
1526,1.953125
1527,3.906250
1528,5.859375
1529,5.859375
1530,5.859375
1531,5.859375
1532,7.812500
1533,7.812500
1534,9.765625
1535,9.765625
1536,11.718750
1537,13.671875
1538,13.671875
1539,13.671875
1540,13.671875
1541,15.625000
1542,17.578125
1543,17.578125
1544,17.578125
1545,19.531250
1546,19.531250
1547,21.484375
1548,21.484375
1549,21.484375
1550,23.437500
1551,23.437500
1552,25.390625
1553,25.390625
1554,25.390625
1555,27.343750
1556,29.296875
1557,29.296875
1558,29.296875
1559,31.250000
1560,31.250000
1561,31.250000
1562,33.203125
1563,33.203125
1564,33.203125
1565,35.156250
1566,35.156250
1567,37.109375
1568,37.109375
1569,37.109375
1570,39.062500
1571,39.062500
1572,39.062500
1573,41.015625
1574,41.015625
1575,42.968750
1576,42.968750
1577,42.968750
1578,42.968750
1579,44.921875
1580,44.921875
1581,44.921875
1582,46.875000
1583,46.875000
1584,46.875000
1585,48.828125
1586,48.828125
1587,48.828125
1588,50.781250
1589,50.781250
1590,50.781250
1591,52.734375
1592,52.734375
1593,52.734375
1594,54.687500
1595,54.687500
1596,54.687500
1597,54.687500
1598,56.640625
1599,56.640625
1600,56.640625
1601,58.593750
1602,58.593750
1603,58.593750
1604,58.593750
1605,58.593750
1606,60.546875
1607,60.546875
1608,60.546875
1609,60.546875
1610,62.500000
1611,62.500000
1612,62.500000
1613,62.500000
1614,62.500000
1615,64.453125
1616,64.453125
1617,64.453125
1618,64.453125
1619,64.453125
1620,66.406250
1621,66.406250
1622,64.453125
1623,66.406250
1624,68.359375
1625,68.359375
1626,68.359375
1627,68.359375
1628,68.359375
1629,68.359375
1630,68.359375
1631,70.312500
1632,68.359375
1633,70.312500
1634,70.312500
1635,70.312500
1636,70.312500
1637,70.312500
1638,70.312500
1639,70.312500
1640,72.265625
1641,72.265625
1642,72.265625
1643,72.265625
1644,72.265625
1645,72.265625
1646,72.265625
1647,72.265625
1648,72.265625
1649,72.265625
1650,72.265625
1651,72.265625
1652,72.265625
1653,72.265625
1654,72.265625
1655,72.265625
1656,72.265625
1657,72.265625
1658,72.265625
1659,74.218750
1660,72.265625
1661,74.218750
1662,74.218750
1663,74.218750
1664,74.218750
1665,72.265625
1666,72.265625
1667,72.265625
1668,72.265625
1669,74.218750
1670,72.265625
1671,72.265625
1672,72.265625
1673,72.265625
1674,72.265625
1675,72.265625
1676,72.265625
1677,72.265625
1678,72.265625
1679,72.265625
1680,72.265625
1681,70.312500
1682,70.312500
1683,70.312500
1684,70.312500
1685,70.312500
1686,70.312500
1687,70.312500
1688,70.312500
1689,70.312500
1690,70.312500
1691,68.359375
1692,68.359375
1693,68.359375
1694,68.359375
1695,68.359375
1696,66.406250
1697,66.406250
1698,66.406250
1699,66.406250
1700,66.406250
1701,64.453125
1702,64.453125
1703,64.453125
1704,64.453125
1705,64.453125
1706,62.500000
1707,62.500000
1708,60.546875
1709,60.546875
1710,60.546875
1711,60.546875
1712,60.546875
1713,60.546875
1714,58.593750
1715,58.593750
1716,58.593750
1717,56.640625
1718,56.640625
1719,56.640625
1720,56.640625
1721,54.687500
1722,54.687500
1723,52.734375
1724,52.734375
1725,52.734375
1726,52.734375
1727,52.734375
1728,50.781250
1729,50.781250
1730,48.828125
1731,50.781250
1732,48.828125
1733,46.875000
1734,46.875000
1735,46.875000
1736,46.875000
1737,44.921875
1738,44.921875
1739,44.921875
1740,42.968750
1741,42.968750
1742,42.968750
1743,41.015625
1744,41.015625
1745,39.062500
1746,39.062500
1747,39.062500
1748,37.109375
1749,37.109375
1750,37.109375
1751,35.156250
1752,35.156250
1753,35.156250
1754,33.203125
1755,33.203125
1756,31.250000
1757,31.250000
1758,31.250000
1759,29.296875
1760,29.296875
1761,27.343750
1762,27.343750
1763,27.343750
1764,25.390625
1765,25.390625
1766,25.390625
1767,23.437500
1768,21.484375
1769,21.484375
1770,19.531250
1771,19.531250
1772,17.578125
1773,15.625000
1774,17.578125
1775,15.625000
1776,15.625000
1777,15.625000
1778,13.671875
1779,13.671875
1780,11.718750
1781,11.718750
1782,9.765625
1783,9.765625
1784,7.812500
1785,7.812500
1786,7.812500
1787,5.859375
1788,3.906250
1789,3.906250
1790,3.906250
1791,3.906250
1792,1.953125
1793,0.000000
1794,0.000000
1795,-1.953125
1796,-3.906250
1797,-1.953125
1798,-3.906250
1799,-3.906250
1800,-5.859375
1801,-5.859375
1802,-7.812500
1803,-7.812500
1804,-9.765625
1805,-9.765625
1806,-7.812500
1807,-11.718750
1808,-13.671875
1809,-13.671875
1810,-13.671875
1811,-15.625000
1812,-15.625000
1813,-17.578125
1814,-17.578125
1815,-19.531250
1816,-19.531250
1817,-19.531250
1818,-21.484375
1819,-21.484375
1820,-23.437500
1821,-23.437500
1822,-25.390625
1823,-25.390625
1824,-27.343750
1825,-27.343750
1826,-29.296875
1827,-29.296875
1828,-29.296875
1829,-31.250000
1830,-31.250000
1831,-33.203125
1832,-33.203125
1833,-33.203125
1834,-35.156250
1835,-37.109375
1836,-37.109375
1837,-39.062500
1838,-37.109375
1839,-39.062500
1840,-41.015625
1841,-41.015625
1842,-41.015625
1843,-42.968750
1844,-42.968750
1845,-42.968750
1846,-44.921875
1847,-46.875000
1848,-46.875000
1849,-48.828125
1850,-46.875000
1851,-48.828125
1852,-48.828125
1853,-50.781250
1854,-50.781250
1855,-50.781250
1856,-52.734375
1857,-52.734375
1858,-54.687500
1859,-54.687500
1860,-54.687500
1861,-54.687500
1862,-56.640625
1863,-56.640625
1864,-56.640625
1865,-58.593750
1866,-58.593750
1867,-58.593750
1868,-60.546875
1869,-60.546875
1870,-60.546875
1871,-62.500000
1872,-62.500000
1873,-62.500000
1874,-62.500000
1875,-64.453125
1876,-64.453125
1877,-66.406250
1878,-66.406250
1879,-66.406250
1880,-66.406250
1881,-68.359375
1882,-68.359375
1883,-68.359375
1884,-68.359375
1885,-70.312500
1886,-70.312500
1887,-70.312500
1888,-70.312500
1889,-72.265625
1890,-72.265625
1891,-72.265625
1892,-74.218750
1893,-74.218750
1894,-74.218750
1895,-74.218750
1896,-76.171875
1897,-76.171875
1898,-76.171875
1899,-76.171875
1900,-76.171875
1901,-78.125000
1902,-78.125000
1903,-78.125000
1904,-78.125000
1905,-80.078125
1906,-80.078125
1907,-80.078125
1908,-80.078125
1909,-80.078125
1910,-82.031250
1911,-82.031250
1912,-82.031250
1913,-82.031250
1914,-82.031250
1915,-82.031250
1916,-82.031250
1917,-83.984375
1918,-83.984375
1919,-83.984375
1920,-85.937500
1921,-83.984375
1922,-83.984375
1923,-83.984375
1924,-83.984375
1925,-85.937500
1926,-85.937500
1927,-85.937500
1928,-85.937500
1929,-85.937500
1930,-85.937500
1931,-83.984375
1932,-85.937500
1933,-87.890625
1934,-85.937500
1935,-85.937500
1936,-87.890625
1937,-87.890625
1938,-85.937500
1939,-85.937500
1940,-87.890625
1941,-87.890625
1942,-87.890625
1943,-87.890625
1944,-87.890625
1945,-87.890625
1946,-87.890625
1947,-87.890625
1948,-87.890625
1949,-87.890625
1950,-87.890625
1951,-87.890625
1952,-85.937500
1953,-87.890625
1954,-87.890625
1955,-85.937500
1956,-87.890625
1957,-87.890625
1958,-87.890625
1959,-87.890625
1960,-87.890625
1961,-87.890625
1962,-87.890625
1963,-87.890625
1964,-85.937500
1965,-87.890625
1966,-85.937500
1967,-87.890625
1968,-85.937500
1969,-85.937500
1970,-85.937500
1971,-85.937500
1972,-85.937500
1973,-85.937500
1974,-85.937500
1975,-83.984375
1976,-83.984375
1977,-83.984375
1978,-83.984375
1979,-83.984375
1980,-83.984375
1981,-83.984375
1982,-83.984375
1983,-83.984375
1984,-82.031250
1985,-83.984375
1986,-82.031250
1987,-82.031250
1988,-83.984375
1989,-80.078125
1990,-80.078125
1991,-80.078125
1992,-80.078125
1993,-78.125000
1994,-78.125000
1995,-78.125000
1996,-78.125000
1997,-78.125000
1998,-76.171875
1999,-76.171875
2000,-76.171875
2001,-76.171875
2002,-74.218750
2003,-74.218750
2004,-74.218750
2005,-74.218750
2006,-74.218750
2007,-72.265625
2008,-72.265625
2009,-72.265625
2010,-72.265625
2011,-72.265625
2012,-70.312500
2013,-70.312500
2014,-68.359375
2015,-68.359375
2016,-68.359375
2017,-68.359375
2018,-68.359375
2019,-66.406250
2020,-66.406250
2021,-64.453125
2022,-64.453125
2023,-64.453125
2024,-64.453125
2025,-62.500000
2026,-60.546875
2027,-62.500000
2028,-60.546875
2029,-60.546875
2030,-60.546875
2031,-60.546875
2032,-58.593750
2033,-58.593750
2034,-58.593750
2035,-56.640625
2036,-56.640625
2037,-56.640625
2038,-54.687500
2039,-54.687500
2040,-54.687500
2041,-54.687500
2042,-50.781250
2043,-52.734375
2044,-50.781250
2045,-50.781250
2046,-50.781250
2047,-48.828125
2048,-48.828125
2049,-46.875000
2050,-44.921875
2051,-46.875000
2052,-44.921875
2053,-44.921875
2054,-42.968750
2055,-42.968750
2056,-42.968750
2057,-42.968750
2058,-41.015625
2059,-39.062500
2060,-39.062500
2061,-39.062500
2062,-37.109375
2063,-37.109375
2064,-35.156250
2065,-35.156250
2066,-35.156250
2067,-33.203125
2068,-33.203125
2069,-33.203125
2070,-31.250000
2071,-29.296875
2072,-29.296875
2073,-27.343750
2074,-27.343750
2075,-27.343750
2076,-25.390625
2077,-25.390625
2078,-25.390625
2079,-23.437500
2080,-23.437500
2081,-21.484375
2082,-21.484375
2083,-19.531250
2084,-19.531250
2085,-17.578125
2086,-17.578125
2087,-17.578125
2088,-15.625000
2089,-15.625000
2090,-13.671875
2091,-13.671875
2092,-11.718750
2093,-11.718750
2094,-11.718750
2095,-9.765625
2096,-7.812500
2097,-7.812500
2098,-7.812500
2099,-5.859375
2100,-5.859375
2101,-3.906250
2102,-3.906250
2103,-3.906250
2104,-1.953125
2105,0.000000
2106,0.000000
2107,1.953125
2108,1.953125
2109,1.953125
2110,3.906250
2111,3.906250
2112,5.859375
2113,5.859375
2114,7.812500
2115,7.812500
2116,9.765625
2117,9.765625
2118,9.765625
2119,11.718750
2120,11.718750
2121,13.671875
2122,13.671875
2123,15.625000
2124,15.625000
2125,15.625000
2126,17.578125
2127,17.578125
2128,19.531250
2129,19.531250
2130,21.484375
2131,21.484375
2132,23.437500
2133,23.437500
2134,23.437500
2135,25.390625
2136,27.343750
2137,27.343750
2138,27.343750
2139,27.343750
2140,29.296875
2141,31.250000
2142,31.250000
2143,31.250000
2144,31.250000
2145,33.203125
2146,33.203125
2147,35.156250
2148,35.156250
2149,35.156250
2150,37.109375
2151,37.109375
2152,37.109375
2153,39.062500
2154,39.062500
2155,39.062500
2156,41.015625
2157,41.015625
2158,41.015625
2159,42.968750
2160,46.875000
2161,42.968750
2162,44.921875
2163,44.921875
2164,46.875000
2165,46.875000
2166,46.875000
2167,48.828125
2168,48.828125
2169,48.828125
2170,48.828125
2171,50.781250
2172,50.781250
2173,50.781250
2174,52.734375
2175,52.734375
2176,52.734375
2177,52.734375
2178,54.687500
2179,54.687500
2180,54.687500
2181,54.687500
2182,56.640625
2183,56.640625
2184,56.640625
2185,58.593750
2186,58.593750
2187,58.593750
2188,58.593750
2189,60.546875
2190,60.546875
2191,60.546875
2192,58.593750
2193,62.500000
2194,62.500000
2195,62.500000
2196,62.500000
2197,64.453125
2198,64.453125
2199,64.453125
2200,64.453125
2201,64.453125
2202,64.453125
2203,64.453125
2204,66.406250
2205,66.406250
2206,66.406250
2207,66.406250
2208,68.359375
2209,66.406250
2210,68.359375
2211,68.359375
2212,68.359375
2213,68.359375
2214,68.359375
2215,70.312500
2216,70.312500
2217,70.312500
2218,70.312500
2219,70.312500
2220,70.312500
2221,70.312500
2222,70.312500
2223,70.312500
2224,72.265625
2225,72.265625
2226,70.312500
2227,72.265625
2228,72.265625
2229,72.265625
2230,72.265625
2231,72.265625
2232,72.265625
2233,72.265625
2234,72.265625
2235,72.265625
2236,72.265625
2237,72.265625
2238,72.265625
2239,72.265625
2240,72.265625
2241,74.218750
2242,72.265625
2243,72.265625
2244,72.265625
2245,74.218750
2246,74.218750
2247,72.265625
2248,72.265625
2249,72.265625
2250,72.265625
2251,72.265625
2252,72.265625
2253,72.265625
2254,72.265625
2255,72.265625
2256,72.265625
2257,72.265625
2258,72.265625
2259,72.265625
2260,72.265625
2261,70.312500
2262,72.265625
2263,70.312500
2264,72.265625
2265,70.312500
2266,70.312500
2267,70.312500
2268,70.312500
2269,70.312500
2270,70.312500
2271,70.312500
2272,68.359375
2273,68.359375
2274,68.359375
2275,68.359375
2276,68.359375
2277,66.406250
2278,66.406250
2279,66.406250
2280,66.406250
2281,66.406250
2282,64.453125
2283,64.453125
2284,64.453125
2285,64.453125
2286,64.453125
2287,64.453125
2288,62.500000
2289,62.500000
2290,62.500000
2291,62.500000
2292,60.546875
2293,60.546875
2294,60.546875
2295,60.546875
2296,60.546875
2297,58.593750
2298,58.593750
2299,58.593750
2300,56.640625
2301,56.640625
2302,56.640625
2303,54.687500
2304,54.687500
2305,54.687500
2306,54.687500
2307,52.734375
2308,52.734375
2309,50.781250
2310,50.781250
2311,50.781250
2312,50.781250
2313,48.828125
2314,48.828125
2315,48.828125
2316,48.828125
2317,46.875000
2318,46.875000
2319,44.921875
2320,44.921875
2321,44.921875
2322,42.968750
2323,42.968750
2324,42.968750
2325,42.968750
2326,41.015625
2327,41.015625
2328,41.015625
2329,39.062500
2330,39.062500
2331,37.109375
2332,37.109375
2333,37.109375
2334,35.156250
2335,35.156250
2336,33.203125
2337,33.203125
2338,33.203125
2339,31.250000
2340,31.250000
2341,29.296875
2342,29.296875
2343,29.296875
2344,27.343750
2345,27.343750
2346,25.390625
2347,25.390625
2348,25.390625
2349,23.437500
2350,23.437500
2351,21.484375
2352,21.484375
2353,21.484375
2354,19.531250
2355,19.531250
2356,17.578125
2357,17.578125
2358,15.625000
2359,15.625000
2360,15.625000
2361,13.671875
2362,13.671875
2363,11.718750
2364,11.718750
2365,9.765625
2366,9.765625
2367,7.812500
2368,7.812500
2369,7.812500
2370,5.859375
2371,5.859375
2372,3.906250
2373,3.906250
2374,1.953125
2375,1.953125
2376,0.000000
2377,0.000000
2378,-1.953125
2379,-3.906250
2380,-1.953125
2381,-3.906250
2382,-5.859375
2383,-5.859375
2384,-5.859375
2385,-5.859375
2386,-7.812500
2387,-9.765625
2388,-9.765625
2389,-11.718750
2390,-11.718750
2391,-11.718750
2392,-13.671875
2393,-15.625000
2394,-15.625000
2395,-15.625000
2396,-17.578125
2397,-17.578125
2398,-19.531250
2399,-19.531250
2400,-19.531250
2401,-21.484375
2402,-21.484375
2403,-23.437500
2404,-23.437500
2405,-25.390625
2406,-25.390625
2407,-27.343750
2408,-27.343750
2409,-27.343750
2410,-29.296875
2411,-29.296875
2412,-31.250000
2413,-31.250000
2414,-33.203125
2415,-33.203125
2416,-33.203125
2417,-35.156250
2418,-35.156250
2419,-37.109375
2420,-37.109375
2421,-39.062500
2422,-39.062500
2423,-41.015625
2424,-41.015625
2425,-41.015625
2426,-42.968750
2427,-42.968750
2428,-44.921875
2429,-41.015625
2430,-44.921875
2431,-46.875000
2432,-46.875000
2433,-46.875000
2434,-48.828125
2435,-48.828125
2436,-50.781250
2437,-50.781250
2438,-50.781250
2439,-52.734375
2440,-52.734375
2441,-54.687500
2442,-54.687500
2443,-54.687500
2444,-54.687500
2445,-54.687500
2446,-56.640625
2447,-56.640625
2448,-58.593750
2449,-58.593750
2450,-58.593750
2451,-60.546875
2452,-60.546875
2453,-60.546875
2454,-62.500000
2455,-62.500000
2456,-62.500000
2457,-62.500000
2458,-64.453125
2459,-64.453125
2460,-64.453125
2461,-64.453125
2462,-66.406250
2463,-66.406250
2464,-66.406250
2465,-68.359375
2466,-68.359375
2467,-68.359375
2468,-70.312500
2469,-70.312500
2470,-70.312500
2471,-70.312500
2472,-72.265625
2473,-72.265625
2474,-72.265625
2475,-72.265625
2476,-74.218750
2477,-74.218750
2478,-74.218750
2479,-74.218750
2480,-76.171875
2481,-76.171875
2482,-76.171875
2483,-76.171875
2484,-78.125000
2485,-78.125000
2486,-78.125000
2487,-78.125000
2488,-80.078125
2489,-80.078125
2490,-80.078125
2491,-80.078125
2492,-80.078125
2493,-80.078125
2494,-82.031250
2495,-82.031250
2496,-82.031250
2497,-82.031250
2498,-82.031250
2499,-83.984375
2500,-83.984375
2501,-83.984375
2502,-83.984375
2503,-83.984375
2504,-83.984375
2505,-83.984375
2506,-83.984375
2507,-85.937500
2508,-85.937500
2509,-85.937500
2510,-85.937500
2511,-85.937500
2512,-85.937500
2513,-85.937500
2514,-85.937500
2515,-85.937500
2516,-85.937500
2517,-85.937500
2518,-87.890625
2519,-87.890625
2520,-87.890625
2521,-87.890625
2522,-87.890625
2523,-87.890625
2524,-87.890625
2525,-87.890625
2526,-87.890625
2527,-87.890625
2528,-87.890625
2529,-87.890625
2530,-87.890625
2531,-87.890625
2532,-87.890625
2533,-87.890625
2534,-87.890625
2535,-87.890625
2536,-87.890625
2537,-87.890625
2538,-87.890625
2539,-87.890625
2540,-87.890625
2541,-87.890625
2542,-87.890625
2543,-87.890625
2544,-87.890625
2545,-87.890625
2546,-85.937500
2547,-85.937500
2548,-87.890625
2549,-87.890625
2550,-85.937500
2551,-85.937500
2552,-85.937500
2553,-85.937500
2554,-85.937500
2555,-85.937500
2556,-85.937500
2557,-85.937500
2558,-85.937500
2559,-85.937500
2560,-83.984375
2561,-83.984375
2562,-83.984375
2563,-83.984375
2564,-83.984375
2565,-83.984375
2566,-83.984375
2567,-82.031250
2568,-82.031250
2569,-82.031250
2570,-82.031250
2571,-80.078125
2572,-80.078125
2573,-82.031250
2574,-80.078125
2575,-80.078125
2576,-80.078125
2577,-80.078125
2578,-78.125000
2579,-78.125000
2580,-78.125000
2581,-78.125000
2582,-76.171875
2583,-76.171875
2584,-76.171875
2585,-76.171875
2586,-76.171875
2587,-74.218750
2588,-74.218750
2589,-74.218750
2590,-74.218750
2591,-72.265625
2592,-72.265625
2593,-72.265625
2594,-70.312500
2595,-70.312500
2596,-70.312500
2597,-70.312500
2598,-70.312500
2599,-68.359375
2600,-66.406250
2601,-68.359375
2602,-68.359375
2603,-66.406250
2604,-64.453125
2605,-64.453125
2606,-64.453125
2607,-64.453125
2608,-64.453125
2609,-62.500000
2610,-62.500000
2611,-62.500000
2612,-60.546875
2613,-60.546875
2614,-60.546875
2615,-60.546875
2616,-58.593750
2617,-58.593750
2618,-58.593750
2619,-56.640625
2620,-56.640625
2621,-56.640625
2622,-56.640625
2623,-54.687500
2624,-52.734375
2625,-52.734375
2626,-52.734375
2627,-50.781250
2628,-50.781250
2629,-48.828125
2630,-50.781250
2631,-48.828125
2632,-48.828125
2633,-46.875000
2634,-46.875000
2635,-44.921875
2636,-44.921875
2637,-46.875000
2638,-42.968750
2639,-42.968750
2640,-42.968750
2641,-41.015625
2642,-41.015625
2643,-39.062500
2644,-39.062500
2645,-39.062500
2646,-37.109375
2647,-35.156250
2648,-35.156250
2649,-35.156250
2650,-33.203125
2651,-33.203125
2652,-33.203125
2653,-31.250000
2654,-31.250000
2655,-29.296875
2656,-29.296875
2657,-27.343750
2658,-27.343750
2659,-27.343750
2660,-25.390625
2661,-23.437500
2662,-23.437500
2663,-23.437500
2664,-23.437500
2665,-21.484375
2666,-19.531250
2667,-19.531250
2668,-19.531250
2669,-17.578125
2670,-15.625000
2671,-15.625000
2672,-15.625000
2673,-13.671875
2674,-13.671875
2675,-13.671875
2676,-11.718750
2677,-9.765625
2678,-9.765625
2679,-9.765625
2680,-7.812500
2681,-7.812500
2682,-5.859375
2683,-5.859375
2684,-3.906250
2685,-3.906250
2686,-1.953125
2687,-1.953125
2688,-1.953125
2689,0.000000
2690,0.000000
2691,1.953125
2692,1.953125
2693,3.906250
2694,3.906250
2695,3.906250
2696,5.859375
2697,7.812500
2698,7.812500
2699,7.812500
2700,9.765625
2701,9.765625
2702,11.718750
2703,11.718750
2704,13.671875
2705,13.671875
2706,13.671875
2707,15.625000
2708,15.625000
2709,17.578125
2710,17.578125
2711,19.531250
2712,19.531250
2713,21.484375
2714,21.484375
2715,23.437500
2716,23.437500
2717,23.437500
2718,25.390625
2719,25.390625
2720,27.343750
2721,27.343750
2722,27.343750
2723,29.296875
2724,31.250000
2725,29.296875
2726,31.250000
2727,31.250000
2728,33.203125
2729,33.203125
2730,33.203125
2731,35.156250
2732,37.109375
2733,37.109375
2734,37.109375
2735,37.109375
2736,39.062500
2737,39.062500
2738,39.062500
2739,41.015625
2740,42.968750
2741,41.015625
2742,42.968750
2743,44.921875
2744,42.968750
2745,44.921875
2746,44.921875
2747,46.875000
2748,46.875000
2749,46.875000
2750,46.875000
2751,48.828125
2752,48.828125
2753,48.828125
2754,50.781250
2755,50.781250
2756,48.828125
2757,52.734375
2758,52.734375
2759,52.734375
2760,54.687500
2761,54.687500
2762,54.687500
2763,54.687500
2764,54.687500
2765,56.640625
2766,56.640625
2767,58.593750
2768,58.593750
2769,58.593750
2770,58.593750
2771,60.546875
2772,60.546875
2773,60.546875
2774,60.546875
2775,60.546875
2776,62.500000
2777,62.500000
2778,58.593750
2779,62.500000
2780,64.453125
2781,64.453125
2782,64.453125
2783,64.453125
2784,64.453125
2785,66.406250
2786,66.406250
2787,66.406250
2788,66.406250
2789,66.406250
2790,68.359375
2791,68.359375
2792,66.406250
2793,68.359375
2794,68.359375
2795,68.359375
2796,68.359375
2797,68.359375
2798,68.359375
2799,70.312500
2800,70.312500
2801,70.312500
2802,70.312500
2803,70.312500
2804,72.265625
2805,70.312500
2806,70.312500
2807,70.312500
2808,72.265625
2809,72.265625
2810,72.265625
2811,72.265625
2812,72.265625
2813,72.265625
2814,72.265625
2815,72.265625
2816,70.312500
2817,72.265625
2818,72.265625
2819,72.265625
2820,72.265625
2821,74.218750
2822,74.218750
2823,72.265625
2824,74.218750
2825,74.218750
2826,74.218750
2827,74.218750
2828,72.265625
2829,74.218750
2830,74.218750
2831,72.265625
2832,72.265625
2833,74.218750
2834,72.265625
2835,72.265625
2836,72.265625
2837,72.265625
2838,72.265625
2839,72.265625
2840,72.265625
2841,72.265625
2842,72.265625
2843,72.265625
2844,70.312500
2845,72.265625
2846,72.265625
2847,72.265625
2848,72.265625
2849,70.312500
2850,70.312500
2851,70.312500
2852,70.312500
2853,70.312500
2854,68.359375
2855,70.312500
2856,68.359375
2857,68.359375
2858,68.359375
2859,68.359375
2860,68.359375
2861,66.406250
2862,66.406250
2863,66.406250
2864,66.406250
2865,66.406250
2866,66.406250
2867,64.453125
2868,64.453125
2869,64.453125
2870,62.500000
2871,62.500000
2872,62.500000
2873,62.500000
2874,60.546875
2875,60.546875
2876,60.546875
2877,60.546875
2878,60.546875
2879,58.593750
2880,58.593750
2881,58.593750
2882,58.593750
2883,56.640625
2884,56.640625
2885,56.640625
2886,56.640625
2887,54.687500
2888,54.687500
2889,54.687500
2890,52.734375
2891,52.734375
2892,52.734375
2893,52.734375
2894,50.781250
2895,50.781250
2896,48.828125
2897,48.828125
2898,48.828125
2899,48.828125
2900,46.875000
2901,46.875000
2902,46.875000
2903,44.921875
2904,44.921875
2905,44.921875
2906,42.968750
2907,42.968750
2908,41.015625
2909,42.968750
2910,41.015625
2911,41.015625
2912,39.062500
2913,39.062500
2914,37.109375
2915,37.109375
2916,37.109375
2917,35.156250
2918,35.156250
2919,33.203125
2920,33.203125
2921,33.203125
2922,33.203125
2923,31.250000
2924,29.296875
2925,29.296875
2926,29.296875
2927,29.296875
2928,27.343750
2929,25.390625
2930,25.390625
2931,23.437500
2932,23.437500
2933,23.437500
2934,21.484375
2935,21.484375
2936,21.484375
2937,19.531250
2938,17.578125
2939,17.578125
2940,17.578125
2941,15.625000
2942,15.625000
2943,13.671875
2944,13.671875
2945,11.718750
2946,11.718750
2947,11.718750
2948,9.765625
2949,9.765625
2950,7.812500
2951,7.812500
2952,7.812500
2953,5.859375
2954,3.906250
2955,3.906250
2956,1.953125
2957,1.953125
2958,1.953125
2959,1.953125
2960,0.000000
2961,-1.953125
2962,-1.953125
2963,-3.906250
2964,-3.906250
2965,-3.906250
2966,-5.859375
2967,-3.906250
2968,-7.812500
2969,-7.812500
2970,-9.765625
2971,-9.765625
2972,-11.718750
2973,-11.718750
2974,-11.718750
2975,-11.718750
2976,-13.671875
2977,-15.625000
2978,-15.625000
2979,-17.578125
2980,-17.578125
2981,-19.531250
2982,-19.531250
2983,-21.484375
2984,-21.484375
2985,-21.484375
2986,-23.437500
2987,-25.390625
2988,-25.390625
2989,-25.390625
2990,-27.343750
2991,-27.343750
2992,-27.343750
2993,-29.296875
2994,-31.250000
2995,-31.250000
2996,-31.250000
2997,-33.203125
2998,-33.203125
2999,-35.156250
3000,-35.156250
3001,-37.109375
3002,-37.109375
3003,-37.109375
3004,-39.062500
3005,-39.062500
3006,-41.015625
3007,-42.968750
3008,-41.015625
3009,-42.968750
3010,-44.921875
3011,-44.921875
3012,-44.921875
3013,-44.921875
3014,-46.875000
3015,-46.875000
3016,-46.875000
3017,-48.828125
3018,-48.828125
3019,-50.781250
3020,-50.781250
3021,-50.781250
3022,-52.734375
3023,-52.734375
3024,-54.687500
3025,-54.687500
3026,-54.687500
3027,-56.640625
3028,-56.640625
3029,-56.640625
3030,-56.640625
3031,-58.593750
3032,-58.593750
3033,-60.546875
3034,-60.546875
3035,-60.546875
3036,-60.546875
3037,-62.500000
3038,-62.500000
3039,-64.453125
3040,-64.453125
3041,-64.453125
3042,-64.453125
3043,-66.406250
3044,-66.406250
3045,-66.406250
3046,-68.359375
3047,-68.359375
3048,-68.359375
3049,-70.312500
3050,-70.312500
3051,-70.312500
3052,-70.312500
3053,-70.312500
3054,-72.265625
3055,-72.265625
3056,-72.265625
3057,-72.265625
3058,-74.218750
3059,-74.218750
3060,-74.218750
3061,-76.171875
3062,-76.171875
3063,-76.171875
3064,-76.171875
3065,-78.125000
3066,-78.125000
3067,-78.125000
3068,-78.125000
3069,-78.125000
3070,-80.078125
3071,-80.078125
3072,-80.078125
3073,-80.078125
3074,-80.078125
3075,-82.031250
3076,-82.031250
3077,-82.031250
3078,-82.031250
3079,-82.031250
3080,-82.031250
3081,-83.984375
3082,-82.031250
3083,-83.984375
3084,-83.984375
3085,-85.937500
3086,-83.984375
3087,-85.937500
3088,-83.984375
3089,-85.937500
3090,-83.984375
3091,-85.937500
3092,-85.937500
3093,-85.937500
3094,-85.937500
3095,-85.937500
3096,-85.937500
3097,-85.937500
3098,-87.890625
3099,-87.890625
3100,-87.890625
3101,-87.890625
3102,-87.890625
3103,-87.890625
3104,-87.890625
3105,-87.890625
3106,-87.890625
3107,-87.890625
3108,-87.890625
3109,-87.890625
3110,-87.890625
3111,-87.890625
3112,-87.890625
3113,-87.890625
3114,-87.890625
3115,-89.843750
3116,-87.890625
3117,-87.890625
3118,-87.890625
3119,-87.890625
3120,-87.890625
3121,-87.890625
3122,-87.890625
3123,-87.890625
3124,-87.890625
3125,-87.890625
3126,-87.890625
3127,-87.890625
3128,-87.890625
3129,-87.890625
3130,-87.890625
3131,-87.890625
3132,-85.937500
3133,-87.890625
3134,-87.890625
3135,-85.937500
3136,-85.937500
3137,-85.937500
3138,-85.937500
3139,-85.937500
3140,-85.937500
3141,-83.984375
3142,-85.937500
3143,-85.937500
3144,-83.984375
3145,-83.984375
3146,-83.984375
3147,-83.984375
3148,-83.984375
3149,-83.984375
3150,-82.031250
3151,-82.031250
3152,-82.031250
3153,-82.031250
3154,-82.031250
3155,-82.031250
3156,-82.031250
3157,-80.078125
3158,-80.078125
3159,-78.125000
3160,-80.078125
3161,-80.078125
3162,-78.125000
3163,-78.125000
3164,-76.171875
3165,-76.171875
3166,-76.171875
3167,-76.171875
3168,-76.171875
3169,-74.218750
3170,-74.218750
3171,-74.218750
3172,-74.218750
3173,-72.265625
3174,-72.265625
3175,-72.265625
3176,-72.265625
3177,-70.312500
3178,-72.265625
3179,-70.312500
3180,-70.312500
3181,-68.359375
3182,-68.359375
3183,-68.359375
3184,-68.359375
3185,-66.406250
3186,-66.406250
3187,-66.406250
3188,-66.406250
3189,-64.453125
3190,-64.453125
3191,-64.453125
3192,-64.453125
3193,-62.500000
3194,-62.500000
3195,-60.546875
3196,-60.546875
3197,-60.546875
3198,-58.593750
3199,-58.593750
3200,-58.593750
3201,-58.593750
3202,-56.640625
3203,-56.640625
3204,-56.640625
3205,-54.687500
3206,-52.734375
3207,-52.734375
3208,-52.734375
3209,-52.734375
3210,-50.781250
3211,-48.828125
3212,-48.828125
3213,-50.781250
3214,-48.828125
3215,-46.875000
3216,-46.875000
3217,-46.875000
3218,-46.875000
3219,-44.921875
3220,-42.968750
3221,-42.968750
3222,-42.968750
3223,-41.015625
3224,-41.015625
3225,-39.062500
3226,-39.062500
3227,-39.062500
3228,-37.109375
3229,-37.109375
3230,-35.156250
3231,-35.156250
3232,-33.203125
3233,-33.203125
3234,-33.203125
3235,-31.250000
3236,-31.250000
3237,-29.296875
3238,-29.296875
3239,-27.343750
3240,-27.343750
3241,-27.343750
3242,-25.390625
3243,-25.390625
3244,-23.437500
3245,-23.437500
3246,-21.484375
3247,-21.484375
3248,-21.484375
3249,-19.531250
3250,-19.531250
3251,-17.578125
3252,-17.578125
3253,-17.578125
3254,-15.625000
3255,-15.625000
3256,-13.671875
3257,-11.718750
3258,-11.718750
3259,-11.718750
3260,-9.765625
3261,-9.765625
3262,-7.812500
3263,-7.812500
3264,-7.812500
3265,-5.859375
3266,-5.859375
3267,-3.906250
3268,-3.906250
3269,-1.953125
3270,0.000000
3271,-1.953125
3272,0.000000
3273,1.953125
3274,1.953125
3275,3.906250
3276,3.906250
3277,5.859375
3278,5.859375
3279,5.859375
3280,7.812500
3281,9.765625
3282,9.765625
3283,9.765625
3284,11.718750
3285,11.718750
3286,13.671875
3287,13.671875
3288,15.625000
3289,15.625000
3290,15.625000
3291,17.578125
3292,19.531250
3293,19.531250
3294,19.531250
3295,21.484375
3296,21.484375
3297,23.437500
3298,23.437500
3299,25.390625
3300,25.390625
3301,25.390625
3302,27.343750
3303,27.343750
3304,27.343750
3305,29.296875
3306,29.296875
3307,31.250000
3308,31.250000
3309,33.203125
3310,33.203125
3311,33.203125
3312,35.156250
3313,35.156250
3314,35.156250
3315,37.109375
3316,37.109375
3317,37.109375
3318,39.062500
3319,39.062500
3320,41.015625
3321,41.015625
3322,41.015625
3323,42.968750
3324,42.968750
3325,42.968750
3326,44.921875
3327,44.921875
3328,44.921875
3329,44.921875
3330,46.875000
3331,46.875000
3332,46.875000
3333,48.828125
3334,48.828125
3335,50.781250
3336,48.828125
3337,50.781250
3338,52.734375
3339,52.734375
3340,52.734375
3341,52.734375
3342,52.734375
3343,54.687500
3344,56.640625
3345,54.687500
3346,56.640625
3347,56.640625
3348,58.593750
3349,58.593750
3350,58.593750
3351,58.593750
3352,60.546875
3353,54.687500
3354,60.546875
3355,60.546875
3356,60.546875
3357,60.546875
3358,62.500000
3359,62.500000
3360,62.500000
3361,62.500000
3362,64.453125
3363,64.453125
3364,64.453125
3365,64.453125
3366,64.453125
3367,66.406250
3368,66.406250
3369,66.406250
3370,66.406250
3371,66.406250
3372,68.359375
3373,68.359375
3374,68.359375
3375,68.359375
3376,68.359375
3377,70.312500
3378,70.312500
3379,70.312500
3380,68.359375
3381,70.312500
3382,70.312500
3383,70.312500
3384,70.312500
3385,70.312500
3386,72.265625
3387,70.312500
3388,72.265625
3389,72.265625
3390,72.265625
3391,72.265625
3392,72.265625
3393,72.265625
3394,72.265625
3395,72.265625
3396,72.265625
3397,74.218750
3398,74.218750
3399,72.265625
3400,72.265625
3401,74.218750
3402,74.218750
3403,74.218750
3404,74.218750
3405,72.265625
3406,74.218750
3407,74.218750
3408,74.218750
3409,72.265625
3410,74.218750
3411,74.218750
3412,74.218750
3413,74.218750
3414,72.265625
3415,72.265625
3416,74.218750
3417,74.218750
3418,72.265625
3419,72.265625
3420,72.265625
3421,72.265625
3422,74.218750
3423,72.265625
3424,72.265625
3425,72.265625
3426,72.265625
3427,72.265625
3428,72.265625
3429,72.265625
3430,72.265625
3431,70.312500
3432,70.312500
3433,72.265625
3434,70.312500
3435,70.312500
3436,70.312500
3437,70.312500
3438,70.312500
3439,68.359375
3440,68.359375
3441,68.359375
3442,68.359375
3443,68.359375
3444,68.359375
3445,66.406250
3446,66.406250
3447,66.406250
3448,64.453125
3449,66.406250
3450,64.453125
3451,64.453125
3452,64.453125
3453,64.453125
3454,62.500000
3455,62.500000
3456,62.500000
3457,62.500000
3458,60.546875
3459,60.546875
3460,60.546875
3461,60.546875
3462,58.593750
3463,58.593750
3464,58.593750
3465,56.640625
3466,56.640625
3467,56.640625
3468,56.640625
3469,54.687500
3470,54.687500
3471,54.687500
3472,54.687500
3473,52.734375
3474,52.734375
3475,52.734375
3476,52.734375
3477,50.781250
3478,50.781250
3479,50.781250
3480,48.828125
3481,48.828125
3482,46.875000
3483,46.875000
3484,46.875000
3485,44.921875
3486,44.921875
3487,44.921875
3488,44.921875
3489,44.921875
3490,42.968750
3491,41.015625
3492,41.015625
3493,41.015625
3494,41.015625
3495,39.062500
3496,37.109375
3497,39.062500
3498,37.109375
3499,35.156250
3500,35.156250
3501,35.156250
3502,33.203125
3503,33.203125
3504,31.250000
3505,31.250000
3506,31.250000
3507,29.296875
3508,29.296875
3509,27.343750
3510,27.343750
3511,27.343750
3512,25.390625
3513,25.390625
3514,23.437500
3515,23.437500
3516,21.484375
3517,21.484375
3518,21.484375
3519,19.531250
3520,19.531250
3521,17.578125
3522,17.578125
3523,15.625000
3524,15.625000
3525,15.625000
3526,13.671875
3527,13.671875
3528,11.718750
3529,11.718750
3530,9.765625
3531,9.765625
3532,9.765625
3533,7.812500
3534,5.859375
3535,5.859375
3536,5.859375
3537,3.906250
3538,3.906250
3539,1.953125
3540,1.953125
3541,1.953125
3542,0.000000
3543,-1.953125
3544,-1.953125
3545,-1.953125
3546,-3.906250
3547,-3.906250
3548,-1.953125
3549,-5.859375
3550,-5.859375
3551,-7.812500
3552,-9.765625
3553,-9.765625
3554,-11.718750
3555,-11.718750
3556,-11.718750
3557,-13.671875
3558,-13.671875
3559,-15.625000
3560,-15.625000
3561,-17.578125
3562,-17.578125
3563,-19.531250
3564,-19.531250
3565,-19.531250
3566,-21.484375
3567,-23.437500
3568,-23.437500
3569,-23.437500
3570,-25.390625
3571,-25.390625
3572,-27.343750
3573,-27.343750
3574,-27.343750
3575,-29.296875
3576,-29.296875
3577,-31.250000
3578,-31.250000
3579,-33.203125
3580,-33.203125
3581,-35.156250
3582,-35.156250
3583,-35.156250
3584,-37.109375
3585,-37.109375
3586,-39.062500
3587,-39.062500
3588,-41.015625
3589,-41.015625
3590,-42.968750
3591,-42.968750
3592,-42.968750
3593,-44.921875
3594,-44.921875
3595,-44.921875
3596,-44.921875
3597,-46.875000
3598,-48.828125
3599,-48.828125
3600,-50.781250
3601,-50.781250
3602,-50.781250
3603,-52.734375
3604,-52.734375
3605,-52.734375
3606,-54.687500
3607,-54.687500
3608,-54.687500
3609,-56.640625
3610,-56.640625
3611,-56.640625
3612,-56.640625
3613,-58.593750
3614,-58.593750
3615,-60.546875
3616,-60.546875
3617,-60.546875
3618,-62.500000
3619,-62.500000
3620,-62.500000
3621,-62.500000
3622,-64.453125
3623,-64.453125
3624,-64.453125
3625,-66.406250
3626,-66.406250
3627,-66.406250
3628,-68.359375
3629,-68.359375
3630,-68.359375
3631,-68.359375
3632,-70.312500
3633,-70.312500
3634,-70.312500
3635,-72.265625
3636,-72.265625
3637,-72.265625
3638,-72.265625
3639,-74.218750
3640,-74.218750
3641,-74.218750
3642,-74.218750
3643,-74.218750
3644,-76.171875
3645,-76.171875
3646,-76.171875
3647,-76.171875
3648,-78.125000
3649,-76.171875
3650,-78.125000
3651,-78.125000
3652,-80.078125
3653,-80.078125
3654,-80.078125
3655,-80.078125
3656,-80.078125
3657,-82.031250
3658,-82.031250
3659,-82.031250
3660,-82.031250
3661,-82.031250
3662,-82.031250
3663,-83.984375
3664,-83.984375
3665,-83.984375
3666,-83.984375
3667,-83.984375
3668,-85.937500
3669,-83.984375
3670,-83.984375
3671,-85.937500
3672,-85.937500
3673,-85.937500
3674,-85.937500
3675,-85.937500
3676,-85.937500
3677,-87.890625
3678,-85.937500
3679,-85.937500
3680,-87.890625
3681,-87.890625
3682,-87.890625
3683,-87.890625
3684,-87.890625
3685,-85.937500
3686,-87.890625
3687,-87.890625
3688,-87.890625
3689,-87.890625
3690,-87.890625
3691,-87.890625
3692,-87.890625
3693,-87.890625
3694,-87.890625
3695,-87.890625
3696,-87.890625
3697,-87.890625
3698,-87.890625
3699,-87.890625
3700,-87.890625
3701,-87.890625
3702,-87.890625
3703,-87.890625
3704,-87.890625
3705,-85.937500
3706,-87.890625
3707,-87.890625
3708,-87.890625
3709,-87.890625
3710,-87.890625
3711,-87.890625
3712,-87.890625
3713,-85.937500
3714,-87.890625
3715,-87.890625
3716,-87.890625
3717,-87.890625
3718,-85.937500
3719,-85.937500
3720,-85.937500
3721,-85.937500
3722,-85.937500
3723,-85.937500
3724,-85.937500
3725,-85.937500
3726,-83.984375
3727,-83.984375
3728,-83.984375
3729,-83.984375
3730,-85.937500
3731,-83.984375
3732,-82.031250
3733,-82.031250
3734,-82.031250
3735,-82.031250
3736,-82.031250
3737,-82.031250
3738,-82.031250
3739,-80.078125
3740,-80.078125
3741,-80.078125
3742,-78.125000
3743,-80.078125
3744,-78.125000
3745,-78.125000
3746,-78.125000
3747,-78.125000
3748,-76.171875
3749,-76.171875
3750,-76.171875
3751,-76.171875
3752,-74.218750
3753,-74.218750
3754,-72.265625
3755,-74.218750
3756,-74.218750
3757,-72.265625
3758,-72.265625
3759,-70.312500
3760,-70.312500
3761,-70.312500
3762,-70.312500
3763,-68.359375
3764,-68.359375
3765,-68.359375
3766,-68.359375
3767,-66.406250
3768,-66.406250
3769,-66.406250
3770,-64.453125
3771,-64.453125
3772,-64.453125
3773,-62.500000
3774,-62.500000
3775,-62.500000
3776,-62.500000
3777,-60.546875
3778,-60.546875
3779,-60.546875
3780,-58.593750
3781,-58.593750
3782,-58.593750
3783,-58.593750
3784,-56.640625
3785,-56.640625
3786,-54.687500
3787,-54.687500
3788,-54.687500
3789,-52.734375
3790,-52.734375
3791,-52.734375
3792,-50.781250
3793,-50.781250
3794,-48.828125
3795,-48.828125
3796,-48.828125
3797,-48.828125
3798,-46.875000
3799,-46.875000
3800,-44.921875
3801,-44.921875
3802,-42.968750
3803,-42.968750
3804,-42.968750
3805,-41.015625
3806,-41.015625
3807,-41.015625
3808,-39.062500
3809,-39.062500
3810,-37.109375
3811,-37.109375
3812,-37.109375
3813,-35.156250
3814,-33.203125
3815,-33.203125
3816,-31.250000
3817,-31.250000
3818,-31.250000
3819,-29.296875
3820,-29.296875
3821,-29.296875
3822,-27.343750
3823,-25.390625
3824,-25.390625
3825,-25.390625
3826,-23.437500
3827,-23.437500
3828,-21.484375
3829,-21.484375
3830,-21.484375
3831,-19.531250
3832,-19.531250
3833,-17.578125
3834,-17.578125
3835,-15.625000
3836,-15.625000
3837,-15.625000
3838,-13.671875
3839,-13.671875
3840,-11.718750
3841,-11.718750
3842,-9.765625
3843,-9.765625
3844,-7.812500
3845,-7.812500
3846,-5.859375
3847,-5.859375
3848,-5.859375
3849,-3.906250
3850,-3.906250
3851,-1.953125
3852,-1.953125
3853,0.000000
3854,0.000000
3855,0.000000
3856,1.953125
3857,3.906250
3858,3.906250
3859,3.906250
3860,5.859375
3861,5.859375
3862,7.812500
3863,7.812500
3864,9.765625
3865,9.765625
3866,11.718750
3867,11.718750
3868,13.671875
3869,13.671875
3870,13.671875
3871,15.625000
3872,15.625000
3873,17.578125
3874,17.578125
3875,19.531250
3876,19.531250
3877,21.484375
3878,21.484375
3879,21.484375
3880,23.437500
3881,23.437500
3882,25.390625
3883,25.390625
3884,25.390625
3885,27.343750
3886,27.343750
3887,27.343750
3888,29.296875
3889,31.250000
3890,31.250000
3891,31.250000
3892,33.203125
3893,33.203125
3894,35.156250
3895,35.156250
3896,35.156250
3897,37.109375
3898,37.109375
3899,37.109375
3900,39.062500
3901,39.062500
3902,39.062500
3903,41.015625
3904,41.015625
3905,41.015625
3906,41.015625
3907,42.968750
3908,42.968750
3909,44.921875
3910,44.921875
3911,44.921875
3912,46.875000
3913,46.875000
3914,46.875000
3915,46.875000
3916,48.828125
3917,48.828125
3918,50.781250
3919,50.781250
3920,50.781250
3921,50.781250
3922,52.734375
3923,52.734375
3924,52.734375
3925,54.687500
3926,54.687500
3927,54.687500
3928,56.640625
3929,56.640625
3930,56.640625
3931,58.593750
3932,58.593750
3933,58.593750
3934,58.593750
3935,58.593750
3936,58.593750
3937,60.546875
3938,60.546875
3939,60.546875
3940,60.546875
3941,62.500000
3942,62.500000
3943,62.500000
3944,62.500000
3945,64.453125
3946,64.453125
3947,64.453125
3948,64.453125
3949,64.453125
3950,64.453125
3951,66.406250
3952,66.406250
3953,66.406250
3954,68.359375
3955,68.359375
3956,68.359375
3957,68.359375
3958,68.359375
3959,68.359375
3960,68.359375
3961,68.359375
3962,68.359375
3963,70.312500
3964,70.312500
3965,70.312500
3966,70.312500
3967,70.312500
3968,70.312500
3969,70.312500
3970,70.312500
3971,72.265625
3972,70.312500
3973,72.265625
3974,72.265625
3975,72.265625
3976,72.265625
3977,72.265625
3978,72.265625
3979,72.265625
3980,74.218750
3981,72.265625
3982,72.265625
3983,72.265625
3984,72.265625
3985,72.265625
3986,74.218750
3987,74.218750
3988,72.265625
3989,74.218750
3990,72.265625
3991,74.218750
3992,74.218750
3993,74.218750
3994,74.218750
3995,74.218750
3996,72.265625
3997,72.265625
3998,74.218750
3999,74.218750
4000,74.218750
4001,74.218750
4002,72.265625
4003,72.265625
4004,72.265625
4005,72.265625
4006,72.265625
4007,72.265625
4008,72.265625
4009,72.265625
4010,72.265625
4011,72.265625
4012,70.312500
4013,70.312500
4014,70.312500
4015,70.312500
4016,70.312500
4017,70.312500
4018,70.312500
4019,68.359375
4020,70.312500
4021,68.359375
4022,68.359375
4023,68.359375
4024,68.359375
4025,68.359375
4026,66.406250
4027,66.406250
4028,66.406250
4029,66.406250
4030,66.406250
4031,66.406250
4032,64.453125
4033,64.453125
4034,64.453125
4035,64.453125
4036,62.500000
4037,62.500000
4038,62.500000
4039,62.500000
4040,60.546875
4041,60.546875
4042,60.546875
4043,58.593750
4044,60.546875
4045,58.593750
4046,58.593750
4047,56.640625
4048,56.640625
4049,56.640625
4050,56.640625
4051,54.687500
4052,54.687500
4053,54.687500
4054,52.734375
4055,52.734375
4056,52.734375
4057,52.734375
4058,50.781250
4059,50.781250
4060,50.781250
4061,50.781250
4062,48.828125
4063,48.828125
4064,46.875000
4065,46.875000
4066,46.875000
4067,46.875000
4068,44.921875
4069,44.921875
4070,42.968750
4071,42.968750
4072,42.968750
4073,41.015625
4074,41.015625
4075,41.015625
4076,39.062500
4077,39.062500
4078,39.062500
4079,37.109375
4080,37.109375
4081,37.109375
4082,35.156250
4083,35.156250
4084,35.156250
4085,33.203125
4086,33.203125
4087,31.250000
4088,31.250000
4089,29.296875
4090,29.296875
4091,29.296875
4092,27.343750
4093,27.343750
4094,25.390625
4095,25.390625
4096,25.390625
4097,23.437500
4098,23.437500
4099,21.484375
4100,21.484375
4101,19.531250
4102,19.531250
4103,17.578125
4104,17.578125
4105,17.578125
4106,15.625000
4107,13.671875
4108,13.671875
4109,13.671875
4110,13.671875
4111,11.718750
4112,9.765625
4113,9.765625
4114,9.765625
4115,7.812500
4116,7.812500
4117,5.859375
4118,5.859375
4119,3.906250
4120,3.906250
4121,1.953125
4122,1.953125
4123,1.953125
4124,0.000000
4125,0.000000
4126,-1.953125
4127,-1.953125
4128,-3.906250
4129,-3.906250
4130,-5.859375
4131,-5.859375
4132,-5.859375
4133,-7.812500
4134,-7.812500
4135,-9.765625
4136,-11.718750
4137,-11.718750
4138,-11.718750
4139,-13.671875
4140,-13.671875
4141,-13.671875
4142,-15.625000
4143,-17.578125
4144,-17.578125
4145,-17.578125
4146,-19.531250
4147,-19.531250
4148,-21.484375
4149,-21.484375
4150,-23.437500
4151,-23.437500
4152,-23.437500
4153,-25.390625
4154,-25.390625
4155,-27.343750
4156,-29.296875
4157,-29.296875
4158,-29.296875
4159,-31.250000
4160,-31.250000
4161,-33.203125
4162,-33.203125
4163,-35.156250
4164,-35.156250
4165,-35.156250
4166,-37.109375
4167,-37.109375
4168,-39.062500
4169,-39.062500
4170,-41.015625
4171,-41.015625
4172,-41.015625
4173,-42.968750
4174,-42.968750
4175,-42.968750
4176,-44.921875
4177,-46.875000
4178,-46.875000
4179,-46.875000
4180,-46.875000
4181,-48.828125
4182,-48.828125
4183,-48.828125
4184,-50.781250
4185,-50.781250
4186,-50.781250
4187,-52.734375
4188,-52.734375
4189,-54.687500
4190,-54.687500
4191,-54.687500
4192,-54.687500
4193,-56.640625
4194,-56.640625
4195,-58.593750
4196,-58.593750
4197,-58.593750
4198,-60.546875
4199,-60.546875
4200,-60.546875
4201,-62.500000
4202,-62.500000
4203,-62.500000
4204,-64.453125
4205,-64.453125
4206,-64.453125
4207,-66.406250
4208,-66.406250
4209,-66.406250
4210,-66.406250
4211,-66.406250
4212,-68.359375
4213,-68.359375
4214,-68.359375
4215,-70.312500
4216,-70.312500
4217,-70.312500
4218,-70.312500
4219,-72.265625
4220,-72.265625
4221,-72.265625
4222,-74.218750
4223,-72.265625
4224,-74.218750
4225,-74.218750
4226,-76.171875
4227,-76.171875
4228,-76.171875
4229,-76.171875
4230,-78.125000
4231,-78.125000
4232,-78.125000
4233,-78.125000
4234,-78.125000
4235,-80.078125
4236,-80.078125
4237,-80.078125
4238,-80.078125
4239,-80.078125
4240,-82.031250
4241,-82.031250
4242,-82.031250
4243,-82.031250
4244,-82.031250
4245,-82.031250
4246,-82.031250
4247,-83.984375
4248,-83.984375
4249,-83.984375
4250,-83.984375
4251,-83.984375
4252,-83.984375
4253,-83.984375
4254,-85.937500
4255,-85.937500
4256,-85.937500
4257,-85.937500
4258,-85.937500
4259,-85.937500
4260,-85.937500
4261,-85.937500
4262,-85.937500
4263,-87.890625
4264,-87.890625
4265,-87.890625
4266,-87.890625
4267,-85.937500
4268,-85.937500
4269,-87.890625
4270,-87.890625
4271,-87.890625
4272,-87.890625
4273,-87.890625
4274,-87.890625
4275,-87.890625
4276,-87.890625
4277,-87.890625
4278,-87.890625
4279,-87.890625
4280,-87.890625
4281,-87.890625
4282,-87.890625
4283,-87.890625
4284,-87.890625
4285,-87.890625
4286,-87.890625
4287,-87.890625
4288,-87.890625
4289,-87.890625
4290,-87.890625
4291,-87.890625
4292,-87.890625
4293,-87.890625
4294,-85.937500
4295,-87.890625
4296,-85.937500
4297,-87.890625
4298,-85.937500
4299,-85.937500
4300,-85.937500
4301,-85.937500
4302,-85.937500
4303,-85.937500
4304,-85.937500
4305,-85.937500
4306,-85.937500
4307,-83.984375
4308,-83.984375
4309,-83.984375
4310,-83.984375
4311,-83.984375
4312,-83.984375
4313,-82.031250
4314,-82.031250
4315,-82.031250
4316,-82.031250
4317,-82.031250
4318,-82.031250
4319,-80.078125
4320,-80.078125
4321,-80.078125
4322,-80.078125
4323,-80.078125
4324,-80.078125
4325,-78.125000
4326,-78.125000
4327,-78.125000
4328,-76.171875
4329,-76.171875
4330,-76.171875
4331,-76.171875
4332,-76.171875
4333,-74.218750
4334,-74.218750
4335,-74.218750
4336,-74.218750
4337,-74.218750
4338,-72.265625
4339,-72.265625
4340,-74.218750
4341,-72.265625
4342,-70.312500
4343,-70.312500
4344,-70.312500
4345,-68.359375
4346,-68.359375
4347,-68.359375
4348,-68.359375
4349,-68.359375
4350,-66.406250
4351,-66.406250
4352,-66.406250
4353,-64.453125
4354,-64.453125
4355,-64.453125
4356,-60.546875
4357,-62.500000
4358,-62.500000
4359,-60.546875
4360,-60.546875
4361,-60.546875
4362,-58.593750
4363,-58.593750
4364,-58.593750
4365,-58.593750
4366,-58.593750
4367,-56.640625
4368,-54.687500
4369,-54.687500
4370,-54.687500
4371,-54.687500
4372,-52.734375
4373,-50.781250
4374,-50.781250
4375,-50.781250
4376,-50.781250
4377,-48.828125
4378,-48.828125
4379,-48.828125
4380,-48.828125
4381,-46.875000
4382,-44.921875
4383,-44.921875
4384,-44.921875
4385,-42.968750
4386,-42.968750
4387,-41.015625
4388,-41.015625
4389,-41.015625
4390,-39.062500
4391,-39.062500
4392,-39.062500
4393,-37.109375
4394,-37.109375
4395,-35.156250
4396,-35.156250
4397,-35.156250
4398,-33.203125
4399,-31.250000
4400,-31.250000
4401,-31.250000
4402,-29.296875
4403,-29.296875
4404,-29.296875
4405,-27.343750
4406,-27.343750
4407,-25.390625
4408,-25.390625
4409,-23.437500
4410,-23.437500
4411,-23.437500
4412,-21.484375
4413,-21.484375
4414,-19.531250
4415,-19.531250
4416,-17.578125
4417,-17.578125
4418,-15.625000
4419,-15.625000
4420,-15.625000
4421,-13.671875
4422,-13.671875
4423,-11.718750
4424,-11.718750
4425,-11.718750
4426,-9.765625
4427,-9.765625
4428,-7.812500
4429,-7.812500
4430,-5.859375
4431,-5.859375
4432,-3.906250
4433,-3.906250
4434,-1.953125
4435,-1.953125
4436,-1.953125
4437,0.000000
4438,1.953125
4439,1.953125
4440,1.953125
4441,3.906250
4442,3.906250
4443,5.859375
4444,7.812500
4445,5.859375
4446,7.812500
4447,9.765625
4448,9.765625
4449,11.718750
4450,11.718750
4451,11.718750
4452,13.671875
4453,13.671875
4454,15.625000
4455,15.625000
4456,17.578125
4457,17.578125
4458,19.531250
4459,19.531250
4460,19.531250
4461,21.484375
4462,21.484375
4463,21.484375
4464,23.437500
4465,25.390625
4466,25.390625
4467,27.343750
4468,27.343750
4469,27.343750
4470,29.296875
4471,29.296875
4472,31.250000
4473,31.250000
4474,31.250000
4475,31.250000
4476,35.156250
4477,33.203125
4478,35.156250
4479,35.156250
4480,35.156250
4481,37.109375
4482,37.109375
4483,39.062500
4484,39.062500
4485,39.062500
4486,39.062500
4487,39.062500
4488,41.015625
4489,42.968750
4490,42.968750
4491,42.968750
4492,44.921875
4493,44.921875
4494,44.921875
4495,46.875000
4496,46.875000
4497,46.875000
4498,46.875000
4499,48.828125
4500,48.828125
4501,50.781250
4502,50.781250
4503,50.781250
4504,50.781250
4505,50.781250
4506,52.734375
4507,52.734375
4508,52.734375
4509,54.687500
4510,54.687500
4511,54.687500
4512,56.640625
4513,56.640625
4514,58.593750
4515,58.593750
4516,58.593750
4517,58.593750
4518,58.593750
4519,58.593750
4520,62.500000
4521,60.546875
4522,60.546875
4523,62.500000
4524,60.546875
4525,62.500000
4526,62.500000
4527,62.500000
4528,62.500000
4529,64.453125
4530,64.453125
4531,64.453125
4532,66.406250
4533,64.453125
4534,66.406250
4535,66.406250
4536,66.406250
4537,66.406250
4538,68.359375
4539,66.406250
4540,68.359375
4541,68.359375
4542,68.359375
4543,68.359375
4544,68.359375
4545,70.312500
4546,70.312500
4547,70.312500
4548,70.312500
4549,70.312500
4550,70.312500
4551,70.312500
4552,70.312500
4553,68.359375
4554,70.312500
4555,70.312500
4556,70.312500
4557,72.265625
4558,72.265625
4559,70.312500
4560,72.265625
4561,72.265625
4562,72.265625
4563,72.265625
4564,72.265625
4565,72.265625
4566,72.265625
4567,72.265625
4568,72.265625
4569,72.265625
4570,72.265625
4571,72.265625
4572,72.265625
4573,72.265625
4574,72.265625
4575,74.218750
4576,72.265625
4577,72.265625
4578,72.265625
4579,72.265625
4580,72.265625
4581,72.265625
4582,72.265625
4583,72.265625
4584,72.265625
4585,72.265625
4586,72.265625
4587,72.265625
4588,72.265625
4589,72.265625
4590,72.265625
4591,72.265625
4592,72.265625
4593,72.265625
4594,70.312500
4595,70.312500
4596,70.312500
4597,70.312500
4598,70.312500
4599,70.312500
4600,70.312500
4601,70.312500
4602,68.359375
4603,68.359375
4604,68.359375
4605,68.359375
4606,68.359375
4607,66.406250
4608,66.406250
4609,66.406250
4610,66.406250
4611,66.406250
4612,66.406250
4613,64.453125
4614,66.406250
4615,64.453125
4616,64.453125
4617,62.500000
4618,62.500000
4619,62.500000
4620,62.500000
4621,62.500000
4622,60.546875
4623,60.546875
4624,60.546875
4625,60.546875
4626,58.593750
4627,58.593750
4628,58.593750
4629,58.593750
4630,56.640625
4631,56.640625
4632,56.640625
4633,56.640625
4634,54.687500
4635,54.687500
4636,54.687500
4637,52.734375
4638,52.734375
4639,52.734375
4640,52.734375
4641,50.781250
4642,50.781250
4643,50.781250
4644,48.828125
4645,48.828125
4646,48.828125
4647,46.875000
4648,46.875000
4649,44.921875
4650,44.921875
4651,44.921875
4652,44.921875
4653,44.921875
4654,42.968750
4655,42.968750
4656,41.015625
4657,41.015625
4658,41.015625
4659,41.015625
4660,39.062500
4661,39.062500
4662,37.109375
4663,37.109375
4664,35.156250
4665,35.156250
4666,35.156250
4667,35.156250
4668,33.203125
4669,31.250000
4670,31.250000
4671,31.250000
4672,31.250000
4673,29.296875
4674,27.343750
4675,27.343750
4676,27.343750
4677,25.390625
4678,25.390625
4679,23.437500
4680,23.437500
4681,23.437500
4682,21.484375
4683,21.484375
4684,19.531250
4685,19.531250
4686,17.578125
4687,17.578125
4688,17.578125
4689,15.625000
4690,15.625000
4691,13.671875
4692,13.671875
4693,11.718750
4694,11.718750
4695,11.718750
4696,9.765625
4697,9.765625
4698,7.812500
4699,7.812500
4700,5.859375
4701,5.859375
4702,3.906250
4703,3.906250
4704,3.906250
4705,1.953125
4706,1.953125
4707,0.000000
4708,0.000000
4709,-1.953125
4710,-1.953125
4711,-3.906250
4712,-3.906250
4713,-3.906250
4714,-5.859375
4715,-5.859375
4716,-7.812500
4717,-7.812500
4718,-9.765625
4719,-9.765625
4720,-11.718750
4721,-11.718750
4722,-13.671875
4723,-13.671875
4724,-13.671875
4725,-15.625000
4726,-15.625000
4727,-17.578125
4728,-19.531250
4729,-19.531250
4730,-19.531250
4731,-21.484375
4732,-21.484375
4733,-21.484375
4734,-23.437500
4735,-25.390625
4736,-25.390625
4737,-27.343750
4738,-27.343750
4739,-27.343750
4740,-29.296875
4741,-29.296875
4742,-29.296875
4743,-31.250000
4744,-31.250000
4745,-33.203125
4746,-33.203125
4747,-35.156250
4748,-35.156250
4749,-37.109375
4750,-37.109375
4751,-37.109375
4752,-39.062500
4753,-39.062500
4754,-41.015625
4755,-41.015625
4756,-41.015625
4757,-42.968750
4758,-42.968750
4759,-44.921875
4760,-44.921875
4761,-44.921875
4762,-46.875000
4763,-46.875000
4764,-48.828125
4765,-48.828125
4766,-48.828125
4767,-50.781250
4768,-50.781250
4769,-50.781250
4770,-52.734375
4771,-52.734375
4772,-52.734375
4773,-54.687500
4774,-54.687500
4775,-54.687500
4776,-56.640625
4777,-56.640625
4778,-56.640625
4779,-56.640625
4780,-58.593750
4781,-60.546875
4782,-60.546875
4783,-60.546875
4784,-60.546875
4785,-62.500000
4786,-62.500000
4787,-62.500000
4788,-64.453125
4789,-64.453125
4790,-64.453125
4791,-64.453125
4792,-66.406250
4793,-66.406250
4794,-66.406250
4795,-68.359375
4796,-68.359375
4797,-68.359375
4798,-70.312500
4799,-70.312500
4800,-70.312500
4801,-70.312500
4802,-72.265625
4803,-72.265625
4804,-72.265625
4805,-72.265625
4806,-74.218750
4807,-74.218750
4808,-74.218750
4809,-74.218750
4810,-76.171875
4811,-74.218750
4812,-76.171875
4813,-76.171875
4814,-76.171875
4815,-78.125000
4816,-78.125000
4817,-78.125000
4818,-80.078125
4819,-80.078125
4820,-80.078125
4821,-80.078125
4822,-80.078125
4823,-80.078125
4824,-80.078125
4825,-82.031250
4826,-82.031250
4827,-82.031250
4828,-82.031250
4829,-82.031250
4830,-83.984375
4831,-83.984375
4832,-83.984375
4833,-83.984375
4834,-83.984375
4835,-83.984375
4836,-83.984375
4837,-83.984375
4838,-83.984375
4839,-83.984375
4840,-85.937500
4841,-85.937500
4842,-85.937500
4843,-85.937500
4844,-85.937500
4845,-85.937500
4846,-85.937500
4847,-85.937500
4848,-85.937500
4849,-85.937500
4850,-87.890625
4851,-87.890625
4852,-87.890625
4853,-85.937500
4854,-87.890625
4855,-87.890625
4856,-87.890625
4857,-87.890625
4858,-87.890625
4859,-87.890625
4860,-87.890625
4861,-87.890625
4862,-87.890625
4863,-87.890625
4864,-87.890625
4865,-87.890625
4866,-87.890625
4867,-87.890625
4868,-87.890625
4869,-87.890625
4870,-87.890625
4871,-87.890625
4872,-87.890625
4873,-87.890625
4874,-87.890625
4875,-87.890625
4876,-87.890625
4877,-87.890625
4878,-87.890625
4879,-85.937500
4880,-85.937500
4881,-85.937500
4882,-85.937500
4883,-85.937500
4884,-85.937500
4885,-85.937500
4886,-85.937500
4887,-85.937500
4888,-85.937500
4889,-85.937500
4890,-85.937500
4891,-83.984375
4892,-83.984375
4893,-83.984375
4894,-83.984375
4895,-83.984375
4896,-83.984375
4897,-83.984375
4898,-82.031250
4899,-82.031250
4900,-82.031250
4901,-82.031250
4902,-82.031250
4903,-80.078125
4904,-80.078125
4905,-80.078125
4906,-80.078125
4907,-80.078125
4908,-80.078125
4909,-78.125000
4910,-78.125000
4911,-78.125000
4912,-78.125000
4913,-76.171875
4914,-76.171875
4915,-76.171875
4916,-76.171875
4917,-76.171875
4918,-74.218750
4919,-74.218750
4920,-74.218750
4921,-72.265625
4922,-72.265625
4923,-72.265625
4924,-72.265625
4925,-70.312500
4926,-70.312500
4927,-70.312500
4928,-70.312500
4929,-68.359375
4930,-68.359375
4931,-68.359375
4932,-68.359375
4933,-66.406250
4934,-66.406250
4935,-66.406250
4936,-66.406250
4937,-64.453125
4938,-64.453125
4939,-62.500000
4940,-62.500000
4941,-62.500000
4942,-60.546875
4943,-60.546875
4944,-60.546875
4945,-58.593750
4946,-58.593750
4947,-58.593750
4948,-58.593750
4949,-58.593750
4950,-56.640625
4951,-56.640625
4952,-54.687500
4953,-54.687500
4954,-54.687500
4955,-52.734375
4956,-52.734375
4957,-52.734375
4958,-50.781250
4959,-50.781250
4960,-48.828125
4961,-48.828125
4962,-48.828125
4963,-48.828125
4964,-46.875000
4965,-46.875000
4966,-44.921875
4967,-44.921875
4968,-42.968750
4969,-42.968750
4970,-42.968750
4971,-41.015625
4972,-41.015625
4973,-41.015625
4974,-39.062500
4975,-37.109375
4976,-37.109375
4977,-37.109375
4978,-35.156250
4979,-35.156250
4980,-35.156250
4981,-33.203125
4982,-33.203125
4983,-31.250000
4984,-31.250000
4985,-31.250000
4986,-29.296875
4987,-27.343750
4988,-27.343750
4989,-27.343750
4990,-25.390625
4991,-25.390625
4992,-25.390625
4993,-23.437500
4994,-23.437500
4995,-23.437500
4996,-21.484375
4997,-19.531250
4998,-19.531250
4999,-19.531250
5000,-17.578125
5001,-15.625000
5002,-15.625000
5003,-13.671875
5004,-13.671875
5005,-13.671875
5006,-11.718750
5007,-11.718750
5008,-9.765625
5009,-9.765625
5010,-7.812500
5011,-7.812500
5012,-7.812500
5013,-5.859375
5014,-5.859375
5015,-3.906250
5016,-3.906250
5017,-1.953125
5018,-1.953125
5019,-1.953125
5020,0.000000
5021,0.000000
5022,1.953125
5023,1.953125
5024,3.906250
5025,3.906250
5026,5.859375
5027,5.859375
5028,7.812500
5029,7.812500
5030,9.765625
5031,9.765625
5032,9.765625
5033,11.718750
5034,11.718750
5035,13.671875
5036,13.671875
5037,15.625000
5038,15.625000
5039,17.578125
5040,17.578125
5041,19.531250
5042,19.531250
5043,21.484375
5044,21.484375
5045,21.484375
5046,23.437500
5047,23.437500
5048,25.390625
5049,25.390625
5050,25.390625
5051,27.343750
5052,27.343750
5053,29.296875
5054,29.296875
5055,31.250000
5056,31.250000
5057,31.250000
5058,33.203125
5059,33.203125
5060,33.203125
5061,35.156250
5062,35.156250
5063,35.156250
5064,37.109375
5065,37.109375
5066,39.062500
5067,39.062500
5068,39.062500
5069,41.015625
5070,41.015625
5071,41.015625
5072,42.968750
5073,42.968750
5074,42.968750
5075,42.968750
5076,44.921875
5077,46.875000
5078,46.875000
5079,46.875000
5080,46.875000
5081,48.828125
5082,48.828125
5083,48.828125
5084,48.828125
5085,50.781250
5086,50.781250
5087,52.734375
5088,52.734375
5089,52.734375
5090,52.734375
5091,54.687500
5092,54.687500
5093,54.687500
5094,54.687500
5095,56.640625
5096,56.640625
5097,56.640625
5098,58.593750
5099,58.593750
5100,58.593750
5101,58.593750
5102,60.546875
5103,60.546875
5104,60.546875
5105,60.546875
5106,62.500000
5107,62.500000
5108,62.500000
5109,62.500000
5110,64.453125
5111,64.453125
5112,64.453125
5113,64.453125
5114,66.406250
5115,64.453125
5116,66.406250
5117,66.406250
5118,66.406250
5119,66.406250
5120,66.406250
5121,66.406250
5122,68.359375
5123,68.359375
5124,68.359375
5125,68.359375
5126,70.312500
5127,68.359375
5128,68.359375
5129,70.312500
5130,70.312500
5131,70.312500
5132,70.312500
5133,70.312500
5134,70.312500
5135,72.265625
5136,70.312500
5137,70.312500
5138,72.265625
5139,72.265625
5140,72.265625
5141,72.265625
5142,72.265625
5143,72.265625
5144,72.265625
5145,72.265625
5146,72.265625
5147,74.218750
5148,72.265625
5149,72.265625
5150,74.218750
5151,72.265625
5152,74.218750
5153,74.218750
5154,72.265625
5155,72.265625
5156,74.218750
5157,74.218750
5158,72.265625
5159,72.265625
5160,72.265625
5161,72.265625
5162,74.218750
5163,74.218750
5164,72.265625
5165,72.265625
5166,72.265625
5167,72.265625
5168,72.265625
5169,72.265625
5170,72.265625
5171,72.265625
5172,72.265625
5173,72.265625
5174,72.265625
5175,72.265625
5176,70.312500
5177,70.312500
5178,72.265625
5179,72.265625
5180,70.312500
5181,70.312500
5182,70.312500
5183,70.312500
5184,70.312500
5185,70.312500
5186,68.359375
5187,68.359375
5188,68.359375
5189,68.359375
5190,68.359375
5191,68.359375
5192,66.406250
5193,66.406250
5194,66.406250
5195,66.406250
5196,66.406250
5197,66.406250
5198,64.453125
5199,64.453125
5200,64.453125
5201,64.453125
5202,62.500000
5203,62.500000
5204,62.500000
5205,62.500000
5206,60.546875
5207,60.546875
5208,60.546875
5209,60.546875
5210,60.546875
5211,58.593750
5212,58.593750
5213,58.593750
5214,56.640625
5215,56.640625
5216,56.640625
5217,56.640625
5218,54.687500
5219,54.687500
5220,52.734375
5221,52.734375
5222,52.734375
5223,52.734375
5224,50.781250
5225,50.781250
5226,50.781250
5227,50.781250
5228,48.828125
5229,48.828125
5230,46.875000
5231,46.875000
5232,46.875000
5233,44.921875
5234,44.921875
5235,44.921875
5236,44.921875
5237,42.968750
5238,42.968750
5239,42.968750
5240,41.015625
5241,41.015625
5242,39.062500
5243,39.062500
5244,39.062500
5245,37.109375
5246,37.109375
5247,37.109375
5248,35.156250
5249,33.203125
5250,33.203125
5251,33.203125
5252,33.203125
5253,31.250000
5254,31.250000
5255,31.250000
5256,29.296875
5257,29.296875
5258,27.343750
5259,27.343750
5260,25.390625
5261,25.390625
5262,23.437500
5263,23.437500
5264,23.437500
5265,21.484375
5266,21.484375
5267,21.484375
5268,19.531250
5269,17.578125
5270,17.578125
5271,17.578125
5272,15.625000
5273,15.625000
5274,13.671875
5275,13.671875
5276,11.718750
5277,11.718750
5278,11.718750
5279,9.765625
5280,9.765625
5281,7.812500
5282,7.812500
5283,5.859375
5284,5.859375
5285,3.906250
5286,3.906250
5287,3.906250
5288,1.953125
5289,1.953125
5290,0.000000
5291,0.000000
5292,-1.953125
5293,-1.953125
5294,-3.906250
5295,-3.906250
5296,-5.859375
5297,-5.859375
5298,-5.859375
5299,-7.812500
5300,-7.812500
5301,-7.812500
5302,-9.765625
5303,-11.718750
5304,-11.718750
5305,-13.671875
5306,-13.671875
5307,-15.625000
5308,-15.625000
5309,-15.625000
5310,-15.625000
5311,-17.578125
5312,-19.531250
5313,-21.484375
5314,-21.484375
5315,-23.437500
5316,-23.437500
5317,-23.437500
5318,-23.437500
5319,-25.390625
5320,-27.343750
5321,-27.343750
5322,-29.296875
5323,-29.296875
5324,-29.296875
5325,-29.296875
5326,-31.250000
5327,-31.250000
5328,-33.203125
5329,-35.156250
5330,-35.156250
5331,-35.156250
5332,-35.156250
5333,-37.109375
5334,-39.062500
5335,-39.062500
5336,-41.015625
5337,-41.015625
5338,-41.015625
5339,-42.968750
5340,-42.968750
5341,-42.968750
5342,-44.921875
5343,-44.921875
5344,-46.875000
5345,-46.875000
5346,-48.828125
5347,-46.875000
5348,-50.781250
5349,-48.828125
5350,-50.781250
5351,-52.734375
5352,-52.734375
5353,-52.734375
5354,-54.687500
5355,-54.687500
5356,-54.687500
5357,-54.687500
5358,-56.640625
5359,-56.640625
5360,-56.640625
5361,-58.593750
5362,-58.593750
5363,-58.593750
5364,-60.546875
5365,-60.546875
5366,-60.546875
5367,-60.546875
5368,-62.500000
5369,-62.500000
5370,-62.500000
5371,-64.453125
5372,-64.453125
5373,-66.406250
5374,-64.453125
5375,-66.406250
5376,-66.406250
5377,-68.359375
5378,-68.359375
5379,-68.359375
5380,-68.359375
5381,-70.312500
5382,-70.312500
5383,-70.312500
5384,-70.312500
5385,-72.265625
5386,-72.265625
5387,-72.265625
5388,-74.218750
5389,-74.218750
5390,-74.218750
5391,-74.218750
5392,-76.171875
5393,-76.171875
5394,-76.171875
5395,-78.125000
5396,-78.125000
5397,-78.125000
5398,-78.125000
5399,-78.125000
5400,-78.125000
5401,-80.078125
5402,-80.078125
5403,-80.078125
5404,-80.078125
5405,-80.078125
5406,-82.031250
5407,-82.031250
5408,-82.031250
5409,-82.031250
5410,-82.031250
5411,-82.031250
5412,-83.984375
5413,-83.984375
5414,-83.984375
5415,-83.984375
5416,-83.984375
5417,-83.984375
5418,-85.937500
5419,-83.984375
5420,-85.937500
5421,-85.937500
5422,-85.937500
5423,-85.937500
5424,-85.937500
5425,-85.937500
5426,-85.937500
5427,-85.937500
5428,-85.937500
5429,-85.937500
5430,-87.890625
5431,-87.890625
5432,-87.890625
5433,-87.890625
5434,-87.890625
5435,-87.890625
5436,-87.890625
5437,-87.890625
5438,-87.890625
5439,-87.890625
5440,-87.890625
5441,-87.890625
5442,-87.890625
5443,-87.890625
5444,-87.890625
5445,-87.890625
5446,-87.890625
5447,-87.890625
5448,-87.890625
5449,-87.890625
5450,-87.890625
5451,-87.890625
5452,-87.890625
5453,-87.890625
5454,-87.890625
5455,-87.890625
5456,-87.890625
5457,-87.890625
5458,-87.890625
5459,-87.890625
5460,-87.890625
5461,-87.890625
5462,-87.890625
5463,-87.890625
5464,-87.890625
5465,-87.890625
5466,-87.890625
5467,-85.937500
5468,-85.937500
5469,-85.937500
5470,-85.937500
5471,-85.937500
5472,-85.937500
5473,-83.984375
5474,-85.937500
5475,-83.984375
5476,-83.984375
5477,-83.984375
5478,-83.984375
5479,-83.984375
5480,-83.984375
5481,-82.031250
5482,-83.984375
5483,-82.031250
5484,-82.031250
5485,-82.031250
5486,-82.031250
5487,-80.078125
5488,-80.078125
5489,-80.078125
5490,-80.078125
5491,-78.125000
5492,-78.125000
5493,-78.125000
5494,-78.125000
5495,-78.125000
5496,-76.171875
5497,-76.171875
5498,-76.171875
5499,-74.218750
5500,-74.218750
5501,-74.218750
5502,-74.218750
5503,-74.218750
5504,-72.265625
5505,-72.265625
5506,-72.265625
5507,-70.312500
5508,-70.312500
5509,-70.312500
5510,-70.312500
5511,-70.312500
5512,-68.359375
5513,-68.359375
5514,-68.359375
5515,-68.359375
5516,-68.359375
5517,-66.406250
5518,-66.406250
5519,-64.453125
5520,-64.453125
5521,-64.453125
5522,-62.500000
5523,-62.500000
5524,-62.500000
5525,-62.500000
5526,-60.546875
5527,-60.546875
5528,-60.546875
5529,-60.546875
5530,-60.546875
5531,-58.593750
5532,-56.640625
5533,-56.640625
5534,-56.640625
5535,-54.687500
5536,-54.687500
5537,-54.687500
5538,-52.734375
5539,-52.734375
5540,-52.734375
5541,-50.781250
5542,-50.781250
5543,-48.828125
5544,-48.828125
5545,-50.781250
5546,-46.875000
5547,-42.968750
5548,-46.875000
5549,-44.921875
5550,-44.921875
5551,-42.968750
5552,-42.968750
5553,-42.968750
5554,-41.015625
5555,-41.015625
5556,-39.062500
5557,-39.062500
5558,-37.109375
5559,-37.109375
5560,-37.109375
5561,-35.156250
5562,-35.156250
5563,-33.203125
5564,-33.203125
5565,-31.250000
5566,-33.203125
5567,-31.250000
5568,-31.250000
5569,-29.296875
5570,-27.343750
5571,-27.343750
5572,-27.343750
5573,-25.390625
5574,-23.437500
5575,-23.437500
5576,-23.437500
5577,-21.484375
5578,-21.484375
5579,-19.531250
5580,-19.531250
5581,-19.531250
5582,-17.578125
5583,-17.578125
5584,-15.625000
5585,-15.625000
5586,-13.671875
5587,-13.671875
5588,-13.671875
5589,-11.718750
5590,-9.765625
5591,-9.765625
5592,-9.765625
5593,-9.765625
5594,-7.812500
5595,-5.859375
5596,-5.859375
5597,-5.859375
5598,-5.859375
5599,-3.906250
5600,-3.906250
5601,0.000000
5602,0.000000
5603,0.000000
5604,1.953125
5605,1.953125
5606,3.906250
5607,3.906250
5608,5.859375
5609,5.859375
5610,5.859375
5611,7.812500
5612,7.812500
5613,9.765625
5614,11.718750
5615,9.765625
5616,13.671875
5617,13.671875
5618,13.671875
5619,15.625000
5620,15.625000
5621,17.578125
5622,17.578125
5623,17.578125
5624,19.531250
5625,19.531250
5626,21.484375
5627,21.484375
5628,23.437500
5629,25.390625
5630,23.437500
5631,27.343750
5632,25.390625
5633,25.390625
5634,27.343750
5635,27.343750
5636,29.296875
5637,29.296875
5638,31.250000
5639,31.250000
5640,31.250000
5641,33.203125
5642,33.203125
5643,35.156250
5644,35.156250
5645,35.156250
5646,37.109375
5647,37.109375
5648,39.062500
5649,39.062500
5650,39.062500
5651,41.015625
5652,41.015625
5653,41.015625
5654,41.015625
5655,42.968750
5656,42.968750
5657,42.968750
5658,44.921875
5659,44.921875
5660,46.875000
5661,46.875000
5662,46.875000
5663,48.828125
5664,48.828125
5665,48.828125
5666,48.828125
5667,48.828125
5668,50.781250
5669,50.781250
5670,52.734375
5671,52.734375
5672,52.734375
5673,54.687500
5674,54.687500
5675,54.687500
5676,54.687500
5677,56.640625
5678,56.640625
5679,56.640625
5680,56.640625
5681,58.593750
5682,58.593750
5683,58.593750
5684,58.593750
5685,58.593750
5686,60.546875
5687,60.546875
5688,60.546875
5689,62.500000
5690,62.500000
5691,62.500000
5692,62.500000
5693,64.453125
5694,64.453125
5695,64.453125
5696,64.453125
5697,66.406250
5698,66.406250
5699,66.406250
5700,66.406250
5701,66.406250
5702,68.359375
5703,66.406250
5704,68.359375
5705,68.359375
5706,68.359375
5707,68.359375
5708,68.359375
5709,68.359375
5710,70.312500
5711,70.312500
5712,70.312500
5713,70.312500
5714,70.312500
5715,70.312500
5716,70.312500
5717,70.312500
5718,70.312500
5719,72.265625
5720,72.265625
5721,72.265625
5722,72.265625
5723,72.265625
5724,72.265625
5725,72.265625
5726,72.265625
5727,72.265625
5728,72.265625
5729,72.265625
5730,72.265625
5731,72.265625
5732,72.265625
5733,72.265625
5734,72.265625
5735,74.218750
5736,74.218750
5737,74.218750
5738,74.218750
5739,74.218750
5740,72.265625
5741,74.218750
5742,74.218750
5743,72.265625
5744,74.218750
5745,72.265625
5746,74.218750
5747,72.265625
5748,72.265625
5749,72.265625
5750,74.218750
5751,74.218750
5752,72.265625
5753,72.265625
5754,72.265625
5755,72.265625
5756,72.265625
5757,72.265625
5758,72.265625
5759,72.265625
5760,72.265625
5761,70.312500
5762,70.312500
5763,70.312500
5764,70.312500
5765,70.312500
5766,70.312500
5767,68.359375
5768,68.359375
5769,70.312500
5770,68.359375
5771,68.359375
5772,68.359375
5773,68.359375
5774,66.406250
5775,66.406250
5776,66.406250
5777,66.406250
5778,66.406250
5779,64.453125
5780,64.453125
5781,64.453125
5782,64.453125
5783,64.453125
5784,64.453125
5785,62.500000
5786,62.500000
5787,62.500000
5788,62.500000
5789,60.546875
5790,60.546875
5791,60.546875
5792,58.593750
5793,58.593750
5794,58.593750
5795,58.593750
5796,58.593750
5797,56.640625
5798,56.640625
5799,56.640625
5800,56.640625
5801,54.687500
5802,52.734375
5803,54.687500
5804,52.734375
5805,52.734375
5806,52.734375
5807,50.781250
5808,50.781250
5809,50.781250
5810,48.828125
5811,48.828125
5812,48.828125
5813,46.875000
5814,46.875000
5815,46.875000
5816,46.875000
5817,44.921875
5818,44.921875
5819,42.968750
5820,42.968750
5821,42.968750
5822,42.968750
5823,41.015625
5824,41.015625
5825,41.015625
5826,39.062500
5827,39.062500
5828,37.109375
5829,37.109375
5830,35.156250
5831,35.156250
5832,35.156250
5833,35.156250
5834,33.203125
5835,31.250000
5836,31.250000
5837,31.250000
5838,29.296875
5839,29.296875
5840,27.343750
5841,27.343750
5842,27.343750
5843,25.390625
5844,25.390625
5845,23.437500
5846,23.437500
5847,23.437500
5848,21.484375
5849,21.484375
5850,19.531250
5851,19.531250
5852,17.578125
5853,17.578125
5854,17.578125
5855,15.625000
5856,13.671875
5857,13.671875
5858,13.671875
5859,11.718750
5860,11.718750
5861,9.765625
5862,9.765625
5863,9.765625
5864,7.812500
5865,5.859375
5866,5.859375
5867,3.906250
5868,3.906250
5869,3.906250
5870,1.953125
5871,0.000000
5872,0.000000
5873,0.000000
5874,-1.953125
5875,-1.953125
5876,-3.906250
5877,-3.906250
5878,-3.906250
5879,-5.859375
5880,-5.859375
5881,-7.812500
5882,-7.812500
5883,-7.812500
5884,-9.765625
5885,-11.718750
5886,-11.718750
5887,-11.718750
5888,-13.671875
5889,-13.671875
5890,-15.625000
5891,-17.578125
5892,-17.578125
5893,-17.578125
5894,-19.531250
5895,-19.531250
5896,-19.531250
5897,-21.484375
5898,-21.484375
5899,-23.437500
5900,-23.437500
5901,-25.390625
5902,-25.390625
5903,-27.343750
5904,-27.343750
5905,-29.296875
5906,-29.296875
5907,-29.296875
5908,-31.250000
5909,-33.203125
5910,-33.203125
5911,-33.203125
5912,-33.203125
5913,-35.156250
5914,-37.109375
5915,-37.109375
5916,-39.062500
5917,-41.015625
5918,-39.062500
5919,-41.015625
5920,-41.015625
5921,-42.968750
5922,-42.968750
5923,-42.968750
5924,-44.921875
5925,-44.921875
5926,-44.921875
5927,-46.875000
5928,-46.875000
5929,-48.828125
5930,-48.828125
5931,-48.828125
5932,-48.828125
5933,-50.781250
5934,-52.734375
5935,-52.734375
5936,-52.734375
5937,-54.687500
5938,-52.734375
5939,-54.687500
5940,-56.640625
5941,-56.640625
5942,-56.640625
5943,-58.593750
5944,-58.593750
5945,-58.593750
5946,-60.546875
5947,-60.546875
5948,-60.546875
5949,-62.500000
5950,-62.500000
5951,-62.500000
5952,-64.453125
5953,-64.453125
5954,-64.453125
5955,-64.453125
5956,-66.406250
5957,-66.406250
5958,-66.406250
5959,-68.359375
5960,-68.359375
5961,-68.359375
5962,-70.312500
5963,-70.312500
5964,-70.312500
5965,-72.265625
5966,-72.265625
5967,-70.312500
5968,-72.265625
5969,-74.218750
5970,-72.265625
5971,-74.218750
5972,-74.218750
5973,-74.218750
5974,-76.171875
5975,-76.171875
5976,-76.171875
5977,-76.171875
5978,-78.125000
5979,-78.125000
5980,-78.125000
5981,-80.078125
5982,-80.078125
5983,-80.078125
5984,-80.078125
5985,-80.078125
5986,-82.031250
5987,-80.078125
5988,-82.031250
5989,-82.031250
5990,-82.031250
5991,-82.031250
5992,-82.031250
5993,-83.984375
5994,-83.984375
5995,-83.984375
5996,-83.984375
5997,-83.984375
5998,-83.984375
5999,-83.984375
6000,-85.937500
6001,-85.937500
6002,-85.937500
6003,-85.937500
6004,-85.937500
6005,-85.937500
6006,-85.937500
6007,-85.937500
6008,-85.937500
6009,-85.937500
6010,-87.890625
6011,-87.890625
6012,-87.890625
6013,-87.890625
6014,-87.890625
6015,-87.890625
6016,-87.890625
6017,-87.890625
6018,-87.890625
6019,-87.890625
6020,-87.890625
6021,-87.890625
6022,-87.890625
6023,-87.890625
6024,-87.890625
6025,-87.890625
6026,-87.890625
6027,-87.890625
6028,-89.843750
6029,-87.890625
6030,-87.890625
6031,-87.890625
6032,-87.890625
6033,-87.890625
6034,-87.890625
6035,-89.843750
6036,-87.890625
6037,-87.890625
6038,-87.890625
6039,-87.890625
6040,-87.890625
6041,-87.890625
6042,-87.890625
6043,-87.890625
6044,-87.890625
6045,-87.890625
6046,-87.890625
6047,-87.890625
6048,-85.937500
6049,-85.937500
6050,-87.890625
6051,-87.890625
6052,-85.937500
6053,-85.937500
6054,-85.937500
6055,-85.937500
6056,-85.937500
6057,-85.937500
6058,-83.984375
6059,-83.984375
6060,-83.984375
6061,-83.984375
6062,-83.984375
6063,-83.984375
6064,-82.031250
6065,-83.984375
6066,-82.031250
6067,-82.031250
6068,-82.031250
6069,-82.031250
6070,-82.031250
6071,-80.078125
6072,-80.078125
6073,-80.078125
6074,-80.078125
6075,-78.125000
6076,-78.125000
6077,-78.125000
6078,-76.171875
6079,-76.171875
6080,-78.125000
6081,-76.171875
6082,-76.171875
6083,-74.218750
6084,-74.218750
6085,-74.218750
6086,-74.218750
6087,-74.218750
6088,-72.265625
6089,-72.265625
6090,-72.265625
6091,-70.312500
6092,-70.312500
6093,-70.312500
6094,-70.312500
6095,-68.359375
6096,-68.359375
6097,-68.359375
6098,-68.359375
6099,-66.406250
6100,-66.406250
6101,-66.406250
6102,-64.453125
6103,-64.453125
6104,-64.453125
6105,-62.500000
6106,-62.500000
6107,-62.500000
6108,-60.546875
6109,-60.546875
6110,-58.593750
6111,-58.593750
6112,-58.593750
6113,-58.593750
6114,-58.593750
6115,-56.640625
6116,-56.640625
6117,-56.640625
6118,-54.687500
6119,-54.687500
6120,-52.734375
6121,-52.734375
6122,-52.734375
6123,-50.781250
6124,-50.781250
6125,-50.781250
6126,-48.828125
6127,-48.828125
6128,-46.875000
6129,-46.875000
6130,-46.875000
6131,-44.921875
6132,-44.921875
6133,-44.921875
6134,-42.968750
6135,-42.968750
6136,-41.015625
6137,-41.015625
6138,-41.015625
6139,-39.062500
6140,-39.062500
6141,-37.109375
6142,-37.109375
6143,-35.156250
6144,-35.156250
6145,-33.203125
6146,-33.203125
6147,-33.203125
6148,-31.250000
6149,-31.250000
6150,-29.296875
6151,-29.296875
6152,-29.296875
6153,-27.343750
6154,-27.343750
6155,-25.390625
6156,-25.390625
6157,-23.437500
6158,-23.437500
6159,-23.437500
6160,-21.484375
6161,-19.531250
6162,-19.531250
6163,-19.531250
6164,-19.531250
6165,-17.578125
6166,-17.578125
6167,-15.625000
6168,-13.671875
6169,-13.671875
6170,-13.671875
6171,-13.671875
6172,-11.718750
6173,-9.765625
6174,-9.765625
6175,-9.765625
6176,-7.812500
6177,-5.859375
6178,-5.859375
6179,-5.859375
6180,-3.906250
6181,-3.906250
6182,-1.953125
6183,-1.953125
6184,-1.953125
6185,0.000000
6186,0.000000
6187,1.953125
6188,1.953125
6189,3.906250
6190,5.859375
6191,5.859375
6192,5.859375
6193,7.812500
6194,7.812500
6195,9.765625
6196,9.765625
6197,11.718750
6198,11.718750
6199,13.671875
6200,13.671875
6201,13.671875
6202,15.625000
6203,15.625000
6204,15.625000
6205,17.578125
6206,17.578125
6207,19.531250
6208,19.531250
6209,21.484375
6210,21.484375
6211,23.437500
6212,23.437500
6213,25.390625
6214,25.390625
6215,25.390625
6216,27.343750
6217,29.296875
6218,27.343750
6219,29.296875
6220,29.296875
6221,31.250000
6222,31.250000
6223,33.203125
6224,33.203125
6225,33.203125
6226,35.156250
6227,35.156250
6228,35.156250
6229,37.109375
6230,37.109375
6231,39.062500
6232,39.062500
6233,39.062500
6234,39.062500
6235,42.968750
6236,42.968750
6237,42.968750
6238,42.968750
6239,42.968750
6240,44.921875
6241,44.921875
6242,44.921875
6243,46.875000
6244,46.875000
6245,48.828125
6246,48.828125
6247,48.828125
6248,48.828125
6249,50.781250
6250,50.781250
6251,50.781250
6252,50.781250
6253,50.781250
6254,52.734375
6255,52.734375
6256,54.687500
6257,54.687500
6258,54.687500
6259,54.687500
6260,56.640625
6261,56.640625
6262,58.593750
6263,58.593750
6264,58.593750
6265,58.593750
6266,58.593750
6267,60.546875
6268,60.546875
6269,60.546875
6270,64.453125
6271,60.546875
6272,62.500000
6273,62.500000
6274,62.500000
6275,62.500000
6276,64.453125
6277,64.453125
6278,64.453125
6279,64.453125
6280,64.453125
6281,66.406250
6282,66.406250
6283,66.406250
6284,66.406250
6285,66.406250
6286,66.406250
6287,68.359375
6288,68.359375
6289,68.359375
6290,68.359375
6291,70.312500
6292,70.312500
6293,70.312500
6294,70.312500
6295,70.312500
6296,70.312500
6297,70.312500
6298,70.312500
6299,70.312500
6300,72.265625
6301,72.265625
6302,74.218750
6303,72.265625
6304,72.265625
6305,72.265625
6306,72.265625
6307,72.265625
6308,72.265625
6309,72.265625
6310,72.265625
6311,72.265625
6312,72.265625
6313,74.218750
6314,72.265625
6315,74.218750
6316,72.265625
6317,72.265625
6318,72.265625
6319,74.218750
6320,74.218750
6321,74.218750
6322,74.218750
6323,74.218750
6324,72.265625
6325,74.218750
6326,74.218750
6327,74.218750
6328,72.265625
6329,74.218750
6330,74.218750
6331,74.218750
6332,72.265625
6333,72.265625
6334,72.265625
6335,72.265625
6336,72.265625
6337,72.265625
6338,72.265625
6339,72.265625
6340,72.265625
6341,72.265625
6342,72.265625
6343,72.265625
6344,70.312500
6345,70.312500
6346,70.312500
6347,70.312500
6348,70.312500
6349,70.312500
6350,70.312500
6351,70.312500
6352,68.359375
6353,68.359375
6354,68.359375
6355,68.359375
6356,68.359375
6357,66.406250
6358,66.406250
6359,66.406250
6360,66.406250
6361,66.406250
6362,66.406250
6363,64.453125
6364,64.453125
6365,64.453125
6366,64.453125
6367,62.500000
6368,62.500000
6369,62.500000
6370,62.500000
6371,60.546875
6372,60.546875
6373,60.546875
6374,60.546875
6375,58.593750
6376,58.593750
6377,58.593750
6378,58.593750
6379,56.640625
6380,56.640625
6381,56.640625
6382,54.687500
6383,54.687500
6384,54.687500
6385,52.734375
6386,52.734375
6387,52.734375
6388,52.734375
6389,52.734375
6390,50.781250
6391,50.781250
6392,50.781250
6393,48.828125
6394,48.828125
6395,46.875000
6396,46.875000
6397,46.875000
6398,46.875000
6399,46.875000
6400,44.921875
6401,44.921875
6402,42.968750
6403,42.968750
6404,42.968750
6405,41.015625
6406,41.015625
6407,39.062500
6408,39.062500
6409,39.062500
6410,39.062500
6411,37.109375
6412,35.156250
6413,35.156250
6414,35.156250
6415,35.156250
6416,33.203125
6417,33.203125
6418,31.250000
6419,31.250000
6420,29.296875
6421,29.296875
6422,29.296875
6423,27.343750
6424,27.343750
6425,25.390625
6426,25.390625
6427,23.437500
6428,23.437500
6429,23.437500
6430,21.484375
6431,21.484375
6432,19.531250
6433,17.578125
6434,17.578125
6435,17.578125
6436,17.578125
6437,15.625000
6438,13.671875
6439,13.671875
6440,13.671875
6441,11.718750
6442,11.718750
6443,9.765625
6444,9.765625
6445,9.765625
6446,7.812500
6447,7.812500
6448,5.859375
6449,5.859375
6450,5.859375
6451,3.906250
6452,1.953125
6453,1.953125
6454,0.000000
6455,0.000000
6456,0.000000
6457,-1.953125
6458,-1.953125
6459,-3.906250
6460,-5.859375
6461,-5.859375
6462,-5.859375
6463,-7.812500
6464,-7.812500
6465,-7.812500
6466,-9.765625
6467,-9.765625
6468,-11.718750
6469,-11.718750
6470,-13.671875
6471,-13.671875
6472,-15.625000
6473,-15.625000
6474,-15.625000
6475,-17.578125
6476,-17.578125
6477,-19.531250
6478,-21.484375
6479,-21.484375
6480,-21.484375
6481,-23.437500
6482,-23.437500
6483,-25.390625
6484,-25.390625
6485,-27.343750
6486,-27.343750
6487,-27.343750
6488,-29.296875
6489,-29.296875
6490,-31.250000
6491,-31.250000
6492,-33.203125
6493,-33.203125
6494,-33.203125
6495,-35.156250
6496,-37.109375
6497,-37.109375
6498,-37.109375
6499,-39.062500
6500,-39.062500
6501,-41.015625
6502,-41.015625
6503,-41.015625
6504,-42.968750
6505,-42.968750
6506,-44.921875
6507,-44.921875
6508,-44.921875
6509,-46.875000
6510,-46.875000
6511,-46.875000
6512,-48.828125
6513,-48.828125
6514,-50.781250
6515,-50.781250
6516,-52.734375
6517,-52.734375
6518,-52.734375
6519,-52.734375
6520,-54.687500
6521,-54.687500
6522,-54.687500
6523,-56.640625
6524,-56.640625
6525,-58.593750
6526,-58.593750
6527,-58.593750
6528,-60.546875
6529,-60.546875
6530,-60.546875
6531,-60.546875
6532,-60.546875
6533,-62.500000
6534,-64.453125
6535,-64.453125
6536,-64.453125
6537,-64.453125
6538,-66.406250
6539,-66.406250
6540,-66.406250
6541,-68.359375
6542,-68.359375
6543,-68.359375
6544,-68.359375
6545,-70.312500
6546,-70.312500
6547,-70.312500
6548,-70.312500
6549,-72.265625
6550,-72.265625
6551,-74.218750
6552,-72.265625
6553,-74.218750
6554,-74.218750
6555,-74.218750
6556,-74.218750
6557,-76.171875
6558,-76.171875
6559,-76.171875
6560,-76.171875
6561,-76.171875
6562,-78.125000
6563,-78.125000
6564,-78.125000
6565,-80.078125
6566,-80.078125
6567,-80.078125
6568,-80.078125
6569,-82.031250
6570,-80.078125
6571,-80.078125
6572,-82.031250
6573,-82.031250
6574,-82.031250
6575,-83.984375
6576,-82.031250
6577,-83.984375
6578,-83.984375
6579,-83.984375
6580,-83.984375
6581,-83.984375
6582,-83.984375
6583,-83.984375
6584,-85.937500
6585,-85.937500
6586,-85.937500
6587,-85.937500
6588,-85.937500
6589,-85.937500
6590,-85.937500
6591,-85.937500
6592,-87.890625
6593,-85.937500
6594,-85.937500
6595,-87.890625
6596,-85.937500
6597,-87.890625
6598,-87.890625
6599,-87.890625
6600,-87.890625
6601,-87.890625
6602,-87.890625
6603,-87.890625
6604,-87.890625
6605,-87.890625
6606,-87.890625
6607,-87.890625
6608,-87.890625
6609,-87.890625
6610,-87.890625
6611,-87.890625
6612,-87.890625
6613,-89.843750
6614,-87.890625
6615,-87.890625
6616,-87.890625
6617,-87.890625
6618,-87.890625
6619,-87.890625
6620,-87.890625
6621,-87.890625
6622,-87.890625
6623,-87.890625
6624,-87.890625
6625,-87.890625
6626,-87.890625
6627,-87.890625
6628,-87.890625
6629,-87.890625
6630,-85.937500
6631,-85.937500
6632,-87.890625
6633,-85.937500
6634,-85.937500
6635,-85.937500
6636,-85.937500
6637,-85.937500
6638,-85.937500
6639,-85.937500
6640,-83.984375
6641,-83.984375
6642,-83.984375
6643,-83.984375
6644,-83.984375
6645,-83.984375
6646,-82.031250
6647,-82.031250
6648,-82.031250
6649,-82.031250
6650,-82.031250
6651,-82.031250
6652,-80.078125
6653,-80.078125
6654,-80.078125
6655,-80.078125
6656,-80.078125
6657,-78.125000
6658,-78.125000
6659,-78.125000
6660,-78.125000
6661,-76.171875
6662,-76.171875
6663,-76.171875
6664,-76.171875
6665,-76.171875
6666,-74.218750
6667,-74.218750
6668,-74.218750
6669,-74.218750
6670,-72.265625
6671,-72.265625
6672,-72.265625
6673,-72.265625
6674,-70.312500
6675,-70.312500
6676,-68.359375
6677,-68.359375
6678,-68.359375
6679,-68.359375
6680,-68.359375
6681,-68.359375
6682,-66.406250
6683,-66.406250
6684,-64.453125
6685,-64.453125
6686,-64.453125
6687,-62.500000
6688,-62.500000
6689,-62.500000
6690,-62.500000
6691,-60.546875
6692,-60.546875
6693,-60.546875
6694,-60.546875
6695,-58.593750
6696,-56.640625
6697,-56.640625
6698,-56.640625
6699,-56.640625
6700,-54.687500
6701,-54.687500
6702,-52.734375
6703,-52.734375
6704,-52.734375
6705,-50.781250
6706,-50.781250
6707,-50.781250
6708,-48.828125
6709,-48.828125
6710,-46.875000
6711,-46.875000
6712,-46.875000
6713,-46.875000
6714,-46.875000
6715,-44.921875
6716,-42.968750
6717,-42.968750
6718,-42.968750
6719,-41.015625
6720,-39.062500
6721,-39.062500
6722,-39.062500
6723,-37.109375
6724,-37.109375
6725,-37.109375
6726,-35.156250
6727,-35.156250
6728,-35.156250
6729,-33.203125
6730,-31.250000
6731,-31.250000
6732,-31.250000
6733,-29.296875
6734,-29.296875
6735,-27.343750
6736,-27.343750
6737,-27.343750
6738,-25.390625
6739,-25.390625
6740,-23.437500
6741,-23.437500
6742,-21.484375
6743,-21.484375
6744,-19.531250
6745,-19.531250
6746,-19.531250
6747,-17.578125
6748,-17.578125
6749,-15.625000
6750,-15.625000
6751,-15.625000
6752,-13.671875
6753,-11.718750
6754,-11.718750
6755,-11.718750
6756,-9.765625
6757,-9.765625
6758,-7.812500
6759,-7.812500
6760,-5.859375
6761,-5.859375
6762,-5.859375
6763,-3.906250
6764,-1.953125
6765,-1.953125
6766,-1.953125
6767,0.000000
6768,0.000000
6769,1.953125
6770,1.953125
6771,3.906250
6772,3.906250
6773,5.859375
6774,5.859375
6775,7.812500
6776,7.812500
6777,7.812500
6778,9.765625
6779,9.765625
6780,11.718750
6781,11.718750
6782,13.671875
6783,13.671875
6784,15.625000
6785,15.625000
6786,17.578125
6787,17.578125
6788,17.578125
6789,19.531250
6790,19.531250
6791,19.531250
6792,21.484375
6793,23.437500
6794,23.437500
6795,25.390625
6796,25.390625
6797,25.390625
6798,25.390625
6799,27.343750
6800,27.343750
6801,29.296875
6802,29.296875
6803,31.250000
6804,31.250000
6805,31.250000
6806,33.203125
6807,33.203125
6808,35.156250
6809,35.156250
6810,35.156250
6811,37.109375
6812,37.109375
6813,37.109375
6814,39.062500
6815,39.062500
6816,41.015625
6817,41.015625
6818,41.015625
6819,42.968750
6820,42.968750
6821,42.968750
6822,42.968750
6823,42.968750
6824,44.921875
6825,46.875000
6826,46.875000
6827,46.875000
6828,46.875000
6829,48.828125
6830,48.828125
6831,48.828125
6832,48.828125
6833,50.781250
6834,50.781250
6835,52.734375
6836,52.734375
6837,52.734375
6838,54.687500
6839,54.687500
6840,54.687500
6841,54.687500
6842,56.640625
6843,56.640625
6844,56.640625
6845,56.640625
6846,58.593750
6847,58.593750
6848,58.593750
6849,58.593750
6850,60.546875
6851,60.546875
6852,60.546875
6853,60.546875
6854,62.500000
6855,62.500000
6856,62.500000
6857,62.500000
6858,64.453125
6859,64.453125
6860,64.453125
6861,64.453125
6862,64.453125
6863,66.406250
6864,66.406250
6865,66.406250
6866,66.406250
6867,66.406250
6868,66.406250
6869,68.359375
6870,68.359375
6871,68.359375
6872,68.359375
6873,68.359375
6874,68.359375
6875,68.359375
6876,70.312500
6877,70.312500
6878,70.312500
6879,70.312500
6880,70.312500
6881,70.312500
6882,72.265625
6883,70.312500
6884,72.265625
6885,72.265625
6886,72.265625
6887,72.265625
6888,72.265625
6889,72.265625
6890,72.265625
6891,72.265625
6892,72.265625
6893,72.265625
6894,72.265625
6895,72.265625
6896,72.265625
6897,74.218750
6898,72.265625
6899,72.265625
6900,72.265625
6901,72.265625
6902,74.218750
6903,72.265625
6904,74.218750
6905,72.265625
6906,72.265625
6907,74.218750
6908,72.265625
6909,74.218750
6910,72.265625
6911,72.265625
6912,72.265625
6913,72.265625
6914,72.265625
6915,72.265625
6916,72.265625
6917,72.265625
6918,72.265625
6919,72.265625
6920,72.265625
6921,72.265625
6922,72.265625
6923,72.265625
6924,72.265625
6925,70.312500
6926,72.265625
6927,70.312500
6928,70.312500
6929,70.312500
6930,70.312500
6931,70.312500
6932,70.312500
6933,68.359375
6934,70.312500
6935,68.359375
6936,68.359375
6937,68.359375
6938,68.359375
6939,68.359375
6940,66.406250
6941,66.406250
6942,66.406250
6943,66.406250
6944,66.406250
6945,64.453125
6946,64.453125
6947,64.453125
6948,64.453125
6949,62.500000
6950,62.500000
6951,62.500000
6952,62.500000
6953,62.500000
6954,60.546875
6955,60.546875
6956,60.546875
6957,58.593750
6958,58.593750
6959,58.593750
6960,58.593750
6961,56.640625
6962,56.640625
6963,56.640625
6964,56.640625
6965,54.687500
6966,54.687500
6967,52.734375
6968,52.734375
6969,52.734375
6970,52.734375
6971,52.734375
6972,50.781250
6973,50.781250
6974,50.781250
6975,50.781250
6976,48.828125
6977,48.828125
6978,46.875000
6979,46.875000
6980,46.875000
6981,46.875000
6982,44.921875
6983,44.921875
6984,42.968750
6985,42.968750
6986,42.968750
6987,41.015625
6988,41.015625
6989,39.062500
6990,39.062500
6991,39.062500
6992,39.062500
6993,37.109375
6994,37.109375
6995,37.109375
6996,35.156250
6997,35.156250
6998,33.203125
6999,33.203125
7000,31.250000
7001,31.250000
7002,31.250000
7003,29.296875
7004,29.296875
7005,27.343750
7006,27.343750
7007,27.343750
7008,25.390625
7009,25.390625
7010,23.437500
7011,23.437500
7012,21.484375
7013,21.484375
7014,21.484375
7015,19.531250
7016,19.531250
7017,17.578125
7018,17.578125
7019,15.625000
7020,15.625000
7021,15.625000
7022,13.671875
7023,13.671875
7024,11.718750
7025,11.718750
7026,11.718750
7027,9.765625
7028,7.812500
7029,7.812500
7030,7.812500
7031,5.859375
7032,5.859375
7033,3.906250
7034,3.906250
7035,1.953125
7036,1.953125
7037,0.000000
7038,0.000000
7039,-1.953125
7040,-1.953125
7041,-1.953125
7042,-3.906250
7043,-5.859375
7044,-5.859375
7045,-5.859375
7046,-5.859375
7047,-7.812500
7048,-7.812500
7049,-9.765625
7050,-9.765625
7051,-11.718750
7052,-11.718750
7053,-13.671875
7054,-13.671875
7055,-15.625000
7056,-15.625000
7057,-17.578125
7058,-17.578125
7059,-19.531250
7060,-19.531250
7061,-19.531250
7062,-21.484375
7063,-21.484375
7064,-23.437500
7065,-23.437500
7066,-25.390625
7067,-25.390625
7068,-27.343750
7069,-27.343750
7070,-27.343750
7071,-29.296875
7072,-31.250000
7073,-31.250000
7074,-31.250000
7075,-33.203125
7076,-33.203125
7077,-35.156250
7078,-35.156250
7079,-37.109375
7080,-37.109375
7081,-39.062500
7082,-39.062500
7083,-39.062500
7084,-39.062500
7085,-41.015625
7086,-42.968750
7087,-42.968750
7088,-42.968750
7089,-42.968750
7090,-44.921875
7091,-44.921875
7092,-46.875000
7093,-46.875000
7094,-48.828125
7095,-48.828125
7096,-48.828125
7097,-50.781250
7098,-50.781250
7099,-52.734375
7100,-52.734375
7101,-52.734375
7102,-54.687500
7103,-54.687500
7104,-54.687500
7105,-56.640625
7106,-56.640625
7107,-56.640625
7108,-56.640625
7109,-58.593750
7110,-58.593750
7111,-60.546875
7112,-60.546875
7113,-60.546875
7114,-62.500000
7115,-62.500000
7116,-62.500000
7117,-64.453125
7118,-64.453125
7119,-64.453125
7120,-64.453125
7121,-64.453125
7122,-66.406250
7123,-66.406250
7124,-66.406250
7125,-68.359375
7126,-68.359375
7127,-68.359375
7128,-68.359375
7129,-70.312500
7130,-70.312500
7131,-72.265625
7132,-72.265625
7133,-72.265625
7134,-72.265625
7135,-72.265625
7136,-74.218750
7137,-74.218750
7138,-74.218750
7139,-74.218750
7140,-76.171875
7141,-76.171875
7142,-76.171875
7143,-76.171875
7144,-78.125000
7145,-78.125000
7146,-78.125000
7147,-78.125000
7148,-78.125000
7149,-78.125000
7150,-80.078125
7151,-80.078125
7152,-80.078125
7153,-80.078125
7154,-82.031250
7155,-82.031250
7156,-82.031250
7157,-82.031250
7158,-82.031250
7159,-83.984375
7160,-82.031250
7161,-83.984375
7162,-83.984375
7163,-83.984375
7164,-83.984375
7165,-83.984375
7166,-85.937500
7167,-83.984375
7168,-83.984375
7169,-85.937500
7170,-85.937500
7171,-85.937500
7172,-85.937500
7173,-85.937500
7174,-85.937500
7175,-85.937500
7176,-85.937500
7177,-85.937500
7178,-85.937500
7179,-87.890625
7180,-87.890625
7181,-87.890625
7182,-87.890625
7183,-87.890625
7184,-87.890625
7185,-87.890625
7186,-87.890625
7187,-87.890625
7188,-87.890625
7189,-87.890625
7190,-87.890625
7191,-87.890625
7192,-87.890625
7193,-87.890625
7194,-87.890625
7195,-87.890625
7196,-85.937500
7197,-87.890625
7198,-87.890625
7199,-87.890625
7200,-87.890625
7201,-87.890625
7202,-87.890625
7203,-87.890625
7204,-85.937500
7205,-87.890625
7206,-87.890625
7207,-87.890625
7208,-87.890625
7209,-85.937500
7210,-87.890625
7211,-87.890625
7212,-87.890625
7213,-85.937500
7214,-85.937500
7215,-85.937500
7216,-85.937500
7217,-85.937500
7218,-85.937500
7219,-85.937500
7220,-85.937500
7221,-83.984375
7222,-83.984375
7223,-83.984375
7224,-83.984375
7225,-83.984375
7226,-83.984375
7227,-83.984375
7228,-82.031250
7229,-82.031250
7230,-82.031250
7231,-82.031250
7232,-82.031250
7233,-80.078125
7234,-80.078125
7235,-80.078125
7236,-80.078125
7237,-80.078125
7238,-78.125000
7239,-78.125000
7240,-78.125000
7241,-78.125000
7242,-78.125000
7243,-76.171875
7244,-76.171875
7245,-76.171875
7246,-76.171875
7247,-76.171875
7248,-74.218750
7249,-74.218750
7250,-74.218750
7251,-74.218750
7252,-74.218750
7253,-72.265625
7254,-70.312500
7255,-72.265625
7256,-70.312500
7257,-70.312500
7258,-68.359375
7259,-68.359375
7260,-70.312500
7261,-70.312500
7262,-68.359375
7263,-66.406250
7264,-66.406250
7265,-66.406250
7266,-66.406250
7267,-64.453125
7268,-64.453125
7269,-62.500000
7270,-62.500000
7271,-62.500000
7272,-62.500000
7273,-62.500000
7274,-60.546875
7275,-60.546875
7276,-58.593750
7277,-58.593750
7278,-58.593750
7279,-56.640625
7280,-56.640625
7281,-56.640625
7282,-54.687500
7283,-54.687500
7284,-54.687500
7285,-52.734375
7286,-52.734375
7287,-52.734375
7288,-48.828125
7289,-50.781250
7290,-50.781250
7291,-48.828125
7292,-48.828125
7293,-46.875000
7294,-48.828125
7295,-46.875000
7296,-44.921875
7297,-44.921875
7298,-42.968750
7299,-42.968750
7300,-41.015625
7301,-41.015625
7302,-41.015625
7303,-39.062500
7304,-39.062500
7305,-39.062500
7306,-37.109375
7307,-37.109375
7308,-37.109375
7309,-35.156250
7310,-33.203125
7311,-33.203125
7312,-33.203125
7313,-33.203125
7314,-31.250000
7315,-29.296875
7316,-29.296875
7317,-29.296875
7318,-27.343750
7319,-25.390625
7320,-25.390625
7321,-25.390625
7322,-23.437500
7323,-23.437500
7324,-23.437500
7325,-21.484375
7326,-21.484375
7327,-19.531250
7328,-19.531250
7329,-17.578125
7330,-17.578125
7331,-17.578125
7332,-15.625000
7333,-15.625000
7334,-13.671875
7335,-13.671875
7336,-11.718750
7337,-11.718750
7338,-9.765625
7339,-9.765625
7340,-9.765625
7341,-7.812500
7342,-7.812500
7343,-5.859375
7344,-5.859375
7345,-3.906250
7346,-3.906250
7347,-1.953125
7348,-1.953125
7349,-1.953125
7350,0.000000
7351,0.000000
7352,1.953125
7353,3.906250
7354,3.906250
7355,3.906250
7356,5.859375
7357,7.812500
7358,7.812500
7359,7.812500
7360,9.765625
7361,11.718750
7362,9.765625
7363,11.718750
7364,11.718750
7365,13.671875
7366,13.671875
7367,13.671875
7368,15.625000
7369,17.578125
7370,17.578125
7371,17.578125
7372,19.531250
7373,21.484375
7374,21.484375
7375,21.484375
7376,23.437500
7377,23.437500
7378,23.437500
7379,25.390625
7380,27.343750
7381,27.343750
7382,27.343750
7383,27.343750
7384,29.296875
7385,31.250000
7386,29.296875
7387,31.250000
7388,31.250000
7389,33.203125
7390,33.203125
7391,33.203125
7392,35.156250
7393,35.156250
7394,37.109375
7395,39.062500
7396,37.109375
7397,39.062500
7398,39.062500
7399,41.015625
7400,41.015625
7401,41.015625
7402,41.015625
7403,42.968750
7404,42.968750
7405,44.921875
7406,44.921875
7407,44.921875
7408,44.921875
7409,46.875000
7410,46.875000
7411,48.828125
7412,48.828125
7413,48.828125
7414,50.781250
7415,50.781250
7416,50.781250
7417,50.781250
7418,50.781250
7419,52.734375
7420,52.734375
7421,52.734375
7422,54.687500
7423,54.687500
7424,56.640625
7425,56.640625
7426,56.640625
7427,56.640625
7428,58.593750
7429,58.593750
7430,52.734375
7431,58.593750
7432,58.593750
7433,60.546875
7434,60.546875
7435,60.546875
7436,62.500000
7437,62.500000
7438,62.500000
7439,62.500000
7440,64.453125
7441,62.500000
7442,64.453125
7443,64.453125
7444,64.453125
7445,64.453125
7446,64.453125
7447,66.406250
7448,66.406250
7449,66.406250
7450,66.406250
7451,68.359375
7452,68.359375
7453,68.359375
7454,68.359375
7455,68.359375
7456,68.359375
7457,70.312500
7458,70.312500
7459,68.359375
7460,70.312500
7461,70.312500
7462,70.312500
7463,70.312500
7464,70.312500
7465,70.312500
7466,72.265625
7467,72.265625
7468,70.312500
7469,72.265625
7470,72.265625
7471,72.265625
7472,72.265625
7473,72.265625
7474,72.265625
7475,72.265625
7476,72.265625
7477,72.265625
7478,72.265625
7479,72.265625
7480,72.265625
7481,74.218750
7482,72.265625
7483,72.265625
7484,74.218750
7485,72.265625
7486,74.218750
7487,74.218750
7488,72.265625
7489,72.265625
7490,74.218750
7491,74.218750
7492,74.218750
7493,74.218750
7494,72.265625
7495,74.218750
7496,72.265625
7497,72.265625
7498,74.218750
7499,72.265625
7500,72.265625
7501,72.265625
7502,72.265625
7503,72.265625
7504,72.265625
7505,72.265625
7506,72.265625
7507,72.265625
7508,70.312500
7509,70.312500
7510,70.312500
7511,70.312500
7512,70.312500
7513,70.312500
7514,68.359375
7515,70.312500
7516,70.312500
7517,68.359375
7518,68.359375
7519,68.359375
7520,68.359375
7521,68.359375
7522,66.406250
7523,68.359375
7524,66.406250
7525,66.406250
7526,66.406250
7527,66.406250
7528,64.453125
7529,64.453125
7530,64.453125
7531,64.453125
7532,62.500000
7533,62.500000
7534,62.500000
7535,62.500000
7536,60.546875
7537,60.546875
7538,60.546875
7539,60.546875
7540,58.593750
7541,58.593750
7542,58.593750
7543,56.640625
7544,56.640625
7545,56.640625
7546,56.640625
7547,54.687500
7548,54.687500
7549,54.687500
7550,54.687500
7551,52.734375
7552,50.781250
7553,52.734375
7554,52.734375
7555,50.781250
7556,50.781250
7557,48.828125
7558,48.828125
7559,48.828125
7560,48.828125
7561,46.875000
7562,46.875000
7563,46.875000
7564,46.875000
7565,44.921875
7566,42.968750
7567,42.968750
7568,42.968750
7569,42.968750
7570,41.015625
7571,41.015625
7572,39.062500
7573,39.062500
7574,39.062500
7575,37.109375
7576,37.109375
7577,35.156250
7578,35.156250
7579,33.203125
7580,35.156250
7581,33.203125
7582,33.203125
7583,31.250000
7584,31.250000
7585,31.250000
7586,29.296875
7587,29.296875
7588,27.343750
7589,27.343750
7590,25.390625
7591,25.390625
7592,25.390625
7593,23.437500
7594,23.437500
7595,21.484375
7596,21.484375
7597,19.531250
7598,19.531250
7599,19.531250
7600,17.578125
7601,17.578125
7602,15.625000
7603,15.625000
7604,13.671875
7605,13.671875
7606,13.671875
7607,11.718750
7608,11.718750
7609,9.765625
7610,9.765625
7611,9.765625
7612,7.812500
7613,5.859375
7614,5.859375
7615,5.859375
7616,3.906250
7617,3.906250
7618,1.953125
7619,1.953125
7620,0.000000
7621,0.000000
7622,0.000000
7623,-1.953125
7624,-3.906250
7625,-3.906250
7626,-3.906250
7627,-5.859375
7628,-7.812500
7629,-7.812500
7630,-7.812500
7631,-9.765625
7632,-11.718750
7633,-11.718750
7634,-11.718750
7635,-11.718750
7636,-13.671875
7637,-15.625000
7638,-15.625000
7639,-15.625000
7640,-17.578125
7641,-17.578125
7642,-19.531250
7643,-19.531250
7644,-21.484375
7645,-21.484375
7646,-23.437500
7647,-23.437500
7648,-23.437500
7649,-25.390625
7650,-25.390625
7651,-27.343750
7652,-27.343750
7653,-31.250000
7654,-29.296875
7655,-31.250000
7656,-31.250000
7657,-31.250000
7658,-33.203125
7659,-33.203125
7660,-35.156250
7661,-35.156250
7662,-37.109375
7663,-37.109375
7664,-39.062500
7665,-39.062500
7666,-39.062500
7667,-41.015625
7668,-41.015625
7669,-42.968750
7670,-42.968750
7671,-42.968750
7672,-44.921875
7673,-44.921875
7674,-44.921875
7675,-44.921875
7676,-46.875000
7677,-46.875000
7678,-48.828125
7679,-48.828125
7680,-48.828125
7681,-50.781250
7682,-52.734375
7683,-52.734375
7684,-52.734375
7685,-52.734375
7686,-54.687500
7687,-54.687500
7688,-56.640625
7689,-56.640625
7690,-56.640625
7691,-56.640625
7692,-58.593750
7693,-58.593750
7694,-60.546875
7695,-60.546875
7696,-60.546875
7697,-60.546875
7698,-62.500000
7699,-62.500000
7700,-62.500000
7701,-64.453125
7702,-64.453125
7703,-66.406250
7704,-66.406250
7705,-66.406250
7706,-66.406250
7707,-66.406250
7708,-68.359375
7709,-68.359375
7710,-68.359375
7711,-70.312500
7712,-70.312500
7713,-70.312500
7714,-72.265625
7715,-72.265625
7716,-72.265625
7717,-72.265625
7718,-72.265625
7719,-74.218750
7720,-74.218750
7721,-74.218750
7722,-74.218750
7723,-76.171875
7724,-76.171875
7725,-76.171875
7726,-76.171875
7727,-78.125000
7728,-78.125000
7729,-78.125000
7730,-78.125000
7731,-78.125000
7732,-80.078125
7733,-80.078125
7734,-80.078125
7735,-80.078125
7736,-80.078125
7737,-82.031250
7738,-82.031250
7739,-82.031250
7740,-82.031250
7741,-82.031250
7742,-82.031250
7743,-83.984375
7744,-83.984375
7745,-83.984375
7746,-83.984375
7747,-83.984375
7748,-85.937500
7749,-83.984375
7750,-83.984375
7751,-85.937500
7752,-85.937500
7753,-85.937500
7754,-85.937500
7755,-85.937500
7756,-85.937500
7757,-85.937500
7758,-85.937500
7759,-85.937500
7760,-85.937500
7761,-87.890625
7762,-85.937500
7763,-87.890625
7764,-85.937500
7765,-87.890625
7766,-87.890625
7767,-87.890625
7768,-87.890625
7769,-87.890625
7770,-87.890625
7771,-87.890625
7772,-87.890625
7773,-87.890625
7774,-87.890625
7775,-87.890625
7776,-87.890625
7777,-87.890625
7778,-87.890625
7779,-87.890625
7780,-87.890625
7781,-87.890625
7782,-87.890625
7783,-87.890625
7784,-87.890625
7785,-87.890625
7786,-87.890625
7787,-87.890625
7788,-87.890625
7789,-87.890625
7790,-87.890625
7791,-87.890625
7792,-87.890625
7793,-87.890625
7794,-85.937500
7795,-85.937500
7796,-85.937500
7797,-85.937500
7798,-85.937500
7799,-85.937500
7800,-85.937500
7801,-85.937500
7802,-85.937500
7803,-83.984375
7804,-83.984375
7805,-83.984375
7806,-83.984375
7807,-83.984375
7808,-83.984375
7809,-83.984375
7810,-82.031250
7811,-82.031250
7812,-82.031250
7813,-82.031250
7814,-80.078125
7815,-80.078125
7816,-82.031250
7817,-80.078125
7818,-82.031250
7819,-80.078125
7820,-80.078125
7821,-80.078125
7822,-80.078125
7823,-78.125000
7824,-78.125000
7825,-78.125000
7826,-76.171875
7827,-76.171875
7828,-76.171875
7829,-76.171875
7830,-74.218750
7831,-74.218750
7832,-74.218750
7833,-74.218750
7834,-74.218750
7835,-72.265625
7836,-72.265625
7837,-72.265625
7838,-70.312500
7839,-70.312500
7840,-70.312500
7841,-68.359375
7842,-68.359375
7843,-68.359375
7844,-68.359375
7845,-68.359375
7846,-66.406250
7847,-66.406250
7848,-66.406250
7849,-66.406250
7850,-64.453125
7851,-64.453125
7852,-62.500000
7853,-62.500000
7854,-62.500000
7855,-62.500000
7856,-60.546875
7857,-60.546875
7858,-60.546875
7859,-58.593750
7860,-58.593750
7861,-58.593750
7862,-56.640625
7863,-56.640625
7864,-56.640625
7865,-54.687500
7866,-54.687500
7867,-54.687500
7868,-52.734375
7869,-52.734375
7870,-50.781250
7871,-50.781250
7872,-50.781250
7873,-50.781250
7874,-48.828125
7875,-48.828125
7876,-46.875000
7877,-46.875000
7878,-46.875000
7879,-44.921875
7880,-44.921875
7881,-42.968750
7882,-42.968750
7883,-42.968750
7884,-41.015625
7885,-41.015625
7886,-39.062500
7887,-39.062500
7888,-37.109375
7889,-37.109375
7890,-37.109375
7891,-35.156250
7892,-35.156250
7893,-35.156250
7894,-33.203125
7895,-33.203125
7896,-31.250000
7897,-31.250000
7898,-31.250000
7899,-29.296875
7900,-29.296875
7901,-27.343750
7902,-25.390625
7903,-25.390625
7904,-25.390625
7905,-23.437500
7906,-23.437500
7907,-23.437500
7908,-21.484375
7909,-21.484375
7910,-19.531250
7911,-19.531250
7912,-19.531250
7913,-17.578125
7914,-15.625000
7915,-15.625000
7916,-15.625000
7917,-13.671875
7918,-13.671875
7919,-11.718750
7920,-11.718750
7921,-9.765625
7922,-7.812500
7923,-7.812500
7924,-7.812500
7925,-7.812500
7926,-5.859375
7927,-5.859375
7928,-3.906250
7929,-3.906250
7930,-3.906250
7931,-1.953125
7932,0.000000
7933,0.000000
7934,0.000000
7935,1.953125
7936,3.906250
7937,3.906250
7938,3.906250
7939,5.859375
7940,5.859375
7941,7.812500
7942,7.812500
7943,7.812500
7944,9.765625
7945,11.718750
7946,11.718750
7947,11.718750
7948,13.671875
7949,13.671875
7950,15.625000
7951,15.625000
7952,17.578125
7953,17.578125
7954,17.578125
7955,19.531250
7956,19.531250
7957,21.484375
7958,21.484375
7959,23.437500
7960,23.437500
7961,23.437500
7962,25.390625
7963,27.343750
7964,27.343750
7965,27.343750
7966,27.343750
7967,29.296875
7968,31.250000
7969,31.250000
7970,31.250000
7971,33.203125
7972,33.203125
7973,33.203125
7974,35.156250
7975,35.156250
7976,35.156250
7977,37.109375
7978,37.109375
7979,37.109375
7980,39.062500
7981,39.062500
7982,41.015625
7983,41.015625
7984,41.015625
7985,42.968750
7986,42.968750
7987,42.968750
7988,42.968750
7989,42.968750
7990,44.921875
7991,46.875000
7992,46.875000
7993,46.875000
7994,48.828125
7995,48.828125
7996,48.828125
7997,48.828125
7998,50.781250
7999,50.781250
8000,50.781250
8001,52.734375
8002,52.734375
8003,52.734375
8004,52.734375
8005,54.687500
8006,54.687500
8007,54.687500
8008,56.640625
8009,56.640625
8010,56.640625
8011,58.593750
8012,58.593750
8013,58.593750
8014,58.593750
8015,60.546875
8016,60.546875
8017,60.546875
8018,60.546875
8019,60.546875
8020,60.546875
8021,62.500000
8022,62.500000
8023,62.500000
8024,64.453125
8025,64.453125
8026,64.453125
8027,64.453125
8028,66.406250
8029,64.453125
8030,66.406250
8031,66.406250
8032,66.406250
8033,68.359375
8034,66.406250
8035,66.406250
8036,68.359375
8037,68.359375
8038,68.359375
8039,68.359375
8040,68.359375
8041,70.312500
8042,68.359375
8043,70.312500
8044,70.312500
8045,70.312500
8046,70.312500
8047,70.312500
8048,70.312500
8049,70.312500
8050,70.312500
8051,70.312500
8052,72.265625
8053,70.312500
8054,72.265625
8055,72.265625
8056,72.265625
8057,72.265625
8058,72.265625
8059,72.265625
8060,72.265625
8061,72.265625
8062,72.265625
8063,72.265625
8064,72.265625
8065,72.265625
8066,72.265625
8067,72.265625
8068,74.218750
8069,74.218750
8070,72.265625
8071,72.265625
8072,72.265625
8073,72.265625
8074,74.218750
8075,72.265625
8076,72.265625
8077,72.265625
8078,72.265625
8079,72.265625
8080,72.265625
8081,72.265625
8082,72.265625
8083,72.265625
8084,72.265625
8085,72.265625
8086,72.265625
8087,72.265625
8088,70.312500
8089,72.265625
8090,70.312500
8091,72.265625
8092,70.312500
8093,70.312500
8094,70.312500
8095,70.312500
8096,70.312500
8097,70.312500
8098,68.359375
8099,68.359375
8100,68.359375
8101,68.359375
8102,68.359375
8103,68.359375
8104,66.406250
8105,66.406250
8106,66.406250
8107,66.406250
8108,66.406250
8109,66.406250
8110,64.453125
8111,64.453125
8112,64.453125
8113,62.500000
8114,62.500000
8115,62.500000
8116,62.500000
8117,62.500000
8118,60.546875
8119,60.546875
8120,60.546875
8121,60.546875
8122,60.546875
8123,60.546875
8124,58.593750
8125,56.640625
8126,58.593750
8127,56.640625
8128,56.640625
8129,56.640625
8130,54.687500
8131,54.687500
8132,54.687500
8133,54.687500
8134,52.734375
8135,52.734375
8136,52.734375
8137,50.781250
8138,50.781250
8139,50.781250
8140,48.828125
8141,48.828125
8142,48.828125
8143,48.828125
8144,46.875000
8145,46.875000
8146,46.875000
8147,44.921875
8148,44.921875
8149,44.921875
8150,42.968750
8151,42.968750
8152,41.015625
8153,41.015625
8154,41.015625
8155,41.015625
8156,39.062500
8157,39.062500
8158,39.062500
8159,37.109375
8160,35.156250
8161,35.156250
8162,35.156250
8163,35.156250
8164,33.203125
8165,31.250000
8166,31.250000
8167,31.250000
8168,29.296875
8169,29.296875
8170,27.343750
8171,27.343750
8172,27.343750
8173,25.390625
8174,25.390625
8175,25.390625
8176,23.437500
8177,21.484375
8178,21.484375
8179,21.484375
8180,19.531250
8181,19.531250
8182,17.578125
8183,17.578125
8184,17.578125
8185,15.625000
8186,15.625000
8187,15.625000
8188,13.671875
8189,13.671875
8190,11.718750
8191,9.765625
8192,9.765625
8193,9.765625
8194,7.812500
8195,7.812500
8196,5.859375
8197,5.859375
8198,5.859375
8199,3.906250
8200,3.906250
8201,1.953125
8202,1.953125
8203,0.000000
8204,0.000000
8205,-1.953125
8206,-1.953125
8207,-1.953125
8208,-3.906250
8209,-5.859375
8210,-5.859375
8211,-5.859375
8212,-7.812500
8213,-7.812500
8214,-9.765625
8215,-9.765625
8216,-9.765625
8217,-11.718750
8218,-11.718750
8219,-13.671875
8220,-13.671875
8221,-15.625000
8222,-15.625000
8223,-17.578125
8224,-17.578125
8225,-17.578125
8226,-19.531250
8227,-21.484375
8228,-21.484375
8229,-23.437500
8230,-23.437500
8231,-23.437500
8232,-25.390625
8233,-25.390625
8234,-27.343750
8235,-27.343750
8236,-27.343750
8237,-29.296875
8238,-31.250000
8239,-31.250000
8240,-31.250000
8241,-33.203125
8242,-33.203125
8243,-35.156250
8244,-35.156250
8245,-37.109375
8246,-37.109375
8247,-37.109375
8248,-39.062500
8249,-39.062500
8250,-41.015625
8251,-41.015625
8252,-41.015625
8253,-42.968750
8254,-44.921875
8255,-42.968750
8256,-44.921875
8257,-46.875000
8258,-46.875000
8259,-46.875000
8260,-46.875000
8261,-48.828125
8262,-48.828125
8263,-50.781250
8264,-50.781250
8265,-52.734375
8266,-52.734375
8267,-52.734375
8268,-52.734375
8269,-54.687500
8270,-54.687500
8271,-56.640625
8272,-56.640625
8273,-56.640625
8274,-56.640625
8275,-58.593750
8276,-58.593750
8277,-60.546875
8278,-60.546875
8279,-60.546875
8280,-60.546875
8281,-62.500000
8282,-62.500000
8283,-64.453125
8284,-64.453125
8285,-64.453125
8286,-66.406250
8287,-64.453125
8288,-66.406250
8289,-66.406250
8290,-66.406250
8291,-68.359375
8292,-68.359375
8293,-68.359375
8294,-70.312500
8295,-70.312500
8296,-72.265625
8297,-72.265625
8298,-72.265625
8299,-72.265625
8300,-72.265625
8301,-74.218750
8302,-74.218750
8303,-74.218750
8304,-74.218750
8305,-74.218750
8306,-76.171875
8307,-76.171875
8308,-76.171875
8309,-76.171875
8310,-78.125000
8311,-78.125000
8312,-78.125000
8313,-78.125000
8314,-78.125000
8315,-80.078125
8316,-80.078125
8317,-80.078125
8318,-80.078125
8319,-82.031250
8320,-82.031250
8321,-82.031250
8322,-82.031250
8323,-82.031250
8324,-82.031250
8325,-82.031250
8326,-83.984375
8327,-82.031250
8328,-83.984375
8329,-83.984375
8330,-83.984375
8331,-83.984375
8332,-83.984375
8333,-83.984375
8334,-83.984375
8335,-83.984375
8336,-83.984375
8337,-85.937500
8338,-85.937500
8339,-85.937500
8340,-85.937500
8341,-85.937500
8342,-85.937500
8343,-87.890625
8344,-87.890625
8345,-87.890625
8346,-87.890625
8347,-85.937500
8348,-87.890625
8349,-87.890625
8350,-87.890625
8351,-87.890625
8352,-87.890625
8353,-87.890625
8354,-87.890625
8355,-87.890625
8356,-87.890625
8357,-87.890625
8358,-87.890625
8359,-87.890625
8360,-87.890625
8361,-87.890625
8362,-87.890625
8363,-87.890625
8364,-87.890625
8365,-87.890625
8366,-87.890625
8367,-87.890625
8368,-87.890625
8369,-87.890625
8370,-87.890625
8371,-87.890625
8372,-85.937500
8373,-87.890625
8374,-87.890625
8375,-87.890625
8376,-87.890625
8377,-85.937500
8378,-85.937500
8379,-87.890625
8380,-85.937500
8381,-85.937500
8382,-85.937500
8383,-85.937500
8384,-85.937500
8385,-85.937500
8386,-83.984375
8387,-85.937500
8388,-83.984375
8389,-83.984375
8390,-83.984375
8391,-83.984375
8392,-83.984375
8393,-83.984375
8394,-82.031250
8395,-82.031250
8396,-82.031250
8397,-82.031250
8398,-82.031250
8399,-82.031250
8400,-80.078125
8401,-80.078125
8402,-80.078125
8403,-80.078125
8404,-78.125000
8405,-78.125000
8406,-78.125000
8407,-78.125000
8408,-76.171875
8409,-76.171875
8410,-76.171875
8411,-76.171875
8412,-76.171875
8413,-76.171875
8414,-74.218750
8415,-74.218750
8416,-74.218750
8417,-72.265625
8418,-72.265625
8419,-72.265625
8420,-72.265625
8421,-72.265625
8422,-72.265625
8423,-70.312500
8424,-68.359375
8425,-68.359375
8426,-68.359375
8427,-68.359375
8428,-68.359375
8429,-68.359375
8430,-66.406250
8431,-66.406250
8432,-64.453125
8433,-64.453125
8434,-64.453125
8435,-64.453125
8436,-62.500000
8437,-62.500000
8438,-60.546875
8439,-62.500000
8440,-62.500000
8441,-60.546875
8442,-58.593750
8443,-58.593750
8444,-58.593750
8445,-56.640625
8446,-56.640625
8447,-56.640625
8448,-54.687500
8449,-54.687500
8450,-54.687500
8451,-52.734375
8452,-52.734375
8453,-52.734375
8454,-50.781250
8455,-50.781250
8456,-48.828125
8457,-48.828125
8458,-48.828125
8459,-46.875000
8460,-46.875000
8461,-44.921875
8462,-44.921875
8463,-44.921875
8464,-44.921875
8465,-42.968750
8466,-42.968750
8467,-41.015625
8468,-41.015625
8469,-41.015625
8470,-39.062500
8471,-39.062500
8472,-37.109375
8473,-37.109375
8474,-37.109375
8475,-35.156250
8476,-33.203125
8477,-33.203125
8478,-33.203125
8479,-31.250000
8480,-31.250000
8481,-31.250000
8482,-29.296875
8483,-29.296875
8484,-27.343750
8485,-27.343750
8486,-25.390625
8487,-25.390625
8488,-23.437500
8489,-23.437500
8490,-23.437500
8491,-21.484375
8492,-21.484375
8493,-19.531250
8494,-19.531250
8495,-19.531250
8496,-17.578125
8497,-17.578125
8498,-15.625000
8499,-15.625000
8500,-15.625000
8501,-13.671875
8502,-11.718750
8503,-11.718750
8504,-9.765625
8505,-9.765625
8506,-9.765625
8507,-7.812500
8508,-7.812500
8509,-5.859375
8510,-5.859375
8511,-5.859375
8512,-3.906250
8513,-1.953125
8514,-1.953125
8515,0.000000
8516,0.000000
8517,0.000000
8518,1.953125
8519,1.953125
8520,3.906250
8521,3.906250
8522,3.906250
8523,5.859375
8524,7.812500
8525,7.812500
8526,7.812500
8527,9.765625
8528,9.765625
8529,11.718750
8530,11.718750
8531,11.718750
8532,13.671875
8533,15.625000
8534,15.625000
8535,17.578125
8536,17.578125
8537,17.578125
8538,19.531250
8539,19.531250
8540,21.484375
8541,21.484375
8542,23.437500
8543,23.437500
8544,25.390625
8545,25.390625
8546,25.390625
8547,27.343750
8548,27.343750
8549,29.296875
8550,29.296875
8551,29.296875
8552,31.250000
8553,31.250000
8554,31.250000
8555,33.203125
8556,33.203125
8557,35.156250
8558,35.156250
8559,35.156250
8560,37.109375
8561,37.109375
8562,39.062500
8563,39.062500
8564,39.062500
8565,39.062500
8566,41.015625
8567,41.015625
8568,41.015625
8569,42.968750
8570,42.968750
8571,44.921875
8572,44.921875
8573,44.921875
8574,44.921875
8575,46.875000
8576,48.828125
8577,46.875000
8578,48.828125
8579,48.828125
8580,48.828125
8581,50.781250
8582,50.781250
8583,50.781250
8584,50.781250
8585,52.734375
8586,52.734375
8587,52.734375
8588,54.687500
8589,54.687500
8590,54.687500
8591,56.640625
8592,56.640625
8593,56.640625
8594,56.640625
8595,58.593750
8596,56.640625
8597,58.593750
8598,60.546875
8599,60.546875
8600,60.546875
8601,60.546875
8602,60.546875
8603,62.500000
8604,62.500000
8605,62.500000
8606,62.500000
8607,64.453125
8608,64.453125
8609,64.453125
8610,64.453125
8611,64.453125
8612,64.453125
8613,66.406250
8614,66.406250
8615,66.406250
8616,66.406250
8617,68.359375
8618,68.359375
8619,68.359375
8620,68.359375
8621,68.359375
8622,68.359375
8623,68.359375
8624,70.312500
8625,70.312500
8626,70.312500
8627,70.312500
8628,70.312500
8629,70.312500
8630,70.312500
8631,70.312500
8632,72.265625
8633,70.312500
8634,72.265625
8635,72.265625
8636,72.265625
8637,72.265625
8638,72.265625
8639,72.265625
8640,74.218750
8641,72.265625
8642,72.265625
8643,72.265625
8644,72.265625
8645,72.265625
8646,72.265625
8647,74.218750
8648,74.218750
8649,72.265625
8650,72.265625
8651,72.265625
8652,74.218750
8653,74.218750
8654,74.218750
8655,72.265625
8656,72.265625
8657,72.265625
8658,74.218750
8659,74.218750
8660,72.265625
8661,72.265625
8662,72.265625
8663,72.265625
8664,72.265625
8665,74.218750
8666,72.265625
8667,72.265625
8668,72.265625
8669,72.265625
8670,72.265625
8671,72.265625
8672,72.265625
8673,72.265625
8674,70.312500
8675,70.312500
8676,72.265625
8677,70.312500
8678,70.312500
8679,70.312500
8680,70.312500
8681,68.359375
8682,70.312500
8683,68.359375
8684,68.359375
8685,68.359375
8686,68.359375
8687,66.406250
8688,68.359375
8689,68.359375
8690,66.406250
8691,66.406250
8692,66.406250
8693,64.453125
8694,64.453125
8695,64.453125
8696,64.453125
8697,64.453125
8698,62.500000
8699,62.500000
8700,62.500000
8701,62.500000
8702,60.546875
8703,60.546875
8704,60.546875
8705,60.546875
8706,58.593750
8707,58.593750
8708,58.593750
8709,56.640625
8710,58.593750
8711,56.640625
8712,56.640625
8713,56.640625
8714,54.687500
8715,54.687500
8716,54.687500
8717,54.687500
8718,52.734375
8719,52.734375
8720,52.734375
8721,50.781250
8722,50.781250
8723,50.781250
8724,48.828125
8725,48.828125
8726,48.828125
8727,48.828125
8728,46.875000
8729,44.921875
8730,46.875000
8731,44.921875
8732,44.921875
8733,44.921875
8734,42.968750
8735,42.968750
8736,41.015625
8737,41.015625
8738,41.015625
8739,41.015625
8740,39.062500
8741,37.109375
8742,37.109375
8743,37.109375
8744,35.156250
8745,35.156250
8746,35.156250
8747,35.156250
8748,33.203125
8749,31.250000
8750,31.250000
8751,31.250000
8752,29.296875
8753,29.296875
8754,27.343750
8755,27.343750
8756,27.343750
8757,25.390625
8758,25.390625
8759,23.437500
8760,23.437500
8761,23.437500
8762,21.484375
8763,21.484375
8764,19.531250
8765,19.531250
8766,17.578125
8767,17.578125
8768,17.578125
8769,15.625000
8770,13.671875
8771,13.671875
8772,13.671875
8773,11.718750
8774,11.718750
8775,9.765625
8776,9.765625
8777,9.765625
8778,7.812500
8779,5.859375
8780,5.859375
8781,5.859375
8782,3.906250
8783,3.906250
8784,1.953125
8785,1.953125
8786,1.953125
8787,0.000000
8788,-1.953125
8789,-1.953125
8790,-1.953125
8791,-3.906250
8792,-3.906250
8793,-5.859375
8794,-5.859375
8795,-7.812500
8796,-7.812500
8797,-9.765625
8798,-9.765625
8799,-11.718750
8800,-11.718750
8801,-11.718750
8802,-13.671875
8803,-13.671875
8804,-15.625000
8805,-15.625000
8806,-17.578125
8807,-17.578125
8808,-19.531250
8809,-19.531250
8810,-21.484375
8811,-21.484375
8812,-21.484375
8813,-23.437500
8814,-23.437500
8815,-25.390625
8816,-25.390625
8817,-27.343750
8818,-27.343750
8819,-29.296875
8820,-29.296875
8821,-31.250000
8822,-31.250000
8823,-33.203125
8824,-33.203125
8825,-33.203125
8826,-35.156250
8827,-35.156250
8828,-37.109375
8829,-37.109375
8830,-39.062500
8831,-39.062500
8832,-39.062500
8833,-39.062500
8834,-41.015625
8835,-42.968750
8836,-42.968750
8837,-44.921875
8838,-44.921875
8839,-44.921875
8840,-46.875000
8841,-46.875000
8842,-46.875000
8843,-48.828125
8844,-48.828125
8845,-48.828125
8846,-50.781250
8847,-50.781250
8848,-52.734375
8849,-52.734375
8850,-52.734375
8851,-54.687500
8852,-54.687500
8853,-54.687500
8854,-56.640625
8855,-56.640625
8856,-56.640625
8857,-58.593750
8858,-58.593750
8859,-58.593750
8860,-58.593750
8861,-60.546875
8862,-60.546875
8863,-60.546875
8864,-62.500000
8865,-62.500000
8866,-64.453125
8867,-64.453125
8868,-64.453125
8869,-64.453125
8870,-66.406250
8871,-66.406250
8872,-66.406250
8873,-68.359375
8874,-68.359375
8875,-68.359375
8876,-70.312500
8877,-70.312500
8878,-70.312500
8879,-70.312500
8880,-70.312500
8881,-72.265625
8882,-72.265625
8883,-74.218750
8884,-74.218750
8885,-74.218750
8886,-74.218750
8887,-74.218750
8888,-76.171875
8889,-76.171875
8890,-76.171875
8891,-78.125000
8892,-76.171875
8893,-78.125000
8894,-78.125000
8895,-78.125000
8896,-78.125000
8897,-80.078125
8898,-80.078125
8899,-80.078125
8900,-80.078125
8901,-82.031250
8902,-82.031250
8903,-82.031250
8904,-82.031250
8905,-82.031250
8906,-82.031250
8907,-83.984375
8908,-83.984375
8909,-83.984375
8910,-83.984375
8911,-83.984375
8912,-83.984375
8913,-83.984375
8914,-83.984375
8915,-85.937500
8916,-85.937500
8917,-85.937500
8918,-85.937500
8919,-85.937500
8920,-85.937500
8921,-85.937500
8922,-87.890625
8923,-85.937500
8924,-85.937500
8925,-87.890625
8926,-87.890625
8927,-87.890625
8928,-87.890625
8929,-87.890625
8930,-87.890625
8931,-87.890625
8932,-87.890625
8933,-87.890625
8934,-89.843750
8935,-87.890625
8936,-89.843750
8937,-87.890625
8938,-87.890625
8939,-87.890625
8940,-87.890625
8941,-87.890625
8942,-87.890625
8943,-87.890625
8944,-89.843750
8945,-87.890625
8946,-87.890625
8947,-87.890625
8948,-89.843750
8949,-89.843750
8950,-87.890625
8951,-89.843750
8952,-87.890625
8953,-87.890625
8954,-89.843750
8955,-87.890625
8956,-87.890625
8957,-87.890625
8958,-87.890625
8959,-87.890625
8960,-87.890625
8961,-87.890625
8962,-87.890625
8963,-87.890625
8964,-87.890625
8965,-85.937500
8966,-85.937500
8967,-85.937500
8968,-85.937500
8969,-85.937500
8970,-85.937500
8971,-85.937500
8972,-85.937500
8973,-83.984375
8974,-83.984375
8975,-83.984375
8976,-83.984375
8977,-83.984375
8978,-82.031250
8979,-83.984375
8980,-82.031250
8981,-82.031250
8982,-82.031250
8983,-80.078125
8984,-80.078125
8985,-82.031250
8986,-80.078125
8987,-80.078125
8988,-80.078125
8989,-78.125000
8990,-78.125000
8991,-78.125000
8992,-76.171875
8993,-76.171875
8994,-78.125000
8995,-76.171875
8996,-76.171875
8997,-74.218750
8998,-74.218750
8999,-74.218750
9000,-74.218750
9001,-72.265625
9002,-72.265625
9003,-72.265625
9004,-72.265625
9005,-70.312500
9006,-70.312500
9007,-70.312500
9008,-70.312500
9009,-68.359375
9010,-68.359375
9011,-68.359375
9012,-66.406250
9013,-66.406250
9014,-66.406250
9015,-66.406250
9016,-64.453125
9017,-64.453125
9018,-64.453125
9019,-62.500000
9020,-62.500000
9021,-62.500000
9022,-62.500000
9023,-60.546875
9024,-60.546875
9025,-60.546875
9026,-58.593750
9027,-58.593750
9028,-58.593750
9029,-56.640625
9030,-56.640625
9031,-54.687500
9032,-54.687500
9033,-54.687500
9034,-52.734375
9035,-52.734375
9036,-52.734375
9037,-50.781250
9038,-50.781250
9039,-50.781250
9040,-48.828125
9041,-48.828125
9042,-46.875000
9043,-46.875000
9044,-46.875000
9045,-44.921875
9046,-44.921875
9047,-42.968750
9048,-42.968750
9049,-42.968750
9050,-41.015625
9051,-41.015625
9052,-41.015625
9053,-39.062500
9054,-37.109375
9055,-37.109375
9056,-37.109375
9057,-35.156250
9058,-35.156250
9059,-35.156250
9060,-33.203125
9061,-33.203125
9062,-31.250000
9063,-31.250000
9064,-29.296875
9065,-29.296875
9066,-29.296875
9067,-27.343750
9068,-27.343750
9069,-25.390625
9070,-25.390625
9071,-25.390625
9072,-23.437500
9073,-21.484375
9074,-21.484375
9075,-21.484375
9076,-19.531250
9077,-19.531250
9078,-17.578125
9079,-17.578125
9080,-17.578125
9081,-15.625000
9082,-15.625000
9083,-13.671875
9084,-13.671875
9085,-13.671875
9086,-11.718750
9087,-9.765625
9088,-9.765625
9089,-9.765625
9090,-7.812500
9091,-5.859375
9092,-5.859375
9093,-5.859375
9094,-3.906250
9095,-3.906250
9096,-1.953125
9097,-1.953125
9098,0.000000
9099,0.000000
9100,1.953125
9101,1.953125
9102,1.953125
9103,3.906250
9104,3.906250
9105,5.859375
9106,7.812500
9107,7.812500
9108,7.812500
9109,9.765625
9110,9.765625
9111,11.718750
9112,11.718750
9113,13.671875
9114,13.671875
9115,13.671875
9116,15.625000
9117,15.625000
9118,17.578125
9119,17.578125
9120,19.531250
9121,19.531250
9122,21.484375
9123,21.484375
9124,23.437500
9125,23.437500
9126,25.390625
9127,25.390625
9128,25.390625
9129,27.343750
9130,27.343750
9131,27.343750
9132,29.296875
9133,29.296875
9134,31.250000
9135,31.250000
9136,31.250000
9137,33.203125
9138,33.203125
9139,35.156250
9140,35.156250
9141,35.156250
9142,37.109375
9143,37.109375
9144,37.109375
9145,39.062500
9146,39.062500
9147,41.015625
9148,41.015625
9149,41.015625
9150,42.968750
9151,42.968750
9152,42.968750
9153,44.921875
9154,44.921875
9155,44.921875
9156,44.921875
9157,46.875000
9158,48.828125
9159,46.875000
9160,48.828125
9161,48.828125
9162,50.781250
9163,50.781250
9164,50.781250
9165,52.734375
9166,52.734375
9167,52.734375
9168,54.687500
9169,52.734375
9170,54.687500
9171,54.687500
9172,56.640625
9173,56.640625
9174,56.640625
9175,56.640625
9176,58.593750
9177,58.593750
9178,58.593750
9179,58.593750
9180,60.546875
9181,60.546875
9182,60.546875
9183,62.500000
9184,62.500000
9185,62.500000
9186,62.500000
9187,62.500000
9188,60.546875
9189,64.453125
9190,64.453125
9191,64.453125
9192,64.453125
9193,66.406250
9194,66.406250
9195,66.406250
9196,66.406250
9197,66.406250
9198,68.359375
9199,68.359375
9200,68.359375
9201,68.359375
9202,68.359375
9203,68.359375
9204,70.312500
9205,70.312500
9206,70.312500
9207,70.312500
9208,70.312500
9209,70.312500
9210,70.312500
9211,70.312500
9212,72.265625
9213,70.312500
9214,72.265625
9215,72.265625
9216,72.265625
9217,72.265625
9218,70.312500
9219,72.265625
9220,72.265625
9221,72.265625
9222,74.218750
9223,72.265625
9224,72.265625
9225,74.218750
9226,74.218750
9227,74.218750
9228,74.218750
9229,74.218750
9230,74.218750
9231,74.218750
9232,74.218750
9233,74.218750
9234,74.218750
9235,74.218750
9236,74.218750
9237,74.218750
9238,74.218750
9239,74.218750
9240,74.218750
9241,74.218750
9242,74.218750
9243,74.218750
9244,74.218750
9245,74.218750
9246,74.218750
9247,74.218750
9248,74.218750
9249,74.218750
9250,72.265625
9251,72.265625
9252,72.265625
9253,72.265625
9254,72.265625
9255,72.265625
9256,72.265625
9257,72.265625
9258,72.265625
9259,72.265625
9260,72.265625
9261,70.312500
9262,70.312500
9263,70.312500
9264,70.312500
9265,70.312500
9266,68.359375
9267,70.312500
9268,68.359375
9269,68.359375
9270,68.359375
9271,68.359375
9272,66.406250
9273,66.406250
9274,66.406250
9275,66.406250
9276,64.453125
9277,64.453125
9278,66.406250
9279,64.453125
9280,64.453125
9281,64.453125
9282,62.500000
9283,64.453125
9284,62.500000
9285,62.500000
9286,60.546875
9287,60.546875
9288,60.546875
9289,60.546875
9290,58.593750
9291,58.593750
9292,56.640625
9293,58.593750
9294,56.640625
9295,56.640625
9296,54.687500
9297,54.687500
9298,54.687500
9299,54.687500
9300,54.687500
9301,52.734375
9302,52.734375
9303,52.734375
9304,50.781250
9305,50.781250
9306,50.781250
9307,48.828125
9308,48.828125
9309,48.828125
9310,46.875000
9311,46.875000
9312,46.875000
9313,46.875000
9314,44.921875
9315,44.921875
9316,42.968750
9317,42.968750
9318,42.968750
9319,41.015625
9320,41.015625
9321,39.062500
9322,39.062500
9323,39.062500
9324,37.109375
9325,37.109375
9326,37.109375
9327,35.156250
9328,35.156250
9329,33.203125
9330,33.203125
9331,33.203125
9332,31.250000
9333,31.250000
9334,29.296875
9335,29.296875
9336,29.296875
9337,27.343750
9338,25.390625
9339,25.390625
9340,25.390625
9341,25.390625
9342,23.437500
9343,23.437500
9344,21.484375
9345,21.484375
9346,21.484375
9347,19.531250
9348,17.578125
9349,17.578125
9350,17.578125
9351,15.625000
9352,15.625000
9353,13.671875
9354,13.671875
9355,11.718750
9356,11.718750
9357,9.765625
9358,9.765625
9359,9.765625
9360,7.812500
9361,7.812500
9362,5.859375
9363,5.859375
9364,3.906250
9365,3.906250
9366,1.953125
9367,1.953125
9368,1.953125
9369,0.000000
9370,0.000000
9371,-1.953125
9372,-1.953125
9373,-3.906250
9374,-5.859375
9375,-5.859375
9376,-5.859375
9377,-7.812500
9378,-7.812500
9379,-9.765625
9380,-9.765625
9381,-11.718750
9382,-11.718750
9383,-11.718750
9384,-13.671875
9385,-13.671875
9386,-15.625000
9387,-15.625000
9388,-17.578125
9389,-17.578125
9390,-19.531250
9391,-21.484375
9392,-21.484375
9393,-21.484375
9394,-21.484375
9395,-23.437500
9396,-25.390625
9397,-25.390625
9398,-25.390625
9399,-27.343750
9400,-27.343750
9401,-29.296875
9402,-29.296875
9403,-29.296875
9404,-31.250000
9405,-33.203125
9406,-33.203125
9407,-33.203125
9408,-33.203125
9409,-35.156250
9410,-37.109375
9411,-37.109375
9412,-39.062500
9413,-39.062500
9414,-41.015625
9415,-41.015625
9416,-42.968750
9417,-42.968750
9418,-42.968750
9419,-42.968750
9420,-44.921875
9421,-44.921875
9422,-46.875000
9423,-46.875000
9424,-46.875000
9425,-48.828125
9426,-48.828125
9427,-50.781250
9428,-50.781250
9429,-50.781250
9430,-52.734375
9431,-52.734375
9432,-54.687500
9433,-54.687500
9434,-54.687500
9435,-54.687500
9436,-56.640625
9437,-56.640625
9438,-58.593750
9439,-58.593750
9440,-58.593750
9441,-58.593750
9442,-60.546875
9443,-60.546875
9444,-62.500000
9445,-62.500000
9446,-62.500000
9447,-62.500000
9448,-64.453125
9449,-64.453125
9450,-66.406250
9451,-66.406250
9452,-66.406250
9453,-68.359375
9454,-66.406250
9455,-68.359375
9456,-70.312500
9457,-70.312500
9458,-70.312500
9459,-70.312500
9460,-70.312500
9461,-72.265625
9462,-72.265625
9463,-72.265625
9464,-74.218750
9465,-74.218750
9466,-74.218750
9467,-74.218750
9468,-76.171875
9469,-76.171875
9470,-76.171875
9471,-76.171875
9472,-78.125000
9473,-78.125000
9474,-78.125000
9475,-78.125000
9476,-78.125000
9477,-80.078125
9478,-80.078125
9479,-80.078125
9480,-80.078125
9481,-80.078125
9482,-82.031250
9483,-82.031250
9484,-82.031250
9485,-82.031250
9486,-82.031250
9487,-82.031250
9488,-83.984375
9489,-83.984375
9490,-83.984375
9491,-83.984375
9492,-83.984375
9493,-85.937500
9494,-83.984375
9495,-83.984375
9496,-85.937500
9497,-85.937500
9498,-85.937500
9499,-85.937500
9500,-85.937500
9501,-87.890625
9502,-85.937500
9503,-85.937500
9504,-87.890625
9505,-87.890625
9506,-87.890625
9507,-85.937500
9508,-87.890625
9509,-87.890625
9510,-87.890625
9511,-87.890625
9512,-87.890625
9513,-87.890625
9514,-87.890625
9515,-87.890625
9516,-87.890625
9517,-87.890625
9518,-87.890625
9519,-89.843750
9520,-87.890625
9521,-89.843750
9522,-89.843750
9523,-89.843750
9524,-89.843750
9525,-89.843750
9526,-87.890625
9527,-89.843750
9528,-89.843750
9529,-87.890625
9530,-89.843750
9531,-87.890625
9532,-87.890625
9533,-87.890625
9534,-87.890625
9535,-89.843750
9536,-87.890625
9537,-87.890625
9538,-87.890625
9539,-87.890625
9540,-87.890625
9541,-87.890625
9542,-87.890625
9543,-85.937500
9544,-87.890625
9545,-87.890625
9546,-87.890625
9547,-85.937500
9548,-85.937500
9549,-85.937500
9550,-85.937500
9551,-85.937500
9552,-85.937500
9553,-85.937500
9554,-83.984375
9555,-83.984375
9556,-83.984375
9557,-83.984375
9558,-83.984375
9559,-83.984375
9560,-83.984375
9561,-82.031250
9562,-82.031250
9563,-82.031250
9564,-82.031250
9565,-82.031250
9566,-82.031250
9567,-80.078125
9568,-80.078125
9569,-80.078125
9570,-80.078125
9571,-78.125000
9572,-78.125000
9573,-78.125000
9574,-78.125000
9575,-78.125000
9576,-76.171875
9577,-76.171875
9578,-76.171875
9579,-76.171875
9580,-74.218750
9581,-74.218750
9582,-72.265625
9583,-72.265625
9584,-72.265625
9585,-72.265625
9586,-72.265625
9587,-70.312500
9588,-70.312500
9589,-70.312500
9590,-68.359375
9591,-68.359375
9592,-68.359375
9593,-68.359375
9594,-66.406250
9595,-66.406250
9596,-66.406250
9597,-66.406250
9598,-64.453125
9599,-64.453125
9600,-64.453125
9601,-64.453125
9602,-62.500000
9603,-62.500000
9604,-60.546875
9605,-60.546875
9606,-60.546875
9607,-60.546875
9608,-58.593750
9609,-58.593750
9610,-58.593750
9611,-56.640625
9612,-56.640625
9613,-54.687500
9614,-54.687500
9615,-54.687500
9616,-52.734375
9617,-52.734375
9618,-52.734375
9619,-50.781250
9620,-50.781250
9621,-48.828125
9622,-48.828125
9623,-48.828125
9624,-46.875000
9625,-46.875000
9626,-44.921875
9627,-44.921875
9628,-44.921875
9629,-42.968750
9630,-42.968750
9631,-41.015625
9632,-41.015625
9633,-41.015625
9634,-39.062500
9635,-39.062500
9636,-37.109375
9637,-37.109375
9638,-35.156250
9639,-35.156250
9640,-35.156250
9641,-33.203125
9642,-33.203125
9643,-33.203125
9644,-31.250000
9645,-31.250000
9646,-29.296875
9647,-29.296875
9648,-27.343750
9649,-27.343750
9650,-27.343750
9651,-25.390625
9652,-23.437500
9653,-23.437500
9654,-23.437500
9655,-21.484375
9656,-21.484375
9657,-21.484375
9658,-19.531250
9659,-17.578125
9660,-17.578125
9661,-17.578125
9662,-15.625000
9663,-15.625000
9664,-13.671875
9665,-13.671875
9666,-11.718750
9667,-11.718750
9668,-11.718750
9669,-11.718750
9670,-9.765625
9671,-7.812500
9672,-7.812500
9673,-7.812500
9674,-5.859375
9675,-5.859375
9676,-3.906250
9677,-1.953125
9678,-1.953125
9679,-1.953125
9680,0.000000
9681,0.000000
9682,1.953125
9683,1.953125
9684,3.906250
9685,5.859375
9686,3.906250
9687,5.859375
9688,5.859375
9689,7.812500
9690,7.812500
9691,9.765625
9692,11.718750
9693,11.718750
9694,11.718750
9695,13.671875
9696,13.671875
9697,15.625000
9698,15.625000
9699,17.578125
9700,17.578125
9701,17.578125
9702,19.531250
9703,21.484375
9704,21.484375
9705,21.484375
9706,21.484375
9707,23.437500
9708,23.437500
9709,25.390625
9710,25.390625
9711,27.343750
9712,27.343750
9713,29.296875
9714,29.296875
9715,31.250000
9716,31.250000
9717,31.250000
9718,33.203125
9719,33.203125
9720,33.203125
9721,35.156250
9722,35.156250
9723,35.156250
9724,37.109375
9725,37.109375
9726,39.062500
9727,39.062500
9728,39.062500
9729,39.062500
9730,41.015625
9731,41.015625
9732,41.015625
9733,42.968750
9734,42.968750
9735,44.921875
9736,44.921875
9737,44.921875
9738,46.875000
9739,46.875000
9740,46.875000
9741,48.828125
9742,48.828125
9743,48.828125
9744,48.828125
9745,50.781250
9746,50.781250
9747,50.781250
9748,52.734375
9749,52.734375
9750,52.734375
9751,54.687500
9752,54.687500
9753,54.687500
9754,54.687500
9755,56.640625
9756,56.640625
9757,58.593750
9758,56.640625
9759,58.593750
9760,58.593750
9761,58.593750
9762,60.546875
9763,60.546875
9764,60.546875
9765,60.546875
9766,62.500000
9767,62.500000
9768,62.500000
9769,62.500000
9770,62.500000
9771,64.453125
9772,64.453125
9773,64.453125
9774,64.453125
9775,64.453125
9776,66.406250
9777,66.406250
9778,66.406250
9779,66.406250
9780,66.406250
9781,66.406250
9782,68.359375
9783,68.359375
9784,68.359375
9785,70.312500
9786,70.312500
9787,68.359375
9788,68.359375
9789,70.312500
9790,70.312500
9791,70.312500
9792,70.312500
9793,68.359375
9794,72.265625
9795,70.312500
9796,70.312500
9797,72.265625
9798,72.265625
9799,72.265625
9800,72.265625
9801,72.265625
9802,72.265625
9803,72.265625
9804,74.218750
9805,72.265625
9806,72.265625
9807,72.265625
9808,70.312500
9809,72.265625
9810,74.218750
9811,74.218750
9812,72.265625
9813,74.218750
9814,74.218750
9815,74.218750
9816,74.218750
9817,74.218750
9818,74.218750
9819,74.218750
9820,74.218750
9821,74.218750
9822,74.218750
9823,74.218750
9824,74.218750
9825,74.218750
9826,74.218750
9827,74.218750
9828,72.265625
9829,72.265625
9830,72.265625
9831,72.265625
9832,72.265625
9833,72.265625
9834,72.265625
9835,72.265625
9836,72.265625
9837,72.265625
9838,70.312500
9839,72.265625
9840,70.312500
9841,72.265625
9842,70.312500
9843,70.312500
9844,70.312500
9845,70.312500
9846,70.312500
9847,70.312500
9848,68.359375
9849,68.359375
9850,68.359375
9851,68.359375
9852,68.359375
9853,66.406250
9854,66.406250
9855,66.406250
9856,66.406250
9857,66.406250
9858,64.453125
9859,64.453125
9860,64.453125
9861,64.453125
9862,64.453125
9863,62.500000
9864,62.500000
9865,62.500000
9866,60.546875
9867,60.546875
9868,60.546875
9869,60.546875
9870,60.546875
9871,58.593750
9872,58.593750
9873,58.593750
9874,58.593750
9875,58.593750
9876,56.640625
9877,56.640625
9878,54.687500
9879,54.687500
9880,54.687500
9881,54.687500
9882,52.734375
9883,52.734375
9884,52.734375
9885,50.781250
9886,50.781250
9887,50.781250
9888,48.828125
9889,48.828125
9890,48.828125
9891,48.828125
9892,46.875000
9893,44.921875
9894,46.875000
9895,44.921875
9896,44.921875
9897,42.968750
9898,42.968750
9899,42.968750
9900,42.968750
9901,41.015625
9902,41.015625
9903,39.062500
9904,39.062500
9905,39.062500
9906,37.109375
9907,37.109375
9908,37.109375
9909,35.156250
9910,35.156250
9911,33.203125
9912,33.203125
9913,31.250000
9914,31.250000
9915,31.250000
9916,31.250000
9917,29.296875
9918,27.343750
9919,27.343750
9920,25.390625
9921,25.390625
9922,25.390625
9923,25.390625
9924,23.437500
9925,21.484375
9926,21.484375
9927,19.531250
9928,19.531250
9929,19.531250
9930,17.578125
9931,17.578125
9932,17.578125
9933,15.625000
9934,15.625000
9935,13.671875
9936,13.671875
9937,11.718750
9938,11.718750
9939,9.765625
9940,9.765625
9941,9.765625
9942,7.812500
9943,5.859375
9944,7.812500
9945,5.859375
9946,3.906250
9947,3.906250
9948,1.953125
9949,1.953125
9950,3.906250
9951,0.000000
9952,-1.953125
9953,-1.953125
9954,-1.953125
9955,-3.906250
9956,-5.859375
9957,-5.859375
9958,-5.859375
9959,-5.859375
9960,-7.812500
9961,-7.812500
9962,-9.765625
9963,-9.765625
9964,-11.718750
9965,-11.718750
9966,-13.671875
9967,-13.671875
9968,-15.625000
9969,-15.625000
9970,-17.578125
9971,-17.578125
9972,-17.578125
9973,-19.531250
9974,-19.531250
9975,-21.484375
9976,-21.484375
9977,-23.437500
9978,-23.437500
9979,-25.390625
9980,-25.390625
9981,-27.343750
9982,-27.343750
9983,-31.250000
9984,-29.296875
9985,-31.250000
9986,-33.203125
9987,-33.203125
9988,-33.203125
9989,-35.156250
9990,-35.156250
9991,-35.156250
9992,-37.109375
9993,-37.109375
9994,-37.109375
9995,-39.062500
9996,-39.062500
9997,-41.015625
9998,-41.015625
9999,-41.015625
10000,-42.968750
