Channel              :,CH1
Frequency            :,858.4Hz
Period               :,1.165ms
PK-PK                :,177.7mV
Probe attenuation    :,1X
Voltage per ADC value:,0.122070mV
Time interval        :,2.00000us

index,CH1_Voltage(mV)
1,39.062500
2,39.062500
3,39.062500
4,39.062500
5,37.109375
6,37.109375
7,35.156250
8,35.156250
9,35.156250
10,33.203125
11,33.203125
12,31.250000
13,31.250000
14,29.296875
15,29.296875
16,29.296875
17,27.343750
18,27.343750
19,25.390625
20,25.390625
21,23.437500
22,23.437500
23,23.437500
24,21.484375
25,21.484375
26,19.531250
27,19.531250
28,17.578125
29,17.578125
30,15.625000
31,15.625000
32,13.671875
33,13.671875
34,11.718750
35,11.718750
36,9.765625
37,9.765625
38,9.765625
39,7.812500
40,7.812500
41,5.859375
42,5.859375
43,3.906250
44,3.906250
45,1.953125
46,1.953125
47,0.000000
48,0.000000
49,-1.953125
50,-1.953125
51,-3.906250
52,-3.906250
53,-5.859375
54,-5.859375
55,-7.812500
56,-7.812500
57,-9.765625
58,-9.765625
59,-11.718750
60,-11.718750
61,-13.671875
62,-13.671875
63,-13.671875
64,-15.625000
65,-17.578125
66,-17.578125
67,-17.578125
68,-19.531250
69,-19.531250
70,-21.484375
71,-21.484375
72,-21.484375
73,-23.437500
74,-25.390625
75,-25.390625
76,-27.343750
77,-27.343750
78,-29.296875
79,-29.296875
80,-31.250000
81,-31.250000
82,-31.250000
83,-33.203125
84,-33.203125
85,-35.156250
86,-35.156250
87,-37.109375
88,-37.109375
89,-39.062500
90,-39.062500
91,-39.062500
92,-41.015625
93,-41.015625
94,-42.968750
95,-42.968750
96,-44.921875
97,-44.921875
98,-46.875000
99,-46.875000
100,-48.828125
101,-48.828125
102,-48.828125
103,-50.781250
104,-50.781250
105,-52.734375
106,-52.734375
107,-54.687500
108,-54.687500
109,-54.687500
110,-54.687500
111,-56.640625
112,-58.593750
113,-58.593750
114,-58.593750
115,-60.546875
116,-60.546875
117,-62.500000
118,-62.500000
119,-62.500000
120,-64.453125
121,-64.453125
122,-64.453125
123,-66.406250
124,-66.406250
125,-66.406250
126,-66.406250
127,-68.359375
128,-70.312500
129,-70.312500
130,-70.312500
131,-70.312500
132,-72.265625
133,-72.265625
134,-72.265625
135,-74.218750
136,-74.218750
137,-74.218750
138,-76.171875
139,-76.171875
140,-76.171875
141,-76.171875
142,-78.125000
143,-78.125000
144,-78.125000
145,-80.078125
146,-80.078125
147,-80.078125
148,-80.078125
149,-82.031250
150,-82.031250
151,-82.031250
152,-82.031250
153,-83.984375
154,-83.984375
155,-83.984375
156,-83.984375
157,-83.984375
158,-85.937500
159,-85.937500
160,-85.937500
161,-85.937500
162,-85.937500
163,-87.890625
164,-87.890625
165,-87.890625
166,-87.890625
167,-87.890625
168,-89.843750
169,-89.843750
170,-89.843750
171,-89.843750
172,-89.843750
173,-89.843750
174,-91.796875
175,-91.796875
176,-91.796875
177,-91.796875
178,-91.796875
179,-91.796875
180,-91.796875
181,-91.796875
182,-93.750000
183,-93.750000
184,-93.750000
185,-93.750000
186,-93.750000
187,-93.750000
188,-93.750000
189,-93.750000
190,-93.750000
191,-93.750000
192,-93.750000
193,-93.750000
194,-93.750000
195,-93.750000
196,-93.750000
197,-93.750000
198,-93.750000
199,-93.750000
200,-93.750000
201,-93.750000
202,-93.750000
203,-93.750000
204,-93.750000
205,-93.750000
206,-93.750000
207,-93.750000
208,-93.750000
209,-93.750000
210,-93.750000
211,-93.750000
212,-93.750000
213,-93.750000
214,-93.750000
215,-93.750000
216,-93.750000
217,-93.750000
218,-91.796875
219,-91.796875
220,-91.796875
221,-93.750000
222,-91.796875
223,-91.796875
224,-91.796875
225,-91.796875
226,-91.796875
227,-91.796875
228,-91.796875
229,-89.843750
230,-89.843750
231,-89.843750
232,-89.843750
233,-89.843750
234,-89.843750
235,-89.843750
236,-89.843750
237,-87.890625
238,-87.890625
239,-87.890625
240,-87.890625
241,-87.890625
242,-85.937500
243,-85.937500
244,-85.937500
245,-85.937500
246,-85.937500
247,-83.984375
248,-83.984375
249,-83.984375
250,-83.984375
251,-83.984375
252,-82.031250
253,-82.031250
254,-82.031250
255,-80.078125
256,-80.078125
257,-80.078125
258,-80.078125
259,-78.125000
260,-78.125000
261,-78.125000
262,-78.125000
263,-76.171875
264,-76.171875
265,-76.171875
266,-74.218750
267,-74.218750
268,-74.218750
269,-72.265625
270,-72.265625
271,-72.265625
272,-72.265625
273,-70.312500
274,-70.312500
275,-70.312500
276,-68.359375
277,-68.359375
278,-68.359375
279,-66.406250
280,-66.406250
281,-66.406250
282,-64.453125
283,-64.453125
284,-64.453125
285,-62.500000
286,-62.500000
287,-60.546875
288,-60.546875
289,-60.546875
290,-58.593750
291,-58.593750
292,-58.593750
293,-56.640625
294,-56.640625
295,-54.687500
296,-54.687500
297,-54.687500
298,-52.734375
299,-52.734375
300,-50.781250
301,-50.781250
302,-50.781250
303,-48.828125
304,-46.875000
305,-48.828125
306,-46.875000
307,-44.921875
308,-44.921875
309,-44.921875
310,-42.968750
311,-42.968750
312,-41.015625
313,-39.062500
314,-41.015625
315,-39.062500
316,-39.062500
317,-37.109375
318,-37.109375
319,-35.156250
320,-35.156250
321,-33.203125
322,-33.203125
323,-31.250000
324,-31.250000
325,-29.296875
326,-29.296875
327,-29.296875
328,-27.343750
329,-27.343750
330,-25.390625
331,-25.390625
332,-23.437500
333,-23.437500
334,-21.484375
335,-21.484375
336,-19.531250
337,-19.531250
338,-17.578125
339,-17.578125
340,-17.578125
341,-15.625000
342,-13.671875
343,-13.671875
344,-11.718750
345,-11.718750
346,-11.718750
347,-9.765625
348,-7.812500
349,-7.812500
350,-7.812500
351,-5.859375
352,-5.859375
353,-3.906250
354,-3.906250
355,-1.953125
356,-1.953125
357,0.000000
358,0.000000
359,1.953125
360,1.953125
361,3.906250
362,3.906250
363,5.859375
364,5.859375
365,7.812500
366,7.812500
367,9.765625
368,9.765625
369,9.765625
370,11.718750
371,11.718750
372,13.671875
373,13.671875
374,13.671875
375,15.625000
376,17.578125
377,17.578125
378,19.531250
379,19.531250
380,19.531250
381,21.484375
382,21.484375
383,23.437500
384,23.437500
385,25.390625
386,25.390625
387,27.343750
388,27.343750
389,29.296875
390,29.296875
391,29.296875
392,31.250000
393,33.203125
394,33.203125
395,33.203125
396,35.156250
397,35.156250
398,37.109375
399,37.109375
400,37.109375
401,39.062500
402,41.015625
403,41.015625
404,41.015625
405,42.968750
406,42.968750
407,42.968750
408,44.921875
409,44.921875
410,44.921875
411,46.875000
412,46.875000
413,48.828125
414,48.828125
415,48.828125
416,50.781250
417,52.734375
418,50.781250
419,52.734375
420,52.734375
421,54.687500
422,54.687500
423,54.687500
424,54.687500
425,56.640625
426,56.640625
427,58.593750
428,58.593750
429,58.593750
430,58.593750
431,60.546875
432,60.546875
433,60.546875
434,62.500000
435,62.500000
436,62.500000
437,62.500000
438,64.453125
439,64.453125
440,64.453125
441,66.406250
442,66.406250
443,66.406250
444,66.406250
445,68.359375
446,68.359375
447,68.359375
448,68.359375
449,70.312500
450,70.312500
451,70.312500
452,70.312500
453,70.312500
454,72.265625
455,72.265625
456,72.265625
457,72.265625
458,72.265625
459,74.218750
460,74.218750
461,74.218750
462,74.218750
463,76.171875
464,74.218750
465,74.218750
466,76.171875
467,76.171875
468,76.171875
469,76.171875
470,76.171875
471,76.171875
472,76.171875
473,76.171875
474,78.125000
475,78.125000
476,78.125000
477,76.171875
478,78.125000
479,78.125000
480,78.125000
481,78.125000
482,78.125000
483,78.125000
484,78.125000
485,78.125000
486,78.125000
487,78.125000
488,78.125000
489,80.078125
490,80.078125
491,78.125000
492,78.125000
493,80.078125
494,80.078125
495,80.078125
496,80.078125
497,80.078125
498,80.078125
499,78.125000
500,78.125000
501,80.078125
502,78.125000
503,78.125000
504,78.125000
505,78.125000
506,78.125000
507,78.125000
508,78.125000
509,78.125000
510,78.125000
511,78.125000
512,76.171875
513,78.125000
514,76.171875
515,76.171875
516,76.171875
517,76.171875
518,76.171875
519,76.171875
520,74.218750
521,76.171875
522,74.218750
523,74.218750
524,74.218750
525,74.218750
526,74.218750
527,74.218750
528,72.265625
529,72.265625
530,72.265625
531,72.265625
532,72.265625
533,70.312500
534,70.312500
535,70.312500
536,70.312500
537,70.312500
538,68.359375
539,68.359375
540,68.359375
541,68.359375
542,66.406250
543,66.406250
544,66.406250
545,66.406250
546,66.406250
547,64.453125
548,64.453125
549,64.453125
550,64.453125
551,62.500000
552,62.500000
553,60.546875
554,60.546875
555,60.546875
556,60.546875
557,58.593750
558,58.593750
559,58.593750
560,56.640625
561,56.640625
562,56.640625
563,54.687500
564,54.687500
565,52.734375
566,52.734375
567,52.734375
568,52.734375
569,50.781250
570,50.781250
571,48.828125
572,48.828125
573,48.828125
574,46.875000
575,46.875000
576,46.875000
577,44.921875
578,44.921875
579,44.921875
580,42.968750
581,42.968750
582,41.015625
583,41.015625
584,41.015625
585,39.062500
586,39.062500
587,37.109375
588,37.109375
589,37.109375
590,35.156250
591,35.156250
592,33.203125
593,33.203125
594,31.250000
595,31.250000
596,31.250000
597,29.296875
598,29.296875
599,27.343750
600,27.343750
601,25.390625
602,25.390625
603,23.437500
604,23.437500
605,23.437500
606,21.484375
607,21.484375
608,19.531250
609,19.531250
610,17.578125
611,17.578125
612,15.625000
613,15.625000
614,15.625000
615,13.671875
616,11.718750
617,11.718750
618,11.718750
619,9.765625
620,9.765625
621,7.812500
622,7.812500
623,5.859375
624,5.859375
625,3.906250
626,3.906250
627,1.953125
628,1.953125
629,1.953125
630,0.000000
631,0.000000
632,-1.953125
633,-3.906250
634,-3.906250
635,-5.859375
636,-5.859375
637,-5.859375
638,-7.812500
639,-7.812500
640,-9.765625
641,-11.718750
642,-11.718750
643,-11.718750
644,-13.671875
645,-13.671875
646,-15.625000
647,-15.625000
648,-15.625000
649,-17.578125
650,-19.531250
651,-19.531250
652,-19.531250
653,-21.484375
654,-23.437500
655,-23.437500
656,-23.437500
657,-25.390625
658,-25.390625
659,-27.343750
660,-27.343750
661,-29.296875
662,-29.296875
663,-31.250000
664,-31.250000
665,-33.203125
666,-33.203125
667,-33.203125
668,-35.156250
669,-37.109375
670,-37.109375
671,-37.109375
672,-39.062500
673,-39.062500
674,-39.062500
675,-41.015625
676,-42.968750
677,-42.968750
678,-44.921875
679,-44.921875
680,-44.921875
681,-46.875000
682,-46.875000
683,-48.828125
684,-48.828125
685,-50.781250
686,-50.781250
687,-50.781250
688,-52.734375
689,-52.734375
690,-54.687500
691,-54.687500
692,-54.687500
693,-54.687500
694,-56.640625
695,-58.593750
696,-58.593750
697,-60.546875
698,-60.546875
699,-60.546875
700,-62.500000
701,-62.500000
702,-62.500000
703,-64.453125
704,-64.453125
705,-66.406250
706,-66.406250
707,-66.406250
708,-68.359375
709,-68.359375
710,-68.359375
711,-70.312500
712,-70.312500
713,-70.312500
714,-70.312500
715,-72.265625
716,-72.265625
717,-74.218750
718,-74.218750
719,-74.218750
720,-74.218750
721,-76.171875
722,-76.171875
723,-76.171875
724,-76.171875
725,-78.125000
726,-78.125000
727,-78.125000
728,-78.125000
729,-80.078125
730,-80.078125
731,-80.078125
732,-80.078125
733,-82.031250
734,-82.031250
735,-82.031250
736,-82.031250
737,-83.984375
738,-83.984375
739,-83.984375
740,-83.984375
741,-83.984375
742,-85.937500
743,-85.937500
744,-85.937500
745,-85.937500
746,-87.890625
747,-87.890625
748,-87.890625
749,-87.890625
750,-87.890625
751,-87.890625
752,-89.843750
753,-87.890625
754,-89.843750
755,-89.843750
756,-91.796875
757,-89.843750
758,-89.843750
759,-91.796875
760,-91.796875
761,-91.796875
762,-91.796875
763,-91.796875
764,-91.796875
765,-91.796875
766,-91.796875
767,-93.750000
768,-91.796875
769,-93.750000
770,-93.750000
771,-93.750000
772,-93.750000
773,-93.750000
774,-93.750000
775,-93.750000
776,-93.750000
777,-93.750000
778,-93.750000
779,-93.750000
780,-93.750000
781,-93.750000
782,-93.750000
783,-93.750000
784,-93.750000
785,-93.750000
786,-93.750000
787,-93.750000
788,-93.750000
789,-93.750000
790,-93.750000
791,-93.750000
792,-93.750000
793,-93.750000
794,-93.750000
795,-93.750000
796,-91.796875
797,-91.796875
798,-93.750000
799,-91.796875
800,-93.750000
801,-91.796875
802,-91.796875
803,-91.796875
804,-91.796875
805,-91.796875
806,-91.796875
807,-91.796875
808,-91.796875
809,-89.843750
810,-91.796875
811,-89.843750
812,-89.843750
813,-89.843750
814,-89.843750
815,-89.843750
816,-89.843750
817,-89.843750
818,-87.890625
819,-87.890625
820,-87.890625
821,-87.890625
822,-87.890625
823,-87.890625
824,-85.937500
825,-85.937500
826,-85.937500
827,-85.937500
828,-83.984375
829,-83.984375
830,-83.984375
831,-83.984375
832,-83.984375
833,-83.984375
834,-82.031250
835,-82.031250
836,-82.031250
837,-82.031250
838,-80.078125
839,-80.078125
840,-80.078125
841,-80.078125
842,-78.125000
843,-78.125000
844,-78.125000
845,-76.171875
846,-76.171875
847,-76.171875
848,-74.218750
849,-74.218750
850,-74.218750
851,-74.218750
852,-72.265625
853,-70.312500
854,-72.265625
855,-70.312500
856,-70.312500
857,-68.359375
858,-68.359375
859,-68.359375
860,-68.359375
861,-66.406250
862,-66.406250
863,-66.406250
864,-64.453125
865,-64.453125
866,-62.500000
867,-62.500000
868,-62.500000
869,-60.546875
870,-60.546875
871,-58.593750
872,-60.546875
873,-58.593750
874,-58.593750
875,-56.640625
876,-56.640625
877,-54.687500
878,-54.687500
879,-54.687500
880,-54.687500
881,-52.734375
882,-52.734375
883,-50.781250
884,-50.781250
885,-48.828125
886,-48.828125
887,-48.828125
888,-46.875000
889,-46.875000
890,-46.875000
891,-44.921875
892,-42.968750
893,-42.968750
894,-42.968750
895,-41.015625
896,-41.015625
897,-39.062500
898,-39.062500
899,-37.109375
900,-37.109375
901,-35.156250
902,-35.156250
903,-33.203125
904,-33.203125
905,-33.203125
906,-31.250000
907,-31.250000
908,-29.296875
909,-29.296875
910,-29.296875
911,-27.343750
912,-25.390625
913,-25.390625
914,-23.437500
915,-23.437500
916,-21.484375
917,-21.484375
918,-21.484375
919,-19.531250
920,-17.578125
921,-17.578125
922,-17.578125
923,-15.625000
924,-15.625000
925,-13.671875
926,-13.671875
927,-11.718750
928,-11.718750
929,-9.765625
930,-9.765625
931,-7.812500
932,-7.812500
933,-5.859375
934,-5.859375
935,-3.906250
936,-3.906250
937,-3.906250
938,-1.953125
939,-1.953125
940,0.000000
941,0.000000
942,1.953125
943,1.953125
944,3.906250
945,3.906250
946,5.859375
947,5.859375
948,7.812500
949,7.812500
950,9.765625
951,9.765625
952,9.765625
953,11.718750
954,13.671875
955,13.671875
956,13.671875
957,15.625000
958,15.625000
959,17.578125
960,17.578125
961,19.531250
962,19.531250
963,21.484375
964,21.484375
965,23.437500
966,23.437500
967,25.390625
968,25.390625
969,25.390625
970,27.343750
971,27.343750
972,29.296875
973,29.296875
974,31.250000
975,33.203125
976,33.203125
977,33.203125
978,35.156250
979,35.156250
980,37.109375
981,37.109375
982,37.109375
983,39.062500
984,39.062500
985,41.015625
986,41.015625
987,41.015625
988,41.015625
989,42.968750
990,42.968750
991,44.921875
992,44.921875
993,46.875000
994,46.875000
995,46.875000
996,48.828125
997,48.828125
998,50.781250
999,50.781250
1000,50.781250
1001,52.734375
1002,52.734375
1003,52.734375
1004,52.734375
1005,54.687500
1006,54.687500
1007,56.640625
1008,56.640625
1009,56.640625
1010,56.640625
1011,58.593750
1012,58.593750
1013,60.546875
1014,58.593750
1015,60.546875
1016,60.546875
1017,62.500000
1018,62.500000
1019,62.500000
1020,64.453125
1021,64.453125
1022,64.453125
1023,64.453125
1024,64.453125
1025,66.406250
1026,66.406250
1027,66.406250
1028,68.359375
1029,68.359375
1030,68.359375
1031,68.359375
1032,68.359375
1033,70.312500
1034,70.312500
1035,70.312500
1036,70.312500
1037,72.265625
1038,72.265625
1039,70.312500
1040,72.265625
1041,72.265625
1042,74.218750
1043,74.218750
1044,74.218750
1045,74.218750
1046,74.218750
1047,74.218750
1048,76.171875
1049,74.218750
1050,76.171875
1051,76.171875
1052,76.171875
1053,76.171875
1054,76.171875
1055,76.171875
1056,76.171875
1057,76.171875
1058,78.125000
1059,78.125000
1060,78.125000
1061,78.125000
1062,78.125000
1063,78.125000
1064,78.125000
1065,78.125000
1066,78.125000
1067,78.125000
1068,80.078125
1069,78.125000
1070,78.125000
1071,80.078125
1072,78.125000
1073,78.125000
1074,78.125000
1075,78.125000
1076,80.078125
1077,78.125000
1078,80.078125
1079,80.078125
1080,78.125000
1081,78.125000
1082,78.125000
1083,78.125000
1084,78.125000
1085,78.125000
1086,78.125000
1087,78.125000
1088,78.125000
1089,78.125000
1090,78.125000
1091,78.125000
1092,78.125000
1093,78.125000
1094,76.171875
1095,76.171875
1096,76.171875
1097,76.171875
1098,76.171875
1099,76.171875
1100,76.171875
1101,76.171875
1102,76.171875
1103,74.218750
1104,74.218750
1105,74.218750
1106,74.218750
1107,74.218750
1108,74.218750
1109,74.218750
1110,72.265625
1111,72.265625
1112,72.265625
1113,72.265625
1114,72.265625
1115,72.265625
1116,70.312500
1117,70.312500
1118,70.312500
1119,70.312500
1120,68.359375
1121,68.359375
1122,68.359375
1123,68.359375
1124,68.359375
1125,66.406250
1126,66.406250
1127,66.406250
1128,66.406250
1129,64.453125
1130,64.453125
1131,64.453125
1132,62.500000
1133,62.500000
1134,62.500000
1135,62.500000
1136,60.546875
1137,60.546875
1138,58.593750
1139,58.593750
1140,58.593750
1141,58.593750
1142,56.640625
1143,56.640625
1144,56.640625
1145,54.687500
1146,54.687500
1147,52.734375
1148,54.687500
1149,52.734375
1150,52.734375
1151,50.781250
1152,50.781250
1153,50.781250
1154,48.828125
1155,48.828125
1156,48.828125
1157,46.875000
1158,46.875000
1159,44.921875
1160,44.921875
1161,44.921875
1162,42.968750
1163,42.968750
1164,42.968750
1165,41.015625
1166,41.015625
1167,41.015625
1168,39.062500
1169,39.062500
1170,37.109375
1171,37.109375
1172,37.109375
1173,35.156250
1174,35.156250
1175,33.203125
1176,33.203125
1177,31.250000
1178,31.250000
1179,29.296875
1180,29.296875
1181,29.296875
1182,27.343750
1183,27.343750
1184,25.390625
1185,25.390625
1186,23.437500
1187,23.437500
1188,21.484375
1189,21.484375
1190,21.484375
1191,19.531250
1192,19.531250
1193,17.578125
1194,17.578125
1195,17.578125
1196,15.625000
1197,13.671875
1198,13.671875
1199,11.718750
1200,11.718750
1201,9.765625
1202,9.765625
1203,9.765625
1204,7.812500
1205,7.812500
1206,5.859375
1207,5.859375
1208,3.906250
1209,3.906250
1210,1.953125
1211,1.953125
1212,1.953125
1213,0.000000
1214,-1.953125
1215,-1.953125
1216,-1.953125
1217,-3.906250
1218,-3.906250
1219,-5.859375
1220,-5.859375
1221,-7.812500
1222,-7.812500
1223,-9.765625
1224,-9.765625
1225,-11.718750
1226,-11.718750
1227,-13.671875
1228,-13.671875
1229,-15.625000
1230,-15.625000
1231,-15.625000
1232,-17.578125
1233,-19.531250
1234,-19.531250
1235,-19.531250
1236,-21.484375
1237,-23.437500
1238,-23.437500
1239,-25.390625
1240,-25.390625
1241,-25.390625
1242,-27.343750
1243,-27.343750
1244,-29.296875
1245,-29.296875
1246,-31.250000
1247,-31.250000
1248,-29.296875
1249,-33.203125
1250,-35.156250
1251,-35.156250
1252,-35.156250
1253,-37.109375
1254,-37.109375
1255,-39.062500
1256,-39.062500
1257,-41.015625
1258,-41.015625
1259,-42.968750
1260,-42.968750
1261,-42.968750
1262,-44.921875
1263,-44.921875
1264,-46.875000
1265,-46.875000
1266,-46.875000
1267,-48.828125
1268,-50.781250
1269,-50.781250
1270,-50.781250
1271,-50.781250
1272,-52.734375
1273,-54.687500
1274,-54.687500
1275,-54.687500
1276,-56.640625
1277,-56.640625
1278,-58.593750
1279,-58.593750
1280,-58.593750
1281,-60.546875
1282,-60.546875
1283,-60.546875
1284,-62.500000
1285,-62.500000
1286,-64.453125
1287,-64.453125
1288,-64.453125
1289,-66.406250
1290,-66.406250
1291,-66.406250
1292,-68.359375
1293,-68.359375
1294,-68.359375
1295,-70.312500
1296,-70.312500
1297,-70.312500
1298,-72.265625
1299,-72.265625
1300,-72.265625
1301,-74.218750
1302,-74.218750
1303,-74.218750
1304,-74.218750
1305,-76.171875
1306,-76.171875
1307,-76.171875
1308,-76.171875
1309,-78.125000
1310,-78.125000
1311,-78.125000
1312,-78.125000
1313,-80.078125
1314,-80.078125
1315,-80.078125
1316,-80.078125
1317,-82.031250
1318,-82.031250
1319,-82.031250
1320,-82.031250
1321,-83.984375
1322,-83.984375
1323,-83.984375
1324,-83.984375
1325,-85.937500
1326,-85.937500
1327,-85.937500
1328,-85.937500
1329,-85.937500
1330,-85.937500
1331,-87.890625
1332,-85.937500
1333,-87.890625
1334,-87.890625
1335,-87.890625
1336,-89.843750
1337,-89.843750
1338,-89.843750
1339,-89.843750
1340,-89.843750
1341,-91.796875
1342,-89.843750
1343,-89.843750
1344,-91.796875
1345,-91.796875
1346,-91.796875
1347,-91.796875
1348,-91.796875
1349,-91.796875
1350,-91.796875
1351,-91.796875
1352,-93.750000
1353,-91.796875
1354,-91.796875
1355,-93.750000
1356,-93.750000
1357,-93.750000
1358,-91.796875
1359,-93.750000
1360,-93.750000
1361,-93.750000
1362,-93.750000
1363,-93.750000
1364,-93.750000
1365,-93.750000
1366,-93.750000
1367,-93.750000
1368,-93.750000
1369,-93.750000
1370,-91.796875
1371,-93.750000
1372,-93.750000
1373,-93.750000
1374,-93.750000
1375,-93.750000
1376,-93.750000
1377,-93.750000
1378,-93.750000
1379,-93.750000
1380,-93.750000
1381,-91.796875
1382,-91.796875
1383,-93.750000
1384,-91.796875
1385,-91.796875
1386,-91.796875
1387,-91.796875
1388,-91.796875
1389,-91.796875
1390,-91.796875
1391,-91.796875
1392,-89.843750
1393,-89.843750
1394,-89.843750
1395,-89.843750
1396,-89.843750
1397,-87.890625
1398,-89.843750
1399,-89.843750
1400,-87.890625
1401,-87.890625
1402,-87.890625
1403,-87.890625
1404,-87.890625
1405,-85.937500
1406,-85.937500
1407,-85.937500
1408,-85.937500
1409,-85.937500
1410,-85.937500
1411,-83.984375
1412,-83.984375
1413,-83.984375
1414,-83.984375
1415,-82.031250
1416,-82.031250
1417,-82.031250
1418,-82.031250
1419,-80.078125
1420,-80.078125
1421,-80.078125
1422,-80.078125
1423,-80.078125
1424,-78.125000
1425,-78.125000
1426,-78.125000
1427,-76.171875
1428,-76.171875
1429,-74.218750
1430,-74.218750
1431,-74.218750
1432,-74.218750
1433,-74.218750
1434,-72.265625
1435,-72.265625
1436,-72.265625
1437,-70.312500
1438,-70.312500
1439,-70.312500
1440,-68.359375
1441,-68.359375
1442,-68.359375
1443,-66.406250
1444,-66.406250
1445,-66.406250
1446,-64.453125
1447,-64.453125
1448,-64.453125
1449,-62.500000
1450,-62.500000
1451,-60.546875
1452,-60.546875
1453,-60.546875
1454,-60.546875
1455,-58.593750
1456,-58.593750
1457,-56.640625
1458,-56.640625
1459,-54.687500
1460,-54.687500
1461,-54.687500
1462,-54.687500
1463,-52.734375
1464,-52.734375
1465,-50.781250
1466,-50.781250
1467,-50.781250
1468,-48.828125
1469,-48.828125
1470,-46.875000
1471,-46.875000
1472,-44.921875
1473,-44.921875
1474,-42.968750
1475,-42.968750
1476,-42.968750
1477,-41.015625
1478,-41.015625
1479,-39.062500
1480,-39.062500
1481,-39.062500
1482,-37.109375
1483,-35.156250
1484,-35.156250
1485,-33.203125
1486,-33.203125
1487,-33.203125
1488,-31.250000
1489,-31.250000
1490,-29.296875
1491,-29.296875
1492,-27.343750
1493,-27.343750
1494,-27.343750
1495,-25.390625
1496,-25.390625
1497,-23.437500
1498,-23.437500
1499,-21.484375
1500,-21.484375
1501,-19.531250
1502,-17.578125
1503,-17.578125
1504,-17.578125
1505,-15.625000
1506,-15.625000
1507,-13.671875
1508,-13.671875
1509,-13.671875
1510,-11.718750
1511,-9.765625
1512,-9.765625
1513,-9.765625
1514,-7.812500
1515,-7.812500
1516,-5.859375
1517,-5.859375
1518,-3.906250
1519,-3.906250
1520,-1.953125
1521,-1.953125
1522,0.000000
1523,0.000000
1524,0.000000
1525,1.953125
1526,3.906250
1527,3.906250
1528,5.859375
1529,5.859375
1530,5.859375
1531,7.812500
1532,9.765625
1533,9.765625
1534,11.718750
1535,11.718750
1536,11.718750
1537,13.671875
1538,13.671875
1539,15.625000
1540,15.625000
1541,17.578125
1542,17.578125
1543,19.531250
1544,19.531250
1545,19.531250
1546,21.484375
1547,21.484375
1548,23.437500
1549,23.437500
1550,25.390625
1551,25.390625
1552,25.390625
1553,27.343750
1554,27.343750
1555,29.296875
1556,29.296875
1557,31.250000
1558,31.250000
1559,33.203125
1560,33.203125
1561,33.203125
1562,35.156250
1563,35.156250
1564,37.109375
1565,37.109375
1566,39.062500
1567,39.062500
1568,41.015625
1569,41.015625
1570,41.015625
1571,42.968750
1572,42.968750
1573,42.968750
1574,44.921875
1575,44.921875
1576,44.921875
1577,46.875000
1578,46.875000
1579,48.828125
1580,48.828125
1581,48.828125
1582,50.781250
1583,50.781250
1584,52.734375
1585,52.734375
1586,52.734375
1587,52.734375
1588,54.687500
1589,54.687500
1590,56.640625
1591,56.640625
1592,54.687500
1593,56.640625
1594,58.593750
1595,58.593750
1596,58.593750
1597,60.546875
1598,60.546875
1599,60.546875
1600,60.546875
1601,62.500000
1602,62.500000
1603,62.500000
1604,64.453125
1605,64.453125
1606,64.453125
1607,64.453125
1608,66.406250
1609,66.406250
1610,66.406250
1611,68.359375
1612,68.359375
1613,68.359375
1614,68.359375
1615,68.359375
1616,68.359375
1617,70.312500
1618,70.312500
1619,70.312500
1620,70.312500
1621,72.265625
1622,72.265625
1623,68.359375
1624,72.265625
1625,76.171875
1626,70.312500
1627,74.218750
1628,72.265625
1629,74.218750
1630,74.218750
1631,74.218750
1632,74.218750
1633,76.171875
1634,76.171875
1635,76.171875
1636,76.171875
1637,76.171875
1638,76.171875
1639,76.171875
1640,76.171875
1641,76.171875
1642,76.171875
1643,78.125000
1644,78.125000
1645,78.125000
1646,78.125000
1647,78.125000
1648,78.125000
1649,78.125000
1650,78.125000
1651,78.125000
1652,78.125000
1653,78.125000
1654,78.125000
1655,78.125000
1656,78.125000
1657,78.125000
1658,78.125000
1659,78.125000
1660,78.125000
1661,78.125000
1662,78.125000
1663,78.125000
1664,78.125000
1665,78.125000
1666,78.125000
1667,78.125000
1668,78.125000
1669,78.125000
1670,78.125000
1671,78.125000
1672,78.125000
1673,76.171875
1674,78.125000
1675,76.171875
1676,78.125000
1677,76.171875
1678,76.171875
1679,76.171875
1680,76.171875
1681,76.171875
1682,74.218750
1683,76.171875
1684,74.218750
1685,74.218750
1686,74.218750
1687,74.218750
1688,72.265625
1689,74.218750
1690,74.218750
1691,74.218750
1692,72.265625
1693,72.265625
1694,72.265625
1695,72.265625
1696,72.265625
1697,70.312500
1698,70.312500
1699,70.312500
1700,70.312500
1701,70.312500
1702,70.312500
1703,68.359375
1704,68.359375
1705,68.359375
1706,66.406250
1707,66.406250
1708,66.406250
1709,66.406250
1710,66.406250
1711,64.453125
1712,64.453125
1713,64.453125
1714,64.453125
1715,62.500000
1716,62.500000
1717,62.500000
1718,60.546875
1719,60.546875
1720,60.546875
1721,60.546875
1722,58.593750
1723,58.593750
1724,56.640625
1725,58.593750
1726,56.640625
1727,54.687500
1728,54.687500
1729,54.687500
1730,54.687500
1731,52.734375
1732,52.734375
1733,50.781250
1734,52.734375
1735,50.781250
1736,50.781250
1737,48.828125
1738,48.828125
1739,48.828125
1740,46.875000
1741,46.875000
1742,44.921875
1743,44.921875
1744,44.921875
1745,42.968750
1746,42.968750
1747,41.015625
1748,41.015625
1749,39.062500
1750,39.062500
1751,39.062500
1752,37.109375
1753,37.109375
1754,37.109375
1755,35.156250
1756,35.156250
1757,35.156250
1758,33.203125
1759,31.250000
1760,31.250000
1761,31.250000
1762,31.250000
1763,29.296875
1764,29.296875
1765,27.343750
1766,27.343750
1767,25.390625
1768,25.390625
1769,23.437500
1770,23.437500
1771,21.484375
1772,21.484375
1773,21.484375
1774,19.531250
1775,19.531250
1776,17.578125
1777,17.578125
1778,15.625000
1779,15.625000
1780,13.671875
1781,13.671875
1782,13.671875
1783,11.718750
1784,11.718750
1785,9.765625
1786,9.765625
1787,7.812500
1788,7.812500
1789,5.859375
1790,3.906250
1791,3.906250
1792,3.906250
1793,1.953125
1794,0.000000
1795,0.000000
1796,0.000000
1797,0.000000
1798,-1.953125
1799,-3.906250
1800,-3.906250
1801,-3.906250
1802,-5.859375
1803,-7.812500
1804,-7.812500
1805,-9.765625
1806,-7.812500
1807,-11.718750
1808,-11.718750
1809,-11.718750
1810,-13.671875
1811,-13.671875
1812,-15.625000
1813,-15.625000
1814,-17.578125
1815,-17.578125
1816,-19.531250
1817,-19.531250
1818,-19.531250
1819,-21.484375
1820,-21.484375
1821,-23.437500
1822,-23.437500
1823,-25.390625
1824,-25.390625
1825,-27.343750
1826,-27.343750
1827,-29.296875
1828,-29.296875
1829,-29.296875
1830,-31.250000
1831,-31.250000
1832,-33.203125
1833,-33.203125
1834,-35.156250
1835,-35.156250
1836,-37.109375
1837,-37.109375
1838,-39.062500
1839,-39.062500
1840,-41.015625
1841,-41.015625
1842,-41.015625
1843,-42.968750
1844,-44.921875
1845,-44.921875
1846,-44.921875
1847,-46.875000
1848,-46.875000
1849,-48.828125
1850,-48.828125
1851,-48.828125
1852,-50.781250
1853,-50.781250
1854,-52.734375
1855,-52.734375
1856,-54.687500
1857,-54.687500
1858,-54.687500
1859,-56.640625
1860,-56.640625
1861,-56.640625
1862,-58.593750
1863,-60.546875
1864,-58.593750
1865,-60.546875
1866,-60.546875
1867,-62.500000
1868,-64.453125
1869,-62.500000
1870,-64.453125
1871,-64.453125
1872,-66.406250
1873,-66.406250
1874,-66.406250
1875,-66.406250
1876,-68.359375
1877,-68.359375
1878,-70.312500
1879,-70.312500
1880,-70.312500
1881,-70.312500
1882,-72.265625
1883,-72.265625
1884,-72.265625
1885,-74.218750
1886,-74.218750
1887,-74.218750
1888,-74.218750
1889,-76.171875
1890,-76.171875
1891,-76.171875
1892,-76.171875
1893,-78.125000
1894,-78.125000
1895,-78.125000
1896,-80.078125
1897,-80.078125
1898,-80.078125
1899,-80.078125
1900,-82.031250
1901,-82.031250
1902,-82.031250
1903,-82.031250
1904,-82.031250
1905,-83.984375
1906,-83.984375
1907,-83.984375
1908,-85.937500
1909,-85.937500
1910,-85.937500
1911,-85.937500
1912,-85.937500
1913,-87.890625
1914,-87.890625
1915,-87.890625
1916,-87.890625
1917,-87.890625
1918,-87.890625
1919,-89.843750
1920,-89.843750
1921,-89.843750
1922,-89.843750
1923,-89.843750
1924,-89.843750
1925,-91.796875
1926,-89.843750
1927,-91.796875
1928,-91.796875
1929,-91.796875
1930,-91.796875
1931,-91.796875
1932,-91.796875
1933,-91.796875
1934,-91.796875
1935,-91.796875
1936,-91.796875
1937,-91.796875
1938,-93.750000
1939,-91.796875
1940,-93.750000
1941,-93.750000
1942,-93.750000
1943,-93.750000
1944,-93.750000
1945,-93.750000
1946,-93.750000
1947,-93.750000
1948,-93.750000
1949,-93.750000
1950,-93.750000
1951,-93.750000
1952,-93.750000
1953,-93.750000
1954,-93.750000
1955,-93.750000
1956,-93.750000
1957,-93.750000
1958,-93.750000
1959,-93.750000
1960,-93.750000
1961,-91.796875
1962,-93.750000
1963,-93.750000
1964,-91.796875
1965,-91.796875
1966,-93.750000
1967,-91.796875
1968,-91.796875
1969,-91.796875
1970,-91.796875
1971,-93.750000
1972,-91.796875
1973,-89.843750
1974,-91.796875
1975,-91.796875
1976,-91.796875
1977,-91.796875
1978,-89.843750
1979,-89.843750
1980,-89.843750
1981,-89.843750
1982,-87.890625
1983,-87.890625
1984,-87.890625
1985,-87.890625
1986,-89.843750
1987,-87.890625
1988,-87.890625
1989,-87.890625
1990,-85.937500
1991,-85.937500
1992,-85.937500
1993,-85.937500
1994,-83.984375
1995,-83.984375
1996,-83.984375
1997,-83.984375
1998,-83.984375
1999,-82.031250
2000,-82.031250
2001,-82.031250
2002,-82.031250
2003,-80.078125
2004,-80.078125
2005,-80.078125
2006,-78.125000
2007,-78.125000
2008,-78.125000
2009,-78.125000
2010,-78.125000
2011,-76.171875
2012,-76.171875
2013,-76.171875
2014,-74.218750
2015,-74.218750
2016,-74.218750
2017,-72.265625
2018,-72.265625
2019,-74.218750
2020,-70.312500
2021,-70.312500
2022,-70.312500
2023,-70.312500
2024,-68.359375
2025,-68.359375
2026,-66.406250
2027,-66.406250
2028,-66.406250
2029,-64.453125
2030,-64.453125
2031,-64.453125
2032,-64.453125
2033,-62.500000
2034,-62.500000
2035,-60.546875
2036,-60.546875
2037,-60.546875
2038,-58.593750
2039,-58.593750
2040,-56.640625
2041,-56.640625
2042,-56.640625
2043,-56.640625
2044,-54.687500
2045,-54.687500
2046,-52.734375
2047,-52.734375
2048,-50.781250
2049,-50.781250
2050,-50.781250
2051,-48.828125
2052,-48.828125
2053,-46.875000
2054,-46.875000
2055,-46.875000
2056,-44.921875
2057,-42.968750
2058,-42.968750
2059,-42.968750
2060,-41.015625
2061,-41.015625
2062,-41.015625
2063,-39.062500
2064,-39.062500
2065,-39.062500
2066,-37.109375
2067,-35.156250
2068,-35.156250
2069,-33.203125
2070,-33.203125
2071,-33.203125
2072,-31.250000
2073,-31.250000
2074,-29.296875
2075,-27.343750
2076,-27.343750
2077,-27.343750
2078,-25.390625
2079,-25.390625
2080,-23.437500
2081,-23.437500
2082,-21.484375
2083,-21.484375
2084,-19.531250
2085,-19.531250
2086,-17.578125
2087,-17.578125
2088,-17.578125
2089,-15.625000
2090,-13.671875
2091,-13.671875
2092,-13.671875
2093,-11.718750
2094,-9.765625
2095,-9.765625
2096,-9.765625
2097,-7.812500
2098,-7.812500
2099,-7.812500
2100,-3.906250
2101,-3.906250
2102,-3.906250
2103,-1.953125
2104,-1.953125
2105,0.000000
2106,0.000000
2107,0.000000
2108,1.953125
2109,3.906250
2110,3.906250
2111,3.906250
2112,5.859375
2113,5.859375
2114,7.812500
2115,7.812500
2116,9.765625
2117,9.765625
2118,11.718750
2119,11.718750
2120,13.671875
2121,13.671875
2122,13.671875
2123,15.625000
2124,17.578125
2125,17.578125
2126,17.578125
2127,19.531250
2128,19.531250
2129,21.484375
2130,21.484375
2131,21.484375
2132,23.437500
2133,25.390625
2134,25.390625
2135,25.390625
2136,27.343750
2137,27.343750
2138,29.296875
2139,29.296875
2140,31.250000
2141,31.250000
2142,33.203125
2143,33.203125
2144,35.156250
2145,35.156250
2146,35.156250
2147,37.109375
2148,37.109375
2149,37.109375
2150,39.062500
2151,41.015625
2152,41.015625
2153,41.015625
2154,42.968750
2155,42.968750
2156,44.921875
2157,44.921875
2158,44.921875
2159,46.875000
2160,46.875000
2161,46.875000
2162,48.828125
2163,48.828125
2164,48.828125
2165,50.781250
2166,50.781250
2167,50.781250
2168,52.734375
2169,52.734375
2170,54.687500
2171,54.687500
2172,54.687500
2173,56.640625
2174,56.640625
2175,56.640625
2176,56.640625
2177,58.593750
2178,58.593750
2179,60.546875
2180,60.546875
2181,60.546875
2182,60.546875
2183,62.500000
2184,62.500000
2185,62.500000
2186,62.500000
2187,64.453125
2188,64.453125
2189,64.453125
2190,66.406250
2191,66.406250
2192,66.406250
2193,66.406250
2194,68.359375
2195,68.359375
2196,68.359375
2197,68.359375
2198,68.359375
2199,70.312500
2200,70.312500
2201,70.312500
2202,70.312500
2203,70.312500
2204,70.312500
2205,72.265625
2206,70.312500
2207,72.265625
2208,72.265625
2209,72.265625
2210,74.218750
2211,74.218750
2212,74.218750
2213,74.218750
2214,74.218750
2215,74.218750
2216,76.171875
2217,76.171875
2218,74.218750
2219,76.171875
2220,76.171875
2221,78.125000
2222,76.171875
2223,78.125000
2224,78.125000
2225,76.171875
2226,78.125000
2227,78.125000
2228,78.125000
2229,78.125000
2230,78.125000
2231,78.125000
2232,78.125000
2233,78.125000
2234,78.125000
2235,78.125000
2236,78.125000
2237,78.125000
2238,78.125000
2239,78.125000
2240,78.125000
2241,78.125000
2242,78.125000
2243,78.125000
2244,78.125000
2245,78.125000
2246,78.125000
2247,78.125000
2248,80.078125
2249,78.125000
2250,78.125000
2251,78.125000
2252,78.125000
2253,78.125000
2254,78.125000
2255,76.171875
2256,78.125000
2257,78.125000
2258,78.125000
2259,78.125000
2260,76.171875
2261,76.171875
2262,76.171875
2263,76.171875
2264,76.171875
2265,76.171875
2266,76.171875
2267,76.171875
2268,76.171875
2269,74.218750
2270,74.218750
2271,74.218750
2272,74.218750
2273,74.218750
2274,74.218750
2275,72.265625
2276,74.218750
2277,74.218750
2278,72.265625
2279,72.265625
2280,70.312500
2281,72.265625
2282,70.312500
2283,70.312500
2284,70.312500
2285,70.312500
2286,68.359375
2287,68.359375
2288,68.359375
2289,68.359375
2290,68.359375
2291,66.406250
2292,66.406250
2293,66.406250
2294,66.406250
2295,64.453125
2296,66.406250
2297,64.453125
2298,62.500000
2299,62.500000
2300,62.500000
2301,62.500000
2302,60.546875
2303,60.546875
2304,58.593750
2305,58.593750
2306,58.593750
2307,58.593750
2308,56.640625
2309,56.640625
2310,56.640625
2311,56.640625
2312,54.687500
2313,52.734375
2314,52.734375
2315,52.734375
2316,52.734375
2317,50.781250
2318,50.781250
2319,50.781250
2320,48.828125
2321,48.828125
2322,48.828125
2323,46.875000
2324,46.875000
2325,44.921875
2326,44.921875
2327,44.921875
2328,42.968750
2329,42.968750
2330,42.968750
2331,41.015625
2332,41.015625
2333,39.062500
2334,39.062500
2335,39.062500
2336,37.109375
2337,37.109375
2338,35.156250
2339,35.156250
2340,35.156250
2341,33.203125
2342,33.203125
2343,31.250000
2344,31.250000
2345,31.250000
2346,29.296875
2347,29.296875
2348,29.296875
2349,27.343750
2350,25.390625
2351,25.390625
2352,23.437500
2353,23.437500
2354,23.437500
2355,21.484375
2356,21.484375
2357,19.531250
2358,19.531250
2359,17.578125
2360,17.578125
2361,17.578125
2362,15.625000
2363,15.625000
2364,13.671875
2365,13.671875
2366,11.718750
2367,11.718750
2368,9.765625
2369,9.765625
2370,7.812500
2371,7.812500
2372,5.859375
2373,5.859375
2374,3.906250
2375,3.906250
2376,3.906250
2377,1.953125
2378,0.000000
2379,0.000000
2380,0.000000
2381,-1.953125
2382,-1.953125
2383,-3.906250
2384,-5.859375
2385,-5.859375
2386,-7.812500
2387,-7.812500
2388,-7.812500
2389,-9.765625
2390,-9.765625
2391,-11.718750
2392,-11.718750
2393,-13.671875
2394,-13.671875
2395,-13.671875
2396,-15.625000
2397,-17.578125
2398,-17.578125
2399,-19.531250
2400,-19.531250
2401,-19.531250
2402,-21.484375
2403,-23.437500
2404,-23.437500
2405,-23.437500
2406,-25.390625
2407,-25.390625
2408,-27.343750
2409,-27.343750
2410,-27.343750
2411,-29.296875
2412,-29.296875
2413,-31.250000
2414,-33.203125
2415,-33.203125
2416,-33.203125
2417,-35.156250
2418,-37.109375
2419,-37.109375
2420,-37.109375
2421,-39.062500
2422,-39.062500
2423,-41.015625
2424,-41.015625
2425,-42.968750
2426,-42.968750
2427,-42.968750
2428,-44.921875
2429,-44.921875
2430,-46.875000
2431,-46.875000
2432,-46.875000
2433,-48.828125
2434,-46.875000
2435,-50.781250
2436,-50.781250
2437,-52.734375
2438,-52.734375
2439,-54.687500
2440,-54.687500
2441,-54.687500
2442,-56.640625
2443,-56.640625
2444,-56.640625
2445,-58.593750
2446,-58.593750
2447,-60.546875
2448,-60.546875
2449,-62.500000
2450,-62.500000
2451,-62.500000
2452,-64.453125
2453,-64.453125
2454,-64.453125
2455,-66.406250
2456,-66.406250
2457,-66.406250
2458,-68.359375
2459,-68.359375
2460,-68.359375
2461,-70.312500
2462,-70.312500
2463,-72.265625
2464,-72.265625
2465,-72.265625
2466,-72.265625
2467,-74.218750
2468,-74.218750
2469,-74.218750
2470,-74.218750
2471,-74.218750
2472,-76.171875
2473,-76.171875
2474,-76.171875
2475,-78.125000
2476,-78.125000
2477,-80.078125
2478,-80.078125
2479,-80.078125
2480,-80.078125
2481,-80.078125
2482,-82.031250
2483,-82.031250
2484,-82.031250
2485,-82.031250
2486,-83.984375
2487,-83.984375
2488,-83.984375
2489,-83.984375
2490,-83.984375
2491,-85.937500
2492,-85.937500
2493,-85.937500
2494,-85.937500
2495,-87.890625
2496,-87.890625
2497,-87.890625
2498,-87.890625
2499,-87.890625
2500,-87.890625
2501,-89.843750
2502,-89.843750
2503,-89.843750
2504,-89.843750
2505,-89.843750
2506,-89.843750
2507,-89.843750
2508,-89.843750
2509,-91.796875
2510,-91.796875
2511,-91.796875
2512,-93.750000
2513,-91.796875
2514,-91.796875
2515,-93.750000
2516,-93.750000
2517,-93.750000
2518,-91.796875
2519,-93.750000
2520,-93.750000
2521,-93.750000
2522,-93.750000
2523,-93.750000
2524,-93.750000
2525,-93.750000
2526,-93.750000
2527,-93.750000
2528,-93.750000
2529,-93.750000
2530,-93.750000
2531,-93.750000
2532,-93.750000
2533,-93.750000
2534,-93.750000
2535,-93.750000
2536,-93.750000
2537,-93.750000
2538,-93.750000
2539,-93.750000
2540,-93.750000
2541,-93.750000
2542,-93.750000
2543,-93.750000
2544,-93.750000
2545,-93.750000
2546,-93.750000
2547,-93.750000
2548,-93.750000
2549,-93.750000
2550,-93.750000
2551,-91.796875
2552,-91.796875
2553,-91.796875
2554,-91.796875
2555,-93.750000
2556,-91.796875
2557,-89.843750
2558,-91.796875
2559,-91.796875
2560,-89.843750
2561,-89.843750
2562,-89.843750
2563,-89.843750
2564,-89.843750
2565,-89.843750
2566,-89.843750
2567,-89.843750
2568,-89.843750
2569,-89.843750
2570,-87.890625
2571,-87.890625
2572,-87.890625
2573,-87.890625
2574,-85.937500
2575,-85.937500
2576,-85.937500
2577,-85.937500
2578,-83.984375
2579,-83.984375
2580,-83.984375
2581,-83.984375
2582,-83.984375
2583,-82.031250
2584,-82.031250
2585,-82.031250
2586,-82.031250
2587,-82.031250
2588,-80.078125
2589,-80.078125
2590,-78.125000
2591,-78.125000
2592,-78.125000
2593,-76.171875
2594,-76.171875
2595,-76.171875
2596,-76.171875
2597,-76.171875
2598,-74.218750
2599,-74.218750
2600,-74.218750
2601,-72.265625
2602,-72.265625
2603,-72.265625
2604,-70.312500
2605,-70.312500
2606,-68.359375
2607,-68.359375
2608,-68.359375
2609,-68.359375
2610,-66.406250
2611,-66.406250
2612,-64.453125
2613,-64.453125
2614,-64.453125
2615,-62.500000
2616,-62.500000
2617,-62.500000
2618,-60.546875
2619,-60.546875
2620,-60.546875
2621,-60.546875
2622,-58.593750
2623,-56.640625
2624,-56.640625
2625,-56.640625
2626,-54.687500
2627,-56.640625
2628,-52.734375
2629,-52.734375
2630,-52.734375
2631,-50.781250
2632,-50.781250
2633,-48.828125
2634,-48.828125
2635,-48.828125
2636,-46.875000
2637,-46.875000
2638,-46.875000
2639,-44.921875
2640,-44.921875
2641,-42.968750
2642,-42.968750
2643,-41.015625
2644,-41.015625
2645,-39.062500
2646,-39.062500
2647,-39.062500
2648,-37.109375
2649,-35.156250
2650,-35.156250
2651,-33.203125
2652,-33.203125
2653,-33.203125
2654,-31.250000
2655,-31.250000
2656,-29.296875
2657,-29.296875
2658,-27.343750
2659,-27.343750
2660,-25.390625
2661,-25.390625
2662,-23.437500
2663,-23.437500
2664,-21.484375
2665,-21.484375
2666,-21.484375
2667,-19.531250
2668,-19.531250
2669,-17.578125
2670,-17.578125
2671,-15.625000
2672,-15.625000
2673,-13.671875
2674,-13.671875
2675,-11.718750
2676,-11.718750
2677,-9.765625
2678,-9.765625
2679,-7.812500
2680,-7.812500
2681,-5.859375
2682,-5.859375
2683,-5.859375
2684,-3.906250
2685,-1.953125
2686,-1.953125
2687,0.000000
2688,0.000000
2689,0.000000
2690,1.953125
2691,3.906250
2692,3.906250
2693,3.906250
2694,5.859375
2695,5.859375
2696,7.812500
2697,7.812500
2698,9.765625
2699,9.765625
2700,11.718750
2701,11.718750
2702,11.718750
2703,13.671875
2704,15.625000
2705,15.625000
2706,15.625000
2707,17.578125
2708,17.578125
2709,19.531250
2710,19.531250
2711,21.484375
2712,21.484375
2713,23.437500
2714,23.437500
2715,23.437500
2716,25.390625
2717,27.343750
2718,27.343750
2719,29.296875
2720,29.296875
2721,29.296875
2722,31.250000
2723,31.250000
2724,33.203125
2725,33.203125
2726,35.156250
2727,35.156250
2728,35.156250
2729,37.109375
2730,37.109375
2731,39.062500
2732,39.062500
2733,39.062500
2734,41.015625
2735,41.015625
2736,42.968750
2737,42.968750
2738,44.921875
2739,44.921875
2740,44.921875
2741,46.875000
2742,46.875000
2743,48.828125
2744,48.828125
2745,48.828125
2746,50.781250
2747,50.781250
2748,50.781250
2749,52.734375
2750,52.734375
2751,52.734375
2752,54.687500
2753,54.687500
2754,54.687500
2755,56.640625
2756,56.640625
2757,56.640625
2758,56.640625
2759,58.593750
2760,58.593750
2761,60.546875
2762,60.546875
2763,60.546875
2764,60.546875
2765,62.500000
2766,62.500000
2767,62.500000
2768,64.453125
2769,64.453125
2770,64.453125
2771,66.406250
2772,64.453125
2773,66.406250
2774,66.406250
2775,66.406250
2776,68.359375
2777,68.359375
2778,68.359375
2779,68.359375
2780,70.312500
2781,70.312500
2782,70.312500
2783,72.265625
2784,72.265625
2785,72.265625
2786,72.265625
2787,72.265625
2788,72.265625
2789,72.265625
2790,74.218750
2791,74.218750
2792,74.218750
2793,74.218750
2794,76.171875
2795,76.171875
2796,74.218750
2797,76.171875
2798,76.171875
2799,76.171875
2800,76.171875
2801,76.171875
2802,78.125000
2803,78.125000
2804,78.125000
2805,78.125000
2806,76.171875
2807,78.125000
2808,78.125000
2809,78.125000
2810,78.125000
2811,78.125000
2812,78.125000
2813,78.125000
2814,78.125000
2815,78.125000
2816,80.078125
2817,78.125000
2818,78.125000
2819,78.125000
2820,80.078125
2821,78.125000
2822,78.125000
2823,78.125000
2824,78.125000
2825,78.125000
2826,78.125000
2827,78.125000
2828,80.078125
2829,78.125000
2830,80.078125
2831,80.078125
2832,78.125000
2833,78.125000
2834,76.171875
2835,78.125000
2836,78.125000
2837,78.125000
2838,78.125000
2839,78.125000
2840,78.125000
2841,76.171875
2842,78.125000
2843,78.125000
2844,78.125000
2845,76.171875
2846,76.171875
2847,76.171875
2848,76.171875
2849,76.171875
2850,76.171875
2851,76.171875
2852,76.171875
2853,74.218750
2854,74.218750
2855,74.218750
2856,74.218750
2857,74.218750
2858,74.218750
2859,72.265625
2860,72.265625
2861,72.265625
2862,72.265625
2863,72.265625
2864,70.312500
2865,70.312500
2866,70.312500
2867,70.312500
2868,70.312500
2869,68.359375
2870,68.359375
2871,68.359375
2872,68.359375
2873,68.359375
2874,66.406250
2875,66.406250
2876,66.406250
2877,64.453125
2878,64.453125
2879,64.453125
2880,62.500000
2881,62.500000
2882,62.500000
2883,62.500000
2884,60.546875
2885,60.546875
2886,60.546875
2887,60.546875
2888,58.593750
2889,58.593750
2890,56.640625
2891,56.640625
2892,56.640625
2893,54.687500
2894,54.687500
2895,54.687500
2896,54.687500
2897,52.734375
2898,52.734375
2899,50.781250
2900,50.781250
2901,50.781250
2902,50.781250
2903,48.828125
2904,48.828125
2905,46.875000
2906,46.875000
2907,46.875000
2908,44.921875
2909,44.921875
2910,42.968750
2911,42.968750
2912,42.968750
2913,41.015625
2914,41.015625
2915,41.015625
2916,39.062500
2917,39.062500
2918,37.109375
2919,37.109375
2920,37.109375
2921,35.156250
2922,35.156250
2923,33.203125
2924,33.203125
2925,31.250000
2926,31.250000
2927,31.250000
2928,29.296875
2929,29.296875
2930,27.343750
2931,27.343750
2932,27.343750
2933,25.390625
2934,25.390625
2935,23.437500
2936,23.437500
2937,21.484375
2938,21.484375
2939,19.531250
2940,19.531250
2941,17.578125
2942,17.578125
2943,17.578125
2944,15.625000
2945,15.625000
2946,13.671875
2947,13.671875
2948,11.718750
2949,11.718750
2950,9.765625
2951,9.765625
2952,7.812500
2953,7.812500
2954,7.812500
2955,5.859375
2956,3.906250
2957,3.906250
2958,3.906250
2959,1.953125
2960,0.000000
2961,0.000000
2962,0.000000
2963,-1.953125
2964,-3.906250
2965,-3.906250
2966,-3.906250
2967,-5.859375
2968,-5.859375
2969,-7.812500
2970,-9.765625
2971,-9.765625
2972,-9.765625
2973,-11.718750
2974,-11.718750
2975,-13.671875
2976,-15.625000
2977,-13.671875
2978,-15.625000
2979,-17.578125
2980,-17.578125
2981,-19.531250
2982,-19.531250
2983,-19.531250
2984,-21.484375
2985,-21.484375
2986,-23.437500
2987,-23.437500
2988,-25.390625
2989,-25.390625
2990,-27.343750
2991,-27.343750
2992,-29.296875
2993,-29.296875
2994,-29.296875
2995,-31.250000
2996,-33.203125
2997,-33.203125
2998,-33.203125
2999,-35.156250
3000,-35.156250
3001,-35.156250
3002,-37.109375
3003,-39.062500
3004,-39.062500
3005,-39.062500
3006,-41.015625
3007,-41.015625
3008,-42.968750
3009,-42.968750
3010,-44.921875
3011,-44.921875
3012,-42.968750
3013,-46.875000
3014,-48.828125
3015,-48.828125
3016,-48.828125
3017,-50.781250
3018,-50.781250
3019,-52.734375
3020,-52.734375
3021,-54.687500
3022,-54.687500
3023,-54.687500
3024,-56.640625
3025,-56.640625
3026,-56.640625
3027,-58.593750
3028,-58.593750
3029,-60.546875
3030,-60.546875
3031,-60.546875
3032,-62.500000
3033,-62.500000
3034,-62.500000
3035,-64.453125
3036,-64.453125
3037,-66.406250
3038,-64.453125
3039,-66.406250
3040,-68.359375
3041,-68.359375
3042,-68.359375
3043,-68.359375
3044,-70.312500
3045,-72.265625
3046,-72.265625
3047,-72.265625
3048,-72.265625
3049,-74.218750
3050,-74.218750
3051,-74.218750
3052,-76.171875
3053,-76.171875
3054,-76.171875
3055,-76.171875
3056,-78.125000
3057,-78.125000
3058,-78.125000
3059,-78.125000
3060,-80.078125
3061,-80.078125
3062,-80.078125
3063,-80.078125
3064,-82.031250
3065,-82.031250
3066,-82.031250
3067,-83.984375
3068,-83.984375
3069,-83.984375
3070,-83.984375
3071,-83.984375
3072,-85.937500
3073,-85.937500
3074,-85.937500
3075,-85.937500
3076,-85.937500
3077,-85.937500
3078,-87.890625
3079,-87.890625
3080,-87.890625
3081,-87.890625
3082,-89.843750
3083,-89.843750
3084,-89.843750
3085,-89.843750
3086,-89.843750
3087,-89.843750
3088,-89.843750
3089,-91.796875
3090,-91.796875
3091,-91.796875
3092,-91.796875
3093,-91.796875
3094,-91.796875
3095,-91.796875
3096,-91.796875
3097,-93.750000
3098,-91.796875
3099,-93.750000
3100,-93.750000
3101,-93.750000
3102,-93.750000
3103,-93.750000
3104,-93.750000
3105,-93.750000
3106,-93.750000
3107,-93.750000
3108,-93.750000
3109,-95.703125
3110,-93.750000
3111,-93.750000
3112,-93.750000
3113,-93.750000
3114,-93.750000
3115,-93.750000
3116,-93.750000
3117,-93.750000
3118,-93.750000
3119,-93.750000
3120,-93.750000
3121,-93.750000
3122,-93.750000
3123,-93.750000
3124,-93.750000
3125,-93.750000
3126,-93.750000
3127,-93.750000
3128,-91.796875
3129,-91.796875
3130,-91.796875
3131,-93.750000
3132,-93.750000
3133,-91.796875
3134,-91.796875
3135,-91.796875
3136,-91.796875
3137,-91.796875
3138,-91.796875
3139,-91.796875
3140,-89.843750
3141,-91.796875
3142,-89.843750
3143,-89.843750
3144,-89.843750
3145,-89.843750
3146,-89.843750
3147,-89.843750
3148,-89.843750
3149,-89.843750
3150,-87.890625
3151,-87.890625
3152,-87.890625
3153,-87.890625
3154,-87.890625
3155,-85.937500
3156,-85.937500
3157,-85.937500
3158,-85.937500
3159,-83.984375
3160,-85.937500
3161,-83.984375
3162,-83.984375
3163,-83.984375
3164,-82.031250
3165,-82.031250
3166,-82.031250
3167,-82.031250
3168,-82.031250
3169,-80.078125
3170,-80.078125
3171,-80.078125
3172,-80.078125
3173,-78.125000
3174,-78.125000
3175,-76.171875
3176,-76.171875
3177,-76.171875
3178,-76.171875
3179,-74.218750
3180,-74.218750
3181,-78.125000
3182,-74.218750
3183,-72.265625
3184,-72.265625
3185,-70.312500
3186,-70.312500
3187,-70.312500
3188,-68.359375
3189,-68.359375
3190,-68.359375
3191,-66.406250
3192,-66.406250
3193,-66.406250
3194,-64.453125
3195,-64.453125
3196,-66.406250
3197,-62.500000
3198,-62.500000
3199,-62.500000
3200,-60.546875
3201,-60.546875
3202,-58.593750
3203,-58.593750
3204,-58.593750
3205,-58.593750
3206,-56.640625
3207,-56.640625
3208,-54.687500
3209,-54.687500
3210,-54.687500
3211,-52.734375
3212,-50.781250
3213,-50.781250
3214,-50.781250
3215,-48.828125
3216,-48.828125
3217,-46.875000
3218,-46.875000
3219,-46.875000
3220,-46.875000
3221,-44.921875
3222,-44.921875
3223,-42.968750
3224,-42.968750
3225,-41.015625
3226,-41.015625
3227,-39.062500
3228,-39.062500
3229,-39.062500
3230,-37.109375
3231,-35.156250
3232,-35.156250
3233,-35.156250
3234,-33.203125
3235,-33.203125
3236,-31.250000
3237,-31.250000
3238,-31.250000
3239,-29.296875
3240,-29.296875
3241,-27.343750
3242,-25.390625
3243,-25.390625
3244,-25.390625
3245,-23.437500
3246,-23.437500
3247,-21.484375
3248,-19.531250
3249,-21.484375
3250,-19.531250
3251,-17.578125
3252,-17.578125
3253,-15.625000
3254,-15.625000
3255,-15.625000
3256,-13.671875
3257,-11.718750
3258,-11.718750
3259,-11.718750
3260,-9.765625
3261,-9.765625
3262,-7.812500
3263,-7.812500
3264,-5.859375
3265,-5.859375
3266,-3.906250
3267,-3.906250
3268,-1.953125
3269,-1.953125
3270,-1.953125
3271,0.000000
3272,1.953125
3273,1.953125
3274,1.953125
3275,3.906250
3276,3.906250
3277,5.859375
3278,5.859375
3279,7.812500
3280,7.812500
3281,9.765625
3282,9.765625
3283,11.718750
3284,11.718750
3285,13.671875
3286,13.671875
3287,15.625000
3288,15.625000
3289,17.578125
3290,17.578125
3291,17.578125
3292,19.531250
3293,19.531250
3294,21.484375
3295,23.437500
3296,21.484375
3297,23.437500
3298,25.390625
3299,25.390625
3300,27.343750
3301,27.343750
3302,29.296875
3303,29.296875
3304,31.250000
3305,31.250000
3306,31.250000
3307,33.203125
3308,33.203125
3309,35.156250
3310,37.109375
3311,37.109375
3312,37.109375
3313,37.109375
3314,39.062500
3315,39.062500
3316,39.062500
3317,41.015625
3318,42.968750
3319,42.968750
3320,42.968750
3321,42.968750
3322,46.875000
3323,44.921875
3324,46.875000
3325,46.875000
3326,46.875000
3327,48.828125
3328,50.781250
3329,50.781250
3330,50.781250
3331,50.781250
3332,52.734375
3333,52.734375
3334,52.734375
3335,52.734375
3336,54.687500
3337,54.687500
3338,56.640625
3339,56.640625
3340,56.640625
3341,56.640625
3342,58.593750
3343,58.593750
3344,58.593750
3345,60.546875
3346,60.546875
3347,60.546875
3348,62.500000
3349,62.500000
3350,62.500000
3351,62.500000
3352,64.453125
3353,64.453125
3354,64.453125
3355,64.453125
3356,66.406250
3357,66.406250
3358,66.406250
3359,66.406250
3360,68.359375
3361,68.359375
3362,68.359375
3363,68.359375
3364,70.312500
3365,68.359375
3366,70.312500
3367,72.265625
3368,70.312500
3369,72.265625
3370,72.265625
3371,72.265625
3372,72.265625
3373,74.218750
3374,74.218750
3375,74.218750
3376,74.218750
3377,74.218750
3378,74.218750
3379,74.218750
3380,76.171875
3381,74.218750
3382,74.218750
3383,76.171875
3384,76.171875
3385,76.171875
3386,76.171875
3387,76.171875
3388,78.125000
3389,78.125000
3390,78.125000
3391,76.171875
3392,78.125000
3393,78.125000
3394,78.125000
3395,78.125000
3396,78.125000
3397,78.125000
3398,78.125000
3399,78.125000
3400,78.125000
3401,78.125000
3402,78.125000
3403,78.125000
3404,78.125000
3405,78.125000
3406,78.125000
3407,78.125000
3408,78.125000
3409,78.125000
3410,78.125000
3411,78.125000
3412,78.125000
3413,78.125000
3414,78.125000
3415,78.125000
3416,76.171875
3417,78.125000
3418,78.125000
3419,78.125000
3420,78.125000
3421,78.125000
3422,78.125000
3423,76.171875
3424,78.125000
3425,76.171875
3426,76.171875
3427,76.171875
3428,76.171875
3429,76.171875
3430,76.171875
3431,76.171875
3432,76.171875
3433,76.171875
3434,76.171875
3435,74.218750
3436,74.218750
3437,74.218750
3438,74.218750
3439,74.218750
3440,74.218750
3441,72.265625
3442,72.265625
3443,72.265625
3444,72.265625
3445,72.265625
3446,70.312500
3447,70.312500
3448,70.312500
3449,70.312500
3450,70.312500
3451,68.359375
3452,68.359375
3453,68.359375
3454,68.359375
3455,66.406250
3456,66.406250
3457,66.406250
3458,66.406250
3459,64.453125
3460,64.453125
3461,64.453125
3462,64.453125
3463,62.500000
3464,62.500000
3465,62.500000
3466,60.546875
3467,60.546875
3468,60.546875
3469,60.546875
3470,58.593750
3471,58.593750
3472,58.593750
3473,56.640625
3474,56.640625
3475,56.640625
3476,54.687500
3477,54.687500
3478,54.687500
3479,52.734375
3480,52.734375
3481,52.734375
3482,50.781250
3483,50.781250
3484,48.828125
3485,48.828125
3486,48.828125
3487,46.875000
3488,46.875000
3489,46.875000
3490,44.921875
3491,44.921875
3492,44.921875
3493,42.968750
3494,42.968750
3495,41.015625
3496,41.015625
3497,41.015625
3498,41.015625
3499,39.062500
3500,39.062500
3501,37.109375
3502,37.109375
3503,37.109375
3504,35.156250
3505,35.156250
3506,33.203125
3507,33.203125
3508,31.250000
3509,31.250000
3510,31.250000
3511,29.296875
3512,29.296875
3513,27.343750
3514,27.343750
3515,25.390625
3516,27.343750
3517,23.437500
3518,23.437500
3519,23.437500
3520,21.484375
3521,21.484375
3522,19.531250
3523,19.531250
3524,17.578125
3525,17.578125
3526,17.578125
3527,15.625000
3528,15.625000
3529,13.671875
3530,13.671875
3531,11.718750
3532,11.718750
3533,9.765625
3534,9.765625
3535,7.812500
3536,7.812500
3537,5.859375
3538,5.859375
3539,3.906250
3540,3.906250
3541,3.906250
3542,1.953125
3543,0.000000
3544,0.000000
3545,0.000000
3546,-1.953125
3547,-1.953125
3548,-3.906250
3549,-5.859375
3550,-5.859375
3551,-5.859375
3552,-7.812500
3553,-7.812500
3554,-9.765625
3555,-9.765625
3556,-11.718750
3557,-11.718750
3558,-13.671875
3559,-13.671875
3560,-13.671875
3561,-15.625000
3562,-17.578125
3563,-17.578125
3564,-17.578125
3565,-19.531250
3566,-21.484375
3567,-21.484375
3568,-21.484375
3569,-23.437500
3570,-23.437500
3571,-25.390625
3572,-27.343750
3573,-27.343750
3574,-27.343750
3575,-29.296875
3576,-29.296875
3577,-31.250000
3578,-31.250000
3579,-31.250000
3580,-33.203125
3581,-33.203125
3582,-35.156250
3583,-35.156250
3584,-37.109375
3585,-37.109375
3586,-39.062500
3587,-39.062500
3588,-39.062500
3589,-41.015625
3590,-42.968750
3591,-42.968750
3592,-42.968750
3593,-44.921875
3594,-44.921875
3595,-46.875000
3596,-46.875000
3597,-46.875000
3598,-48.828125
3599,-50.781250
3600,-50.781250
3601,-50.781250
3602,-52.734375
3603,-52.734375
3604,-54.687500
3605,-54.687500
3606,-54.687500
3607,-56.640625
3608,-56.640625
3609,-58.593750
3610,-58.593750
3611,-58.593750
3612,-60.546875
3613,-60.546875
3614,-62.500000
3615,-62.500000
3616,-62.500000
3617,-64.453125
3618,-64.453125
3619,-66.406250
3620,-66.406250
3621,-66.406250
3622,-66.406250
3623,-68.359375
3624,-68.359375
3625,-70.312500
3626,-70.312500
3627,-70.312500
3628,-70.312500
3629,-70.312500
3630,-72.265625
3631,-72.265625
3632,-72.265625
3633,-74.218750
3634,-76.171875
3635,-74.218750
3636,-76.171875
3637,-76.171875
3638,-76.171875
3639,-78.125000
3640,-78.125000
3641,-78.125000
3642,-78.125000
3643,-80.078125
3644,-80.078125
3645,-80.078125
3646,-82.031250
3647,-82.031250
3648,-82.031250
3649,-82.031250
3650,-82.031250
3651,-83.984375
3652,-83.984375
3653,-83.984375
3654,-83.984375
3655,-85.937500
3656,-85.937500
3657,-85.937500
3658,-85.937500
3659,-85.937500
3660,-85.937500
3661,-87.890625
3662,-87.890625
3663,-87.890625
3664,-87.890625
3665,-89.843750
3666,-89.843750
3667,-89.843750
3668,-89.843750
3669,-89.843750
3670,-89.843750
3671,-91.796875
3672,-91.796875
3673,-91.796875
3674,-91.796875
3675,-91.796875
3676,-91.796875
3677,-93.750000
3678,-91.796875
3679,-91.796875
3680,-91.796875
3681,-91.796875
3682,-93.750000
3683,-93.750000
3684,-93.750000
3685,-93.750000
3686,-93.750000
3687,-93.750000
3688,-93.750000
3689,-93.750000
3690,-93.750000
3691,-93.750000
3692,-93.750000
3693,-93.750000
3694,-93.750000
3695,-93.750000
3696,-93.750000
3697,-93.750000
3698,-93.750000
3699,-93.750000
3700,-93.750000
3701,-93.750000
3702,-93.750000
3703,-93.750000
3704,-93.750000
3705,-93.750000
3706,-93.750000
3707,-93.750000
3708,-93.750000
3709,-93.750000
3710,-93.750000
3711,-91.796875
3712,-93.750000
3713,-93.750000
3714,-93.750000
3715,-91.796875
3716,-91.796875
3717,-91.796875
3718,-91.796875
3719,-91.796875
3720,-91.796875
3721,-91.796875
3722,-91.796875
3723,-91.796875
3724,-89.843750
3725,-91.796875
3726,-91.796875
3727,-91.796875
3728,-89.843750
3729,-89.843750
3730,-89.843750
3731,-89.843750
3732,-89.843750
3733,-87.890625
3734,-87.890625
3735,-87.890625
3736,-87.890625
3737,-85.937500
3738,-85.937500
3739,-85.937500
3740,-85.937500
3741,-85.937500
3742,-85.937500
3743,-83.984375
3744,-83.984375
3745,-83.984375
3746,-83.984375
3747,-82.031250
3748,-82.031250
3749,-82.031250
3750,-80.078125
3751,-80.078125
3752,-80.078125
3753,-80.078125
3754,-78.125000
3755,-78.125000
3756,-78.125000
3757,-76.171875
3758,-78.125000
3759,-76.171875
3760,-76.171875
3761,-76.171875
3762,-76.171875
3763,-74.218750
3764,-74.218750
3765,-72.265625
3766,-72.265625
3767,-72.265625
3768,-70.312500
3769,-70.312500
3770,-70.312500
3771,-68.359375
3772,-68.359375
3773,-68.359375
3774,-66.406250
3775,-66.406250
3776,-66.406250
3777,-64.453125
3778,-64.453125
3779,-64.453125
3780,-62.500000
3781,-62.500000
3782,-62.500000
3783,-60.546875
3784,-60.546875
3785,-56.640625
3786,-58.593750
3787,-56.640625
3788,-56.640625
3789,-56.640625
3790,-56.640625
3791,-54.687500
3792,-52.734375
3793,-52.734375
3794,-52.734375
3795,-52.734375
3796,-50.781250
3797,-50.781250
3798,-48.828125
3799,-48.828125
3800,-48.828125
3801,-48.828125
3802,-48.828125
3803,-44.921875
3804,-44.921875
3805,-44.921875
3806,-42.968750
3807,-42.968750
3808,-41.015625
3809,-41.015625
3810,-39.062500
3811,-39.062500
3812,-37.109375
3813,-37.109375
3814,-37.109375
3815,-35.156250
3816,-35.156250
3817,-33.203125
3818,-33.203125
3819,-31.250000
3820,-31.250000
3821,-29.296875
3822,-29.296875
3823,-27.343750
3824,-27.343750
3825,-27.343750
3826,-25.390625
3827,-23.437500
3828,-23.437500
3829,-23.437500
3830,-21.484375
3831,-21.484375
3832,-19.531250
3833,-17.578125
3834,-17.578125
3835,-17.578125
3836,-15.625000
3837,-15.625000
3838,-13.671875
3839,-13.671875
3840,-11.718750
3841,-11.718750
3842,-9.765625
3843,-9.765625
3844,-7.812500
3845,-7.812500
3846,-7.812500
3847,-5.859375
3848,-3.906250
3849,-3.906250
3850,-3.906250
3851,-1.953125
3852,-1.953125
3853,0.000000
3854,1.953125
3855,1.953125
3856,1.953125
3857,3.906250
3858,3.906250
3859,5.859375
3860,5.859375
3861,5.859375
3862,7.812500
3863,9.765625
3864,9.765625
3865,9.765625
3866,11.718750
3867,13.671875
3868,13.671875
3869,13.671875
3870,15.625000
3871,15.625000
3872,17.578125
3873,19.531250
3874,19.531250
3875,19.531250
3876,21.484375
3877,21.484375
3878,23.437500
3879,23.437500
3880,23.437500
3881,25.390625
3882,25.390625
3883,27.343750
3884,27.343750
3885,29.296875
3886,29.296875
3887,31.250000
3888,31.250000
3889,33.203125
3890,33.203125
3891,33.203125
3892,35.156250
3893,37.109375
3894,37.109375
3895,37.109375
3896,39.062500
3897,39.062500
3898,41.015625
3899,41.015625
3900,41.015625
3901,42.968750
3902,42.968750
3903,42.968750
3904,44.921875
3905,44.921875
3906,44.921875
3907,46.875000
3908,46.875000
3909,48.828125
3910,48.828125
3911,48.828125
3912,50.781250
3913,50.781250
3914,50.781250
3915,52.734375
3916,52.734375
3917,52.734375
3918,54.687500
3919,54.687500
3920,56.640625
3921,56.640625
3922,56.640625
3923,56.640625
3924,58.593750
3925,58.593750
3926,58.593750
3927,60.546875
3928,60.546875
3929,60.546875
3930,62.500000
3931,62.500000
3932,62.500000
3933,62.500000
3934,64.453125
3935,64.453125
3936,64.453125
3937,66.406250
3938,68.359375
3939,66.406250
3940,66.406250
3941,66.406250
3942,68.359375
3943,68.359375
3944,68.359375
3945,68.359375
3946,70.312500
3947,70.312500
3948,70.312500
3949,70.312500
3950,72.265625
3951,72.265625
3952,72.265625
3953,72.265625
3954,72.265625
3955,74.218750
3956,74.218750
3957,74.218750
3958,74.218750
3959,74.218750
3960,76.171875
3961,76.171875
3962,74.218750
3963,74.218750
3964,76.171875
3965,76.171875
3966,76.171875
3967,76.171875
3968,76.171875
3969,78.125000
3970,78.125000
3971,76.171875
3972,76.171875
3973,76.171875
3974,78.125000
3975,78.125000
3976,78.125000
3977,78.125000
3978,78.125000
3979,78.125000
3980,78.125000
3981,78.125000
3982,78.125000
3983,78.125000
3984,78.125000
3985,78.125000
3986,82.031250
3987,80.078125
3988,78.125000
3989,78.125000
3990,78.125000
3991,78.125000
3992,78.125000
3993,78.125000
3994,78.125000
3995,78.125000
3996,78.125000
3997,78.125000
3998,78.125000
3999,78.125000
4000,78.125000
4001,78.125000
4002,76.171875
4003,78.125000
4004,78.125000
4005,78.125000
4006,78.125000
4007,76.171875
4008,76.171875
4009,78.125000
4010,76.171875
4011,76.171875
4012,76.171875
4013,76.171875
4014,76.171875
4015,76.171875
4016,76.171875
4017,74.218750
4018,74.218750
4019,74.218750
4020,74.218750
4021,74.218750
4022,74.218750
4023,74.218750
4024,74.218750
4025,72.265625
4026,72.265625
4027,72.265625
4028,72.265625
4029,70.312500
4030,70.312500
4031,70.312500
4032,70.312500
4033,70.312500
4034,68.359375
4035,68.359375
4036,68.359375
4037,68.359375
4038,66.406250
4039,66.406250
4040,66.406250
4041,66.406250
4042,64.453125
4043,64.453125
4044,62.500000
4045,62.500000
4046,64.453125
4047,62.500000
4048,60.546875
4049,60.546875
4050,60.546875
4051,60.546875
4052,58.593750
4053,58.593750
4054,58.593750
4055,56.640625
4056,56.640625
4057,56.640625
4058,56.640625
4059,54.687500
4060,54.687500
4061,54.687500
4062,52.734375
4063,52.734375
4064,52.734375
4065,50.781250
4066,50.781250
4067,48.828125
4068,48.828125
4069,48.828125
4070,46.875000
4071,46.875000
4072,46.875000
4073,44.921875
4074,44.921875
4075,42.968750
4076,42.968750
4077,42.968750
4078,41.015625
4079,41.015625
4080,39.062500
4081,39.062500
4082,39.062500
4083,39.062500
4084,37.109375
4085,37.109375
4086,35.156250
4087,35.156250
4088,33.203125
4089,33.203125
4090,33.203125
4091,31.250000
4092,31.250000
4093,29.296875
4094,29.296875
4095,29.296875
4096,27.343750
4097,27.343750
4098,25.390625
4099,25.390625
4100,23.437500
4101,23.437500
4102,23.437500
4103,21.484375
4104,19.531250
4105,19.531250
4106,19.531250
4107,17.578125
4108,17.578125
4109,15.625000
4110,15.625000
4111,13.671875
4112,13.671875
4113,11.718750
4114,9.765625
4115,9.765625
4116,9.765625
4117,9.765625
4118,7.812500
4119,5.859375
4120,5.859375
4121,5.859375
4122,3.906250
4123,3.906250
4124,1.953125
4125,1.953125
4126,0.000000
4127,0.000000
4128,-1.953125
4129,-1.953125
4130,-3.906250
4131,-3.906250
4132,-5.859375
4133,-5.859375
4134,-7.812500
4135,-7.812500
4136,-11.718750
4137,-9.765625
4138,-11.718750
4139,-11.718750
4140,-11.718750
4141,-13.671875
4142,-15.625000
4143,-15.625000
4144,-15.625000
4145,-17.578125
4146,-21.484375
4147,-19.531250
4148,-19.531250
4149,-21.484375
4150,-21.484375
4151,-23.437500
4152,-23.437500
4153,-23.437500
4154,-25.390625
4155,-27.343750
4156,-27.343750
4157,-27.343750
4158,-29.296875
4159,-29.296875
4160,-31.250000
4161,-31.250000
4162,-31.250000
4163,-33.203125
4164,-35.156250
4165,-35.156250
4166,-35.156250
4167,-37.109375
4168,-39.062500
4169,-39.062500
4170,-39.062500
4171,-41.015625
4172,-41.015625
4173,-42.968750
4174,-42.968750
4175,-44.921875
4176,-44.921875
4177,-46.875000
4178,-46.875000
4179,-48.828125
4180,-48.828125
4181,-48.828125
4182,-48.828125
4183,-50.781250
4184,-52.734375
4185,-52.734375
4186,-52.734375
4187,-54.687500
4188,-54.687500
4189,-56.640625
4190,-56.640625
4191,-56.640625
4192,-58.593750
4193,-58.593750
4194,-60.546875
4195,-60.546875
4196,-60.546875
4197,-60.546875
4198,-62.500000
4199,-62.500000
4200,-64.453125
4201,-64.453125
4202,-66.406250
4203,-66.406250
4204,-66.406250
4205,-68.359375
4206,-68.359375
4207,-68.359375
4208,-68.359375
4209,-70.312500
4210,-70.312500
4211,-70.312500
4212,-72.265625
4213,-72.265625
4214,-72.265625
4215,-74.218750
4216,-74.218750
4217,-74.218750
4218,-76.171875
4219,-76.171875
4220,-76.171875
4221,-78.125000
4222,-78.125000
4223,-78.125000
4224,-78.125000
4225,-80.078125
4226,-80.078125
4227,-80.078125
4228,-80.078125
4229,-80.078125
4230,-82.031250
4231,-82.031250
4232,-82.031250
4233,-83.984375
4234,-83.984375
4235,-83.984375
4236,-83.984375
4237,-85.937500
4238,-85.937500
4239,-85.937500
4240,-85.937500
4241,-85.937500
4242,-87.890625
4243,-87.890625
4244,-87.890625
4245,-87.890625
4246,-87.890625
4247,-89.843750
4248,-89.843750
4249,-87.890625
4250,-87.890625
4251,-89.843750
4252,-89.843750
4253,-89.843750
4254,-89.843750
4255,-89.843750
4256,-89.843750
4257,-91.796875
4258,-91.796875
4259,-91.796875
4260,-91.796875
4261,-91.796875
4262,-91.796875
4263,-91.796875
4264,-91.796875
4265,-91.796875
4266,-93.750000
4267,-93.750000
4268,-93.750000
4269,-93.750000
4270,-93.750000
4271,-93.750000
4272,-93.750000
4273,-93.750000
4274,-93.750000
4275,-93.750000
4276,-93.750000
4277,-93.750000
4278,-93.750000
4279,-93.750000
4280,-93.750000
4281,-93.750000
4282,-93.750000
4283,-93.750000
4284,-93.750000
4285,-93.750000
4286,-93.750000
4287,-93.750000
4288,-93.750000
4289,-93.750000
4290,-91.796875
4291,-93.750000
4292,-93.750000
4293,-91.796875
4294,-93.750000
4295,-91.796875
4296,-91.796875
4297,-93.750000
4298,-91.796875
4299,-91.796875
4300,-91.796875
4301,-91.796875
4302,-91.796875
4303,-91.796875
4304,-91.796875
4305,-91.796875
4306,-89.843750
4307,-89.843750
4308,-89.843750
4309,-89.843750
4310,-89.843750
4311,-89.843750
4312,-89.843750
4313,-87.890625
4314,-87.890625
4315,-87.890625
4316,-87.890625
4317,-87.890625
4318,-85.937500
4319,-85.937500
4320,-85.937500
4321,-85.937500
4322,-85.937500
4323,-85.937500
4324,-83.984375
4325,-83.984375
4326,-83.984375
4327,-83.984375
4328,-83.984375
4329,-82.031250
4330,-82.031250
4331,-82.031250
4332,-82.031250
4333,-80.078125
4334,-80.078125
4335,-80.078125
4336,-80.078125
4337,-78.125000
4338,-78.125000
4339,-78.125000
4340,-76.171875
4341,-76.171875
4342,-76.171875
4343,-74.218750
4344,-74.218750
4345,-74.218750
4346,-74.218750
4347,-70.312500
4348,-72.265625
4349,-70.312500
4350,-70.312500
4351,-70.312500
4352,-68.359375
4353,-68.359375
4354,-68.359375
4355,-68.359375
4356,-68.359375
4357,-66.406250
4358,-66.406250
4359,-64.453125
4360,-64.453125
4361,-64.453125
4362,-62.500000
4363,-62.500000
4364,-62.500000
4365,-60.546875
4366,-60.546875
4367,-58.593750
4368,-58.593750
4369,-58.593750
4370,-58.593750
4371,-56.640625
4372,-56.640625
4373,-54.687500
4374,-54.687500
4375,-54.687500
4376,-52.734375
4377,-52.734375
4378,-50.781250
4379,-50.781250
4380,-50.781250
4381,-48.828125
4382,-48.828125
4383,-46.875000
4384,-44.921875
4385,-46.875000
4386,-44.921875
4387,-42.968750
4388,-42.968750
4389,-42.968750
4390,-42.968750
4391,-41.015625
4392,-39.062500
4393,-39.062500
4394,-39.062500
4395,-37.109375
4396,-37.109375
4397,-35.156250
4398,-35.156250
4399,-35.156250
4400,-33.203125
4401,-33.203125
4402,-31.250000
4403,-29.296875
4404,-29.296875
4405,-27.343750
4406,-29.296875
4407,-27.343750
4408,-25.390625
4409,-25.390625
4410,-23.437500
4411,-23.437500
4412,-21.484375
4413,-21.484375
4414,-19.531250
4415,-19.531250
4416,-19.531250
4417,-17.578125
4418,-17.578125
4419,-15.625000
4420,-15.625000
4421,-13.671875
4422,-13.671875
4423,-11.718750
4424,-11.718750
4425,-9.765625
4426,-9.765625
4427,-7.812500
4428,-7.812500
4429,-5.859375
4430,-5.859375
4431,-3.906250
4432,-3.906250
4433,-1.953125
4434,-1.953125
4435,-1.953125
4436,0.000000
4437,1.953125
4438,1.953125
4439,1.953125
4440,3.906250
4441,3.906250
4442,5.859375
4443,5.859375
4444,7.812500
4445,7.812500
4446,7.812500
4447,9.765625
4448,11.718750
4449,11.718750
4450,11.718750
4451,13.671875
4452,13.671875
4453,15.625000
4454,15.625000
4455,17.578125
4456,17.578125
4457,19.531250
4458,19.531250
4459,19.531250
4460,21.484375
4461,23.437500
4462,23.437500
4463,25.390625
4464,25.390625
4465,25.390625
4466,27.343750
4467,27.343750
4468,29.296875
4469,29.296875
4470,31.250000
4471,31.250000
4472,33.203125
4473,33.203125
4474,33.203125
4475,35.156250
4476,35.156250
4477,37.109375
4478,37.109375
4479,39.062500
4480,39.062500
4481,39.062500
4482,41.015625
4483,41.015625
4484,42.968750
4485,42.968750
4486,42.968750
4487,44.921875
4488,44.921875
4489,46.875000
4490,46.875000
4491,46.875000
4492,46.875000
4493,48.828125
4494,48.828125
4495,50.781250
4496,50.781250
4497,50.781250
4498,52.734375
4499,52.734375
4500,52.734375
4501,54.687500
4502,54.687500
4503,54.687500
4504,56.640625
4505,56.640625
4506,56.640625
4507,56.640625
4508,58.593750
4509,58.593750
4510,60.546875
4511,60.546875
4512,60.546875
4513,60.546875
4514,60.546875
4515,62.500000
4516,62.500000
4517,64.453125
4518,64.453125
4519,64.453125
4520,64.453125
4521,66.406250
4522,64.453125
4523,66.406250
4524,66.406250
4525,66.406250
4526,68.359375
4527,68.359375
4528,68.359375
4529,68.359375
4530,70.312500
4531,70.312500
4532,70.312500
4533,70.312500
4534,70.312500
4535,72.265625
4536,72.265625
4537,72.265625
4538,72.265625
4539,74.218750
4540,74.218750
4541,74.218750
4542,74.218750
4543,74.218750
4544,74.218750
4545,74.218750
4546,74.218750
4547,76.171875
4548,76.171875
4549,76.171875
4550,76.171875
4551,76.171875
4552,76.171875
4553,76.171875
4554,76.171875
4555,78.125000
4556,76.171875
4557,78.125000
4558,78.125000
4559,78.125000
4560,78.125000
4561,78.125000
4562,78.125000
4563,78.125000
4564,78.125000
4565,78.125000
4566,78.125000
4567,78.125000
4568,78.125000
4569,80.078125
4570,78.125000
4571,78.125000
4572,78.125000
4573,78.125000
4574,78.125000
4575,78.125000
4576,78.125000
4577,78.125000
4578,78.125000
4579,78.125000
4580,78.125000
4581,78.125000
4582,78.125000
4583,78.125000
4584,78.125000
4585,78.125000
4586,78.125000
4587,78.125000
4588,76.171875
4589,78.125000
4590,76.171875
4591,76.171875
4592,76.171875
4593,76.171875
4594,76.171875
4595,76.171875
4596,76.171875
4597,74.218750
4598,76.171875
4599,76.171875
4600,74.218750
4601,76.171875
4602,74.218750
4603,74.218750
4604,74.218750
4605,74.218750
4606,72.265625
4607,72.265625
4608,72.265625
4609,72.265625
4610,72.265625
4611,72.265625
4612,70.312500
4613,70.312500
4614,70.312500
4615,70.312500
4616,68.359375
4617,68.359375
4618,68.359375
4619,68.359375
4620,68.359375
4621,66.406250
4622,66.406250
4623,66.406250
4624,66.406250
4625,66.406250
4626,64.453125
4627,64.453125
4628,64.453125
4629,62.500000
4630,62.500000
4631,62.500000
4632,60.546875
4633,60.546875
4634,60.546875
4635,58.593750
4636,58.593750
4637,58.593750
4638,56.640625
4639,56.640625
4640,56.640625
4641,54.687500
4642,54.687500
4643,54.687500
4644,54.687500
4645,52.734375
4646,52.734375
4647,50.781250
4648,50.781250
4649,50.781250
4650,50.781250
4651,48.828125
4652,48.828125
4653,46.875000
4654,46.875000
4655,46.875000
4656,44.921875
4657,44.921875
4658,44.921875
4659,42.968750
4660,42.968750
4661,42.968750
4662,41.015625
4663,41.015625
4664,39.062500
4665,39.062500
4666,39.062500
4667,37.109375
4668,37.109375
4669,35.156250
4670,35.156250
4671,33.203125
4672,33.203125
4673,33.203125
4674,31.250000
4675,31.250000
4676,29.296875
4677,29.296875
4678,27.343750
4679,27.343750
4680,27.343750
4681,25.390625
4682,25.390625
4683,23.437500
4684,23.437500
4685,21.484375
4686,21.484375
4687,21.484375
4688,19.531250
4689,17.578125
4690,17.578125
4691,15.625000
4692,15.625000
4693,15.625000
4694,13.671875
4695,13.671875
4696,11.718750
4697,11.718750
4698,9.765625
4699,9.765625
4700,7.812500
4701,7.812500
4702,7.812500
4703,5.859375
4704,5.859375
4705,3.906250
4706,3.906250
4707,1.953125
4708,1.953125
4709,0.000000
4710,0.000000
4711,-1.953125
4712,-3.906250
4713,-3.906250
4714,-3.906250
4715,-5.859375
4716,-5.859375
4717,-7.812500
4718,-7.812500
4719,-9.765625
4720,-9.765625
4721,-9.765625
4722,-11.718750
4723,-13.671875
4724,-13.671875
4725,-13.671875
4726,-15.625000
4727,-17.578125
4728,-17.578125
4729,-19.531250
4730,-19.531250
4731,-19.531250
4732,-21.484375
4733,-21.484375
4734,-23.437500
4735,-23.437500
4736,-25.390625
4737,-27.343750
4738,-27.343750
4739,-27.343750
4740,-29.296875
4741,-29.296875
4742,-29.296875
4743,-31.250000
4744,-31.250000
4745,-33.203125
4746,-33.203125
4747,-35.156250
4748,-35.156250
4749,-37.109375
4750,-37.109375
4751,-37.109375
4752,-39.062500
4753,-39.062500
4754,-41.015625
4755,-41.015625
4756,-42.968750
4757,-42.968750
4758,-44.921875
4759,-44.921875
4760,-46.875000
4761,-46.875000
4762,-48.828125
4763,-48.828125
4764,-48.828125
4765,-50.781250
4766,-50.781250
4767,-52.734375
4768,-52.734375
4769,-54.687500
4770,-54.687500
4771,-56.640625
4772,-56.640625
4773,-56.640625
4774,-58.593750
4775,-58.593750
4776,-58.593750
4777,-60.546875
4778,-60.546875
4779,-62.500000
4780,-62.500000
4781,-62.500000
4782,-64.453125
4783,-64.453125
4784,-64.453125
4785,-66.406250
4786,-66.406250
4787,-66.406250
4788,-68.359375
4789,-68.359375
4790,-68.359375
4791,-70.312500
4792,-70.312500
4793,-70.312500
4794,-72.265625
4795,-72.265625
4796,-74.218750
4797,-72.265625
4798,-74.218750
4799,-74.218750
4800,-74.218750
4801,-76.171875
4802,-76.171875
4803,-76.171875
4804,-78.125000
4805,-78.125000
4806,-78.125000
4807,-78.125000
4808,-80.078125
4809,-80.078125
4810,-80.078125
4811,-80.078125
4812,-80.078125
4813,-82.031250
4814,-82.031250
4815,-82.031250
4816,-83.984375
4817,-83.984375
4818,-83.984375
4819,-83.984375
4820,-83.984375
4821,-85.937500
4822,-85.937500
4823,-85.937500
4824,-85.937500
4825,-85.937500
4826,-87.890625
4827,-87.890625
4828,-87.890625
4829,-87.890625
4830,-87.890625
4831,-89.843750
4832,-89.843750
4833,-89.843750
4834,-89.843750
4835,-89.843750
4836,-89.843750
4837,-91.796875
4838,-89.843750
4839,-91.796875
4840,-91.796875
4841,-91.796875
4842,-91.796875
4843,-91.796875
4844,-91.796875
4845,-91.796875
4846,-91.796875
4847,-93.750000
4848,-93.750000
4849,-93.750000
4850,-93.750000
4851,-93.750000
4852,-93.750000
4853,-93.750000
4854,-91.796875
4855,-93.750000
4856,-93.750000
4857,-93.750000
4858,-93.750000
4859,-93.750000
4860,-93.750000
4861,-93.750000
4862,-93.750000
4863,-93.750000
4864,-93.750000
4865,-93.750000
4866,-93.750000
4867,-93.750000
4868,-93.750000
4869,-93.750000
4870,-93.750000
4871,-93.750000
4872,-93.750000
4873,-93.750000
4874,-93.750000
4875,-91.796875
4876,-93.750000
4877,-93.750000
4878,-93.750000
4879,-93.750000
4880,-91.796875
4881,-91.796875
4882,-93.750000
4883,-91.796875
4884,-91.796875
4885,-91.796875
4886,-91.796875
4887,-91.796875
4888,-91.796875
4889,-89.843750
4890,-91.796875
4891,-89.843750
4892,-89.843750
4893,-89.843750
4894,-89.843750
4895,-89.843750
4896,-87.890625
4897,-87.890625
4898,-87.890625
4899,-87.890625
4900,-87.890625
4901,-87.890625
4902,-85.937500
4903,-85.937500
4904,-85.937500
4905,-85.937500
4906,-83.984375
4907,-85.937500
4908,-83.984375
4909,-83.984375
4910,-83.984375
4911,-82.031250
4912,-82.031250
4913,-82.031250
4914,-82.031250
4915,-82.031250
4916,-80.078125
4917,-80.078125
4918,-80.078125
4919,-80.078125
4920,-78.125000
4921,-78.125000
4922,-78.125000
4923,-78.125000
4924,-76.171875
4925,-80.078125
4926,-76.171875
4927,-74.218750
4928,-74.218750
4929,-74.218750
4930,-72.265625
4931,-72.265625
4932,-72.265625
4933,-72.265625
4934,-70.312500
4935,-70.312500
4936,-68.359375
4937,-68.359375
4938,-68.359375
4939,-66.406250
4940,-66.406250
4941,-66.406250
4942,-66.406250
4943,-64.453125
4944,-64.453125
4945,-62.500000
4946,-62.500000
4947,-62.500000
4948,-60.546875
4949,-60.546875
4950,-60.546875
4951,-58.593750
4952,-58.593750
4953,-58.593750
4954,-56.640625
4955,-56.640625
4956,-54.687500
4957,-54.687500
4958,-54.687500
4959,-52.734375
4960,-52.734375
4961,-52.734375
4962,-50.781250
4963,-50.781250
4964,-48.828125
4965,-48.828125
4966,-46.875000
4967,-46.875000
4968,-46.875000
4969,-44.921875
4970,-44.921875
4971,-44.921875
4972,-42.968750
4973,-41.015625
4974,-41.015625
4975,-39.062500
4976,-39.062500
4977,-39.062500
4978,-37.109375
4979,-37.109375
4980,-35.156250
4981,-35.156250
4982,-33.203125
4983,-33.203125
4984,-31.250000
4985,-31.250000
4986,-31.250000
4987,-29.296875
4988,-27.343750
4989,-27.343750
4990,-27.343750
4991,-25.390625
4992,-25.390625
4993,-23.437500
4994,-23.437500
4995,-21.484375
4996,-21.484375
4997,-19.531250
4998,-19.531250
4999,-17.578125
5000,-17.578125
5001,-17.578125
5002,-15.625000
5003,-13.671875
5004,-13.671875
5005,-13.671875
5006,-11.718750
5007,-11.718750
5008,-9.765625
5009,-9.765625
5010,-9.765625
5011,-7.812500
5012,-5.859375
5013,-5.859375
5014,-3.906250
5015,-3.906250
5016,-3.906250
5017,-1.953125
5018,0.000000
5019,0.000000
5020,0.000000
5021,1.953125
5022,1.953125
5023,3.906250
5024,3.906250
5025,5.859375
5026,5.859375
5027,7.812500
5028,7.812500
5029,9.765625
5030,9.765625
5031,11.718750
5032,11.718750
5033,13.671875
5034,13.671875
5035,13.671875
5036,15.625000
5037,17.578125
5038,17.578125
5039,19.531250
5040,19.531250
5041,19.531250
5042,21.484375
5043,21.484375
5044,23.437500
5045,23.437500
5046,25.390625
5047,25.390625
5048,27.343750
5049,27.343750
5050,27.343750
5051,29.296875
5052,29.296875
5053,31.250000
5054,31.250000
5055,33.203125
5056,33.203125
5057,35.156250
5058,35.156250
5059,35.156250
5060,37.109375
5061,37.109375
5062,39.062500
5063,39.062500
5064,41.015625
5065,41.015625
5066,41.015625
5067,42.968750
5068,42.968750
5069,44.921875
5070,44.921875
5071,44.921875
5072,44.921875
5073,46.875000
5074,46.875000
5075,46.875000
5076,48.828125
5077,50.781250
5078,50.781250
5079,50.781250
5080,50.781250
5081,52.734375
5082,52.734375
5083,54.687500
5084,54.687500
5085,54.687500
5086,54.687500
5087,56.640625
5088,56.640625
5089,56.640625
5090,58.593750
5091,58.593750
5092,58.593750
5093,60.546875
5094,60.546875
5095,60.546875
5096,62.500000
5097,62.500000
5098,62.500000
5099,62.500000
5100,64.453125
5101,64.453125
5102,64.453125
5103,64.453125
5104,66.406250
5105,66.406250
5106,68.359375
5107,66.406250
5108,68.359375
5109,70.312500
5110,68.359375
5111,70.312500
5112,70.312500
5113,70.312500
5114,70.312500
5115,70.312500
5116,70.312500
5117,72.265625
5118,72.265625
5119,72.265625
5120,72.265625
5121,74.218750
5122,74.218750
5123,74.218750
5124,74.218750
5125,74.218750
5126,76.171875
5127,74.218750
5128,76.171875
5129,76.171875
5130,76.171875
5131,76.171875
5132,76.171875
5133,76.171875
5134,76.171875
5135,76.171875
5136,78.125000
5137,76.171875
5138,78.125000
5139,78.125000
5140,78.125000
5141,78.125000
5142,78.125000
5143,78.125000
5144,78.125000
5145,78.125000
5146,78.125000
5147,78.125000
5148,78.125000
5149,78.125000
5150,78.125000
5151,78.125000
5152,78.125000
5153,78.125000
5154,78.125000
5155,78.125000
5156,78.125000
5157,78.125000
5158,78.125000
5159,78.125000
5160,78.125000
5161,78.125000
5162,78.125000
5163,78.125000
5164,78.125000
5165,78.125000
5166,78.125000
5167,78.125000
5168,78.125000
5169,78.125000
5170,78.125000
5171,78.125000
5172,78.125000
5173,78.125000
5174,76.171875
5175,76.171875
5176,76.171875
5177,76.171875
5178,76.171875
5179,76.171875
5180,76.171875
5181,74.218750
5182,76.171875
5183,74.218750
5184,74.218750
5185,74.218750
5186,74.218750
5187,74.218750
5188,72.265625
5189,74.218750
5190,72.265625
5191,72.265625
5192,72.265625
5193,72.265625
5194,70.312500
5195,70.312500
5196,70.312500
5197,70.312500
5198,70.312500
5199,68.359375
5200,68.359375
5201,68.359375
5202,68.359375
5203,68.359375
5204,66.406250
5205,66.406250
5206,66.406250
5207,66.406250
5208,66.406250
5209,64.453125
5210,62.500000
5211,64.453125
5212,62.500000
5213,62.500000
5214,62.500000
5215,60.546875
5216,60.546875
5217,60.546875
5218,58.593750
5219,58.593750
5220,58.593750
5221,56.640625
5222,56.640625
5223,56.640625
5224,54.687500
5225,54.687500
5226,54.687500
5227,52.734375
5228,52.734375
5229,52.734375
5230,52.734375
5231,50.781250
5232,50.781250
5233,48.828125
5234,48.828125
5235,48.828125
5236,46.875000
5237,46.875000
5238,46.875000
5239,44.921875
5240,44.921875
5241,44.921875
5242,42.968750
5243,42.968750
5244,41.015625
5245,41.015625
5246,41.015625
5247,39.062500
5248,39.062500
5249,37.109375
5250,37.109375
5251,37.109375
5252,35.156250
5253,35.156250
5254,33.203125
5255,33.203125
5256,31.250000
5257,31.250000
5258,31.250000
5259,29.296875
5260,29.296875
5261,27.343750
5262,27.343750
5263,25.390625
5264,25.390625
5265,25.390625
5266,23.437500
5267,21.484375
5268,21.484375
5269,21.484375
5270,19.531250
5271,19.531250
5272,17.578125
5273,17.578125
5274,15.625000
5275,15.625000
5276,15.625000
5277,13.671875
5278,11.718750
5279,11.718750
5280,9.765625
5281,9.765625
5282,9.765625
5283,7.812500
5284,7.812500
5285,5.859375
5286,5.859375
5287,3.906250
5288,3.906250
5289,1.953125
5290,1.953125
5291,0.000000
5292,0.000000
5293,-1.953125
5294,-1.953125
5295,-3.906250
5296,-3.906250
5297,-5.859375
5298,-5.859375
5299,-5.859375
5300,-7.812500
5301,-7.812500
5302,-9.765625
5303,-9.765625
5304,-11.718750
5305,-11.718750
5306,-13.671875
5307,-13.671875
5308,-15.625000
5309,-15.625000
5310,-17.578125
5311,-17.578125
5312,-19.531250
5313,-19.531250
5314,-19.531250
5315,-21.484375
5316,-23.437500
5317,-23.437500
5318,-25.390625
5319,-23.437500
5320,-27.343750
5321,-27.343750
5322,-27.343750
5323,-29.296875
5324,-29.296875
5325,-31.250000
5326,-31.250000
5327,-33.203125
5328,-33.203125
5329,-33.203125
5330,-35.156250
5331,-37.109375
5332,-37.109375
5333,-39.062500
5334,-39.062500
5335,-39.062500
5336,-41.015625
5337,-41.015625
5338,-42.968750
5339,-42.968750
5340,-44.921875
5341,-44.921875
5342,-46.875000
5343,-46.875000
5344,-46.875000
5345,-46.875000
5346,-48.828125
5347,-50.781250
5348,-50.781250
5349,-52.734375
5350,-52.734375
5351,-52.734375
5352,-54.687500
5353,-54.687500
5354,-56.640625
5355,-56.640625
5356,-56.640625
5357,-58.593750
5358,-58.593750
5359,-60.546875
5360,-60.546875
5361,-60.546875
5362,-62.500000
5363,-62.500000
5364,-64.453125
5365,-64.453125
5366,-64.453125
5367,-64.453125
5368,-66.406250
5369,-66.406250
5370,-66.406250
5371,-68.359375
5372,-68.359375
5373,-68.359375
5374,-70.312500
5375,-70.312500
5376,-70.312500
5377,-72.265625
5378,-72.265625
5379,-74.218750
5380,-74.218750
5381,-74.218750
5382,-74.218750
5383,-74.218750
5384,-76.171875
5385,-76.171875
5386,-78.125000
5387,-78.125000
5388,-78.125000
5389,-78.125000
5390,-80.078125
5391,-80.078125
5392,-80.078125
5393,-80.078125
5394,-82.031250
5395,-82.031250
5396,-82.031250
5397,-82.031250
5398,-82.031250
5399,-83.984375
5400,-83.984375
5401,-83.984375
5402,-85.937500
5403,-83.984375
5404,-85.937500
5405,-85.937500
5406,-85.937500
5407,-87.890625
5408,-87.890625
5409,-87.890625
5410,-87.890625
5411,-87.890625
5412,-87.890625
5413,-89.843750
5414,-89.843750
5415,-89.843750
5416,-89.843750
5417,-89.843750
5418,-89.843750
5419,-89.843750
5420,-91.796875
5421,-91.796875
5422,-91.796875
5423,-91.796875
5424,-91.796875
5425,-91.796875
5426,-91.796875
5427,-93.750000
5428,-93.750000
5429,-91.796875
5430,-93.750000
5431,-91.796875
5432,-91.796875
5433,-93.750000
5434,-93.750000
5435,-93.750000
5436,-93.750000
5437,-93.750000
5438,-93.750000
5439,-93.750000
5440,-93.750000
5441,-93.750000
5442,-93.750000
5443,-93.750000
5444,-93.750000
5445,-93.750000
5446,-93.750000
5447,-93.750000
5448,-93.750000
5449,-93.750000
5450,-93.750000
5451,-93.750000
5452,-93.750000
5453,-93.750000
5454,-93.750000
5455,-93.750000
5456,-93.750000
5457,-93.750000
5458,-91.796875
5459,-93.750000
5460,-93.750000
5461,-93.750000
5462,-91.796875
5463,-93.750000
5464,-91.796875
5465,-93.750000
5466,-91.796875
5467,-91.796875
5468,-91.796875
5469,-91.796875
5470,-91.796875
5471,-91.796875
5472,-91.796875
5473,-89.843750
5474,-91.796875
5475,-89.843750
5476,-89.843750
5477,-89.843750
5478,-89.843750
5479,-89.843750
5480,-87.890625
5481,-89.843750
5482,-87.890625
5483,-87.890625
5484,-87.890625
5485,-85.937500
5486,-85.937500
5487,-85.937500
5488,-85.937500
5489,-85.937500
5490,-83.984375
5491,-83.984375
5492,-83.984375
5493,-83.984375
5494,-83.984375
5495,-82.031250
5496,-82.031250
5497,-82.031250
5498,-80.078125
5499,-80.078125
5500,-80.078125
5501,-80.078125
5502,-80.078125
5503,-78.125000
5504,-78.125000
5505,-78.125000
5506,-78.125000
5507,-76.171875
5508,-76.171875
5509,-76.171875
5510,-74.218750
5511,-74.218750
5512,-74.218750
5513,-72.265625
5514,-72.265625
5515,-72.265625
5516,-72.265625
5517,-70.312500
5518,-70.312500
5519,-68.359375
5520,-68.359375
5521,-68.359375
5522,-66.406250
5523,-66.406250
5524,-66.406250
5525,-66.406250
5526,-66.406250
5527,-64.453125
5528,-62.500000
5529,-62.500000
5530,-62.500000
5531,-60.546875
5532,-60.546875
5533,-60.546875
5534,-58.593750
5535,-58.593750
5536,-58.593750
5537,-56.640625
5538,-56.640625
5539,-54.687500
5540,-52.734375
5541,-54.687500
5542,-52.734375
5543,-52.734375
5544,-50.781250
5545,-50.781250
5546,-50.781250
5547,-48.828125
5548,-48.828125
5549,-48.828125
5550,-46.875000
5551,-46.875000
5552,-44.921875
5553,-42.968750
5554,-42.968750
5555,-42.968750
5556,-41.015625
5557,-41.015625
5558,-41.015625
5559,-39.062500
5560,-39.062500
5561,-37.109375
5562,-35.156250
5563,-35.156250
5564,-35.156250
5565,-33.203125
5566,-33.203125
5567,-31.250000
5568,-31.250000
5569,-31.250000
5570,-29.296875
5571,-29.296875
5572,-27.343750
5573,-27.343750
5574,-25.390625
5575,-25.390625
5576,-23.437500
5577,-21.484375
5578,-21.484375
5579,-21.484375
5580,-19.531250
5581,-19.531250
5582,-17.578125
5583,-17.578125
5584,-17.578125
5585,-15.625000
5586,-13.671875
5587,-13.671875
5588,-13.671875
5589,-11.718750
5590,-9.765625
5591,-9.765625
5592,-9.765625
5593,-7.812500
5594,-7.812500
5595,-5.859375
5596,-5.859375
5597,-3.906250
5598,-3.906250
5599,-1.953125
5600,-1.953125
5601,-1.953125
5602,0.000000
5603,1.953125
5604,1.953125
5605,3.906250
5606,3.906250
5607,3.906250
5608,5.859375
5609,7.812500
5610,7.812500
5611,7.812500
5612,9.765625
5613,9.765625
5614,11.718750
5615,11.718750
5616,13.671875
5617,13.671875
5618,15.625000
5619,15.625000
5620,17.578125
5621,17.578125
5622,19.531250
5623,19.531250
5624,21.484375
5625,21.484375
5626,21.484375
5627,23.437500
5628,23.437500
5629,25.390625
5630,25.390625
5631,27.343750
5632,29.296875
5633,29.296875
5634,29.296875
5635,31.250000
5636,31.250000
5637,31.250000
5638,33.203125
5639,35.156250
5640,35.156250
5641,35.156250
5642,35.156250
5643,37.109375
5644,39.062500
5645,39.062500
5646,39.062500
5647,41.015625
5648,41.015625
5649,42.968750
5650,42.968750
5651,42.968750
5652,42.968750
5653,44.921875
5654,46.875000
5655,46.875000
5656,46.875000
5657,46.875000
5658,48.828125
5659,48.828125
5660,48.828125
5661,50.781250
5662,50.781250
5663,52.734375
5664,52.734375
5665,52.734375
5666,54.687500
5667,54.687500
5668,54.687500
5669,56.640625
5670,56.640625
5671,56.640625
5672,58.593750
5673,58.593750
5674,58.593750
5675,60.546875
5676,60.546875
5677,60.546875
5678,62.500000
5679,62.500000
5680,62.500000
5681,62.500000
5682,62.500000
5683,64.453125
5684,64.453125
5685,64.453125
5686,66.406250
5687,66.406250
5688,66.406250
5689,68.359375
5690,68.359375
5691,68.359375
5692,68.359375
5693,68.359375
5694,70.312500
5695,70.312500
5696,70.312500
5697,70.312500
5698,72.265625
5699,72.265625
5700,72.265625
5701,72.265625
5702,72.265625
5703,74.218750
5704,72.265625
5705,74.218750
5706,74.218750
5707,74.218750
5708,74.218750
5709,74.218750
5710,76.171875
5711,76.171875
5712,76.171875
5713,76.171875
5714,76.171875
5715,76.171875
5716,76.171875
5717,76.171875
5718,76.171875
5719,78.125000
5720,78.125000
5721,78.125000
5722,78.125000
5723,78.125000
5724,78.125000
5725,78.125000
5726,78.125000
5727,78.125000
5728,78.125000
5729,78.125000
5730,78.125000
5731,80.078125
5732,78.125000
5733,78.125000
5734,80.078125
5735,80.078125
5736,78.125000
5737,80.078125
5738,78.125000
5739,78.125000
5740,78.125000
5741,78.125000
5742,78.125000
5743,80.078125
5744,78.125000
5745,78.125000
5746,80.078125
5747,78.125000
5748,78.125000
5749,78.125000
5750,78.125000
5751,78.125000
5752,78.125000
5753,78.125000
5754,78.125000
5755,78.125000
5756,76.171875
5757,78.125000
5758,78.125000
5759,76.171875
5760,76.171875
5761,76.171875
5762,76.171875
5763,76.171875
5764,76.171875
5765,76.171875
5766,74.218750
5767,74.218750
5768,74.218750
5769,74.218750
5770,74.218750
5771,74.218750
5772,74.218750
5773,72.265625
5774,72.265625
5775,72.265625
5776,72.265625
5777,72.265625
5778,72.265625
5779,70.312500
5780,70.312500
5781,70.312500
5782,68.359375
5783,68.359375
5784,68.359375
5785,68.359375
5786,68.359375
5787,66.406250
5788,66.406250
5789,64.453125
5790,64.453125
5791,64.453125
5792,64.453125
5793,64.453125
5794,62.500000
5795,62.500000
5796,62.500000
5797,60.546875
5798,60.546875
5799,60.546875
5800,60.546875
5801,58.593750
5802,58.593750
5803,58.593750
5804,56.640625
5805,56.640625
5806,56.640625
5807,54.687500
5808,54.687500
5809,54.687500
5810,52.734375
5811,52.734375
5812,50.781250
5813,50.781250
5814,50.781250
5815,50.781250
5816,48.828125
5817,48.828125
5818,46.875000
5819,46.875000
5820,46.875000
5821,44.921875
5822,44.921875
5823,42.968750
5824,42.968750
5825,42.968750
5826,41.015625
5827,41.015625
5828,41.015625
5829,39.062500
5830,39.062500
5831,37.109375
5832,37.109375
5833,37.109375
5834,35.156250
5835,35.156250
5836,35.156250
5837,33.203125
5838,33.203125
5839,31.250000
5840,31.250000
5841,29.296875
5842,29.296875
5843,29.296875
5844,25.390625
5845,27.343750
5846,25.390625
5847,25.390625
5848,23.437500
5849,21.484375
5850,21.484375
5851,21.484375
5852,21.484375
5853,19.531250
5854,17.578125
5855,17.578125
5856,17.578125
5857,15.625000
5858,15.625000
5859,13.671875
5860,13.671875
5861,13.671875
5862,9.765625
5863,9.765625
5864,9.765625
5865,7.812500
5866,7.812500
5867,5.859375
5868,5.859375
5869,5.859375
5870,3.906250
5871,1.953125
5872,1.953125
5873,0.000000
5874,0.000000
5875,-1.953125
5876,-1.953125
5877,0.000000
5878,-3.906250
5879,-3.906250
5880,-5.859375
5881,-5.859375
5882,-5.859375
5883,-7.812500
5884,-9.765625
5885,-9.765625
5886,-11.718750
5887,-9.765625
5888,-13.671875
5889,-13.671875
5890,-15.625000
5891,-15.625000
5892,-17.578125
5893,-15.625000
5894,-19.531250
5895,-19.531250
5896,-17.578125
5897,-21.484375
5898,-23.437500
5899,-23.437500
5900,-23.437500
5901,-23.437500
5902,-25.390625
5903,-27.343750
5904,-27.343750
5905,-27.343750
5906,-29.296875
5907,-31.250000
5908,-31.250000
5909,-33.203125
5910,-33.203125
5911,-35.156250
5912,-35.156250
5913,-35.156250
5914,-37.109375
5915,-37.109375
5916,-39.062500
5917,-41.015625
5918,-39.062500
5919,-41.015625
5920,-42.968750
5921,-42.968750
5922,-44.921875
5923,-44.921875
5924,-46.875000
5925,-46.875000
5926,-46.875000
5927,-48.828125
5928,-48.828125
5929,-48.828125
5930,-50.781250
5931,-52.734375
5932,-52.734375
5933,-52.734375
5934,-54.687500
5935,-54.687500
5936,-56.640625
5937,-56.640625
5938,-56.640625
5939,-58.593750
5940,-58.593750
5941,-60.546875
5942,-60.546875
5943,-60.546875
5944,-62.500000
5945,-62.500000
5946,-62.500000
5947,-64.453125
5948,-64.453125
5949,-64.453125
5950,-66.406250
5951,-66.406250
5952,-68.359375
5953,-68.359375
5954,-68.359375
5955,-68.359375
5956,-70.312500
5957,-70.312500
5958,-70.312500
5959,-72.265625
5960,-72.265625
5961,-72.265625
5962,-74.218750
5963,-74.218750
5964,-74.218750
5965,-74.218750
5966,-76.171875
5967,-76.171875
5968,-76.171875
5969,-78.125000
5970,-78.125000
5971,-78.125000
5972,-80.078125
5973,-80.078125
5974,-80.078125
5975,-80.078125
5976,-80.078125
5977,-82.031250
5978,-82.031250
5979,-82.031250
5980,-82.031250
5981,-83.984375
5982,-83.984375
5983,-83.984375
5984,-83.984375
5985,-85.937500
5986,-85.937500
5987,-85.937500
5988,-85.937500
5989,-85.937500
5990,-85.937500
5991,-87.890625
5992,-87.890625
5993,-87.890625
5994,-87.890625
5995,-89.843750
5996,-87.890625
5997,-89.843750
5998,-89.843750
5999,-89.843750
6000,-89.843750
6001,-89.843750
6002,-91.796875
6003,-91.796875
6004,-91.796875
6005,-91.796875
6006,-91.796875
6007,-91.796875
6008,-91.796875
6009,-91.796875
6010,-91.796875
6011,-91.796875
6012,-93.750000
6013,-93.750000
6014,-93.750000
6015,-91.796875
6016,-93.750000
6017,-93.750000
6018,-93.750000
6019,-93.750000
6020,-93.750000
6021,-93.750000
6022,-93.750000
6023,-93.750000
6024,-93.750000
6025,-93.750000
6026,-93.750000
6027,-93.750000
6028,-91.796875
6029,-93.750000
6030,-93.750000
6031,-93.750000
6032,-93.750000
6033,-93.750000
6034,-93.750000
6035,-93.750000
6036,-93.750000
6037,-93.750000
6038,-93.750000
6039,-93.750000
6040,-91.796875
6041,-91.796875
6042,-93.750000
6043,-93.750000
6044,-91.796875
6045,-91.796875
6046,-91.796875
6047,-91.796875
6048,-91.796875
6049,-89.843750
6050,-91.796875
6051,-91.796875
6052,-91.796875
6053,-91.796875
6054,-89.843750
6055,-89.843750
6056,-89.843750
6057,-89.843750
6058,-89.843750
6059,-89.843750
6060,-89.843750
6061,-89.843750
6062,-87.890625
6063,-87.890625
6064,-87.890625
6065,-87.890625
6066,-85.937500
6067,-87.890625
6068,-85.937500
6069,-85.937500
6070,-85.937500
6071,-85.937500
6072,-85.937500
6073,-83.984375
6074,-83.984375
6075,-83.984375
6076,-83.984375
6077,-82.031250
6078,-85.937500
6079,-80.078125
6080,-82.031250
6081,-80.078125
6082,-80.078125
6083,-80.078125
6084,-78.125000
6085,-78.125000
6086,-78.125000
6087,-78.125000
6088,-78.125000
6089,-76.171875
6090,-76.171875
6091,-74.218750
6092,-74.218750
6093,-74.218750
6094,-72.265625
6095,-72.265625
6096,-72.265625
6097,-68.359375
6098,-70.312500
6099,-70.312500
6100,-70.312500
6101,-68.359375
6102,-68.359375
6103,-68.359375
6104,-66.406250
6105,-66.406250
6106,-66.406250
6107,-64.453125
6108,-64.453125
6109,-62.500000
6110,-62.500000
6111,-62.500000
6112,-62.500000
6113,-60.546875
6114,-58.593750
6115,-58.593750
6116,-58.593750
6117,-58.593750
6118,-56.640625
6119,-56.640625
6120,-56.640625
6121,-56.640625
6122,-54.687500
6123,-52.734375
6124,-52.734375
6125,-52.734375
6126,-52.734375
6127,-50.781250
6128,-50.781250
6129,-44.921875
6130,-48.828125
6131,-48.828125
6132,-46.875000
6133,-44.921875
6134,-44.921875
6135,-44.921875
6136,-42.968750
6137,-42.968750
6138,-41.015625
6139,-41.015625
6140,-41.015625
6141,-39.062500
6142,-37.109375
6143,-37.109375
6144,-37.109375
6145,-37.109375
6146,-33.203125
6147,-33.203125
6148,-33.203125
6149,-31.250000
6150,-31.250000
6151,-29.296875
6152,-29.296875
6153,-29.296875
6154,-27.343750
6155,-27.343750
6156,-25.390625
6157,-23.437500
6158,-23.437500
6159,-23.437500
6160,-21.484375
6161,-21.484375
6162,-19.531250
6163,-17.578125
6164,-19.531250
6165,-17.578125
6166,-17.578125
6167,-15.625000
6168,-15.625000
6169,-13.671875
6170,-13.671875
6171,-11.718750
6172,-9.765625
6173,-9.765625
6174,-9.765625
6175,-9.765625
6176,-7.812500
6177,-5.859375
6178,-5.859375
6179,-5.859375
6180,-3.906250
6181,-1.953125
6182,-1.953125
6183,-1.953125
6184,0.000000
6185,1.953125
6186,1.953125
6187,1.953125
6188,3.906250
6189,3.906250
6190,5.859375
6191,5.859375
6192,5.859375
6193,7.812500
6194,9.765625
6195,9.765625
6196,11.718750
6197,11.718750
6198,11.718750
6199,13.671875
6200,15.625000
6201,15.625000
6202,15.625000
6203,17.578125
6204,19.531250
6205,19.531250
6206,19.531250
6207,21.484375
6208,21.484375
6209,23.437500
6210,23.437500
6211,25.390625
6212,25.390625
6213,27.343750
6214,27.343750
6215,27.343750
6216,29.296875
6217,29.296875
6218,31.250000
6219,33.203125
6220,33.203125
6221,33.203125
6222,35.156250
6223,35.156250
6224,37.109375
6225,37.109375
6226,37.109375
6227,39.062500
6228,39.062500
6229,39.062500
6230,41.015625
6231,41.015625
6232,42.968750
6233,42.968750
6234,42.968750
6235,44.921875
6236,44.921875
6237,46.875000
6238,46.875000
6239,46.875000
6240,48.828125
6241,48.828125
6242,50.781250
6243,50.781250
6244,50.781250
6245,52.734375
6246,52.734375
6247,52.734375
6248,52.734375
6249,54.687500
6250,54.687500
6251,54.687500
6252,56.640625
6253,56.640625
6254,56.640625
6255,58.593750
6256,58.593750
6257,58.593750
6258,58.593750
6259,60.546875
6260,60.546875
6261,62.500000
6262,62.500000
6263,62.500000
6264,64.453125
6265,64.453125
6266,64.453125
6267,64.453125
6268,64.453125
6269,66.406250
6270,66.406250
6271,66.406250
6272,66.406250
6273,66.406250
6274,68.359375
6275,68.359375
6276,68.359375
6277,70.312500
6278,70.312500
6279,70.312500
6280,70.312500
6281,72.265625
6282,72.265625
6283,72.265625
6284,72.265625
6285,72.265625
6286,72.265625
6287,74.218750
6288,74.218750
6289,74.218750
6290,74.218750
6291,74.218750
6292,74.218750
6293,76.171875
6294,74.218750
6295,76.171875
6296,76.171875
6297,76.171875
6298,76.171875
6299,76.171875
6300,76.171875
6301,76.171875
6302,76.171875
6303,76.171875
6304,78.125000
6305,78.125000
6306,78.125000
6307,78.125000
6308,78.125000
6309,78.125000
6310,78.125000
6311,78.125000
6312,78.125000
6313,76.171875
6314,80.078125
6315,78.125000
6316,78.125000
6317,78.125000
6318,78.125000
6319,78.125000
6320,78.125000
6321,80.078125
6322,78.125000
6323,78.125000
6324,78.125000
6325,78.125000
6326,78.125000
6327,78.125000
6328,78.125000
6329,78.125000
6330,78.125000
6331,78.125000
6332,78.125000
6333,78.125000
6334,78.125000
6335,78.125000
6336,76.171875
6337,78.125000
6338,78.125000
6339,78.125000
6340,76.171875
6341,76.171875
6342,76.171875
6343,76.171875
6344,76.171875
6345,76.171875
6346,76.171875
6347,76.171875
6348,74.218750
6349,74.218750
6350,74.218750
6351,74.218750
6352,74.218750
6353,74.218750
6354,74.218750
6355,72.265625
6356,72.265625
6357,72.265625
6358,72.265625
6359,70.312500
6360,70.312500
6361,70.312500
6362,70.312500
6363,70.312500
6364,68.359375
6365,68.359375
6366,68.359375
6367,66.406250
6368,68.359375
6369,66.406250
6370,66.406250
6371,66.406250
6372,66.406250
6373,64.453125
6374,64.453125
6375,64.453125
6376,62.500000
6377,62.500000
6378,62.500000
6379,62.500000
6380,60.546875
6381,60.546875
6382,60.546875
6383,58.593750
6384,58.593750
6385,58.593750
6386,56.640625
6387,56.640625
6388,56.640625
6389,54.687500
6390,54.687500
6391,54.687500
6392,54.687500
6393,52.734375
6394,52.734375
6395,50.781250
6396,50.781250
6397,50.781250
6398,48.828125
6399,48.828125
6400,48.828125
6401,46.875000
6402,46.875000
6403,44.921875
6404,44.921875
6405,44.921875
6406,42.968750
6407,42.968750
6408,41.015625
6409,41.015625
6410,41.015625
6411,41.015625
6412,39.062500
6413,39.062500
6414,37.109375
6415,37.109375
6416,35.156250
6417,35.156250
6418,35.156250
6419,33.203125
6420,33.203125
6421,33.203125
6422,31.250000
6423,31.250000
6424,31.250000
6425,27.343750
6426,27.343750
6427,27.343750
6428,27.343750
6429,25.390625
6430,23.437500
6431,23.437500
6432,23.437500
6433,23.437500
6434,21.484375
6435,19.531250
6436,19.531250
6437,17.578125
6438,17.578125
6439,17.578125
6440,15.625000
6441,13.671875
6442,13.671875
6443,13.671875
6444,11.718750
6445,11.718750
6446,9.765625
6447,9.765625
6448,7.812500
6449,7.812500
6450,5.859375
6451,5.859375
6452,3.906250
6453,3.906250
6454,1.953125
6455,1.953125
6456,0.000000
6457,0.000000
6458,-1.953125
6459,-1.953125
6460,-1.953125
6461,-3.906250
6462,-3.906250
6463,-5.859375
6464,-5.859375
6465,-7.812500
6466,-7.812500
6467,-9.765625
6468,-9.765625
6469,-11.718750
6470,-11.718750
6471,-13.671875
6472,-13.671875
6473,-13.671875
6474,-15.625000
6475,-15.625000
6476,-17.578125
6477,-17.578125
6478,-19.531250
6479,-21.484375
6480,-21.484375
6481,-23.437500
6482,-23.437500
6483,-23.437500
6484,-25.390625
6485,-27.343750
6486,-27.343750
6487,-27.343750
6488,-29.296875
6489,-29.296875
6490,-31.250000
6491,-31.250000
6492,-33.203125
6493,-33.203125
6494,-33.203125
6495,-35.156250
6496,-35.156250
6497,-37.109375
6498,-37.109375
6499,-39.062500
6500,-39.062500
6501,-41.015625
6502,-41.015625
6503,-42.968750
6504,-42.968750
6505,-42.968750
6506,-44.921875
6507,-44.921875
6508,-46.875000
6509,-46.875000
6510,-48.828125
6511,-48.828125
6512,-50.781250
6513,-50.781250
6514,-52.734375
6515,-52.734375
6516,-52.734375
6517,-54.687500
6518,-54.687500
6519,-54.687500
6520,-56.640625
6521,-56.640625
6522,-58.593750
6523,-58.593750
6524,-60.546875
6525,-60.546875
6526,-60.546875
6527,-62.500000
6528,-62.500000
6529,-62.500000
6530,-62.500000
6531,-64.453125
6532,-64.453125
6533,-66.406250
6534,-66.406250
6535,-68.359375
6536,-68.359375
6537,-68.359375
6538,-68.359375
6539,-70.312500
6540,-70.312500
6541,-70.312500
6542,-72.265625
6543,-72.265625
6544,-72.265625
6545,-74.218750
6546,-74.218750
6547,-74.218750
6548,-74.218750
6549,-76.171875
6550,-76.171875
6551,-76.171875
6552,-78.125000
6553,-78.125000
6554,-78.125000
6555,-78.125000
6556,-80.078125
6557,-80.078125
6558,-80.078125
6559,-80.078125
6560,-80.078125
6561,-82.031250
6562,-82.031250
6563,-82.031250
6564,-83.984375
6565,-82.031250
6566,-83.984375
6567,-85.937500
6568,-83.984375
6569,-85.937500
6570,-85.937500
6571,-85.937500
6572,-87.890625
6573,-85.937500
6574,-87.890625
6575,-87.890625
6576,-87.890625
6577,-87.890625
6578,-87.890625
6579,-89.843750
6580,-89.843750
6581,-89.843750
6582,-89.843750
6583,-89.843750
6584,-89.843750
6585,-89.843750
6586,-91.796875
6587,-91.796875
6588,-91.796875
6589,-91.796875
6590,-91.796875
6591,-91.796875
6592,-91.796875
6593,-91.796875
6594,-91.796875
6595,-91.796875
6596,-91.796875
6597,-91.796875
6598,-91.796875
6599,-93.750000
6600,-93.750000
6601,-93.750000
6602,-91.796875
6603,-93.750000
6604,-93.750000
6605,-93.750000
6606,-93.750000
6607,-93.750000
6608,-93.750000
6609,-93.750000
6610,-93.750000
6611,-93.750000
6612,-93.750000
6613,-93.750000
6614,-93.750000
6615,-93.750000
6616,-93.750000
6617,-93.750000
6618,-93.750000
6619,-93.750000
6620,-93.750000
6621,-93.750000
6622,-93.750000
6623,-91.796875
6624,-91.796875
6625,-91.796875
6626,-91.796875
6627,-93.750000
6628,-91.796875
6629,-91.796875
6630,-91.796875
6631,-91.796875
6632,-91.796875
6633,-91.796875
6634,-91.796875
6635,-91.796875
6636,-91.796875
6637,-91.796875
6638,-89.843750
6639,-89.843750
6640,-89.843750
6641,-89.843750
6642,-89.843750
6643,-89.843750
6644,-89.843750
6645,-87.890625
6646,-87.890625
6647,-87.890625
6648,-87.890625
6649,-87.890625
6650,-87.890625
6651,-85.937500
6652,-85.937500
6653,-85.937500
6654,-85.937500
6655,-83.984375
6656,-83.984375
6657,-83.984375
6658,-83.984375
6659,-82.031250
6660,-82.031250
6661,-82.031250
6662,-80.078125
6663,-80.078125
6664,-80.078125
6665,-80.078125
6666,-78.125000
6667,-80.078125
6668,-76.171875
6669,-78.125000
6670,-78.125000
6671,-76.171875
6672,-76.171875
6673,-76.171875
6674,-76.171875
6675,-74.218750
6676,-74.218750
6677,-72.265625
6678,-72.265625
6679,-72.265625
6680,-70.312500
6681,-70.312500
6682,-70.312500
6683,-70.312500
6684,-68.359375
6685,-68.359375
6686,-68.359375
6687,-66.406250
6688,-66.406250
6689,-64.453125
6690,-64.453125
6691,-64.453125
6692,-62.500000
6693,-62.500000
6694,-62.500000
6695,-60.546875
6696,-60.546875
6697,-60.546875
6698,-60.546875
6699,-58.593750
6700,-58.593750
6701,-56.640625
6702,-56.640625
6703,-56.640625
6704,-54.687500
6705,-54.687500
6706,-52.734375
6707,-52.734375
6708,-50.781250
6709,-50.781250
6710,-50.781250
6711,-48.828125
6712,-48.828125
6713,-46.875000
6714,-46.875000
6715,-46.875000
6716,-46.875000
6717,-44.921875
6718,-42.968750
6719,-42.968750
6720,-42.968750
6721,-41.015625
6722,-41.015625
6723,-41.015625
6724,-39.062500
6725,-37.109375
6726,-37.109375
6727,-37.109375
6728,-35.156250
6729,-35.156250
6730,-33.203125
6731,-33.203125
6732,-31.250000
6733,-31.250000
6734,-31.250000
6735,-29.296875
6736,-27.343750
6737,-27.343750
6738,-25.390625
6739,-25.390625
6740,-25.390625
6741,-23.437500
6742,-23.437500
6743,-21.484375
6744,-21.484375
6745,-19.531250
6746,-19.531250
6747,-17.578125
6748,-17.578125
6749,-15.625000
6750,-15.625000
6751,-13.671875
6752,-13.671875
6753,-11.718750
6754,-11.718750
6755,-9.765625
6756,-9.765625
6757,-7.812500
6758,-7.812500
6759,-7.812500
6760,-5.859375
6761,-5.859375
6762,-3.906250
6763,-1.953125
6764,-1.953125
6765,-1.953125
6766,0.000000
6767,0.000000
6768,1.953125
6769,1.953125
6770,3.906250
6771,3.906250
6772,3.906250
6773,5.859375
6774,5.859375
6775,7.812500
6776,7.812500
6777,9.765625
6778,11.718750
6779,11.718750
6780,13.671875
6781,13.671875
6782,13.671875
6783,15.625000
6784,17.578125
6785,17.578125
6786,17.578125
6787,17.578125
6788,19.531250
6789,21.484375
6790,21.484375
6791,21.484375
6792,23.437500
6793,23.437500
6794,25.390625
6795,25.390625
6796,27.343750
6797,27.343750
6798,29.296875
6799,29.296875
6800,29.296875
6801,31.250000
6802,31.250000
6803,33.203125
6804,33.203125
6805,35.156250
6806,35.156250
6807,37.109375
6808,37.109375
6809,37.109375
6810,39.062500
6811,39.062500
6812,41.015625
6813,41.015625
6814,41.015625
6815,42.968750
6816,42.968750
6817,44.921875
6818,44.921875
6819,46.875000
6820,46.875000
6821,46.875000
6822,46.875000
6823,48.828125
6824,48.828125
6825,50.781250
6826,50.781250
6827,50.781250
6828,50.781250
6829,52.734375
6830,52.734375
6831,54.687500
6832,54.687500
6833,54.687500
6834,54.687500
6835,56.640625
6836,56.640625
6837,58.593750
6838,58.593750
6839,58.593750
6840,60.546875
6841,60.546875
6842,60.546875
6843,60.546875
6844,62.500000
6845,62.500000
6846,62.500000
6847,62.500000
6848,62.500000
6849,64.453125
6850,64.453125
6851,66.406250
6852,66.406250
6853,66.406250
6854,66.406250
6855,68.359375
6856,68.359375
6857,68.359375
6858,68.359375
6859,70.312500
6860,70.312500
6861,70.312500
6862,70.312500
6863,70.312500
6864,70.312500
6865,72.265625
6866,72.265625
6867,74.218750
6868,72.265625
6869,74.218750
6870,74.218750
6871,74.218750
6872,74.218750
6873,74.218750
6874,74.218750
6875,74.218750
6876,76.171875
6877,76.171875
6878,76.171875
6879,76.171875
6880,76.171875
6881,76.171875
6882,76.171875
6883,76.171875
6884,78.125000
6885,76.171875
6886,78.125000
6887,78.125000
6888,78.125000
6889,78.125000
6890,76.171875
6891,78.125000
6892,78.125000
6893,78.125000
6894,78.125000
6895,78.125000
6896,78.125000
6897,78.125000
6898,78.125000
6899,78.125000
6900,78.125000
6901,78.125000
6902,78.125000
6903,78.125000
6904,78.125000
6905,78.125000
6906,78.125000
6907,78.125000
6908,78.125000
6909,78.125000
6910,78.125000
6911,78.125000
6912,78.125000
6913,78.125000
6914,78.125000
6915,78.125000
6916,78.125000
6917,78.125000
6918,78.125000
6919,78.125000
6920,78.125000
6921,76.171875
6922,76.171875
6923,78.125000
6924,76.171875
6925,76.171875
6926,76.171875
6927,76.171875
6928,76.171875
6929,76.171875
6930,76.171875
6931,74.218750
6932,74.218750
6933,74.218750
6934,74.218750
6935,74.218750
6936,72.265625
6937,74.218750
6938,72.265625
6939,72.265625
6940,72.265625
6941,70.312500
6942,70.312500
6943,70.312500
6944,70.312500
6945,70.312500
6946,68.359375
6947,68.359375
6948,68.359375
6949,68.359375
6950,68.359375
6951,66.406250
6952,66.406250
6953,66.406250
6954,66.406250
6955,66.406250
6956,64.453125
6957,64.453125
6958,62.500000
6959,62.500000
6960,62.500000
6961,62.500000
6962,62.500000
6963,60.546875
6964,60.546875
6965,58.593750
6966,58.593750
6967,58.593750
6968,58.593750
6969,56.640625
6970,56.640625
6971,56.640625
6972,54.687500
6973,54.687500
6974,54.687500
6975,52.734375
6976,52.734375
6977,52.734375
6978,50.781250
6979,50.781250
6980,48.828125
6981,48.828125
6982,48.828125
6983,48.828125
6984,46.875000
6985,46.875000
6986,44.921875
6987,44.921875
6988,44.921875
6989,42.968750
6990,42.968750
6991,41.015625
6992,41.015625
6993,41.015625
6994,41.015625
6995,39.062500
6996,39.062500
6997,37.109375
6998,37.109375
6999,37.109375
7000,35.156250
7001,33.203125
7002,33.203125
7003,33.203125
7004,31.250000
7005,31.250000
7006,29.296875
7007,29.296875
7008,27.343750
7009,27.343750
7010,27.343750
7011,25.390625
7012,25.390625
7013,23.437500
7014,23.437500
7015,23.437500
7016,21.484375
7017,19.531250
7018,19.531250
7019,17.578125
7020,17.578125
7021,17.578125
7022,15.625000
7023,15.625000
7024,13.671875
7025,13.671875
7026,11.718750
7027,11.718750
7028,11.718750
7029,9.765625
7030,7.812500
7031,7.812500
7032,7.812500
7033,5.859375
7034,3.906250
7035,3.906250
7036,3.906250
7037,1.953125
7038,1.953125
7039,0.000000
7040,0.000000
7041,-1.953125
7042,-1.953125
7043,-3.906250
7044,-1.953125
7045,-3.906250
7046,-5.859375
7047,-7.812500
7048,-7.812500
7049,-7.812500
7050,-9.765625
7051,-11.718750
7052,-11.718750
7053,-11.718750
7054,-13.671875
7055,-15.625000
7056,-15.625000
7057,-15.625000
7058,-17.578125
7059,-17.578125
7060,-19.531250
7061,-19.531250
7062,-21.484375
7063,-21.484375
7064,-21.484375
7065,-23.437500
7066,-25.390625
7067,-25.390625
7068,-25.390625
7069,-27.343750
7070,-27.343750
7071,-29.296875
7072,-29.296875
7073,-31.250000
7074,-31.250000
7075,-33.203125
7076,-33.203125
7077,-35.156250
7078,-35.156250
7079,-37.109375
7080,-37.109375
7081,-37.109375
7082,-39.062500
7083,-39.062500
7084,-41.015625
7085,-41.015625
7086,-42.968750
7087,-42.968750
7088,-44.921875
7089,-44.921875
7090,-46.875000
7091,-46.875000
7092,-46.875000
7093,-48.828125
7094,-48.828125
7095,-50.781250
7096,-50.781250
7097,-52.734375
7098,-52.734375
7099,-52.734375
7100,-54.687500
7101,-54.687500
7102,-56.640625
7103,-56.640625
7104,-56.640625
7105,-58.593750
7106,-58.593750
7107,-60.546875
7108,-60.546875
7109,-60.546875
7110,-60.546875
7111,-62.500000
7112,-62.500000
7113,-62.500000
7114,-64.453125
7115,-64.453125
7116,-66.406250
7117,-66.406250
7118,-66.406250
7119,-68.359375
7120,-68.359375
7121,-68.359375
7122,-68.359375
7123,-70.312500
7124,-70.312500
7125,-72.265625
7126,-72.265625
7127,-72.265625
7128,-74.218750
7129,-74.218750
7130,-74.218750
7131,-74.218750
7132,-76.171875
7133,-76.171875
7134,-76.171875
7135,-78.125000
7136,-78.125000
7137,-78.125000
7138,-78.125000
7139,-78.125000
7140,-80.078125
7141,-80.078125
7142,-80.078125
7143,-82.031250
7144,-82.031250
7145,-82.031250
7146,-82.031250
7147,-83.984375
7148,-83.984375
7149,-83.984375
7150,-83.984375
7151,-85.937500
7152,-83.984375
7153,-85.937500
7154,-85.937500
7155,-85.937500
7156,-87.890625
7157,-85.937500
7158,-87.890625
7159,-87.890625
7160,-87.890625
7161,-87.890625
7162,-87.890625
7163,-89.843750
7164,-89.843750
7165,-89.843750
7166,-89.843750
7167,-89.843750
7168,-89.843750
7169,-91.796875
7170,-89.843750
7171,-91.796875
7172,-91.796875
7173,-91.796875
7174,-91.796875
7175,-91.796875
7176,-91.796875
7177,-91.796875
7178,-91.796875
7179,-91.796875
7180,-91.796875
7181,-93.750000
7182,-93.750000
7183,-93.750000
7184,-93.750000
7185,-93.750000
7186,-93.750000
7187,-93.750000
7188,-93.750000
7189,-93.750000
7190,-93.750000
7191,-93.750000
7192,-93.750000
7193,-93.750000
7194,-93.750000
7195,-93.750000
7196,-93.750000
7197,-93.750000
7198,-93.750000
7199,-93.750000
7200,-93.750000
7201,-93.750000
7202,-93.750000
7203,-93.750000
7204,-93.750000
7205,-91.796875
7206,-93.750000
7207,-91.796875
7208,-91.796875
7209,-91.796875
7210,-91.796875
7211,-91.796875
7212,-91.796875
7213,-91.796875
7214,-91.796875
7215,-91.796875
7216,-91.796875
7217,-91.796875
7218,-91.796875
7219,-89.843750
7220,-91.796875
7221,-89.843750
7222,-89.843750
7223,-89.843750
7224,-89.843750
7225,-89.843750
7226,-87.890625
7227,-87.890625
7228,-87.890625
7229,-87.890625
7230,-87.890625
7231,-87.890625
7232,-85.937500
7233,-85.937500
7234,-85.937500
7235,-85.937500
7236,-85.937500
7237,-83.984375
7238,-83.984375
7239,-83.984375
7240,-83.984375
7241,-82.031250
7242,-82.031250
7243,-82.031250
7244,-82.031250
7245,-82.031250
7246,-80.078125
7247,-80.078125
7248,-80.078125
7249,-80.078125
7250,-78.125000
7251,-78.125000
7252,-76.171875
7253,-76.171875
7254,-76.171875
7255,-76.171875
7256,-74.218750
7257,-74.218750
7258,-74.218750
7259,-74.218750
7260,-72.265625
7261,-72.265625
7262,-70.312500
7263,-70.312500
7264,-70.312500
7265,-70.312500
7266,-70.312500
7267,-68.359375
7268,-68.359375
7269,-66.406250
7270,-66.406250
7271,-66.406250
7272,-66.406250
7273,-64.453125
7274,-64.453125
7275,-62.500000
7276,-62.500000
7277,-62.500000
7278,-60.546875
7279,-60.546875
7280,-60.546875
7281,-58.593750
7282,-58.593750
7283,-58.593750
7284,-56.640625
7285,-56.640625
7286,-54.687500
7287,-54.687500
7288,-54.687500
7289,-52.734375
7290,-52.734375
7291,-52.734375
7292,-50.781250
7293,-50.781250
7294,-48.828125
7295,-48.828125
7296,-46.875000
7297,-46.875000
7298,-46.875000
7299,-44.921875
7300,-44.921875
7301,-42.968750
7302,-42.968750
7303,-41.015625
7304,-41.015625
7305,-39.062500
7306,-39.062500
7307,-39.062500
7308,-37.109375
7309,-37.109375
7310,-35.156250
7311,-35.156250
7312,-33.203125
7313,-33.203125
7314,-31.250000
7315,-31.250000
7316,-31.250000
7317,-29.296875
7318,-29.296875
7319,-27.343750
7320,-27.343750
7321,-25.390625
7322,-25.390625
7323,-23.437500
7324,-23.437500
7325,-23.437500
7326,-21.484375
7327,-19.531250
7328,-19.531250
7329,-19.531250
7330,-17.578125
7331,-17.578125
7332,-15.625000
7333,-13.671875
7334,-13.671875
7335,-13.671875
7336,-11.718750
7337,-11.718750
7338,-9.765625
7339,-9.765625
7340,-7.812500
7341,-7.812500
7342,-5.859375
7343,-5.859375
7344,-3.906250
7345,-3.906250
7346,-1.953125
7347,-1.953125
7348,-1.953125
7349,0.000000
7350,0.000000
7351,1.953125
7352,1.953125
7353,3.906250
7354,3.906250
7355,5.859375
7356,5.859375
7357,7.812500
7358,7.812500
7359,7.812500
7360,9.765625
7361,11.718750
7362,11.718750
7363,11.718750
7364,13.671875
7365,13.671875
7366,15.625000
7367,15.625000
7368,17.578125
7369,17.578125
7370,17.578125
7371,19.531250
7372,19.531250
7373,21.484375
7374,23.437500
7375,23.437500
7376,23.437500
7377,25.390625
7378,25.390625
7379,27.343750
7380,27.343750
7381,29.296875
7382,29.296875
7383,31.250000
7384,31.250000
7385,31.250000
7386,33.203125
7387,33.203125
7388,35.156250
7389,35.156250
7390,37.109375
7391,37.109375
7392,39.062500
7393,39.062500
7394,39.062500
7395,39.062500
7396,41.015625
7397,42.968750
7398,42.968750
7399,42.968750
7400,42.968750
7401,44.921875
7402,44.921875
7403,46.875000
7404,46.875000
7405,46.875000
7406,48.828125
7407,48.828125
7408,50.781250
7409,50.781250
7410,50.781250
7411,52.734375
7412,52.734375
7413,52.734375
7414,52.734375
7415,54.687500
7416,54.687500
7417,56.640625
7418,56.640625
7419,56.640625
7420,58.593750
7421,58.593750
7422,58.593750
7423,58.593750
7424,60.546875
7425,60.546875
7426,60.546875
7427,60.546875
7428,62.500000
7429,62.500000
7430,62.500000
7431,64.453125
7432,64.453125
7433,64.453125
7434,64.453125
7435,66.406250
7436,66.406250
7437,66.406250
7438,66.406250
7439,68.359375
7440,68.359375
7441,68.359375
7442,70.312500
7443,70.312500
7444,70.312500
7445,70.312500
7446,70.312500
7447,70.312500
7448,72.265625
7449,72.265625
7450,72.265625
7451,72.265625
7452,72.265625
7453,72.265625
7454,72.265625
7455,74.218750
7456,74.218750
7457,74.218750
7458,74.218750
7459,74.218750
7460,74.218750
7461,76.171875
7462,76.171875
7463,76.171875
7464,76.171875
7465,76.171875
7466,76.171875
7467,76.171875
7468,78.125000
7469,76.171875
7470,78.125000
7471,78.125000
7472,78.125000
7473,78.125000
7474,78.125000
7475,78.125000
7476,78.125000
7477,78.125000
7478,78.125000
7479,78.125000
7480,78.125000
7481,78.125000
7482,78.125000
7483,78.125000
7484,78.125000
7485,78.125000
7486,78.125000
7487,78.125000
7488,78.125000
7489,78.125000
7490,78.125000
7491,78.125000
7492,78.125000
7493,78.125000
7494,78.125000
7495,78.125000
7496,78.125000
7497,78.125000
7498,78.125000
7499,76.171875
7500,78.125000
7501,78.125000
7502,76.171875
7503,76.171875
7504,76.171875
7505,76.171875
7506,76.171875
7507,76.171875
7508,76.171875
7509,76.171875
7510,76.171875
7511,76.171875
7512,74.218750
7513,76.171875
7514,74.218750
7515,74.218750
7516,74.218750
7517,74.218750
7518,74.218750
7519,72.265625
7520,72.265625
7521,72.265625
7522,72.265625
7523,70.312500
7524,72.265625
7525,70.312500
7526,70.312500
7527,70.312500
7528,70.312500
7529,70.312500
7530,68.359375
7531,68.359375
7532,66.406250
7533,68.359375
7534,66.406250
7535,66.406250
7536,66.406250
7537,66.406250
7538,64.453125
7539,64.453125
7540,64.453125
7541,64.453125
7542,62.500000
7543,62.500000
7544,62.500000
7545,60.546875
7546,60.546875
7547,58.593750
7548,58.593750
7549,58.593750
7550,58.593750
7551,58.593750
7552,56.640625
7553,56.640625
7554,56.640625
7555,54.687500
7556,54.687500
7557,52.734375
7558,52.734375
7559,52.734375
7560,50.781250
7561,50.781250
7562,50.781250
7563,50.781250
7564,48.828125
7565,48.828125
7566,48.828125
7567,46.875000
7568,46.875000
7569,44.921875
7570,44.921875
7571,44.921875
7572,44.921875
7573,42.968750
7574,41.015625
7575,41.015625
7576,41.015625
7577,39.062500
7578,39.062500
7579,37.109375
7580,37.109375
7581,37.109375
7582,35.156250
7583,35.156250
7584,33.203125
7585,33.203125
7586,31.250000
7587,31.250000
7588,31.250000
7589,29.296875
7590,29.296875
7591,27.343750
7592,27.343750
7593,27.343750
7594,25.390625
7595,25.390625
7596,23.437500
7597,23.437500
7598,23.437500
7599,21.484375
7600,21.484375
7601,19.531250
7602,19.531250
7603,17.578125
7604,17.578125
7605,15.625000
7606,15.625000
7607,15.625000
7608,13.671875
7609,11.718750
7610,11.718750
7611,9.765625
7612,9.765625
7613,9.765625
7614,7.812500
7615,7.812500
7616,5.859375
7617,5.859375
7618,3.906250
7619,3.906250
7620,1.953125
7621,1.953125
7622,0.000000
7623,0.000000
7624,-1.953125
7625,-1.953125
7626,-3.906250
7627,-3.906250
7628,-5.859375
7629,-5.859375
7630,-7.812500
7631,-7.812500
7632,-7.812500
7633,-9.765625
7634,-11.718750
7635,-11.718750
7636,-13.671875
7637,-13.671875
7638,-13.671875
7639,-15.625000
7640,-15.625000
7641,-17.578125
7642,-17.578125
7643,-19.531250
7644,-19.531250
7645,-21.484375
7646,-21.484375
7647,-23.437500
7648,-23.437500
7649,-25.390625
7650,-25.390625
7651,-27.343750
7652,-27.343750
7653,-27.343750
7654,-29.296875
7655,-29.296875
7656,-31.250000
7657,-31.250000
7658,-33.203125
7659,-33.203125
7660,-35.156250
7661,-35.156250
7662,-37.109375
7663,-37.109375
7664,-39.062500
7665,-39.062500
7666,-41.015625
7667,-41.015625
7668,-41.015625
7669,-42.968750
7670,-42.968750
7671,-42.968750
7672,-44.921875
7673,-46.875000
7674,-46.875000
7675,-46.875000
7676,-48.828125
7677,-48.828125
7678,-50.781250
7679,-50.781250
7680,-50.781250
7681,-52.734375
7682,-52.734375
7683,-54.687500
7684,-54.687500
7685,-56.640625
7686,-56.640625
7687,-56.640625
7688,-58.593750
7689,-58.593750
7690,-60.546875
7691,-60.546875
7692,-60.546875
7693,-60.546875
7694,-62.500000
7695,-62.500000
7696,-64.453125
7697,-64.453125
7698,-64.453125
7699,-64.453125
7700,-66.406250
7701,-66.406250
7702,-68.359375
7703,-68.359375
7704,-68.359375
7705,-68.359375
7706,-70.312500
7707,-70.312500
7708,-72.265625
7709,-72.265625
7710,-72.265625
7711,-72.265625
7712,-74.218750
7713,-74.218750
7714,-76.171875
7715,-76.171875
7716,-76.171875
7717,-76.171875
7718,-78.125000
7719,-78.125000
7720,-78.125000
7721,-78.125000
7722,-80.078125
7723,-80.078125
7724,-80.078125
7725,-82.031250
7726,-80.078125
7727,-82.031250
7728,-83.984375
7729,-83.984375
7730,-83.984375
7731,-83.984375
7732,-83.984375
7733,-83.984375
7734,-85.937500
7735,-85.937500
7736,-85.937500
7737,-85.937500
7738,-85.937500
7739,-87.890625
7740,-87.890625
7741,-87.890625
7742,-87.890625
7743,-87.890625
7744,-89.843750
7745,-89.843750
7746,-89.843750
7747,-89.843750
7748,-89.843750
7749,-89.843750
7750,-89.843750
7751,-91.796875
7752,-89.843750
7753,-89.843750
7754,-91.796875
7755,-91.796875
7756,-91.796875
7757,-91.796875
7758,-91.796875
7759,-91.796875
7760,-91.796875
7761,-91.796875
7762,-91.796875
7763,-91.796875
7764,-93.750000
7765,-91.796875
7766,-93.750000
7767,-91.796875
7768,-93.750000
7769,-93.750000
7770,-93.750000
7771,-93.750000
7772,-93.750000
7773,-93.750000
7774,-93.750000
7775,-93.750000
7776,-93.750000
7777,-93.750000
7778,-91.796875
7779,-93.750000
7780,-93.750000
7781,-93.750000
7782,-93.750000
7783,-93.750000
7784,-93.750000
7785,-91.796875
7786,-93.750000
7787,-91.796875
7788,-93.750000
7789,-93.750000
7790,-93.750000
7791,-91.796875
7792,-91.796875
7793,-91.796875
7794,-91.796875
7795,-93.750000
7796,-91.796875
7797,-91.796875
7798,-91.796875
7799,-91.796875
7800,-91.796875
7801,-91.796875
7802,-91.796875
7803,-91.796875
7804,-91.796875
7805,-89.843750
7806,-89.843750
7807,-89.843750
7808,-89.843750
7809,-89.843750
7810,-87.890625
7811,-87.890625
7812,-87.890625
7813,-87.890625
7814,-87.890625
7815,-85.937500
7816,-87.890625
7817,-85.937500
7818,-85.937500
7819,-83.984375
7820,-83.984375
7821,-83.984375
7822,-83.984375
7823,-83.984375
7824,-83.984375
7825,-83.984375
7826,-82.031250
7827,-82.031250
7828,-82.031250
7829,-80.078125
7830,-80.078125
7831,-80.078125
7832,-80.078125
7833,-78.125000
7834,-78.125000
7835,-78.125000
7836,-78.125000
7837,-76.171875
7838,-76.171875
7839,-76.171875
7840,-76.171875
7841,-74.218750
7842,-74.218750
7843,-72.265625
7844,-72.265625
7845,-72.265625
7846,-70.312500
7847,-70.312500
7848,-70.312500
7849,-70.312500
7850,-68.359375
7851,-68.359375
7852,-68.359375
7853,-66.406250
7854,-66.406250
7855,-64.453125
7856,-64.453125
7857,-64.453125
7858,-62.500000
7859,-62.500000
7860,-60.546875
7861,-60.546875
7862,-60.546875
7863,-60.546875
7864,-58.593750
7865,-58.593750
7866,-58.593750
7867,-56.640625
7868,-56.640625
7869,-50.781250
7870,-54.687500
7871,-54.687500
7872,-52.734375
7873,-52.734375
7874,-50.781250
7875,-50.781250
7876,-50.781250
7877,-48.828125
7878,-48.828125
7879,-46.875000
7880,-46.875000
7881,-46.875000
7882,-44.921875
7883,-44.921875
7884,-42.968750
7885,-42.968750
7886,-42.968750
7887,-41.015625
7888,-41.015625
7889,-39.062500
7890,-39.062500
7891,-37.109375
7892,-37.109375
7893,-35.156250
7894,-35.156250
7895,-35.156250
7896,-33.203125
7897,-31.250000
7898,-31.250000
7899,-31.250000
7900,-29.296875
7901,-27.343750
7902,-27.343750
7903,-27.343750
7904,-25.390625
7905,-25.390625
7906,-23.437500
7907,-23.437500
7908,-23.437500
7909,-19.531250
7910,-21.484375
7911,-19.531250
7912,-19.531250
7913,-17.578125
7914,-15.625000
7915,-15.625000
7916,-15.625000
7917,-13.671875
7918,-13.671875
7919,-11.718750
7920,-11.718750
7921,-9.765625
7922,-9.765625
7923,-7.812500
7924,-7.812500
7925,-5.859375
7926,-5.859375
7927,-3.906250
7928,-3.906250
7929,-3.906250
7930,-1.953125
7931,0.000000
7932,0.000000
7933,1.953125
7934,1.953125
7935,1.953125
7936,3.906250
7937,5.859375
7938,5.859375
7939,5.859375
7940,7.812500
7941,7.812500
7942,9.765625
7943,9.765625
7944,11.718750
7945,11.718750
7946,11.718750
7947,13.671875
7948,13.671875
7949,15.625000
7950,17.578125
7951,17.578125
7952,17.578125
7953,19.531250
7954,19.531250
7955,21.484375
7956,21.484375
7957,23.437500
7958,23.437500
7959,25.390625
7960,25.390625
7961,27.343750
7962,27.343750
7963,29.296875
7964,29.296875
7965,29.296875
7966,31.250000
7967,31.250000
7968,33.203125
7969,33.203125
7970,35.156250
7971,35.156250
7972,35.156250
7973,37.109375
7974,37.109375
7975,39.062500
7976,39.062500
7977,41.015625
7978,41.015625
7979,41.015625
7980,42.968750
7981,42.968750
7982,42.968750
7983,44.921875
7984,44.921875
7985,44.921875
7986,46.875000
7987,46.875000
7988,48.828125
7989,48.828125
7990,48.828125
7991,50.781250
7992,50.781250
7993,50.781250
7994,52.734375
7995,52.734375
7996,54.687500
7997,54.687500
7998,54.687500
7999,54.687500
8000,56.640625
8001,56.640625
8002,56.640625
8003,58.593750
8004,58.593750
8005,58.593750
8006,58.593750
8007,60.546875
8008,60.546875
8009,60.546875
8010,60.546875
8011,62.500000
8012,64.453125
8013,64.453125
8014,64.453125
8015,62.500000
8016,64.453125
8017,66.406250
8018,66.406250
8019,66.406250
8020,64.453125
8021,68.359375
8022,68.359375
8023,68.359375
8024,68.359375
8025,70.312500
8026,70.312500
8027,70.312500
8028,70.312500
8029,70.312500
8030,72.265625
8031,72.265625
8032,72.265625
8033,72.265625
8034,72.265625
8035,74.218750
8036,74.218750
8037,74.218750
8038,74.218750
8039,74.218750
8040,74.218750
8041,74.218750
8042,76.171875
8043,76.171875
8044,76.171875
8045,76.171875
8046,76.171875
8047,76.171875
8048,78.125000
8049,76.171875
8050,76.171875
8051,76.171875
8052,76.171875
8053,80.078125
8054,78.125000
8055,78.125000
8056,78.125000
8057,78.125000
8058,78.125000
8059,78.125000
8060,78.125000
8061,78.125000
8062,80.078125
8063,78.125000
8064,78.125000
8065,78.125000
8066,78.125000
8067,80.078125
8068,78.125000
8069,78.125000
8070,78.125000
8071,78.125000
8072,80.078125
8073,78.125000
8074,78.125000
8075,78.125000
8076,78.125000
8077,78.125000
8078,78.125000
8079,78.125000
8080,78.125000
8081,78.125000
8082,78.125000
8083,76.171875
8084,76.171875
8085,78.125000
8086,76.171875
8087,78.125000
8088,76.171875
8089,76.171875
8090,76.171875
8091,76.171875
8092,76.171875
8093,76.171875
8094,74.218750
8095,76.171875
8096,76.171875
8097,74.218750
8098,74.218750
8099,74.218750
8100,74.218750
8101,74.218750
8102,72.265625
8103,72.265625
8104,72.265625
8105,72.265625
8106,70.312500
8107,70.312500
8108,70.312500
8109,70.312500
8110,70.312500
8111,70.312500
8112,70.312500
8113,68.359375
8114,68.359375
8115,68.359375
8116,66.406250
8117,66.406250
8118,66.406250
8119,66.406250
8120,64.453125
8121,64.453125
8122,64.453125
8123,64.453125
8124,64.453125
8125,62.500000
8126,62.500000
8127,60.546875
8128,60.546875
8129,60.546875
8130,58.593750
8131,58.593750
8132,58.593750
8133,58.593750
8134,56.640625
8135,56.640625
8136,54.687500
8137,54.687500
8138,54.687500
8139,54.687500
8140,52.734375
8141,52.734375
8142,52.734375
8143,50.781250
8144,50.781250
8145,50.781250
8146,48.828125
8147,48.828125
8148,48.828125
8149,46.875000
8150,46.875000
8151,46.875000
8152,44.921875
8153,44.921875
8154,42.968750
8155,42.968750
8156,42.968750
8157,41.015625
8158,41.015625
8159,39.062500
8160,39.062500
8161,39.062500
8162,37.109375
8163,35.156250
8164,35.156250
8165,35.156250
8166,35.156250
8167,33.203125
8168,33.203125
8169,31.250000
8170,31.250000
8171,31.250000
8172,29.296875
8173,29.296875
8174,27.343750
8175,27.343750
8176,25.390625
8177,25.390625
8178,25.390625
8179,23.437500
8180,21.484375
8181,21.484375
8182,21.484375
8183,19.531250
8184,17.578125
8185,17.578125
8186,17.578125
8187,17.578125
8188,15.625000
8189,13.671875
8190,13.671875
8191,13.671875
8192,11.718750
8193,11.718750
8194,9.765625
8195,9.765625
8196,7.812500
8197,7.812500
8198,5.859375
8199,5.859375
8200,3.906250
8201,3.906250
8202,3.906250
8203,1.953125
8204,1.953125
8205,0.000000
8206,0.000000
8207,-1.953125
8208,-1.953125
8209,-3.906250
8210,-3.906250
8211,-5.859375
8212,-5.859375
8213,-7.812500
8214,-7.812500
8215,-7.812500
8216,-9.765625
8217,-11.718750
8218,-11.718750
8219,-11.718750
8220,-13.671875
8221,-15.625000
8222,-15.625000
8223,-15.625000
8224,-17.578125
8225,-17.578125
8226,-19.531250
8227,-19.531250
8228,-21.484375
8229,-23.437500
8230,-23.437500
8231,-23.437500
8232,-23.437500
8233,-25.390625
8234,-27.343750
8235,-27.343750
8236,-29.296875
8237,-29.296875
8238,-29.296875
8239,-31.250000
8240,-33.203125
8241,-33.203125
8242,-35.156250
8243,-35.156250
8244,-35.156250
8245,-37.109375
8246,-37.109375
8247,-39.062500
8248,-39.062500
8249,-41.015625
8250,-41.015625
8251,-42.968750
8252,-42.968750
8253,-42.968750
8254,-44.921875
8255,-44.921875
8256,-46.875000
8257,-46.875000
8258,-48.828125
8259,-48.828125
8260,-48.828125
8261,-50.781250
8262,-50.781250
8263,-52.734375
8264,-52.734375
8265,-54.687500
8266,-54.687500
8267,-54.687500
8268,-56.640625
8269,-56.640625
8270,-56.640625
8271,-58.593750
8272,-58.593750
8273,-58.593750
8274,-60.546875
8275,-60.546875
8276,-62.500000
8277,-62.500000
8278,-62.500000
8279,-62.500000
8280,-64.453125
8281,-64.453125
8282,-66.406250
8283,-66.406250
8284,-66.406250
8285,-68.359375
8286,-68.359375
8287,-70.312500
8288,-70.312500
8289,-70.312500
8290,-70.312500
8291,-72.265625
8292,-72.265625
8293,-72.265625
8294,-74.218750
8295,-74.218750
8296,-74.218750
8297,-76.171875
8298,-76.171875
8299,-76.171875
8300,-76.171875
8301,-78.125000
8302,-78.125000
8303,-78.125000
8304,-80.078125
8305,-80.078125
8306,-80.078125
8307,-80.078125
8308,-82.031250
8309,-82.031250
8310,-82.031250
8311,-82.031250
8312,-83.984375
8313,-83.984375
8314,-83.984375
8315,-83.984375
8316,-83.984375
8317,-83.984375
8318,-85.937500
8319,-85.937500
8320,-85.937500
8321,-85.937500
8322,-85.937500
8323,-87.890625
8324,-87.890625
8325,-87.890625
8326,-87.890625
8327,-87.890625
8328,-89.843750
8329,-89.843750
8330,-89.843750
8331,-89.843750
8332,-89.843750
8333,-89.843750
8334,-89.843750
8335,-91.796875
8336,-91.796875
8337,-91.796875
8338,-91.796875
8339,-91.796875
8340,-91.796875
8341,-91.796875
8342,-91.796875
8343,-91.796875
8344,-91.796875
8345,-91.796875
8346,-93.750000
8347,-93.750000
8348,-93.750000
8349,-93.750000
8350,-91.796875
8351,-93.750000
8352,-93.750000
8353,-93.750000
8354,-93.750000
8355,-93.750000
8356,-93.750000
8357,-93.750000
8358,-93.750000
8359,-93.750000
8360,-93.750000
8361,-93.750000
8362,-93.750000
8363,-93.750000
8364,-93.750000
8365,-93.750000
8366,-93.750000
8367,-93.750000
8368,-93.750000
8369,-93.750000
8370,-93.750000
8371,-91.796875
8372,-93.750000
8373,-93.750000
8374,-91.796875
8375,-93.750000
8376,-91.796875
8377,-91.796875
8378,-91.796875
8379,-91.796875
8380,-91.796875
8381,-91.796875
8382,-91.796875
8383,-91.796875
8384,-91.796875
8385,-91.796875
8386,-89.843750
8387,-89.843750
8388,-89.843750
8389,-89.843750
8390,-89.843750
8391,-89.843750
8392,-89.843750
8393,-87.890625
8394,-87.890625
8395,-87.890625
8396,-87.890625
8397,-87.890625
8398,-87.890625
8399,-85.937500
8400,-85.937500
8401,-85.937500
8402,-85.937500
8403,-83.984375
8404,-83.984375
8405,-83.984375
8406,-83.984375
8407,-82.031250
8408,-83.984375
8409,-82.031250
8410,-82.031250
8411,-82.031250
8412,-82.031250
8413,-80.078125
8414,-78.125000
8415,-80.078125
8416,-78.125000
8417,-78.125000
8418,-78.125000
8419,-76.171875
8420,-76.171875
8421,-76.171875
8422,-76.171875
8423,-76.171875
8424,-74.218750
8425,-72.265625
8426,-72.265625
8427,-72.265625
8428,-72.265625
8429,-70.312500
8430,-70.312500
8431,-70.312500
8432,-68.359375
8433,-68.359375
8434,-68.359375
8435,-66.406250
8436,-66.406250
8437,-66.406250
8438,-66.406250
8439,-64.453125
8440,-64.453125
8441,-62.500000
8442,-62.500000
8443,-62.500000
8444,-60.546875
8445,-60.546875
8446,-60.546875
8447,-58.593750
8448,-58.593750
8449,-56.640625
8450,-56.640625
8451,-56.640625
8452,-54.687500
8453,-54.687500
8454,-52.734375
8455,-52.734375
8456,-52.734375
8457,-50.781250
8458,-50.781250
8459,-48.828125
8460,-48.828125
8461,-48.828125
8462,-46.875000
8463,-46.875000
8464,-44.921875
8465,-44.921875
8466,-44.921875
8467,-42.968750
8468,-42.968750
8469,-41.015625
8470,-41.015625
8471,-41.015625
8472,-39.062500
8473,-39.062500
8474,-37.109375
8475,-37.109375
8476,-35.156250
8477,-35.156250
8478,-33.203125
8479,-33.203125
8480,-31.250000
8481,-31.250000
8482,-31.250000
8483,-29.296875
8484,-29.296875
8485,-27.343750
8486,-27.343750
8487,-25.390625
8488,-25.390625
8489,-23.437500
8490,-23.437500
8491,-21.484375
8492,-21.484375
8493,-21.484375
8494,-19.531250
8495,-17.578125
8496,-17.578125
8497,-17.578125
8498,-15.625000
8499,-13.671875
8500,-13.671875
8501,-11.718750
8502,-11.718750
8503,-11.718750
8504,-9.765625
8505,-9.765625
8506,-7.812500
8507,-7.812500
8508,-5.859375
8509,-5.859375
8510,-3.906250
8511,-3.906250
8512,-1.953125
8513,-1.953125
8514,-1.953125
8515,0.000000
8516,1.953125
8517,1.953125
8518,1.953125
8519,3.906250
8520,3.906250
8521,5.859375
8522,5.859375
8523,7.812500
8524,9.765625
8525,9.765625
8526,9.765625
8527,9.765625
8528,11.718750
8529,13.671875
8530,13.671875
8531,15.625000
8532,15.625000
8533,15.625000
8534,17.578125
8535,19.531250
8536,19.531250
8537,21.484375
8538,21.484375
8539,23.437500
8540,23.437500
8541,25.390625
8542,25.390625
8543,25.390625
8544,25.390625
8545,27.343750
8546,29.296875
8547,29.296875
8548,29.296875
8549,31.250000
8550,33.203125
8551,33.203125
8552,33.203125
8553,35.156250
8554,35.156250
8555,37.109375
8556,37.109375
8557,37.109375
8558,39.062500
8559,39.062500
8560,41.015625
8561,41.015625
8562,41.015625
8563,42.968750
8564,42.968750
8565,44.921875
8566,46.875000
8567,44.921875
8568,46.875000
8569,46.875000
8570,48.828125
8571,48.828125
8572,48.828125
8573,50.781250
8574,50.781250
8575,50.781250
8576,50.781250
8577,52.734375
8578,52.734375
8579,54.687500
8580,54.687500
8581,54.687500
8582,56.640625
8583,56.640625
8584,56.640625
8585,58.593750
8586,58.593750
8587,58.593750
8588,60.546875
8589,60.546875
8590,60.546875
8591,60.546875
8592,62.500000
8593,62.500000
8594,62.500000
8595,62.500000
8596,64.453125
8597,64.453125
8598,64.453125
8599,66.406250
8600,66.406250
8601,66.406250
8602,66.406250
8603,66.406250
8604,70.312500
8605,68.359375
8606,68.359375
8607,68.359375
8608,70.312500
8609,70.312500
8610,70.312500
8611,70.312500
8612,72.265625
8613,72.265625
8614,72.265625
8615,72.265625
8616,72.265625
8617,74.218750
8618,74.218750
8619,74.218750
8620,74.218750
8621,74.218750
8622,74.218750
8623,74.218750
8624,74.218750
8625,76.171875
8626,76.171875
8627,76.171875
8628,76.171875
8629,76.171875
8630,76.171875
8631,76.171875
8632,76.171875
8633,76.171875
8634,78.125000
8635,76.171875
8636,78.125000
8637,78.125000
8638,78.125000
8639,78.125000
8640,78.125000
8641,78.125000
8642,78.125000
8643,78.125000
8644,78.125000
8645,78.125000
8646,78.125000
8647,78.125000
8648,78.125000
8649,78.125000
8650,78.125000
8651,78.125000
8652,78.125000
8653,80.078125
8654,78.125000
8655,78.125000
8656,78.125000
8657,78.125000
8658,78.125000
8659,78.125000
8660,78.125000
8661,78.125000
8662,78.125000
8663,78.125000
8664,78.125000
8665,78.125000
8666,78.125000
8667,78.125000
8668,78.125000
8669,76.171875
8670,76.171875
8671,76.171875
8672,76.171875
8673,76.171875
8674,76.171875
8675,76.171875
8676,76.171875
8677,76.171875
8678,74.218750
8679,74.218750
8680,74.218750
8681,74.218750
8682,74.218750
8683,74.218750
8684,74.218750
8685,72.265625
8686,72.265625
8687,72.265625
8688,72.265625
8689,72.265625
8690,70.312500
8691,70.312500
8692,70.312500
8693,70.312500
8694,70.312500
8695,68.359375
8696,68.359375
8697,68.359375
8698,68.359375
8699,66.406250
8700,66.406250
8701,66.406250
8702,66.406250
8703,64.453125
8704,64.453125
8705,64.453125
8706,64.453125
8707,62.500000
8708,62.500000
8709,62.500000
8710,60.546875
8711,60.546875
8712,60.546875
8713,58.593750
8714,58.593750
8715,58.593750
8716,56.640625
8717,56.640625
8718,56.640625
8719,56.640625
8720,54.687500
8721,54.687500
8722,52.734375
8723,52.734375
8724,52.734375
8725,52.734375
8726,50.781250
8727,50.781250
8728,50.781250
8729,48.828125
8730,48.828125
8731,46.875000
8732,46.875000
8733,46.875000
8734,46.875000
8735,44.921875
8736,44.921875
8737,44.921875
8738,42.968750
8739,42.968750
8740,41.015625
8741,41.015625
8742,39.062500
8743,39.062500
8744,39.062500
8745,37.109375
8746,35.156250
8747,35.156250
8748,35.156250
8749,35.156250
8750,33.203125
8751,33.203125
8752,31.250000
8753,31.250000
8754,29.296875
8755,29.296875
8756,27.343750
8757,27.343750
8758,27.343750
8759,25.390625
8760,25.390625
8761,23.437500
8762,23.437500
8763,21.484375
8764,21.484375
8765,21.484375
8766,19.531250
8767,19.531250
8768,17.578125
8769,17.578125
8770,15.625000
8771,15.625000
8772,13.671875
8773,13.671875
8774,11.718750
8775,11.718750
8776,9.765625
8777,9.765625
8778,9.765625
8779,7.812500
8780,7.812500
8781,5.859375
8782,5.859375
8783,3.906250
8784,3.906250
8785,1.953125
8786,1.953125
8787,0.000000
8788,0.000000
8789,-1.953125
8790,-1.953125
8791,-3.906250
8792,-3.906250
8793,-5.859375
8794,-5.859375
8795,-7.812500
8796,-7.812500
8797,-7.812500
8798,-9.765625
8799,-9.765625
8800,-11.718750
8801,-11.718750
8802,-13.671875
8803,-13.671875
8804,-15.625000
8805,-15.625000
8806,-15.625000
8807,-17.578125
8808,-19.531250
8809,-19.531250
8810,-21.484375
8811,-21.484375
8812,-21.484375
8813,-23.437500
8814,-23.437500
8815,-25.390625
8816,-27.343750
8817,-27.343750
8818,-27.343750
8819,-29.296875
8820,-31.250000
8821,-29.296875
8822,-31.250000
8823,-33.203125
8824,-33.203125
8825,-35.156250
8826,-35.156250
8827,-37.109375
8828,-37.109375
8829,-37.109375
8830,-39.062500
8831,-39.062500
8832,-41.015625
8833,-41.015625
8834,-42.968750
8835,-44.921875
8836,-44.921875
8837,-44.921875
8838,-46.875000
8839,-46.875000
8840,-46.875000
8841,-48.828125
8842,-48.828125
8843,-50.781250
8844,-50.781250
8845,-50.781250
8846,-52.734375
8847,-52.734375
8848,-54.687500
8849,-54.687500
8850,-54.687500
8851,-56.640625
8852,-56.640625
8853,-58.593750
8854,-58.593750
8855,-58.593750
8856,-60.546875
8857,-60.546875
8858,-62.500000
8859,-62.500000
8860,-62.500000
8861,-64.453125
8862,-64.453125
8863,-64.453125
8864,-66.406250
8865,-66.406250
8866,-66.406250
8867,-68.359375
8868,-68.359375
8869,-70.312500
8870,-70.312500
8871,-70.312500
8872,-70.312500
8873,-72.265625
8874,-72.265625
8875,-72.265625
8876,-74.218750
8877,-74.218750
8878,-74.218750
8879,-74.218750
8880,-76.171875
8881,-76.171875
8882,-76.171875
8883,-78.125000
8884,-78.125000
8885,-78.125000
8886,-78.125000
8887,-80.078125
8888,-80.078125
8889,-82.031250
8890,-80.078125
8891,-82.031250
8892,-82.031250
8893,-82.031250
8894,-82.031250
8895,-82.031250
8896,-83.984375
8897,-83.984375
8898,-83.984375
8899,-85.937500
8900,-85.937500
8901,-85.937500
8902,-85.937500
8903,-85.937500
8904,-87.890625
8905,-87.890625
8906,-87.890625
8907,-87.890625
8908,-87.890625
8909,-87.890625
8910,-89.843750
8911,-89.843750
8912,-89.843750
8913,-89.843750
8914,-89.843750
8915,-89.843750
8916,-89.843750
8917,-89.843750
8918,-91.796875
8919,-91.796875
8920,-91.796875
8921,-91.796875
8922,-91.796875
8923,-91.796875
8924,-91.796875
8925,-91.796875
8926,-91.796875
8927,-91.796875
8928,-93.750000
8929,-91.796875
8930,-93.750000
8931,-93.750000
8932,-93.750000
8933,-91.796875
8934,-93.750000
8935,-93.750000
8936,-93.750000
8937,-93.750000
8938,-93.750000
8939,-93.750000
8940,-93.750000
8941,-93.750000
8942,-93.750000
8943,-93.750000
8944,-93.750000
8945,-93.750000
8946,-93.750000
8947,-93.750000
8948,-93.750000
8949,-93.750000
8950,-93.750000
8951,-93.750000
8952,-93.750000
8953,-93.750000
8954,-93.750000
8955,-93.750000
8956,-93.750000
8957,-93.750000
8958,-91.796875
8959,-93.750000
8960,-91.796875
8961,-91.796875
8962,-91.796875
8963,-91.796875
8964,-91.796875
8965,-91.796875
8966,-91.796875
8967,-91.796875
8968,-91.796875
8969,-91.796875
8970,-89.843750
8971,-89.843750
8972,-89.843750
8973,-89.843750
8974,-89.843750
8975,-89.843750
8976,-87.890625
8977,-87.890625
8978,-87.890625
8979,-87.890625
8980,-87.890625
8981,-87.890625
8982,-85.937500
8983,-85.937500
8984,-85.937500
8985,-85.937500
8986,-85.937500
8987,-83.984375
8988,-83.984375
8989,-83.984375
8990,-83.984375
8991,-82.031250
8992,-82.031250
8993,-80.078125
8994,-80.078125
8995,-80.078125
8996,-80.078125
8997,-80.078125
8998,-78.125000
8999,-78.125000
9000,-78.125000
9001,-76.171875
9002,-76.171875
9003,-76.171875
9004,-76.171875
9005,-74.218750
9006,-74.218750
9007,-74.218750
9008,-74.218750
9009,-72.265625
9010,-72.265625
9011,-72.265625
9012,-70.312500
9013,-70.312500
9014,-70.312500
9015,-68.359375
9016,-68.359375
9017,-68.359375
9018,-66.406250
9019,-66.406250
9020,-66.406250
9021,-64.453125
9022,-64.453125
9023,-64.453125
9024,-64.453125
9025,-62.500000
9026,-62.500000
9027,-60.546875
9028,-60.546875
9029,-60.546875
9030,-58.593750
9031,-58.593750
9032,-56.640625
9033,-56.640625
9034,-56.640625
9035,-54.687500
9036,-54.687500
9037,-52.734375
9038,-52.734375
9039,-52.734375
9040,-50.781250
9041,-50.781250
9042,-48.828125
9043,-48.828125
9044,-48.828125
9045,-46.875000
9046,-44.921875
9047,-46.875000
9048,-44.921875
9049,-42.968750
9050,-42.968750
9051,-41.015625
9052,-41.015625
9053,-41.015625
9054,-39.062500
9055,-39.062500
9056,-37.109375
9057,-37.109375
9058,-37.109375
9059,-35.156250
9060,-33.203125
9061,-33.203125
9062,-33.203125
9063,-31.250000
9064,-31.250000
9065,-29.296875
9066,-29.296875
9067,-29.296875
9068,-27.343750
9069,-25.390625
9070,-25.390625
9071,-25.390625
9072,-23.437500
9073,-23.437500
9074,-21.484375
9075,-21.484375
9076,-19.531250
9077,-19.531250
9078,-17.578125
9079,-17.578125
9080,-15.625000
9081,-15.625000
9082,-13.671875
9083,-13.671875
9084,-11.718750
9085,-11.718750
9086,-9.765625
9087,-9.765625
9088,-7.812500
9089,-7.812500
9090,-5.859375
9091,-5.859375
9092,-5.859375
9093,-3.906250
9094,-3.906250
9095,-1.953125
9096,-1.953125
9097,0.000000
9098,0.000000
9099,1.953125
9100,1.953125
9101,3.906250
9102,3.906250
9103,5.859375
9104,5.859375
9105,5.859375
9106,7.812500
9107,7.812500
9108,9.765625
9109,11.718750
9110,11.718750
9111,11.718750
9112,13.671875
9113,15.625000
9114,15.625000
9115,15.625000
9116,17.578125
9117,17.578125
9118,19.531250
9119,21.484375
9120,21.484375
9121,21.484375
9122,23.437500
9123,23.437500
9124,25.390625
9125,25.390625
9126,27.343750
9127,27.343750
9128,27.343750
9129,29.296875
9130,29.296875
9131,31.250000
9132,31.250000
9133,31.250000
9134,33.203125
9135,33.203125
9136,35.156250
9137,35.156250
9138,37.109375
9139,37.109375
9140,39.062500
9141,39.062500
9142,39.062500
9143,41.015625
9144,41.015625
9145,42.968750
9146,42.968750
9147,44.921875
9148,44.921875
9149,44.921875
9150,44.921875
9151,46.875000
9152,46.875000
9153,48.828125
9154,48.828125
9155,48.828125
9156,50.781250
9157,50.781250
9158,50.781250
9159,50.781250
9160,52.734375
9161,54.687500
9162,52.734375
9163,54.687500
9164,54.687500
9165,56.640625
9166,56.640625
9167,56.640625
9168,58.593750
9169,58.593750
9170,58.593750
9171,60.546875
9172,60.546875
9173,60.546875
9174,62.500000
9175,62.500000
9176,62.500000
9177,64.453125
9178,64.453125
9179,64.453125
9180,64.453125
9181,66.406250
9182,66.406250
9183,66.406250
9184,66.406250
9185,66.406250
9186,68.359375
9187,68.359375
9188,68.359375
9189,68.359375
9190,70.312500
9191,70.312500
9192,70.312500
9193,70.312500
9194,70.312500
9195,72.265625
9196,72.265625
9197,72.265625
9198,72.265625
9199,72.265625
9200,72.265625
9201,72.265625
9202,74.218750
9203,74.218750
9204,74.218750
9205,74.218750
9206,74.218750
9207,76.171875
9208,76.171875
9209,76.171875
9210,76.171875
9211,76.171875
9212,76.171875
9213,76.171875
9214,76.171875
9215,78.125000
9216,76.171875
9217,78.125000
9218,78.125000
9219,78.125000
9220,78.125000
9221,78.125000
9222,78.125000
9223,78.125000
9224,78.125000
9225,78.125000
9226,78.125000
9227,78.125000
9228,78.125000
9229,78.125000
9230,78.125000
9231,78.125000
9232,78.125000
9233,78.125000
9234,78.125000
9235,78.125000
9236,78.125000
9237,78.125000
9238,78.125000
9239,78.125000
9240,78.125000
9241,78.125000
9242,78.125000
9243,78.125000
9244,78.125000
9245,78.125000
9246,78.125000
9247,78.125000
9248,78.125000
9249,78.125000
9250,78.125000
9251,78.125000
9252,76.171875
9253,76.171875
9254,78.125000
9255,76.171875
9256,76.171875
9257,76.171875
9258,76.171875
9259,76.171875
9260,74.218750
9261,76.171875
9262,74.218750
9263,74.218750
9264,74.218750
9265,74.218750
9266,74.218750
9267,74.218750
9268,72.265625
9269,72.265625
9270,72.265625
9271,72.265625
9272,72.265625
9273,70.312500
9274,70.312500
9275,70.312500
9276,70.312500
9277,68.359375
9278,68.359375
9279,68.359375
9280,68.359375
9281,68.359375
9282,66.406250
9283,66.406250
9284,66.406250
9285,64.453125
9286,64.453125
9287,64.453125
9288,64.453125
9289,62.500000
9290,62.500000
9291,62.500000
9292,62.500000
9293,60.546875
9294,60.546875
9295,60.546875
9296,58.593750
9297,58.593750
9298,58.593750
9299,56.640625
9300,56.640625
9301,56.640625
9302,56.640625
9303,54.687500
9304,54.687500
9305,52.734375
9306,52.734375
9307,52.734375
9308,52.734375
9309,50.781250
9310,50.781250
9311,50.781250
9312,48.828125
9313,48.828125
9314,46.875000
9315,46.875000
9316,46.875000
9317,44.921875
9318,44.921875
9319,44.921875
9320,42.968750
9321,42.968750
9322,42.968750
9323,41.015625
9324,41.015625
9325,39.062500
9326,39.062500
9327,39.062500
9328,37.109375
9329,35.156250
9330,35.156250
9331,35.156250
9332,35.156250
9333,33.203125
9334,31.250000
9335,31.250000
9336,31.250000
9337,29.296875
9338,29.296875
9339,27.343750
9340,27.343750
9341,27.343750
9342,25.390625
9343,23.437500
9344,23.437500
9345,23.437500
9346,21.484375
9347,21.484375
9348,19.531250
9349,19.531250
9350,19.531250
9351,17.578125
9352,17.578125
9353,15.625000
9354,13.671875
9355,13.671875
9356,13.671875
9357,11.718750
9358,11.718750
9359,9.765625
9360,9.765625
9361,7.812500
9362,7.812500
9363,5.859375
9364,5.859375
9365,5.859375
9366,3.906250
9367,3.906250
9368,1.953125
9369,1.953125
9370,0.000000
9371,0.000000
9372,-1.953125
9373,-1.953125
9374,-3.906250
9375,-3.906250
9376,-5.859375
9377,-5.859375
9378,-7.812500
9379,-7.812500
9380,-7.812500
9381,-9.765625
9382,-9.765625
9383,-11.718750
9384,-11.718750
9385,-13.671875
9386,-15.625000
9387,-15.625000
9388,-15.625000
9389,-17.578125
9390,-17.578125
9391,-17.578125
9392,-19.531250
9393,-21.484375
9394,-21.484375
9395,-23.437500
9396,-23.437500
9397,-25.390625
9398,-25.390625
9399,-27.343750
9400,-27.343750
9401,-29.296875
9402,-29.296875
9403,-31.250000
9404,-31.250000
9405,-33.203125
9406,-33.203125
9407,-35.156250
9408,-35.156250
9409,-35.156250
9410,-37.109375
9411,-37.109375
9412,-39.062500
9413,-39.062500
9414,-41.015625
9415,-41.015625
9416,-41.015625
9417,-42.968750
9418,-44.921875
9419,-44.921875
9420,-44.921875
9421,-46.875000
9422,-46.875000
9423,-48.828125
9424,-48.828125
9425,-48.828125
9426,-50.781250
9427,-52.734375
9428,-52.734375
9429,-52.734375
9430,-54.687500
9431,-54.687500
9432,-54.687500
9433,-56.640625
9434,-56.640625
9435,-58.593750
9436,-58.593750
9437,-60.546875
9438,-60.546875
9439,-60.546875
9440,-62.500000
9441,-62.500000
9442,-62.500000
9443,-62.500000
9444,-64.453125
9445,-64.453125
9446,-64.453125
9447,-66.406250
9448,-66.406250
9449,-66.406250
9450,-68.359375
9451,-68.359375
9452,-70.312500
9453,-70.312500
9454,-70.312500
9455,-70.312500
9456,-72.265625
9457,-72.265625
9458,-72.265625
9459,-74.218750
9460,-74.218750
9461,-74.218750
9462,-76.171875
9463,-76.171875
9464,-76.171875
9465,-76.171875
9466,-78.125000
9467,-78.125000
9468,-78.125000
9469,-80.078125
9470,-80.078125
9471,-80.078125
9472,-82.031250
9473,-82.031250
9474,-82.031250
9475,-82.031250
9476,-82.031250
9477,-83.984375
9478,-83.984375
9479,-83.984375
9480,-85.937500
9481,-85.937500
9482,-85.937500
9483,-85.937500
9484,-85.937500
9485,-85.937500
9486,-87.890625
9487,-85.937500
9488,-87.890625
9489,-87.890625
9490,-87.890625
9491,-87.890625
9492,-89.843750
9493,-89.843750
9494,-89.843750
9495,-89.843750
9496,-89.843750
9497,-89.843750
9498,-89.843750
9499,-89.843750
9500,-91.796875
9501,-91.796875
9502,-91.796875
9503,-91.796875
9504,-91.796875
9505,-91.796875
9506,-93.750000
9507,-93.750000
9508,-91.796875
9509,-91.796875
9510,-93.750000
9511,-93.750000
9512,-93.750000
9513,-93.750000
9514,-93.750000
9515,-93.750000
9516,-93.750000
9517,-93.750000
9518,-93.750000
9519,-93.750000
9520,-93.750000
9521,-93.750000
9522,-93.750000
9523,-93.750000
9524,-93.750000
9525,-93.750000
9526,-93.750000
9527,-93.750000
9528,-93.750000
9529,-93.750000
9530,-93.750000
9531,-93.750000
9532,-93.750000
9533,-93.750000
9534,-93.750000
9535,-93.750000
9536,-93.750000
9537,-93.750000
9538,-93.750000
9539,-91.796875
9540,-93.750000
9541,-91.796875
9542,-91.796875
9543,-91.796875
9544,-91.796875
9545,-91.796875
9546,-91.796875
9547,-91.796875
9548,-91.796875
9549,-91.796875
9550,-91.796875
9551,-91.796875
9552,-89.843750
9553,-89.843750
9554,-89.843750
9555,-89.843750
9556,-89.843750
9557,-87.890625
9558,-87.890625
9559,-87.890625
9560,-87.890625
9561,-87.890625
9562,-87.890625
9563,-85.937500
9564,-85.937500
9565,-85.937500
9566,-85.937500
9567,-85.937500
9568,-85.937500
9569,-83.984375
9570,-83.984375
9571,-83.984375
9572,-82.031250
9573,-82.031250
9574,-82.031250
9575,-82.031250
9576,-82.031250
9577,-80.078125
9578,-80.078125
9579,-80.078125
9580,-78.125000
9581,-78.125000
9582,-78.125000
9583,-78.125000
9584,-76.171875
9585,-76.171875
9586,-76.171875
9587,-74.218750
9588,-74.218750
9589,-74.218750
9590,-74.218750
9591,-74.218750
9592,-72.265625
9593,-72.265625
9594,-70.312500
9595,-70.312500
9596,-70.312500
9597,-68.359375
9598,-68.359375
9599,-66.406250
9600,-68.359375
9601,-66.406250
9602,-66.406250
9603,-64.453125
9604,-64.453125
9605,-64.453125
9606,-62.500000
9607,-62.500000
9608,-62.500000
9609,-60.546875
9610,-60.546875
9611,-58.593750
9612,-58.593750
9613,-58.593750
9614,-58.593750
9615,-56.640625
9616,-56.640625
9617,-54.687500
9618,-54.687500
9619,-54.687500
9620,-52.734375
9621,-52.734375
9622,-50.781250
9623,-50.781250
9624,-48.828125
9625,-48.828125
9626,-48.828125
9627,-46.875000
9628,-46.875000
9629,-44.921875
9630,-44.921875
9631,-44.921875
9632,-42.968750
9633,-41.015625
9634,-41.015625
9635,-41.015625
9636,-39.062500
9637,-39.062500
9638,-37.109375
9639,-37.109375
9640,-37.109375
9641,-35.156250
9642,-33.203125
9643,-33.203125
9644,-31.250000
9645,-31.250000
9646,-29.296875
9647,-29.296875
9648,-29.296875
9649,-27.343750
9650,-27.343750
9651,-25.390625
9652,-25.390625
9653,-23.437500
9654,-23.437500
9655,-23.437500
9656,-21.484375
9657,-21.484375
9658,-19.531250
9659,-19.531250
9660,-17.578125
9661,-15.625000
9662,-15.625000
9663,-15.625000
9664,-15.625000
9665,-13.671875
9666,-11.718750
9667,-11.718750
9668,-9.765625
9669,-9.765625
9670,-9.765625
9671,-7.812500
9672,-5.859375
9673,-5.859375
9674,-5.859375
9675,-3.906250
9676,-3.906250
9677,-1.953125
9678,-1.953125
9679,0.000000
9680,0.000000
9681,1.953125
9682,1.953125
9683,3.906250
9684,3.906250
9685,3.906250
9686,5.859375
9687,7.812500
9688,7.812500
9689,7.812500
9690,9.765625
9691,9.765625
9692,11.718750
9693,13.671875
9694,13.671875
9695,13.671875
9696,15.625000
9697,15.625000
9698,17.578125
9699,17.578125
9700,19.531250
9701,19.531250
9702,21.484375
9703,21.484375
9704,23.437500
9705,23.437500
9706,25.390625
9707,25.390625
9708,27.343750
9709,27.343750
9710,27.343750
9711,29.296875
9712,31.250000
9713,31.250000
9714,31.250000
9715,33.203125
9716,33.203125
9717,33.203125
9718,35.156250
9719,35.156250
9720,37.109375
9721,37.109375
9722,37.109375
9723,39.062500
9724,39.062500
9725,41.015625
9726,41.015625
9727,41.015625
9728,42.968750
9729,42.968750
9730,44.921875
9731,44.921875
9732,44.921875
9733,46.875000
9734,46.875000
9735,46.875000
9736,48.828125
9737,48.828125
9738,48.828125
9739,50.781250
9740,50.781250
9741,52.734375
9742,52.734375
9743,52.734375
9744,54.687500
9745,54.687500
9746,56.640625
9747,56.640625
9748,56.640625
9749,56.640625
9750,58.593750
9751,58.593750
9752,58.593750
9753,60.546875
9754,58.593750
9755,60.546875
9756,60.546875
9757,62.500000
9758,62.500000
9759,62.500000
9760,64.453125
9761,64.453125
9762,64.453125
9763,64.453125
9764,66.406250
9765,66.406250
9766,66.406250
9767,68.359375
9768,68.359375
9769,68.359375
9770,68.359375
9771,70.312500
9772,70.312500
9773,70.312500
9774,70.312500
9775,70.312500
9776,70.312500
9777,70.312500
9778,72.265625
9779,72.265625
9780,72.265625
9781,72.265625
9782,72.265625
9783,74.218750
9784,74.218750
9785,74.218750
9786,74.218750
9787,74.218750
9788,76.171875
9789,74.218750
9790,76.171875
9791,76.171875
9792,76.171875
9793,76.171875
9794,76.171875
9795,76.171875
9796,76.171875
9797,76.171875
9798,76.171875
9799,76.171875
9800,78.125000
9801,78.125000
9802,78.125000
9803,76.171875
9804,78.125000
9805,78.125000
9806,78.125000
9807,78.125000
9808,78.125000
9809,78.125000
9810,78.125000
9811,78.125000
9812,78.125000
9813,78.125000
9814,78.125000
9815,78.125000
9816,78.125000
9817,78.125000
9818,78.125000
9819,78.125000
9820,78.125000
9821,78.125000
9822,78.125000
9823,78.125000
9824,78.125000
9825,78.125000
9826,78.125000
9827,78.125000
9828,78.125000
9829,78.125000
9830,78.125000
9831,78.125000
9832,78.125000
9833,78.125000
9834,76.171875
9835,76.171875
9836,76.171875
9837,76.171875
9838,76.171875
9839,76.171875
9840,76.171875
9841,76.171875
9842,76.171875
9843,74.218750
9844,74.218750
9845,74.218750
9846,74.218750
9847,74.218750
9848,74.218750
9849,74.218750
9850,72.265625
9851,72.265625
9852,72.265625
9853,72.265625
9854,72.265625
9855,70.312500
9856,70.312500
9857,70.312500
9858,70.312500
9859,68.359375
9860,68.359375
9861,68.359375
9862,68.359375
9863,68.359375
9864,66.406250
9865,66.406250
9866,66.406250
9867,66.406250
9868,64.453125
9869,64.453125
9870,64.453125
9871,62.500000
9872,62.500000
9873,62.500000
9874,60.546875
9875,60.546875
9876,60.546875
9877,60.546875
9878,60.546875
9879,58.593750
9880,58.593750
9881,56.640625
9882,56.640625
9883,56.640625
9884,56.640625
9885,54.687500
9886,54.687500
9887,52.734375
9888,52.734375
9889,52.734375
9890,52.734375
9891,52.734375
9892,50.781250
9893,48.828125
9894,48.828125
9895,48.828125
9896,48.828125
9897,46.875000
9898,46.875000
9899,44.921875
9900,44.921875
9901,44.921875
9902,42.968750
9903,42.968750
9904,42.968750
9905,41.015625
9906,41.015625
9907,39.062500
9908,39.062500
9909,39.062500
9910,37.109375
9911,37.109375
9912,37.109375
9913,35.156250
9914,35.156250
9915,33.203125
9916,33.203125
9917,31.250000
9918,31.250000
9919,29.296875
9920,29.296875
9921,29.296875
9922,27.343750
9923,25.390625
9924,25.390625
9925,25.390625
9926,23.437500
9927,23.437500
9928,21.484375
9929,21.484375
9930,19.531250
9931,19.531250
9932,19.531250
9933,17.578125
9934,15.625000
9935,15.625000
9936,15.625000
9937,15.625000
9938,13.671875
9939,11.718750
9940,11.718750
9941,11.718750
9942,9.765625
9943,9.765625
9944,7.812500
9945,5.859375
9946,5.859375
9947,5.859375
9948,3.906250
9949,3.906250
9950,1.953125
9951,1.953125
9952,1.953125
9953,0.000000
9954,-1.953125
9955,-1.953125
9956,-1.953125
9957,-3.906250
9958,-5.859375
9959,-5.859375
9960,-5.859375
9961,-7.812500
9962,-7.812500
9963,-9.765625
9964,-9.765625
9965,-11.718750
9966,-11.718750
9967,-13.671875
9968,-13.671875
9969,-15.625000
9970,-15.625000
9971,-17.578125
9972,-17.578125
9973,-17.578125
9974,-19.531250
9975,-21.484375
9976,-21.484375
9977,-21.484375
9978,-23.437500
9979,-23.437500
9980,-25.390625
9981,-25.390625
9982,-27.343750
9983,-27.343750
9984,-29.296875
9985,-29.296875
9986,-29.296875
9987,-31.250000
9988,-31.250000
9989,-33.203125
9990,-35.156250
9991,-35.156250
9992,-35.156250
9993,-37.109375
9994,-37.109375
9995,-39.062500
9996,-39.062500
9997,-41.015625
9998,-41.015625
9999,-42.968750
10000,-42.968750
