Channel              :,CH1
Frequency            :,858.4Hz
Period               :,1.165ms
PK-PK                :,152.3mV
Probe attenuation    :,1X
Voltage per ADC value:,0.122070mV
Time interval        :,2.00000us

index,CH1_Voltage(mV)
1,35.156250
2,35.156250
3,35.156250
4,35.156250
5,33.203125
6,33.203125
7,33.203125
8,31.250000
9,31.250000
10,31.250000
11,29.296875
12,29.296875
13,27.343750
14,27.343750
15,27.343750
16,25.390625
17,25.390625
18,25.390625
19,25.390625
20,23.437500
21,23.437500
22,21.484375
23,21.484375
24,21.484375
25,19.531250
26,19.531250
27,17.578125
28,17.578125
29,15.625000
30,15.625000
31,15.625000
32,13.671875
33,13.671875
34,13.671875
35,11.718750
36,11.718750
37,9.765625
38,9.765625
39,9.765625
40,7.812500
41,7.812500
42,5.859375
43,5.859375
44,5.859375
45,3.906250
46,3.906250
47,1.953125
48,1.953125
49,1.953125
50,0.000000
51,0.000000
52,-1.953125
53,-1.953125
54,-1.953125
55,-3.906250
56,-3.906250
57,-5.859375
58,-5.859375
59,-7.812500
60,-7.812500
61,-7.812500
62,-9.765625
63,-9.765625
64,-11.718750
65,-11.718750
66,-13.671875
67,-13.671875
68,-13.671875
69,-15.625000
70,-15.625000
71,-17.578125
72,-17.578125
73,-19.531250
74,-19.531250
75,-19.531250
76,-21.484375
77,-21.484375
78,-23.437500
79,-23.437500
80,-25.390625
81,-25.390625
82,-25.390625
83,-27.343750
84,-27.343750
85,-29.296875
86,-29.296875
87,-29.296875
88,-31.250000
89,-31.250000
90,-33.203125
91,-33.203125
92,-35.156250
93,-37.109375
94,-37.109375
95,-37.109375
96,-37.109375
97,-39.062500
98,-39.062500
99,-39.062500
100,-41.015625
101,-41.015625
102,-42.968750
103,-42.968750
104,-42.968750
105,-44.921875
106,-46.875000
107,-46.875000
108,-46.875000
109,-48.828125
110,-48.828125
111,-48.828125
112,-50.781250
113,-50.781250
114,-50.781250
115,-52.734375
116,-52.734375
117,-52.734375
118,-54.687500
119,-54.687500
120,-54.687500
121,-56.640625
122,-56.640625
123,-56.640625
124,-56.640625
125,-58.593750
126,-58.593750
127,-58.593750
128,-60.546875
129,-60.546875
130,-60.546875
131,-62.500000
132,-62.500000
133,-62.500000
134,-64.453125
135,-64.453125
136,-64.453125
137,-64.453125
138,-66.406250
139,-66.406250
140,-66.406250
141,-66.406250
142,-68.359375
143,-68.359375
144,-68.359375
145,-70.312500
146,-68.359375
147,-70.312500
148,-70.312500
149,-70.312500
150,-70.312500
151,-72.265625
152,-72.265625
153,-72.265625
154,-72.265625
155,-72.265625
156,-74.218750
157,-74.218750
158,-74.218750
159,-74.218750
160,-74.218750
161,-74.218750
162,-76.171875
163,-76.171875
164,-76.171875
165,-76.171875
166,-76.171875
167,-78.125000
168,-78.125000
169,-78.125000
170,-78.125000
171,-78.125000
172,-78.125000
173,-80.078125
174,-78.125000
175,-80.078125
176,-80.078125
177,-80.078125
178,-80.078125
179,-80.078125
180,-80.078125
181,-80.078125
182,-80.078125
183,-82.031250
184,-80.078125
185,-80.078125
186,-82.031250
187,-82.031250
188,-82.031250
189,-82.031250
190,-82.031250
191,-82.031250
192,-82.031250
193,-82.031250
194,-82.031250
195,-82.031250
196,-82.031250
197,-82.031250
198,-82.031250
199,-82.031250
200,-82.031250
201,-82.031250
202,-82.031250
203,-82.031250
204,-82.031250
205,-82.031250
206,-82.031250
207,-82.031250
208,-82.031250
209,-82.031250
210,-82.031250
211,-82.031250
212,-82.031250
213,-82.031250
214,-82.031250
215,-82.031250
216,-82.031250
217,-82.031250
218,-82.031250
219,-82.031250
220,-82.031250
221,-82.031250
222,-82.031250
223,-82.031250
224,-80.078125
225,-82.031250
226,-80.078125
227,-80.078125
228,-80.078125
229,-80.078125
230,-80.078125
231,-80.078125
232,-82.031250
233,-80.078125
234,-78.125000
235,-80.078125
236,-78.125000
237,-78.125000
238,-78.125000
239,-78.125000
240,-78.125000
241,-78.125000
242,-78.125000
243,-76.171875
244,-76.171875
245,-76.171875
246,-76.171875
247,-76.171875
248,-74.218750
249,-74.218750
250,-74.218750
251,-74.218750
252,-74.218750
253,-72.265625
254,-72.265625
255,-72.265625
256,-72.265625
257,-72.265625
258,-70.312500
259,-70.312500
260,-70.312500
261,-70.312500
262,-68.359375
263,-68.359375
264,-68.359375
265,-68.359375
266,-66.406250
267,-66.406250
268,-66.406250
269,-66.406250
270,-64.453125
271,-64.453125
272,-64.453125
273,-64.453125
274,-62.500000
275,-62.500000
276,-62.500000
277,-62.500000
278,-60.546875
279,-60.546875
280,-60.546875
281,-58.593750
282,-58.593750
283,-58.593750
284,-56.640625
285,-56.640625
286,-56.640625
287,-54.687500
288,-54.687500
289,-54.687500
290,-52.734375
291,-52.734375
292,-52.734375
293,-50.781250
294,-50.781250
295,-50.781250
296,-50.781250
297,-48.828125
298,-48.828125
299,-46.875000
300,-46.875000
301,-46.875000
302,-44.921875
303,-44.921875
304,-44.921875
305,-42.968750
306,-42.968750
307,-42.968750
308,-41.015625
309,-39.062500
310,-39.062500
311,-39.062500
312,-37.109375
313,-37.109375
314,-35.156250
315,-35.156250
316,-35.156250
317,-33.203125
318,-33.203125
319,-33.203125
320,-31.250000
321,-31.250000
322,-31.250000
323,-29.296875
324,-29.296875
325,-27.343750
326,-27.343750
327,-27.343750
328,-25.390625
329,-23.437500
330,-23.437500
331,-23.437500
332,-23.437500
333,-21.484375
334,-19.531250
335,-19.531250
336,-19.531250
337,-17.578125
338,-17.578125
339,-15.625000
340,-15.625000
341,-15.625000
342,-13.671875
343,-13.671875
344,-13.671875
345,-11.718750
346,-9.765625
347,-9.765625
348,-9.765625
349,-9.765625
350,-7.812500
351,-7.812500
352,-5.859375
353,-5.859375
354,-3.906250
355,-3.906250
356,-3.906250
357,-1.953125
358,-1.953125
359,0.000000
360,0.000000
361,1.953125
362,1.953125
363,3.906250
364,3.906250
365,3.906250
366,5.859375
367,5.859375
368,7.812500
369,7.812500
370,7.812500
371,9.765625
372,9.765625
373,11.718750
374,11.718750
375,11.718750
376,13.671875
377,13.671875
378,15.625000
379,15.625000
380,17.578125
381,17.578125
382,17.578125
383,19.531250
384,19.531250
385,21.484375
386,21.484375
387,21.484375
388,21.484375
389,23.437500
390,25.390625
391,25.390625
392,25.390625
393,27.343750
394,27.343750
395,27.343750
396,29.296875
397,29.296875
398,29.296875
399,31.250000
400,31.250000
401,31.250000
402,33.203125
403,33.203125
404,33.203125
405,35.156250
406,35.156250
407,35.156250
408,37.109375
409,37.109375
410,39.062500
411,39.062500
412,39.062500
413,39.062500
414,41.015625
415,41.015625
416,41.015625
417,41.015625
418,42.968750
419,42.968750
420,42.968750
421,44.921875
422,44.921875
423,44.921875
424,44.921875
425,46.875000
426,46.875000
427,46.875000
428,48.828125
429,48.828125
430,48.828125
431,48.828125
432,48.828125
433,50.781250
434,50.781250
435,50.781250
436,50.781250
437,52.734375
438,52.734375
439,52.734375
440,54.687500
441,54.687500
442,54.687500
443,54.687500
444,54.687500
445,56.640625
446,54.687500
447,56.640625
448,56.640625
449,56.640625
450,56.640625
451,58.593750
452,58.593750
453,58.593750
454,58.593750
455,58.593750
456,60.546875
457,58.593750
458,58.593750
459,60.546875
460,60.546875
461,60.546875
462,60.546875
463,62.500000
464,60.546875
465,62.500000
466,62.500000
467,62.500000
468,62.500000
469,62.500000
470,62.500000
471,62.500000
472,62.500000
473,62.500000
474,62.500000
475,64.453125
476,64.453125
477,62.500000
478,64.453125
479,64.453125
480,64.453125
481,64.453125
482,64.453125
483,64.453125
484,64.453125
485,64.453125
486,64.453125
487,64.453125
488,64.453125
489,64.453125
490,64.453125
491,66.406250
492,64.453125
493,64.453125
494,64.453125
495,66.406250
496,64.453125
497,66.406250
498,64.453125
499,64.453125
500,64.453125
501,64.453125
502,66.406250
503,64.453125
504,64.453125
505,64.453125
506,64.453125
507,64.453125
508,64.453125
509,64.453125
510,64.453125
511,64.453125
512,64.453125
513,64.453125
514,64.453125
515,64.453125
516,64.453125
517,64.453125
518,64.453125
519,62.500000
520,62.500000
521,62.500000
522,62.500000
523,62.500000
524,62.500000
525,62.500000
526,60.546875
527,60.546875
528,60.546875
529,60.546875
530,60.546875
531,62.500000
532,58.593750
533,60.546875
534,60.546875
535,58.593750
536,58.593750
537,58.593750
538,58.593750
539,58.593750
540,56.640625
541,56.640625
542,56.640625
543,56.640625
544,56.640625
545,56.640625
546,54.687500
547,54.687500
548,54.687500
549,54.687500
550,54.687500
551,52.734375
552,52.734375
553,52.734375
554,50.781250
555,50.781250
556,50.781250
557,50.781250
558,50.781250
559,50.781250
560,48.828125
561,48.828125
562,48.828125
563,46.875000
564,46.875000
565,46.875000
566,46.875000
567,44.921875
568,44.921875
569,46.875000
570,44.921875
571,42.968750
572,42.968750
573,42.968750
574,41.015625
575,41.015625
576,41.015625
577,41.015625
578,39.062500
579,39.062500
580,39.062500
581,39.062500
582,37.109375
583,37.109375
584,37.109375
585,35.156250
586,35.156250
587,35.156250
588,33.203125
589,33.203125
590,31.250000
591,31.250000
592,31.250000
593,29.296875
594,29.296875
595,29.296875
596,29.296875
597,27.343750
598,27.343750
599,25.390625
600,25.390625
601,25.390625
602,23.437500
603,23.437500
604,23.437500
605,21.484375
606,21.484375
607,19.531250
608,19.531250
609,19.531250
610,19.531250
611,17.578125
612,17.578125
613,15.625000
614,15.625000
615,13.671875
616,13.671875
617,13.671875
618,11.718750
619,11.718750
620,11.718750
621,9.765625
622,7.812500
623,7.812500
624,7.812500
625,5.859375
626,5.859375
627,5.859375
628,3.906250
629,1.953125
630,1.953125
631,1.953125
632,0.000000
633,0.000000
634,-1.953125
635,-1.953125
636,-1.953125
637,-3.906250
638,-3.906250
639,-5.859375
640,-5.859375
641,-5.859375
642,-7.812500
643,-7.812500
644,-9.765625
645,-9.765625
646,-11.718750
647,-11.718750
648,-11.718750
649,-13.671875
650,-13.671875
651,-15.625000
652,-15.625000
653,-15.625000
654,-17.578125
655,-19.531250
656,-19.531250
657,-19.531250
658,-21.484375
659,-21.484375
660,-21.484375
661,-23.437500
662,-25.390625
663,-25.390625
664,-25.390625
665,-27.343750
666,-27.343750
667,-29.296875
668,-29.296875
669,-29.296875
670,-31.250000
671,-31.250000
672,-33.203125
673,-33.203125
674,-33.203125
675,-35.156250
676,-37.109375
677,-37.109375
678,-37.109375
679,-39.062500
680,-39.062500
681,-39.062500
682,-41.015625
683,-41.015625
684,-42.968750
685,-42.968750
686,-44.921875
687,-44.921875
688,-44.921875
689,-44.921875
690,-46.875000
691,-46.875000
692,-48.828125
693,-48.828125
694,-50.781250
695,-50.781250
696,-50.781250
697,-50.781250
698,-52.734375
699,-52.734375
700,-52.734375
701,-54.687500
702,-54.687500
703,-56.640625
704,-56.640625
705,-56.640625
706,-58.593750
707,-58.593750
708,-58.593750
709,-58.593750
710,-60.546875
711,-60.546875
712,-60.546875
713,-62.500000
714,-62.500000
715,-62.500000
716,-62.500000
717,-64.453125
718,-64.453125
719,-64.453125
720,-64.453125
721,-66.406250
722,-66.406250
723,-66.406250
724,-68.359375
725,-68.359375
726,-68.359375
727,-68.359375
728,-68.359375
729,-70.312500
730,-70.312500
731,-70.312500
732,-70.312500
733,-72.265625
734,-72.265625
735,-72.265625
736,-72.265625
737,-72.265625
738,-74.218750
739,-74.218750
740,-74.218750
741,-74.218750
742,-74.218750
743,-76.171875
744,-74.218750
745,-76.171875
746,-76.171875
747,-76.171875
748,-76.171875
749,-78.125000
750,-78.125000
751,-78.125000
752,-78.125000
753,-78.125000
754,-78.125000
755,-78.125000
756,-80.078125
757,-78.125000
758,-80.078125
759,-80.078125
760,-80.078125
761,-80.078125
762,-80.078125
763,-80.078125
764,-80.078125
765,-80.078125
766,-80.078125
767,-82.031250
768,-80.078125
769,-82.031250
770,-82.031250
771,-82.031250
772,-82.031250
773,-82.031250
774,-82.031250
775,-82.031250
776,-82.031250
777,-82.031250
778,-82.031250
779,-82.031250
780,-82.031250
781,-82.031250
782,-82.031250
783,-82.031250
784,-82.031250
785,-82.031250
786,-82.031250
787,-82.031250
788,-82.031250
789,-82.031250
790,-82.031250
791,-82.031250
792,-82.031250
793,-82.031250
794,-82.031250
795,-82.031250
796,-82.031250
797,-82.031250
798,-82.031250
799,-82.031250
800,-82.031250
801,-82.031250
802,-82.031250
803,-82.031250
804,-82.031250
805,-82.031250
806,-82.031250
807,-80.078125
808,-80.078125
809,-80.078125
810,-80.078125
811,-80.078125
812,-80.078125
813,-80.078125
814,-80.078125
815,-80.078125
816,-80.078125
817,-80.078125
818,-78.125000
819,-78.125000
820,-80.078125
821,-78.125000
822,-78.125000
823,-78.125000
824,-78.125000
825,-78.125000
826,-76.171875
827,-76.171875
828,-76.171875
829,-76.171875
830,-76.171875
831,-76.171875
832,-74.218750
833,-74.218750
834,-74.218750
835,-74.218750
836,-74.218750
837,-72.265625
838,-72.265625
839,-72.265625
840,-72.265625
841,-70.312500
842,-70.312500
843,-70.312500
844,-70.312500
845,-70.312500
846,-68.359375
847,-68.359375
848,-66.406250
849,-66.406250
850,-66.406250
851,-66.406250
852,-66.406250
853,-64.453125
854,-64.453125
855,-64.453125
856,-64.453125
857,-62.500000
858,-62.500000
859,-62.500000
860,-60.546875
861,-60.546875
862,-60.546875
863,-58.593750
864,-58.593750
865,-58.593750
866,-58.593750
867,-56.640625
868,-56.640625
869,-56.640625
870,-54.687500
871,-54.687500
872,-52.734375
873,-54.687500
874,-52.734375
875,-52.734375
876,-50.781250
877,-50.781250
878,-48.828125
879,-48.828125
880,-48.828125
881,-48.828125
882,-46.875000
883,-46.875000
884,-44.921875
885,-44.921875
886,-44.921875
887,-44.921875
888,-42.968750
889,-42.968750
890,-41.015625
891,-41.015625
892,-41.015625
893,-39.062500
894,-39.062500
895,-39.062500
896,-37.109375
897,-35.156250
898,-35.156250
899,-35.156250
900,-33.203125
901,-33.203125
902,-33.203125
903,-31.250000
904,-31.250000
905,-29.296875
906,-29.296875
907,-27.343750
908,-27.343750
909,-27.343750
910,-27.343750
911,-25.390625
912,-23.437500
913,-23.437500
914,-23.437500
915,-21.484375
916,-21.484375
917,-21.484375
918,-19.531250
919,-17.578125
920,-17.578125
921,-17.578125
922,-15.625000
923,-15.625000
924,-15.625000
925,-13.671875
926,-13.671875
927,-11.718750
928,-11.718750
929,-9.765625
930,-9.765625
931,-9.765625
932,-7.812500
933,-7.812500
934,-5.859375
935,-5.859375
936,-5.859375
937,-3.906250
938,-3.906250
939,-3.906250
940,-1.953125
941,-1.953125
942,0.000000
943,0.000000
944,1.953125
945,1.953125
946,3.906250
947,3.906250
948,3.906250
949,5.859375
950,5.859375
951,7.812500
952,7.812500
953,7.812500
954,9.765625
955,11.718750
956,11.718750
957,11.718750
958,13.671875
959,13.671875
960,13.671875
961,15.625000
962,15.625000
963,17.578125
964,17.578125
965,17.578125
966,19.531250
967,19.531250
968,21.484375
969,21.484375
970,21.484375
971,23.437500
972,23.437500
973,25.390625
974,25.390625
975,25.390625
976,25.390625
977,27.343750
978,27.343750
979,29.296875
980,27.343750
981,29.296875
982,31.250000
983,31.250000
984,33.203125
985,33.203125
986,33.203125
987,33.203125
988,35.156250
989,35.156250
990,35.156250
991,37.109375
992,37.109375
993,39.062500
994,37.109375
995,39.062500
996,41.015625
997,41.015625
998,41.015625
999,41.015625
1000,42.968750
1001,42.968750
1002,42.968750
1003,44.921875
1004,44.921875
1005,44.921875
1006,44.921875
1007,46.875000
1008,46.875000
1009,46.875000
1010,46.875000
1011,46.875000
1012,48.828125
1013,48.828125
1014,48.828125
1015,48.828125
1016,50.781250
1017,50.781250
1018,50.781250
1019,50.781250
1020,52.734375
1021,52.734375
1022,52.734375
1023,52.734375
1024,54.687500
1025,54.687500
1026,54.687500
1027,54.687500
1028,56.640625
1029,56.640625
1030,56.640625
1031,56.640625
1032,56.640625
1033,56.640625
1034,58.593750
1035,58.593750
1036,58.593750
1037,58.593750
1038,60.546875
1039,58.593750
1040,58.593750
1041,60.546875
1042,60.546875
1043,60.546875
1044,60.546875
1045,60.546875
1046,62.500000
1047,62.500000
1048,62.500000
1049,62.500000
1050,62.500000
1051,62.500000
1052,62.500000
1053,62.500000
1054,62.500000
1055,62.500000
1056,62.500000
1057,62.500000
1058,62.500000
1059,64.453125
1060,64.453125
1061,64.453125
1062,64.453125
1063,64.453125
1064,64.453125
1065,64.453125
1066,64.453125
1067,64.453125
1068,64.453125
1069,64.453125
1070,64.453125
1071,64.453125
1072,64.453125
1073,64.453125
1074,64.453125
1075,64.453125
1076,64.453125
1077,64.453125
1078,64.453125
1079,64.453125
1080,64.453125
1081,66.406250
1082,64.453125
1083,64.453125
1084,64.453125
1085,64.453125
1086,64.453125
1087,64.453125
1088,64.453125
1089,64.453125
1090,64.453125
1091,64.453125
1092,64.453125
1093,64.453125
1094,64.453125
1095,64.453125
1096,64.453125
1097,64.453125
1098,62.500000
1099,64.453125
1100,62.500000
1101,62.500000
1102,62.500000
1103,62.500000
1104,62.500000
1105,62.500000
1106,62.500000
1107,62.500000
1108,60.546875
1109,60.546875
1110,60.546875
1111,60.546875
1112,60.546875
1113,60.546875
1114,60.546875
1115,60.546875
1116,60.546875
1117,58.593750
1118,58.593750
1119,58.593750
1120,56.640625
1121,56.640625
1122,56.640625
1123,56.640625
1124,56.640625
1125,56.640625
1126,56.640625
1127,56.640625
1128,54.687500
1129,54.687500
1130,54.687500
1131,54.687500
1132,52.734375
1133,52.734375
1134,52.734375
1135,52.734375
1136,52.734375
1137,50.781250
1138,50.781250
1139,50.781250
1140,50.781250
1141,48.828125
1142,48.828125
1143,48.828125
1144,46.875000
1145,48.828125
1146,46.875000
1147,46.875000
1148,46.875000
1149,46.875000
1150,44.921875
1151,44.921875
1152,44.921875
1153,42.968750
1154,42.968750
1155,42.968750
1156,41.015625
1157,41.015625
1158,41.015625
1159,41.015625
1160,41.015625
1161,39.062500
1162,37.109375
1163,39.062500
1164,37.109375
1165,37.109375
1166,35.156250
1167,35.156250
1168,35.156250
1169,35.156250
1170,33.203125
1171,33.203125
1172,33.203125
1173,31.250000
1174,31.250000
1175,31.250000
1176,29.296875
1177,29.296875
1178,29.296875
1179,27.343750
1180,27.343750
1181,27.343750
1182,25.390625
1183,25.390625
1184,25.390625
1185,23.437500
1186,23.437500
1187,23.437500
1188,21.484375
1189,21.484375
1190,19.531250
1191,19.531250
1192,19.531250
1193,17.578125
1194,17.578125
1195,17.578125
1196,15.625000
1197,13.671875
1198,13.671875
1199,13.671875
1200,11.718750
1201,11.718750
1202,11.718750
1203,9.765625
1204,9.765625
1205,9.765625
1206,5.859375
1207,5.859375
1208,5.859375
1209,5.859375
1210,3.906250
1211,3.906250
1212,3.906250
1213,1.953125
1214,0.000000
1215,0.000000
1216,0.000000
1217,-1.953125
1218,-1.953125
1219,-3.906250
1220,-3.906250
1221,-3.906250
1222,-5.859375
1223,-5.859375
1224,-7.812500
1225,-7.812500
1226,-7.812500
1227,-9.765625
1228,-9.765625
1229,-11.718750
1230,-11.718750
1231,-13.671875
1232,-13.671875
1233,-13.671875
1234,-15.625000
1235,-15.625000
1236,-15.625000
1237,-17.578125
1238,-19.531250
1239,-19.531250
1240,-21.484375
1241,-21.484375
1242,-21.484375
1243,-23.437500
1244,-23.437500
1245,-23.437500
1246,-25.390625
1247,-27.343750
1248,-27.343750
1249,-27.343750
1250,-29.296875
1251,-29.296875
1252,-31.250000
1253,-31.250000
1254,-31.250000
1255,-33.203125
1256,-33.203125
1257,-35.156250
1258,-35.156250
1259,-35.156250
1260,-37.109375
1261,-39.062500
1262,-39.062500
1263,-39.062500
1264,-41.015625
1265,-41.015625
1266,-41.015625
1267,-42.968750
1268,-42.968750
1269,-42.968750
1270,-44.921875
1271,-44.921875
1272,-46.875000
1273,-46.875000
1274,-46.875000
1275,-46.875000
1276,-50.781250
1277,-50.781250
1278,-50.781250
1279,-50.781250
1280,-50.781250
1281,-52.734375
1282,-54.687500
1283,-54.687500
1284,-52.734375
1285,-54.687500
1286,-56.640625
1287,-56.640625
1288,-56.640625
1289,-58.593750
1290,-58.593750
1291,-58.593750
1292,-60.546875
1293,-58.593750
1294,-60.546875
1295,-60.546875
1296,-60.546875
1297,-62.500000
1298,-62.500000
1299,-62.500000
1300,-64.453125
1301,-64.453125
1302,-64.453125
1303,-66.406250
1304,-66.406250
1305,-66.406250
1306,-66.406250
1307,-68.359375
1308,-68.359375
1309,-68.359375
1310,-68.359375
1311,-68.359375
1312,-68.359375
1313,-70.312500
1314,-70.312500
1315,-70.312500
1316,-72.265625
1317,-72.265625
1318,-72.265625
1319,-72.265625
1320,-72.265625
1321,-74.218750
1322,-74.218750
1323,-74.218750
1324,-74.218750
1325,-74.218750
1326,-74.218750
1327,-76.171875
1328,-76.171875
1329,-76.171875
1330,-76.171875
1331,-76.171875
1332,-76.171875
1333,-76.171875
1334,-78.125000
1335,-78.125000
1336,-78.125000
1337,-78.125000
1338,-78.125000
1339,-78.125000
1340,-78.125000
1341,-78.125000
1342,-80.078125
1343,-80.078125
1344,-80.078125
1345,-80.078125
1346,-80.078125
1347,-80.078125
1348,-80.078125
1349,-80.078125
1350,-80.078125
1351,-82.031250
1352,-80.078125
1353,-80.078125
1354,-82.031250
1355,-80.078125
1356,-82.031250
1357,-82.031250
1358,-82.031250
1359,-82.031250
1360,-80.078125
1361,-80.078125
1362,-82.031250
1363,-82.031250
1364,-82.031250
1365,-82.031250
1366,-82.031250
1367,-82.031250
1368,-82.031250
1369,-82.031250
1370,-82.031250
1371,-82.031250
1372,-82.031250
1373,-82.031250
1374,-82.031250
1375,-82.031250
1376,-82.031250
1377,-82.031250
1378,-82.031250
1379,-82.031250
1380,-82.031250
1381,-82.031250
1382,-82.031250
1383,-82.031250
1384,-80.078125
1385,-80.078125
1386,-82.031250
1387,-80.078125
1388,-80.078125
1389,-82.031250
1390,-80.078125
1391,-80.078125
1392,-80.078125
1393,-80.078125
1394,-80.078125
1395,-80.078125
1396,-80.078125
1397,-80.078125
1398,-78.125000
1399,-80.078125
1400,-76.171875
1401,-78.125000
1402,-78.125000
1403,-78.125000
1404,-78.125000
1405,-76.171875
1406,-78.125000
1407,-78.125000
1408,-76.171875
1409,-76.171875
1410,-76.171875
1411,-76.171875
1412,-76.171875
1413,-74.218750
1414,-74.218750
1415,-74.218750
1416,-74.218750
1417,-72.265625
1418,-72.265625
1419,-72.265625
1420,-72.265625
1421,-72.265625
1422,-70.312500
1423,-70.312500
1424,-70.312500
1425,-70.312500
1426,-70.312500
1427,-68.359375
1428,-68.359375
1429,-68.359375
1430,-68.359375
1431,-66.406250
1432,-66.406250
1433,-66.406250
1434,-66.406250
1435,-64.453125
1436,-64.453125
1437,-64.453125
1438,-64.453125
1439,-62.500000
1440,-62.500000
1441,-60.546875
1442,-60.546875
1443,-60.546875
1444,-60.546875
1445,-60.546875
1446,-58.593750
1447,-58.593750
1448,-58.593750
1449,-56.640625
1450,-56.640625
1451,-56.640625
1452,-56.640625
1453,-54.687500
1454,-54.687500
1455,-54.687500
1456,-52.734375
1457,-52.734375
1458,-50.781250
1459,-50.781250
1460,-50.781250
1461,-48.828125
1462,-48.828125
1463,-48.828125
1464,-46.875000
1465,-46.875000
1466,-46.875000
1467,-44.921875
1468,-44.921875
1469,-44.921875
1470,-42.968750
1471,-42.968750
1472,-41.015625
1473,-41.015625
1474,-41.015625
1475,-41.015625
1476,-39.062500
1477,-39.062500
1478,-37.109375
1479,-37.109375
1480,-37.109375
1481,-35.156250
1482,-35.156250
1483,-33.203125
1484,-31.250000
1485,-31.250000
1486,-31.250000
1487,-31.250000
1488,-29.296875
1489,-29.296875
1490,-29.296875
1491,-27.343750
1492,-25.390625
1493,-25.390625
1494,-25.390625
1495,-25.390625
1496,-23.437500
1497,-23.437500
1498,-21.484375
1499,-19.531250
1500,-21.484375
1501,-19.531250
1502,-19.531250
1503,-17.578125
1504,-17.578125
1505,-17.578125
1506,-15.625000
1507,-13.671875
1508,-13.671875
1509,-13.671875
1510,-13.671875
1511,-11.718750
1512,-9.765625
1513,-9.765625
1514,-9.765625
1515,-7.812500
1516,-7.812500
1517,-5.859375
1518,-5.859375
1519,-5.859375
1520,-3.906250
1521,-3.906250
1522,-1.953125
1523,-1.953125
1524,-1.953125
1525,0.000000
1526,0.000000
1527,1.953125
1528,1.953125
1529,1.953125
1530,3.906250
1531,3.906250
1532,5.859375
1533,5.859375
1534,7.812500
1535,7.812500
1536,9.765625
1537,9.765625
1538,9.765625
1539,11.718750
1540,11.718750
1541,7.812500
1542,13.671875
1543,13.671875
1544,15.625000
1545,15.625000
1546,15.625000
1547,17.578125
1548,17.578125
1549,17.578125
1550,19.531250
1551,19.531250
1552,21.484375
1553,21.484375
1554,23.437500
1555,23.437500
1556,23.437500
1557,25.390625
1558,27.343750
1559,27.343750
1560,27.343750
1561,27.343750
1562,29.296875
1563,29.296875
1564,29.296875
1565,31.250000
1566,31.250000
1567,31.250000
1568,33.203125
1569,33.203125
1570,33.203125
1571,35.156250
1572,35.156250
1573,35.156250
1574,37.109375
1575,41.015625
1576,37.109375
1577,39.062500
1578,39.062500
1579,39.062500
1580,41.015625
1581,41.015625
1582,41.015625
1583,41.015625
1584,42.968750
1585,42.968750
1586,42.968750
1587,44.921875
1588,44.921875
1589,44.921875
1590,44.921875
1591,44.921875
1592,46.875000
1593,46.875000
1594,46.875000
1595,48.828125
1596,48.828125
1597,48.828125
1598,48.828125
1599,50.781250
1600,50.781250
1601,50.781250
1602,50.781250
1603,52.734375
1604,52.734375
1605,52.734375
1606,52.734375
1607,52.734375
1608,54.687500
1609,52.734375
1610,54.687500
1611,54.687500
1612,54.687500
1613,56.640625
1614,54.687500
1615,56.640625
1616,56.640625
1617,56.640625
1618,58.593750
1619,58.593750
1620,58.593750
1621,58.593750
1622,58.593750
1623,58.593750
1624,60.546875
1625,58.593750
1626,60.546875
1627,60.546875
1628,60.546875
1629,60.546875
1630,60.546875
1631,60.546875
1632,60.546875
1633,62.500000
1634,62.500000
1635,62.500000
1636,62.500000
1637,62.500000
1638,62.500000
1639,62.500000
1640,62.500000
1641,62.500000
1642,64.453125
1643,62.500000
1644,64.453125
1645,62.500000
1646,64.453125
1647,64.453125
1648,62.500000
1649,64.453125
1650,64.453125
1651,64.453125
1652,64.453125
1653,64.453125
1654,64.453125
1655,62.500000
1656,64.453125
1657,64.453125
1658,64.453125
1659,64.453125
1660,64.453125
1661,64.453125
1662,64.453125
1663,64.453125
1664,64.453125
1665,64.453125
1666,64.453125
1667,64.453125
1668,62.500000
1669,64.453125
1670,64.453125
1671,64.453125
1672,64.453125
1673,64.453125
1674,64.453125
1675,64.453125
1676,64.453125
1677,62.500000
1678,62.500000
1679,62.500000
1680,62.500000
1681,64.453125
1682,62.500000
1683,62.500000
1684,62.500000
1685,64.453125
1686,62.500000
1687,62.500000
1688,60.546875
1689,62.500000
1690,60.546875
1691,60.546875
1692,60.546875
1693,60.546875
1694,60.546875
1695,60.546875
1696,60.546875
1697,58.593750
1698,58.593750
1699,58.593750
1700,58.593750
1701,58.593750
1702,58.593750
1703,58.593750
1704,58.593750
1705,56.640625
1706,56.640625
1707,56.640625
1708,56.640625
1709,54.687500
1710,54.687500
1711,54.687500
1712,54.687500
1713,54.687500
1714,52.734375
1715,52.734375
1716,52.734375
1717,52.734375
1718,52.734375
1719,50.781250
1720,50.781250
1721,50.781250
1722,50.781250
1723,50.781250
1724,48.828125
1725,48.828125
1726,48.828125
1727,46.875000
1728,46.875000
1729,46.875000
1730,44.921875
1731,44.921875
1732,44.921875
1733,44.921875
1734,42.968750
1735,42.968750
1736,44.921875
1737,42.968750
1738,42.968750
1739,41.015625
1740,41.015625
1741,41.015625
1742,39.062500
1743,39.062500
1744,39.062500
1745,39.062500
1746,37.109375
1747,37.109375
1748,37.109375
1749,35.156250
1750,35.156250
1751,35.156250
1752,37.109375
1753,33.203125
1754,33.203125
1755,33.203125
1756,31.250000
1757,31.250000
1758,29.296875
1759,29.296875
1760,29.296875
1761,27.343750
1762,27.343750
1763,27.343750
1764,25.390625
1765,25.390625
1766,25.390625
1767,23.437500
1768,23.437500
1769,21.484375
1770,25.390625
1771,21.484375
1772,21.484375
1773,19.531250
1774,19.531250
1775,17.578125
1776,17.578125
1777,17.578125
1778,15.625000
1779,15.625000
1780,13.671875
1781,13.671875
1782,13.671875
1783,11.718750
1784,11.718750
1785,9.765625
1786,9.765625
1787,9.765625
1788,7.812500
1789,7.812500
1790,5.859375
1791,5.859375
1792,5.859375
1793,3.906250
1794,3.906250
1795,3.906250
1796,1.953125
1797,1.953125
1798,0.000000
1799,0.000000
1800,-1.953125
1801,-1.953125
1802,-1.953125
1803,-3.906250
1804,-3.906250
1805,-5.859375
1806,-5.859375
1807,-7.812500
1808,-7.812500
1809,-7.812500
1810,-9.765625
1811,-9.765625
1812,-11.718750
1813,-11.718750
1814,-13.671875
1815,-13.671875
1816,-13.671875
1817,-15.625000
1818,-15.625000
1819,-17.578125
1820,-17.578125
1821,-17.578125
1822,-19.531250
1823,-19.531250
1824,-21.484375
1825,-21.484375
1826,-21.484375
1827,-23.437500
1828,-23.437500
1829,-25.390625
1830,-27.343750
1831,-27.343750
1832,-27.343750
1833,-29.296875
1834,-29.296875
1835,-31.250000
1836,-31.250000
1837,-29.296875
1838,-33.203125
1839,-33.203125
1840,-33.203125
1841,-35.156250
1842,-37.109375
1843,-37.109375
1844,-37.109375
1845,-37.109375
1846,-39.062500
1847,-41.015625
1848,-41.015625
1849,-42.968750
1850,-42.968750
1851,-42.968750
1852,-44.921875
1853,-44.921875
1854,-44.921875
1855,-46.875000
1856,-46.875000
1857,-46.875000
1858,-48.828125
1859,-48.828125
1860,-50.781250
1861,-50.781250
1862,-50.781250
1863,-52.734375
1864,-52.734375
1865,-52.734375
1866,-54.687500
1867,-54.687500
1868,-54.687500
1869,-56.640625
1870,-56.640625
1871,-58.593750
1872,-56.640625
1873,-58.593750
1874,-58.593750
1875,-58.593750
1876,-60.546875
1877,-60.546875
1878,-60.546875
1879,-62.500000
1880,-62.500000
1881,-62.500000
1882,-62.500000
1883,-64.453125
1884,-64.453125
1885,-64.453125
1886,-64.453125
1887,-66.406250
1888,-66.406250
1889,-66.406250
1890,-66.406250
1891,-68.359375
1892,-68.359375
1893,-68.359375
1894,-68.359375
1895,-70.312500
1896,-70.312500
1897,-70.312500
1898,-72.265625
1899,-70.312500
1900,-72.265625
1901,-72.265625
1902,-72.265625
1903,-74.218750
1904,-72.265625
1905,-74.218750
1906,-74.218750
1907,-74.218750
1908,-74.218750
1909,-74.218750
1910,-74.218750
1911,-76.171875
1912,-76.171875
1913,-76.171875
1914,-76.171875
1915,-76.171875
1916,-78.125000
1917,-78.125000
1918,-78.125000
1919,-78.125000
1920,-78.125000
1921,-78.125000
1922,-80.078125
1923,-78.125000
1924,-80.078125
1925,-80.078125
1926,-80.078125
1927,-80.078125
1928,-80.078125
1929,-80.078125
1930,-80.078125
1931,-80.078125
1932,-80.078125
1933,-82.031250
1934,-80.078125
1935,-82.031250
1936,-80.078125
1937,-80.078125
1938,-82.031250
1939,-82.031250
1940,-82.031250
1941,-82.031250
1942,-82.031250
1943,-82.031250
1944,-82.031250
1945,-82.031250
1946,-82.031250
1947,-82.031250
1948,-82.031250
1949,-82.031250
1950,-82.031250
1951,-82.031250
1952,-82.031250
1953,-82.031250
1954,-82.031250
1955,-82.031250
1956,-82.031250
1957,-82.031250
1958,-82.031250
1959,-82.031250
1960,-82.031250
1961,-82.031250
1962,-82.031250
1963,-82.031250
1964,-82.031250
1965,-82.031250
1966,-82.031250
1967,-82.031250
1968,-82.031250
1969,-82.031250
1970,-82.031250
1971,-82.031250
1972,-82.031250
1973,-82.031250
1974,-82.031250
1975,-80.078125
1976,-80.078125
1977,-80.078125
1978,-80.078125
1979,-80.078125
1980,-80.078125
1981,-80.078125
1982,-80.078125
1983,-80.078125
1984,-80.078125
1985,-78.125000
1986,-78.125000
1987,-78.125000
1988,-78.125000
1989,-78.125000
1990,-76.171875
1991,-76.171875
1992,-76.171875
1993,-76.171875
1994,-76.171875
1995,-76.171875
1996,-76.171875
1997,-76.171875
1998,-74.218750
1999,-74.218750
2000,-74.218750
2001,-74.218750
2002,-74.218750
2003,-72.265625
2004,-72.265625
2005,-72.265625
2006,-72.265625
2007,-72.265625
2008,-70.312500
2009,-70.312500
2010,-70.312500
2011,-70.312500
2012,-68.359375
2013,-68.359375
2014,-68.359375
2015,-66.406250
2016,-66.406250
2017,-66.406250
2018,-66.406250
2019,-66.406250
2020,-64.453125
2021,-64.453125
2022,-62.500000
2023,-62.500000
2024,-62.500000
2025,-62.500000
2026,-60.546875
2027,-60.546875
2028,-60.546875
2029,-60.546875
2030,-58.593750
2031,-58.593750
2032,-58.593750
2033,-56.640625
2034,-56.640625
2035,-56.640625
2036,-54.687500
2037,-54.687500
2038,-54.687500
2039,-54.687500
2040,-52.734375
2041,-52.734375
2042,-50.781250
2043,-50.781250
2044,-50.781250
2045,-48.828125
2046,-48.828125
2047,-48.828125
2048,-46.875000
2049,-46.875000
2050,-44.921875
2051,-44.921875
2052,-44.921875
2053,-42.968750
2054,-42.968750
2055,-42.968750
2056,-41.015625
2057,-41.015625
2058,-39.062500
2059,-39.062500
2060,-39.062500
2061,-37.109375
2062,-37.109375
2063,-37.109375
2064,-35.156250
2065,-35.156250
2066,-33.203125
2067,-33.203125
2068,-33.203125
2069,-31.250000
2070,-31.250000
2071,-29.296875
2072,-29.296875
2073,-29.296875
2074,-27.343750
2075,-27.343750
2076,-25.390625
2077,-25.390625
2078,-23.437500
2079,-23.437500
2080,-23.437500
2081,-21.484375
2082,-21.484375
2083,-21.484375
2084,-21.484375
2085,-17.578125
2086,-17.578125
2087,-17.578125
2088,-15.625000
2089,-15.625000
2090,-15.625000
2091,-13.671875
2092,-13.671875
2093,-11.718750
2094,-11.718750
2095,-9.765625
2096,-9.765625
2097,-9.765625
2098,-7.812500
2099,-7.812500
2100,-7.812500
2101,-5.859375
2102,-5.859375
2103,-5.859375
2104,-3.906250
2105,-3.906250
2106,-1.953125
2107,0.000000
2108,0.000000
2109,0.000000
2110,1.953125
2111,1.953125
2112,1.953125
2113,3.906250
2114,3.906250
2115,5.859375
2116,5.859375
2117,7.812500
2118,7.812500
2119,7.812500
2120,9.765625
2121,9.765625
2122,11.718750
2123,11.718750
2124,11.718750
2125,13.671875
2126,13.671875
2127,15.625000
2128,15.625000
2129,15.625000
2130,17.578125
2131,17.578125
2132,19.531250
2133,19.531250
2134,21.484375
2135,21.484375
2136,21.484375
2137,23.437500
2138,23.437500
2139,23.437500
2140,25.390625
2141,27.343750
2142,27.343750
2143,27.343750
2144,27.343750
2145,29.296875
2146,29.296875
2147,29.296875
2148,31.250000
2149,31.250000
2150,31.250000
2151,33.203125
2152,35.156250
2153,33.203125
2154,35.156250
2155,35.156250
2156,35.156250
2157,37.109375
2158,37.109375
2159,37.109375
2160,39.062500
2161,39.062500
2162,39.062500
2163,41.015625
2164,41.015625
2165,41.015625
2166,41.015625
2167,42.968750
2168,42.968750
2169,42.968750
2170,44.921875
2171,44.921875
2172,44.921875
2173,46.875000
2174,46.875000
2175,46.875000
2176,46.875000
2177,46.875000
2178,48.828125
2179,48.828125
2180,48.828125
2181,50.781250
2182,48.828125
2183,50.781250
2184,50.781250
2185,52.734375
2186,50.781250
2187,52.734375
2188,52.734375
2189,52.734375
2190,54.687500
2191,54.687500
2192,52.734375
2193,54.687500
2194,56.640625
2195,56.640625
2196,56.640625
2197,56.640625
2198,56.640625
2199,56.640625
2200,58.593750
2201,58.593750
2202,58.593750
2203,58.593750
2204,58.593750
2205,58.593750
2206,60.546875
2207,60.546875
2208,60.546875
2209,60.546875
2210,60.546875
2211,60.546875
2212,60.546875
2213,60.546875
2214,60.546875
2215,62.500000
2216,62.500000
2217,62.500000
2218,62.500000
2219,62.500000
2220,62.500000
2221,62.500000
2222,64.453125
2223,64.453125
2224,62.500000
2225,64.453125
2226,64.453125
2227,64.453125
2228,64.453125
2229,64.453125
2230,64.453125
2231,64.453125
2232,64.453125
2233,64.453125
2234,64.453125
2235,64.453125
2236,64.453125
2237,64.453125
2238,64.453125
2239,64.453125
2240,64.453125
2241,66.406250
2242,64.453125
2243,64.453125
2244,64.453125
2245,64.453125
2246,64.453125
2247,64.453125
2248,64.453125
2249,64.453125
2250,64.453125
2251,64.453125
2252,66.406250
2253,64.453125
2254,64.453125
2255,64.453125
2256,64.453125
2257,64.453125
2258,64.453125
2259,64.453125
2260,64.453125
2261,64.453125
2262,64.453125
2263,64.453125
2264,64.453125
2265,64.453125
2266,64.453125
2267,64.453125
2268,64.453125
2269,62.500000
2270,62.500000
2271,62.500000
2272,62.500000
2273,62.500000
2274,62.500000
2275,62.500000
2276,62.500000
2277,60.546875
2278,60.546875
2279,60.546875
2280,60.546875
2281,60.546875
2282,60.546875
2283,58.593750
2284,58.593750
2285,58.593750
2286,58.593750
2287,58.593750
2288,56.640625
2289,56.640625
2290,56.640625
2291,56.640625
2292,56.640625
2293,54.687500
2294,56.640625
2295,54.687500
2296,54.687500
2297,54.687500
2298,54.687500
2299,52.734375
2300,52.734375
2301,52.734375
2302,50.781250
2303,50.781250
2304,50.781250
2305,50.781250
2306,50.781250
2307,48.828125
2308,48.828125
2309,48.828125
2310,48.828125
2311,46.875000
2312,46.875000
2313,44.921875
2314,42.968750
2315,46.875000
2316,44.921875
2317,44.921875
2318,44.921875
2319,42.968750
2320,42.968750
2321,42.968750
2322,42.968750
2323,44.921875
2324,41.015625
2325,41.015625
2326,39.062500
2327,39.062500
2328,39.062500
2329,37.109375
2330,37.109375
2331,37.109375
2332,37.109375
2333,37.109375
2334,35.156250
2335,35.156250
2336,33.203125
2337,33.203125
2338,33.203125
2339,31.250000
2340,31.250000
2341,31.250000
2342,31.250000
2343,29.296875
2344,27.343750
2345,27.343750
2346,27.343750
2347,27.343750
2348,27.343750
2349,25.390625
2350,25.390625
2351,23.437500
2352,23.437500
2353,21.484375
2354,21.484375
2355,19.531250
2356,19.531250
2357,19.531250
2358,19.531250
2359,17.578125
2360,17.578125
2361,17.578125
2362,15.625000
2363,13.671875
2364,13.671875
2365,13.671875
2366,11.718750
2367,11.718750
2368,11.718750
2369,11.718750
2370,9.765625
2371,9.765625
2372,7.812500
2373,5.859375
2374,5.859375
2375,5.859375
2376,5.859375
2377,3.906250
2378,3.906250
2379,1.953125
2380,1.953125
2381,0.000000
2382,0.000000
2383,0.000000
2384,-1.953125
2385,-3.906250
2386,-3.906250
2387,-3.906250
2388,-5.859375
2389,-5.859375
2390,-5.859375
2391,-7.812500
2392,-7.812500
2393,-9.765625
2394,-9.765625
2395,-11.718750
2396,-11.718750
2397,-13.671875
2398,-13.671875
2399,-15.625000
2400,-15.625000
2401,-15.625000
2402,-17.578125
2403,-17.578125
2404,-19.531250
2405,-19.531250
2406,-19.531250
2407,-21.484375
2408,-21.484375
2409,-23.437500
2410,-23.437500
2411,-25.390625
2412,-25.390625
2413,-27.343750
2414,-27.343750
2415,-27.343750
2416,-29.296875
2417,-29.296875
2418,-31.250000
2419,-31.250000
2420,-31.250000
2421,-33.203125
2422,-33.203125
2423,-35.156250
2424,-35.156250
2425,-37.109375
2426,-37.109375
2427,-37.109375
2428,-39.062500
2429,-39.062500
2430,-41.015625
2431,-41.015625
2432,-41.015625
2433,-42.968750
2434,-42.968750
2435,-44.921875
2436,-44.921875
2437,-46.875000
2438,-46.875000
2439,-46.875000
2440,-48.828125
2441,-50.781250
2442,-48.828125
2443,-48.828125
2444,-50.781250
2445,-50.781250
2446,-52.734375
2447,-52.734375
2448,-52.734375
2449,-54.687500
2450,-54.687500
2451,-54.687500
2452,-56.640625
2453,-56.640625
2454,-58.593750
2455,-58.593750
2456,-58.593750
2457,-58.593750
2458,-58.593750
2459,-60.546875
2460,-60.546875
2461,-62.500000
2462,-62.500000
2463,-62.500000
2464,-64.453125
2465,-64.453125
2466,-64.453125
2467,-64.453125
2468,-66.406250
2469,-66.406250
2470,-66.406250
2471,-68.359375
2472,-68.359375
2473,-68.359375
2474,-68.359375
2475,-70.312500
2476,-70.312500
2477,-70.312500
2478,-70.312500
2479,-70.312500
2480,-72.265625
2481,-72.265625
2482,-72.265625
2483,-72.265625
2484,-72.265625
2485,-74.218750
2486,-74.218750
2487,-74.218750
2488,-74.218750
2489,-74.218750
2490,-74.218750
2491,-76.171875
2492,-76.171875
2493,-76.171875
2494,-76.171875
2495,-76.171875
2496,-78.125000
2497,-78.125000
2498,-78.125000
2499,-78.125000
2500,-78.125000
2501,-78.125000
2502,-78.125000
2503,-80.078125
2504,-80.078125
2505,-80.078125
2506,-80.078125
2507,-80.078125
2508,-80.078125
2509,-80.078125
2510,-80.078125
2511,-80.078125
2512,-80.078125
2513,-82.031250
2514,-82.031250
2515,-82.031250
2516,-82.031250
2517,-82.031250
2518,-82.031250
2519,-82.031250
2520,-82.031250
2521,-82.031250
2522,-82.031250
2523,-82.031250
2524,-82.031250
2525,-82.031250
2526,-82.031250
2527,-82.031250
2528,-82.031250
2529,-82.031250
2530,-82.031250
2531,-82.031250
2532,-82.031250
2533,-82.031250
2534,-82.031250
2535,-83.984375
2536,-82.031250
2537,-82.031250
2538,-82.031250
2539,-82.031250
2540,-82.031250
2541,-83.984375
2542,-82.031250
2543,-82.031250
2544,-83.984375
2545,-82.031250
2546,-82.031250
2547,-82.031250
2548,-80.078125
2549,-82.031250
2550,-82.031250
2551,-82.031250
2552,-82.031250
2553,-82.031250
2554,-82.031250
2555,-82.031250
2556,-82.031250
2557,-80.078125
2558,-82.031250
2559,-82.031250
2560,-82.031250
2561,-80.078125
2562,-80.078125
2563,-80.078125
2564,-80.078125
2565,-80.078125
2566,-80.078125
2567,-80.078125
2568,-80.078125
2569,-78.125000
2570,-78.125000
2571,-78.125000
2572,-78.125000
2573,-78.125000
2574,-78.125000
2575,-78.125000
2576,-76.171875
2577,-76.171875
2578,-76.171875
2579,-76.171875
2580,-76.171875
2581,-74.218750
2582,-74.218750
2583,-74.218750
2584,-74.218750
2585,-74.218750
2586,-74.218750
2587,-72.265625
2588,-72.265625
2589,-72.265625
2590,-70.312500
2591,-70.312500
2592,-70.312500
2593,-70.312500
2594,-70.312500
2595,-68.359375
2596,-68.359375
2597,-68.359375
2598,-68.359375
2599,-66.406250
2600,-66.406250
2601,-66.406250
2602,-64.453125
2603,-64.453125
2604,-64.453125
2605,-64.453125
2606,-62.500000
2607,-62.500000
2608,-62.500000
2609,-60.546875
2610,-60.546875
2611,-60.546875
2612,-60.546875
2613,-58.593750
2614,-58.593750
2615,-58.593750
2616,-56.640625
2617,-56.640625
2618,-56.640625
2619,-54.687500
2620,-54.687500
2621,-52.734375
2622,-52.734375
2623,-52.734375
2624,-52.734375
2625,-50.781250
2626,-50.781250
2627,-50.781250
2628,-48.828125
2629,-48.828125
2630,-48.828125
2631,-46.875000
2632,-46.875000
2633,-44.921875
2634,-44.921875
2635,-42.968750
2636,-42.968750
2637,-42.968750
2638,-42.968750
2639,-41.015625
2640,-41.015625
2641,-39.062500
2642,-39.062500
2643,-39.062500
2644,-37.109375
2645,-37.109375
2646,-35.156250
2647,-35.156250
2648,-35.156250
2649,-33.203125
2650,-33.203125
2651,-31.250000
2652,-31.250000
2653,-29.296875
2654,-29.296875
2655,-29.296875
2656,-27.343750
2657,-27.343750
2658,-27.343750
2659,-25.390625
2660,-25.390625
2661,-23.437500
2662,-23.437500
2663,-21.484375
2664,-21.484375
2665,-21.484375
2666,-21.484375
2667,-19.531250
2668,-19.531250
2669,-17.578125
2670,-17.578125
2671,-15.625000
2672,-15.625000
2673,-15.625000
2674,-13.671875
2675,-13.671875
2676,-11.718750
2677,-11.718750
2678,-11.718750
2679,-9.765625
2680,-7.812500
2681,-7.812500
2682,-5.859375
2683,-5.859375
2684,-5.859375
2685,-5.859375
2686,-3.906250
2687,-1.953125
2688,-1.953125
2689,-1.953125
2690,0.000000
2691,0.000000
2692,1.953125
2693,1.953125
2694,3.906250
2695,1.953125
2696,3.906250
2697,5.859375
2698,7.812500
2699,7.812500
2700,7.812500
2701,7.812500
2702,9.765625
2703,9.765625
2704,11.718750
2705,11.718750
2706,11.718750
2707,13.671875
2708,13.671875
2709,13.671875
2710,15.625000
2711,15.625000
2712,17.578125
2713,17.578125
2714,19.531250
2715,19.531250
2716,21.484375
2717,21.484375
2718,21.484375
2719,23.437500
2720,23.437500
2721,25.390625
2722,25.390625
2723,25.390625
2724,27.343750
2725,27.343750
2726,29.296875
2727,29.296875
2728,29.296875
2729,29.296875
2730,31.250000
2731,31.250000
2732,33.203125
2733,33.203125
2734,33.203125
2735,33.203125
2736,35.156250
2737,35.156250
2738,35.156250
2739,37.109375
2740,37.109375
2741,39.062500
2742,37.109375
2743,39.062500
2744,39.062500
2745,41.015625
2746,41.015625
2747,41.015625
2748,41.015625
2749,42.968750
2750,42.968750
2751,44.921875
2752,44.921875
2753,44.921875
2754,44.921875
2755,44.921875
2756,46.875000
2757,46.875000
2758,46.875000
2759,48.828125
2760,48.828125
2761,48.828125
2762,48.828125
2763,48.828125
2764,50.781250
2765,50.781250
2766,50.781250
2767,52.734375
2768,52.734375
2769,52.734375
2770,52.734375
2771,52.734375
2772,52.734375
2773,54.687500
2774,54.687500
2775,54.687500
2776,54.687500
2777,56.640625
2778,56.640625
2779,56.640625
2780,56.640625
2781,58.593750
2782,56.640625
2783,58.593750
2784,58.593750
2785,58.593750
2786,58.593750
2787,58.593750
2788,60.546875
2789,60.546875
2790,60.546875
2791,60.546875
2792,60.546875
2793,60.546875
2794,62.500000
2795,60.546875
2796,62.500000
2797,62.500000
2798,62.500000
2799,62.500000
2800,62.500000
2801,62.500000
2802,62.500000
2803,64.453125
2804,62.500000
2805,62.500000
2806,64.453125
2807,64.453125
2808,64.453125
2809,64.453125
2810,64.453125
2811,64.453125
2812,64.453125
2813,64.453125
2814,64.453125
2815,64.453125
2816,64.453125
2817,64.453125
2818,64.453125
2819,64.453125
2820,64.453125
2821,64.453125
2822,64.453125
2823,64.453125
2824,64.453125
2825,66.406250
2826,64.453125
2827,66.406250
2828,64.453125
2829,66.406250
2830,64.453125
2831,64.453125
2832,64.453125
2833,64.453125
2834,64.453125
2835,64.453125
2836,64.453125
2837,64.453125
2838,64.453125
2839,64.453125
2840,64.453125
2841,64.453125
2842,64.453125
2843,64.453125
2844,64.453125
2845,64.453125
2846,64.453125
2847,64.453125
2848,64.453125
2849,62.500000
2850,64.453125
2851,62.500000
2852,64.453125
2853,62.500000
2854,62.500000
2855,62.500000
2856,62.500000
2857,60.546875
2858,60.546875
2859,62.500000
2860,60.546875
2861,60.546875
2862,60.546875
2863,60.546875
2864,60.546875
2865,60.546875
2866,58.593750
2867,58.593750
2868,58.593750
2869,58.593750
2870,58.593750
2871,56.640625
2872,56.640625
2873,56.640625
2874,56.640625
2875,54.687500
2876,56.640625
2877,54.687500
2878,54.687500
2879,54.687500
2880,52.734375
2881,52.734375
2882,52.734375
2883,52.734375
2884,52.734375
2885,50.781250
2886,50.781250
2887,50.781250
2888,50.781250
2889,48.828125
2890,48.828125
2891,48.828125
2892,48.828125
2893,48.828125
2894,46.875000
2895,46.875000
2896,46.875000
2897,44.921875
2898,44.921875
2899,44.921875
2900,44.921875
2901,44.921875
2902,42.968750
2903,42.968750
2904,42.968750
2905,42.968750
2906,41.015625
2907,41.015625
2908,41.015625
2909,39.062500
2910,39.062500
2911,39.062500
2912,39.062500
2913,37.109375
2914,37.109375
2915,35.156250
2916,35.156250
2917,35.156250
2918,33.203125
2919,33.203125
2920,31.250000
2921,33.203125
2922,31.250000
2923,31.250000
2924,31.250000
2925,29.296875
2926,29.296875
2927,29.296875
2928,27.343750
2929,25.390625
2930,25.390625
2931,25.390625
2932,25.390625
2933,23.437500
2934,21.484375
2935,23.437500
2936,21.484375
2937,21.484375
2938,19.531250
2939,19.531250
2940,19.531250
2941,17.578125
2942,17.578125
2943,15.625000
2944,15.625000
2945,15.625000
2946,13.671875
2947,13.671875
2948,11.718750
2949,11.718750
2950,9.765625
2951,9.765625
2952,9.765625
2953,7.812500
2954,7.812500
2955,5.859375
2956,5.859375
2957,5.859375
2958,3.906250
2959,3.906250
2960,1.953125
2961,1.953125
2962,1.953125
2963,0.000000
2964,0.000000
2965,-1.953125
2966,-1.953125
2967,-3.906250
2968,-3.906250
2969,-3.906250
2970,-5.859375
2971,-5.859375
2972,-5.859375
2973,-7.812500
2974,-7.812500
2975,-9.765625
2976,-9.765625
2977,-11.718750
2978,-11.718750
2979,-11.718750
2980,-13.671875
2981,-13.671875
2982,-15.625000
2983,-15.625000
2984,-17.578125
2985,-17.578125
2986,-19.531250
2987,-19.531250
2988,-19.531250
2989,-21.484375
2990,-21.484375
2991,-23.437500
2992,-23.437500
2993,-25.390625
2994,-25.390625
2995,-25.390625
2996,-27.343750
2997,-27.343750
2998,-29.296875
2999,-29.296875
3000,-31.250000
3001,-31.250000
3002,-31.250000
3003,-33.203125
3004,-33.203125
3005,-35.156250
3006,-35.156250
3007,-37.109375
3008,-37.109375
3009,-37.109375
3010,-39.062500
3011,-39.062500
3012,-41.015625
3013,-41.015625
3014,-42.968750
3015,-42.968750
3016,-42.968750
3017,-44.921875
3018,-44.921875
3019,-44.921875
3020,-46.875000
3021,-46.875000
3022,-48.828125
3023,-48.828125
3024,-48.828125
3025,-50.781250
3026,-50.781250
3027,-52.734375
3028,-50.781250
3029,-52.734375
3030,-52.734375
3031,-54.687500
3032,-54.687500
3033,-54.687500
3034,-56.640625
3035,-56.640625
3036,-56.640625
3037,-58.593750
3038,-58.593750
3039,-58.593750
3040,-58.593750
3041,-60.546875
3042,-60.546875
3043,-60.546875
3044,-62.500000
3045,-62.500000
3046,-62.500000
3047,-62.500000
3048,-64.453125
3049,-64.453125
3050,-64.453125
3051,-66.406250
3052,-66.406250
3053,-66.406250
3054,-66.406250
3055,-66.406250
3056,-68.359375
3057,-68.359375
3058,-68.359375
3059,-70.312500
3060,-70.312500
3061,-70.312500
3062,-70.312500
3063,-72.265625
3064,-72.265625
3065,-72.265625
3066,-72.265625
3067,-72.265625
3068,-74.218750
3069,-74.218750
3070,-74.218750
3071,-76.171875
3072,-74.218750
3073,-74.218750
3074,-76.171875
3075,-76.171875
3076,-76.171875
3077,-76.171875
3078,-78.125000
3079,-76.171875
3080,-76.171875
3081,-78.125000
3082,-78.125000
3083,-78.125000
3084,-78.125000
3085,-78.125000
3086,-78.125000
3087,-80.078125
3088,-80.078125
3089,-80.078125
3090,-80.078125
3091,-80.078125
3092,-80.078125
3093,-80.078125
3094,-80.078125
3095,-80.078125
3096,-80.078125
3097,-80.078125
3098,-82.031250
3099,-80.078125
3100,-82.031250
3101,-82.031250
3102,-82.031250
3103,-83.984375
3104,-82.031250
3105,-82.031250
3106,-82.031250
3107,-82.031250
3108,-82.031250
3109,-82.031250
3110,-82.031250
3111,-82.031250
3112,-82.031250
3113,-82.031250
3114,-82.031250
3115,-82.031250
3116,-82.031250
3117,-82.031250
3118,-82.031250
3119,-82.031250
3120,-82.031250
3121,-82.031250
3122,-82.031250
3123,-82.031250
3124,-82.031250
3125,-82.031250
3126,-82.031250
3127,-83.984375
3128,-82.031250
3129,-82.031250
3130,-82.031250
3131,-82.031250
3132,-82.031250
3133,-82.031250
3134,-82.031250
3135,-82.031250
3136,-82.031250
3137,-82.031250
3138,-82.031250
3139,-82.031250
3140,-80.078125
3141,-82.031250
3142,-80.078125
3143,-76.171875
3144,-80.078125
3145,-80.078125
3146,-80.078125
3147,-80.078125
3148,-78.125000
3149,-78.125000
3150,-78.125000
3151,-78.125000
3152,-78.125000
3153,-78.125000
3154,-78.125000
3155,-78.125000
3156,-76.171875
3157,-76.171875
3158,-76.171875
3159,-76.171875
3160,-76.171875
3161,-76.171875
3162,-74.218750
3163,-74.218750
3164,-74.218750
3165,-74.218750
3166,-72.265625
3167,-72.265625
3168,-72.265625
3169,-72.265625
3170,-72.265625
3171,-70.312500
3172,-70.312500
3173,-70.312500
3174,-70.312500
3175,-70.312500
3176,-68.359375
3177,-68.359375
3178,-68.359375
3179,-68.359375
3180,-66.406250
3181,-66.406250
3182,-66.406250
3183,-64.453125
3184,-64.453125
3185,-64.453125
3186,-64.453125
3187,-62.500000
3188,-62.500000
3189,-62.500000
3190,-62.500000
3191,-60.546875
3192,-62.500000
3193,-60.546875
3194,-58.593750
3195,-58.593750
3196,-58.593750
3197,-56.640625
3198,-56.640625
3199,-56.640625
3200,-56.640625
3201,-54.687500
3202,-54.687500
3203,-52.734375
3204,-52.734375
3205,-52.734375
3206,-50.781250
3207,-50.781250
3208,-50.781250
3209,-50.781250
3210,-48.828125
3211,-48.828125
3212,-46.875000
3213,-46.875000
3214,-46.875000
3215,-44.921875
3216,-44.921875
3217,-44.921875
3218,-42.968750
3219,-42.968750
3220,-41.015625
3221,-41.015625
3222,-39.062500
3223,-39.062500
3224,-39.062500
3225,-37.109375
3226,-37.109375
3227,-37.109375
3228,-37.109375
3229,-35.156250
3230,-33.203125
3231,-33.203125
3232,-31.250000
3233,-31.250000
3234,-31.250000
3235,-29.296875
3236,-29.296875
3237,-29.296875
3238,-29.296875
3239,-27.343750
3240,-27.343750
3241,-25.390625
3242,-23.437500
3243,-23.437500
3244,-23.437500
3245,-23.437500
3246,-21.484375
3247,-19.531250
3248,-19.531250
3249,-19.531250
3250,-17.578125
3251,-17.578125
3252,-17.578125
3253,-15.625000
3254,-15.625000
3255,-15.625000
3256,-13.671875
3257,-15.625000
3258,-11.718750
3259,-11.718750
3260,-9.765625
3261,-9.765625
3262,-9.765625
3263,-7.812500
3264,-7.812500
3265,-5.859375
3266,-5.859375
3267,-3.906250
3268,-3.906250
3269,-3.906250
3270,-1.953125
3271,-1.953125
3272,0.000000
3273,0.000000
3274,1.953125
3275,1.953125
3276,1.953125
3277,3.906250
3278,3.906250
3279,5.859375
3280,7.812500
3281,5.859375
3282,7.812500
3283,7.812500
3284,9.765625
3285,9.765625
3286,11.718750
3287,11.718750
3288,15.625000
3289,13.671875
3290,13.671875
3291,15.625000
3292,15.625000
3293,15.625000
3294,19.531250
3295,17.578125
3296,19.531250
3297,19.531250
3298,19.531250
3299,21.484375
3300,23.437500
3301,23.437500
3302,23.437500
3303,23.437500
3304,25.390625
3305,25.390625
3306,25.390625
3307,27.343750
3308,27.343750
3309,29.296875
3310,29.296875
3311,29.296875
3312,31.250000
3313,31.250000
3314,31.250000
3315,31.250000
3316,33.203125
3317,35.156250
3318,35.156250
3319,35.156250
3320,35.156250
3321,37.109375
3322,37.109375
3323,37.109375
3324,39.062500
3325,39.062500
3326,39.062500
3327,39.062500
3328,41.015625
3329,41.015625
3330,42.968750
3331,42.968750
3332,42.968750
3333,44.921875
3334,44.921875
3335,44.921875
3336,44.921875
3337,44.921875
3338,44.921875
3339,46.875000
3340,46.875000
3341,48.828125
3342,46.875000
3343,48.828125
3344,48.828125
3345,48.828125
3346,50.781250
3347,50.781250
3348,50.781250
3349,50.781250
3350,50.781250
3351,52.734375
3352,52.734375
3353,52.734375
3354,52.734375
3355,54.687500
3356,52.734375
3357,54.687500
3358,54.687500
3359,54.687500
3360,56.640625
3361,56.640625
3362,56.640625
3363,56.640625
3364,58.593750
3365,58.593750
3366,58.593750
3367,58.593750
3368,58.593750
3369,58.593750
3370,58.593750
3371,60.546875
3372,60.546875
3373,60.546875
3374,60.546875
3375,60.546875
3376,60.546875
3377,60.546875
3378,60.546875
3379,62.500000
3380,60.546875
3381,62.500000
3382,62.500000
3383,62.500000
3384,62.500000
3385,62.500000
3386,62.500000
3387,64.453125
3388,62.500000
3389,64.453125
3390,62.500000
3391,64.453125
3392,64.453125
3393,64.453125
3394,64.453125
3395,62.500000
3396,64.453125
3397,64.453125
3398,64.453125
3399,64.453125
3400,64.453125
3401,64.453125
3402,64.453125
3403,64.453125
3404,64.453125
3405,64.453125
3406,64.453125
3407,64.453125
3408,64.453125
3409,64.453125
3410,64.453125
3411,64.453125
3412,64.453125
3413,64.453125
3414,64.453125
3415,64.453125
3416,64.453125
3417,64.453125
3418,64.453125
3419,64.453125
3420,64.453125
3421,64.453125
3422,64.453125
3423,64.453125
3424,64.453125
3425,64.453125
3426,64.453125
3427,64.453125
3428,64.453125
3429,62.500000
3430,64.453125
3431,62.500000
3432,62.500000
3433,62.500000
3434,62.500000
3435,62.500000
3436,62.500000
3437,62.500000
3438,60.546875
3439,62.500000
3440,60.546875
3441,60.546875
3442,60.546875
3443,60.546875
3444,60.546875
3445,58.593750
3446,58.593750
3447,58.593750
3448,58.593750
3449,58.593750
3450,58.593750
3451,58.593750
3452,56.640625
3453,56.640625
3454,56.640625
3455,56.640625
3456,54.687500
3457,56.640625
3458,54.687500
3459,54.687500
3460,54.687500
3461,54.687500
3462,54.687500
3463,52.734375
3464,52.734375
3465,52.734375
3466,52.734375
3467,50.781250
3468,50.781250
3469,50.781250
3470,50.781250
3471,48.828125
3472,48.828125
3473,48.828125
3474,48.828125
3475,46.875000
3476,48.828125
3477,46.875000
3478,46.875000
3479,44.921875
3480,44.921875
3481,44.921875
3482,44.921875
3483,42.968750
3484,42.968750
3485,42.968750
3486,42.968750
3487,42.968750
3488,41.015625
3489,41.015625
3490,39.062500
3491,39.062500
3492,39.062500
3493,39.062500
3494,39.062500
3495,37.109375
3496,37.109375
3497,35.156250
3498,35.156250
3499,35.156250
3500,35.156250
3501,33.203125
3502,33.203125
3503,31.250000
3504,31.250000
3505,31.250000
3506,31.250000
3507,29.296875
3508,29.296875
3509,27.343750
3510,27.343750
3511,27.343750
3512,25.390625
3513,25.390625
3514,25.390625
3515,23.437500
3516,23.437500
3517,23.437500
3518,23.437500
3519,21.484375
3520,19.531250
3521,19.531250
3522,19.531250
3523,19.531250
3524,17.578125
3525,17.578125
3526,15.625000
3527,15.625000
3528,13.671875
3529,13.671875
3530,13.671875
3531,11.718750
3532,11.718750
3533,11.718750
3534,9.765625
3535,7.812500
3536,7.812500
3537,7.812500
3538,7.812500
3539,5.859375
3540,5.859375
3541,3.906250
3542,3.906250
3543,1.953125
3544,1.953125
3545,1.953125
3546,0.000000
3547,0.000000
3548,-1.953125
3549,-1.953125
3550,-3.906250
3551,-3.906250
3552,-5.859375
3553,-5.859375
3554,-5.859375
3555,-7.812500
3556,-7.812500
3557,-9.765625
3558,-9.765625
3559,-11.718750
3560,-11.718750
3561,-11.718750
3562,-13.671875
3563,-13.671875
3564,-15.625000
3565,-15.625000
3566,-15.625000
3567,-17.578125
3568,-17.578125
3569,-19.531250
3570,-19.531250
3571,-19.531250
3572,-21.484375
3573,-21.484375
3574,-23.437500
3575,-23.437500
3576,-25.390625
3577,-25.390625
3578,-27.343750
3579,-27.343750
3580,-27.343750
3581,-29.296875
3582,-29.296875
3583,-31.250000
3584,-31.250000
3585,-33.203125
3586,-33.203125
3587,-35.156250
3588,-35.156250
3589,-35.156250
3590,-37.109375
3591,-37.109375
3592,-37.109375
3593,-39.062500
3594,-41.015625
3595,-41.015625
3596,-41.015625
3597,-41.015625
3598,-42.968750
3599,-42.968750
3600,-44.921875
3601,-44.921875
3602,-44.921875
3603,-46.875000
3604,-46.875000
3605,-48.828125
3606,-48.828125
3607,-50.781250
3608,-50.781250
3609,-50.781250
3610,-50.781250
3611,-52.734375
3612,-52.734375
3613,-52.734375
3614,-54.687500
3615,-54.687500
3616,-56.640625
3617,-54.687500
3618,-56.640625
3619,-56.640625
3620,-58.593750
3621,-58.593750
3622,-58.593750
3623,-60.546875
3624,-60.546875
3625,-60.546875
3626,-60.546875
3627,-62.500000
3628,-62.500000
3629,-62.500000
3630,-64.453125
3631,-64.453125
3632,-64.453125
3633,-66.406250
3634,-66.406250
3635,-66.406250
3636,-66.406250
3637,-68.359375
3638,-68.359375
3639,-68.359375
3640,-68.359375
3641,-70.312500
3642,-70.312500
3643,-70.312500
3644,-70.312500
3645,-70.312500
3646,-72.265625
3647,-72.265625
3648,-72.265625
3649,-72.265625
3650,-74.218750
3651,-74.218750
3652,-74.218750
3653,-74.218750
3654,-74.218750
3655,-74.218750
3656,-76.171875
3657,-76.171875
3658,-76.171875
3659,-76.171875
3660,-76.171875
3661,-76.171875
3662,-76.171875
3663,-78.125000
3664,-78.125000
3665,-78.125000
3666,-78.125000
3667,-78.125000
3668,-78.125000
3669,-78.125000
3670,-80.078125
3671,-80.078125
3672,-80.078125
3673,-80.078125
3674,-80.078125
3675,-80.078125
3676,-80.078125
3677,-80.078125
3678,-80.078125
3679,-80.078125
3680,-80.078125
3681,-82.031250
3682,-82.031250
3683,-82.031250
3684,-82.031250
3685,-82.031250
3686,-80.078125
3687,-80.078125
3688,-82.031250
3689,-82.031250
3690,-82.031250
3691,-82.031250
3692,-82.031250
3693,-82.031250
3694,-82.031250
3695,-82.031250
3696,-82.031250
3697,-82.031250
3698,-82.031250
3699,-82.031250
3700,-82.031250
3701,-82.031250
3702,-82.031250
3703,-82.031250
3704,-82.031250
3705,-82.031250
3706,-82.031250
3707,-82.031250
3708,-82.031250
3709,-82.031250
3710,-82.031250
3711,-82.031250
3712,-82.031250
3713,-82.031250
3714,-82.031250
3715,-82.031250
3716,-80.078125
3717,-82.031250
3718,-80.078125
3719,-80.078125
3720,-82.031250
3721,-80.078125
3722,-80.078125
3723,-80.078125
3724,-80.078125
3725,-80.078125
3726,-80.078125
3727,-80.078125
3728,-80.078125
3729,-78.125000
3730,-80.078125
3731,-78.125000
3732,-78.125000
3733,-78.125000
3734,-78.125000
3735,-78.125000
3736,-78.125000
3737,-78.125000
3738,-76.171875
3739,-76.171875
3740,-76.171875
3741,-76.171875
3742,-76.171875
3743,-76.171875
3744,-74.218750
3745,-74.218750
3746,-74.218750
3747,-74.218750
3748,-72.265625
3749,-72.265625
3750,-72.265625
3751,-72.265625
3752,-72.265625
3753,-72.265625
3754,-70.312500
3755,-70.312500
3756,-70.312500
3757,-68.359375
3758,-68.359375
3759,-68.359375
3760,-68.359375
3761,-66.406250
3762,-66.406250
3763,-66.406250
3764,-66.406250
3765,-64.453125
3766,-64.453125
3767,-64.453125
3768,-64.453125
3769,-62.500000
3770,-62.500000
3771,-62.500000
3772,-62.500000
3773,-60.546875
3774,-60.546875
3775,-60.546875
3776,-58.593750
3777,-58.593750
3778,-58.593750
3779,-58.593750
3780,-56.640625
3781,-56.640625
3782,-54.687500
3783,-54.687500
3784,-54.687500
3785,-52.734375
3786,-52.734375
3787,-52.734375
3788,-52.734375
3789,-50.781250
3790,-50.781250
3791,-50.781250
3792,-48.828125
3793,-48.828125
3794,-48.828125
3795,-46.875000
3796,-46.875000
3797,-44.921875
3798,-44.921875
3799,-42.968750
3800,-42.968750
3801,-42.968750
3802,-42.968750
3803,-42.968750
3804,-41.015625
3805,-41.015625
3806,-39.062500
3807,-37.109375
3808,-37.109375
3809,-37.109375
3810,-35.156250
3811,-35.156250
3812,-35.156250
3813,-33.203125
3814,-33.203125
3815,-31.250000
3816,-31.250000
3817,-31.250000
3818,-29.296875
3819,-29.296875
3820,-27.343750
3821,-27.343750
3822,-27.343750
3823,-27.343750
3824,-25.390625
3825,-23.437500
3826,-23.437500
3827,-23.437500
3828,-21.484375
3829,-21.484375
3830,-21.484375
3831,-19.531250
3832,-19.531250
3833,-17.578125
3834,-17.578125
3835,-17.578125
3836,-15.625000
3837,-15.625000
3838,-13.671875
3839,-13.671875
3840,-11.718750
3841,-11.718750
3842,-9.765625
3843,-11.718750
3844,-9.765625
3845,-9.765625
3846,-7.812500
3847,-5.859375
3848,-5.859375
3849,-5.859375
3850,-3.906250
3851,-1.953125
3852,-1.953125
3853,-1.953125
3854,-1.953125
3855,0.000000
3856,0.000000
3857,1.953125
3858,1.953125
3859,1.953125
3860,3.906250
3861,3.906250
3862,5.859375
3863,5.859375
3864,3.906250
3865,7.812500
3866,7.812500
3867,9.765625
3868,9.765625
3869,11.718750
3870,11.718750
3871,13.671875
3872,13.671875
3873,13.671875
3874,15.625000
3875,15.625000
3876,15.625000
3877,17.578125
3878,19.531250
3879,19.531250
3880,19.531250
3881,21.484375
3882,21.484375
3883,21.484375
3884,23.437500
3885,23.437500
3886,25.390625
3887,25.390625
3888,25.390625
3889,27.343750
3890,27.343750
3891,27.343750
3892,29.296875
3893,29.296875
3894,31.250000
3895,31.250000
3896,31.250000
3897,33.203125
3898,33.203125
3899,33.203125
3900,33.203125
3901,35.156250
3902,35.156250
3903,37.109375
3904,37.109375
3905,37.109375
3906,39.062500
3907,37.109375
3908,39.062500
3909,39.062500
3910,41.015625
3911,41.015625
3912,41.015625
3913,42.968750
3914,42.968750
3915,42.968750
3916,42.968750
3917,44.921875
3918,44.921875
3919,44.921875
3920,44.921875
3921,46.875000
3922,46.875000
3923,46.875000
3924,48.828125
3925,48.828125
3926,48.828125
3927,48.828125
3928,48.828125
3929,50.781250
3930,50.781250
3931,50.781250
3932,50.781250
3933,52.734375
3934,52.734375
3935,52.734375
3936,52.734375
3937,54.687500
3938,54.687500
3939,54.687500
3940,54.687500
3941,54.687500
3942,56.640625
3943,56.640625
3944,56.640625
3945,56.640625
3946,56.640625
3947,56.640625
3948,56.640625
3949,56.640625
3950,58.593750
3951,58.593750
3952,60.546875
3953,60.546875
3954,60.546875
3955,58.593750
3956,60.546875
3957,60.546875
3958,60.546875
3959,60.546875
3960,60.546875
3961,62.500000
3962,62.500000
3963,62.500000
3964,62.500000
3965,62.500000
3966,62.500000
3967,62.500000
3968,62.500000
3969,62.500000
3970,62.500000
3971,62.500000
3972,64.453125
3973,62.500000
3974,64.453125
3975,62.500000
3976,64.453125
3977,64.453125
3978,64.453125
3979,64.453125
3980,64.453125
3981,64.453125
3982,64.453125
3983,64.453125
3984,64.453125
3985,64.453125
3986,64.453125
3987,64.453125
3988,64.453125
3989,64.453125
3990,66.406250
3991,64.453125
3992,64.453125
3993,64.453125
3994,64.453125
3995,64.453125
3996,64.453125
3997,64.453125
3998,64.453125
3999,64.453125
4000,64.453125
4001,64.453125
4002,64.453125
4003,64.453125
4004,64.453125
4005,64.453125
4006,64.453125
4007,64.453125
4008,64.453125
4009,64.453125
4010,64.453125
4011,64.453125
4012,62.500000
4013,64.453125
4014,62.500000
4015,62.500000
4016,62.500000
4017,62.500000
4018,62.500000
4019,62.500000
4020,62.500000
4021,60.546875
4022,62.500000
4023,60.546875
4024,60.546875
4025,60.546875
4026,60.546875
4027,60.546875
4028,60.546875
4029,60.546875
4030,60.546875
4031,58.593750
4032,58.593750
4033,58.593750
4034,58.593750
4035,56.640625
4036,56.640625
4037,56.640625
4038,56.640625
4039,56.640625
4040,56.640625
4041,54.687500
4042,54.687500
4043,54.687500
4044,54.687500
4045,54.687500
4046,54.687500
4047,52.734375
4048,52.734375
4049,52.734375
4050,50.781250
4051,50.781250
4052,54.687500
4053,50.781250
4054,50.781250
4055,48.828125
4056,48.828125
4057,48.828125
4058,48.828125
4059,46.875000
4060,46.875000
4061,46.875000
4062,46.875000
4063,44.921875
4064,44.921875
4065,44.921875
4066,42.968750
4067,42.968750
4068,42.968750
4069,42.968750
4070,41.015625
4071,41.015625
4072,41.015625
4073,41.015625
4074,39.062500
4075,39.062500
4076,39.062500
4077,37.109375
4078,37.109375
4079,37.109375
4080,37.109375
4081,33.203125
4082,35.156250
4083,35.156250
4084,33.203125
4085,33.203125
4086,33.203125
4087,31.250000
4088,31.250000
4089,29.296875
4090,29.296875
4091,29.296875
4092,29.296875
4093,27.343750
4094,27.343750
4095,25.390625
4096,25.390625
4097,25.390625
4098,23.437500
4099,23.437500
4100,23.437500
4101,23.437500
4102,21.484375
4103,21.484375
4104,19.531250
4105,19.531250
4106,17.578125
4107,17.578125
4108,17.578125
4109,15.625000
4110,15.625000
4111,13.671875
4112,13.671875
4113,13.671875
4114,11.718750
4115,11.718750
4116,9.765625
4117,7.812500
4118,9.765625
4119,7.812500
4120,7.812500
4121,5.859375
4122,5.859375
4123,5.859375
4124,3.906250
4125,3.906250
4126,1.953125
4127,1.953125
4128,1.953125
4129,0.000000
4130,0.000000
4131,-1.953125
4132,-1.953125
4133,-1.953125
4134,-3.906250
4135,-3.906250
4136,-5.859375
4137,-5.859375
4138,-7.812500
4139,-7.812500
4140,-9.765625
4141,-9.765625
4142,-9.765625
4143,-11.718750
4144,-11.718750
4145,-13.671875
4146,-13.671875
4147,-13.671875
4148,-15.625000
4149,-15.625000
4150,-17.578125
4151,-17.578125
4152,-19.531250
4153,-19.531250
4154,-21.484375
4155,-21.484375
4156,-21.484375
4157,-21.484375
4158,-23.437500
4159,-25.390625
4160,-25.390625
4161,-27.343750
4162,-27.343750
4163,-27.343750
4164,-29.296875
4165,-29.296875
4166,-31.250000
4167,-31.250000
4168,-33.203125
4169,-33.203125
4170,-33.203125
4171,-35.156250
4172,-35.156250
4173,-35.156250
4174,-37.109375
4175,-37.109375
4176,-39.062500
4177,-39.062500
4178,-39.062500
4179,-41.015625
4180,-41.015625
4181,-42.968750
4182,-42.968750
4183,-42.968750
4184,-44.921875
4185,-44.921875
4186,-46.875000
4187,-46.875000
4188,-48.828125
4189,-48.828125
4190,-48.828125
4191,-48.828125
4192,-50.781250
4193,-50.781250
4194,-50.781250
4195,-52.734375
4196,-52.734375
4197,-52.734375
4198,-54.687500
4199,-54.687500
4200,-56.640625
4201,-56.640625
4202,-56.640625
4203,-58.593750
4204,-58.593750
4205,-58.593750
4206,-58.593750
4207,-60.546875
4208,-60.546875
4209,-60.546875
4210,-62.500000
4211,-62.500000
4212,-62.500000
4213,-62.500000
4214,-64.453125
4215,-64.453125
4216,-64.453125
4217,-66.406250
4218,-66.406250
4219,-66.406250
4220,-66.406250
4221,-66.406250
4222,-66.406250
4223,-68.359375
4224,-68.359375
4225,-68.359375
4226,-68.359375
4227,-70.312500
4228,-70.312500
4229,-70.312500
4230,-72.265625
4231,-72.265625
4232,-72.265625
4233,-72.265625
4234,-72.265625
4235,-74.218750
4236,-74.218750
4237,-74.218750
4238,-74.218750
4239,-74.218750
4240,-74.218750
4241,-76.171875
4242,-76.171875
4243,-76.171875
4244,-76.171875
4245,-76.171875
4246,-78.125000
4247,-76.171875
4248,-78.125000
4249,-78.125000
4250,-78.125000
4251,-80.078125
4252,-78.125000
4253,-78.125000
4254,-80.078125
4255,-78.125000
4256,-80.078125
4257,-80.078125
4258,-80.078125
4259,-80.078125
4260,-80.078125
4261,-80.078125
4262,-80.078125
4263,-80.078125
4264,-80.078125
4265,-80.078125
4266,-80.078125
4267,-80.078125
4268,-80.078125
4269,-82.031250
4270,-82.031250
4271,-82.031250
4272,-82.031250
4273,-82.031250
4274,-82.031250
4275,-82.031250
4276,-82.031250
4277,-82.031250
4278,-82.031250
4279,-82.031250
4280,-82.031250
4281,-82.031250
4282,-82.031250
4283,-82.031250
4284,-82.031250
4285,-82.031250
4286,-82.031250
4287,-82.031250
4288,-82.031250
4289,-82.031250
4290,-82.031250
4291,-82.031250
4292,-82.031250
4293,-82.031250
4294,-82.031250
4295,-82.031250
4296,-82.031250
4297,-82.031250
4298,-82.031250
4299,-82.031250
4300,-80.078125
4301,-82.031250
4302,-80.078125
4303,-82.031250
4304,-80.078125
4305,-80.078125
4306,-80.078125
4307,-80.078125
4308,-80.078125
4309,-80.078125
4310,-80.078125
4311,-80.078125
4312,-80.078125
4313,-80.078125
4314,-78.125000
4315,-78.125000
4316,-78.125000
4317,-78.125000
4318,-78.125000
4319,-78.125000
4320,-76.171875
4321,-76.171875
4322,-76.171875
4323,-76.171875
4324,-76.171875
4325,-76.171875
4326,-76.171875
4327,-74.218750
4328,-74.218750
4329,-74.218750
4330,-74.218750
4331,-74.218750
4332,-72.265625
4333,-72.265625
4334,-72.265625
4335,-72.265625
4336,-70.312500
4337,-70.312500
4338,-70.312500
4339,-70.312500
4340,-68.359375
4341,-68.359375
4342,-68.359375
4343,-68.359375
4344,-66.406250
4345,-68.359375
4346,-66.406250
4347,-66.406250
4348,-66.406250
4349,-64.453125
4350,-64.453125
4351,-62.500000
4352,-64.453125
4353,-62.500000
4354,-62.500000
4355,-62.500000
4356,-60.546875
4357,-60.546875
4358,-60.546875
4359,-60.546875
4360,-58.593750
4361,-58.593750
4362,-56.640625
4363,-56.640625
4364,-56.640625
4365,-56.640625
4366,-56.640625
4367,-54.687500
4368,-54.687500
4369,-52.734375
4370,-52.734375
4371,-52.734375
4372,-50.781250
4373,-50.781250
4374,-50.781250
4375,-48.828125
4376,-48.828125
4377,-48.828125
4378,-46.875000
4379,-46.875000
4380,-44.921875
4381,-44.921875
4382,-44.921875
4383,-44.921875
4384,-42.968750
4385,-42.968750
4386,-41.015625
4387,-41.015625
4388,-39.062500
4389,-39.062500
4390,-39.062500
4391,-37.109375
4392,-37.109375
4393,-37.109375
4394,-35.156250
4395,-35.156250
4396,-35.156250
4397,-33.203125
4398,-33.203125
4399,-31.250000
4400,-31.250000
4401,-29.296875
4402,-29.296875
4403,-29.296875
4404,-27.343750
4405,-27.343750
4406,-25.390625
4407,-25.390625
4408,-23.437500
4409,-23.437500
4410,-23.437500
4411,-21.484375
4412,-21.484375
4413,-21.484375
4414,-19.531250
4415,-19.531250
4416,-17.578125
4417,-17.578125
4418,-17.578125
4419,-15.625000
4420,-15.625000
4421,-13.671875
4422,-13.671875
4423,-11.718750
4424,-11.718750
4425,-11.718750
4426,-9.765625
4427,-9.765625
4428,-7.812500
4429,-7.812500
4430,-7.812500
4431,-5.859375
4432,-5.859375
4433,-3.906250
4434,-3.906250
4435,-3.906250
4436,-1.953125
4437,-1.953125
4438,0.000000
4439,0.000000
4440,0.000000
4441,1.953125
4442,1.953125
4443,3.906250
4444,3.906250
4445,5.859375
4446,5.859375
4447,5.859375
4448,5.859375
4449,7.812500
4450,7.812500
4451,9.765625
4452,9.765625
4453,11.718750
4454,11.718750
4455,13.671875
4456,13.671875
4457,15.625000
4458,15.625000
4459,15.625000
4460,15.625000
4461,17.578125
4462,19.531250
4463,19.531250
4464,21.484375
4465,21.484375
4466,21.484375
4467,23.437500
4468,23.437500
4469,23.437500
4470,25.390625
4471,25.390625
4472,27.343750
4473,27.343750
4474,27.343750
4475,29.296875
4476,29.296875
4477,29.296875
4478,31.250000
4479,31.250000
4480,33.203125
4481,33.203125
4482,33.203125
4483,33.203125
4484,35.156250
4485,35.156250
4486,35.156250
4487,37.109375
4488,35.156250
4489,37.109375
4490,39.062500
4491,39.062500
4492,39.062500
4493,39.062500
4494,41.015625
4495,41.015625
4496,41.015625
4497,42.968750
4498,42.968750
4499,42.968750
4500,42.968750
4501,44.921875
4502,44.921875
4503,44.921875
4504,44.921875
4505,46.875000
4506,48.828125
4507,46.875000
4508,48.828125
4509,48.828125
4510,48.828125
4511,48.828125
4512,48.828125
4513,50.781250
4514,50.781250
4515,50.781250
4516,52.734375
4517,52.734375
4518,52.734375
4519,52.734375
4520,52.734375
4521,54.687500
4522,54.687500
4523,54.687500
4524,54.687500
4525,56.640625
4526,56.640625
4527,56.640625
4528,56.640625
4529,56.640625
4530,58.593750
4531,56.640625
4532,58.593750
4533,58.593750
4534,58.593750
4535,58.593750
4536,60.546875
4537,58.593750
4538,60.546875
4539,60.546875
4540,60.546875
4541,60.546875
4542,60.546875
4543,60.546875
4544,60.546875
4545,60.546875
4546,60.546875
4547,62.500000
4548,62.500000
4549,62.500000
4550,62.500000
4551,62.500000
4552,62.500000
4553,62.500000
4554,62.500000
4555,62.500000
4556,62.500000
4557,62.500000
4558,62.500000
4559,64.453125
4560,64.453125
4561,64.453125
4562,64.453125
4563,64.453125
4564,64.453125
4565,64.453125
4566,64.453125
4567,64.453125
4568,64.453125
4569,64.453125
4570,64.453125
4571,64.453125
4572,64.453125
4573,64.453125
4574,64.453125
4575,64.453125
4576,64.453125
4577,64.453125
4578,64.453125
4579,64.453125
4580,64.453125
4581,64.453125
4582,64.453125
4583,64.453125
4584,64.453125
4585,64.453125
4586,64.453125
4587,64.453125
4588,64.453125
4589,64.453125
4590,64.453125
4591,64.453125
4592,62.500000
4593,62.500000
4594,62.500000
4595,62.500000
4596,62.500000
4597,62.500000
4598,62.500000
4599,62.500000
4600,62.500000
4601,62.500000
4602,60.546875
4603,62.500000
4604,62.500000
4605,60.546875
4606,60.546875
4607,60.546875
4608,60.546875
4609,60.546875
4610,60.546875
4611,60.546875
4612,60.546875
4613,58.593750
4614,58.593750
4615,58.593750
4616,58.593750
4617,56.640625
4618,56.640625
4619,56.640625
4620,56.640625
4621,56.640625
4622,56.640625
4623,54.687500
4624,54.687500
4625,54.687500
4626,52.734375
4627,54.687500
4628,52.734375
4629,52.734375
4630,52.734375
4631,52.734375
4632,50.781250
4633,50.781250
4634,50.781250
4635,50.781250
4636,50.781250
4637,48.828125
4638,48.828125
4639,48.828125
4640,48.828125
4641,46.875000
4642,46.875000
4643,46.875000
4644,46.875000
4645,44.921875
4646,44.921875
4647,44.921875
4648,42.968750
4649,42.968750
4650,42.968750
4651,42.968750
4652,42.968750
4653,41.015625
4654,41.015625
4655,41.015625
4656,39.062500
4657,39.062500
4658,39.062500
4659,39.062500
4660,37.109375
4661,37.109375
4662,37.109375
4663,35.156250
4664,35.156250
4665,35.156250
4666,33.203125
4667,33.203125
4668,33.203125
4669,31.250000
4670,31.250000
4671,31.250000
4672,29.296875
4673,29.296875
4674,29.296875
4675,27.343750
4676,27.343750
4677,27.343750
4678,25.390625
4679,25.390625
4680,23.437500
4681,23.437500
4682,21.484375
4683,23.437500
4684,21.484375
4685,21.484375
4686,19.531250
4687,19.531250
4688,17.578125
4689,17.578125
4690,17.578125
4691,15.625000
4692,15.625000
4693,15.625000
4694,15.625000
4695,13.671875
4696,11.718750
4697,11.718750
4698,9.765625
4699,9.765625
4700,9.765625
4701,7.812500
4702,7.812500
4703,5.859375
4704,5.859375
4705,5.859375
4706,3.906250
4707,3.906250
4708,3.906250
4709,1.953125
4710,1.953125
4711,0.000000
4712,0.000000
4713,-1.953125
4714,-1.953125
4715,-1.953125
4716,-3.906250
4717,-3.906250
4718,-5.859375
4719,-5.859375
4720,-5.859375
4721,-7.812500
4722,-9.765625
4723,-9.765625
4724,-9.765625
4725,-11.718750
4726,-11.718750
4727,-13.671875
4728,-13.671875
4729,-13.671875
4730,-13.671875
4731,-15.625000
4732,-17.578125
4733,-17.578125
4734,-19.531250
4735,-19.531250
4736,-19.531250
4737,-19.531250
4738,-23.437500
4739,-21.484375
4740,-23.437500
4741,-23.437500
4742,-25.390625
4743,-27.343750
4744,-27.343750
4745,-29.296875
4746,-29.296875
4747,-29.296875
4748,-31.250000
4749,-31.250000
4750,-31.250000
4751,-33.203125
4752,-33.203125
4753,-33.203125
4754,-35.156250
4755,-35.156250
4756,-37.109375
4757,-37.109375
4758,-39.062500
4759,-39.062500
4760,-39.062500
4761,-41.015625
4762,-41.015625
4763,-42.968750
4764,-42.968750
4765,-42.968750
4766,-44.921875
4767,-44.921875
4768,-46.875000
4769,-46.875000
4770,-46.875000
4771,-46.875000
4772,-48.828125
4773,-50.781250
4774,-50.781250
4775,-50.781250
4776,-52.734375
4777,-52.734375
4778,-52.734375
4779,-52.734375
4780,-54.687500
4781,-54.687500
4782,-56.640625
4783,-56.640625
4784,-56.640625
4785,-56.640625
4786,-58.593750
4787,-58.593750
4788,-60.546875
4789,-58.593750
4790,-60.546875
4791,-60.546875
4792,-62.500000
4793,-62.500000
4794,-62.500000
4795,-64.453125
4796,-64.453125
4797,-64.453125
4798,-64.453125
4799,-64.453125
4800,-66.406250
4801,-68.359375
4802,-66.406250
4803,-66.406250
4804,-68.359375
4805,-66.406250
4806,-68.359375
4807,-70.312500
4808,-68.359375
4809,-70.312500
4810,-70.312500
4811,-72.265625
4812,-72.265625
4813,-72.265625
4814,-72.265625
4815,-72.265625
4816,-74.218750
4817,-74.218750
4818,-74.218750
4819,-74.218750
4820,-76.171875
4821,-74.218750
4822,-76.171875
4823,-76.171875
4824,-76.171875
4825,-78.125000
4826,-78.125000
4827,-76.171875
4828,-76.171875
4829,-78.125000
4830,-78.125000
4831,-78.125000
4832,-78.125000
4833,-78.125000
4834,-78.125000
4835,-78.125000
4836,-80.078125
4837,-80.078125
4838,-80.078125
4839,-80.078125
4840,-80.078125
4841,-80.078125
4842,-80.078125
4843,-80.078125
4844,-83.984375
4845,-82.031250
4846,-80.078125
4847,-82.031250
4848,-80.078125
4849,-82.031250
4850,-82.031250
4851,-82.031250
4852,-82.031250
4853,-82.031250
4854,-82.031250
4855,-82.031250
4856,-82.031250
4857,-82.031250
4858,-82.031250
4859,-82.031250
4860,-82.031250
4861,-82.031250
4862,-82.031250
4863,-82.031250
4864,-82.031250
4865,-82.031250
4866,-82.031250
4867,-83.984375
4868,-82.031250
4869,-82.031250
4870,-82.031250
4871,-82.031250
4872,-82.031250
4873,-82.031250
4874,-82.031250
4875,-83.984375
4876,-82.031250
4877,-82.031250
4878,-82.031250
4879,-82.031250
4880,-82.031250
4881,-82.031250
4882,-82.031250
4883,-82.031250
4884,-82.031250
4885,-82.031250
4886,-82.031250
4887,-80.078125
4888,-82.031250
4889,-80.078125
4890,-80.078125
4891,-80.078125
4892,-80.078125
4893,-80.078125
4894,-80.078125
4895,-80.078125
4896,-80.078125
4897,-78.125000
4898,-80.078125
4899,-78.125000
4900,-78.125000
4901,-78.125000
4902,-78.125000
4903,-78.125000
4904,-76.171875
4905,-76.171875
4906,-76.171875
4907,-76.171875
4908,-76.171875
4909,-76.171875
4910,-74.218750
4911,-74.218750
4912,-74.218750
4913,-74.218750
4914,-74.218750
4915,-72.265625
4916,-72.265625
4917,-72.265625
4918,-72.265625
4919,-72.265625
4920,-70.312500
4921,-70.312500
4922,-70.312500
4923,-70.312500
4924,-68.359375
4925,-70.312500
4926,-68.359375
4927,-68.359375
4928,-66.406250
4929,-66.406250
4930,-66.406250
4931,-66.406250
4932,-64.453125
4933,-64.453125
4934,-64.453125
4935,-64.453125
4936,-62.500000
4937,-62.500000
4938,-62.500000
4939,-62.500000
4940,-60.546875
4941,-60.546875
4942,-58.593750
4943,-58.593750
4944,-58.593750
4945,-58.593750
4946,-56.640625
4947,-56.640625
4948,-56.640625
4949,-54.687500
4950,-54.687500
4951,-54.687500
4952,-52.734375
4953,-52.734375
4954,-52.734375
4955,-50.781250
4956,-50.781250
4957,-48.828125
4958,-48.828125
4959,-48.828125
4960,-48.828125
4961,-46.875000
4962,-46.875000
4963,-44.921875
4964,-44.921875
4965,-44.921875
4966,-42.968750
4967,-42.968750
4968,-42.968750
4969,-41.015625
4970,-41.015625
4971,-39.062500
4972,-39.062500
4973,-37.109375
4974,-37.109375
4975,-37.109375
4976,-35.156250
4977,-35.156250
4978,-33.203125
4979,-33.203125
4980,-33.203125
4981,-33.203125
4982,-31.250000
4983,-31.250000
4984,-29.296875
4985,-29.296875
4986,-27.343750
4987,-27.343750
4988,-25.390625
4989,-25.390625
4990,-25.390625
4991,-25.390625
4992,-23.437500
4993,-23.437500
4994,-21.484375
4995,-21.484375
4996,-19.531250
4997,-19.531250
4998,-17.578125
4999,-17.578125
5000,-17.578125
5001,-17.578125
5002,-13.671875
5003,-13.671875
5004,-13.671875
5005,-13.671875
5006,-13.671875
5007,-11.718750
5008,-9.765625
5009,-9.765625
5010,-9.765625
5011,-9.765625
5012,-7.812500
5013,-7.812500
5014,-5.859375
5015,-5.859375
5016,-3.906250
5017,-1.953125
5018,-1.953125
5019,-1.953125
5020,0.000000
5021,0.000000
5022,0.000000
5023,1.953125
5024,1.953125
5025,3.906250
5026,3.906250
5027,3.906250
5028,5.859375
5029,5.859375
5030,7.812500
5031,5.859375
5032,7.812500
5033,9.765625
5034,9.765625
5035,11.718750
5036,11.718750
5037,13.671875
5038,13.671875
5039,15.625000
5040,13.671875
5041,15.625000
5042,17.578125
5043,17.578125
5044,19.531250
5045,19.531250
5046,19.531250
5047,21.484375
5048,21.484375
5049,23.437500
5050,23.437500
5051,23.437500
5052,25.390625
5053,27.343750
5054,27.343750
5055,27.343750
5056,27.343750
5057,27.343750
5058,29.296875
5059,29.296875
5060,31.250000
5061,31.250000
5062,31.250000
5063,33.203125
5064,33.203125
5065,33.203125
5066,35.156250
5067,35.156250
5068,35.156250
5069,37.109375
5070,37.109375
5071,37.109375
5072,39.062500
5073,39.062500
5074,39.062500
5075,41.015625
5076,41.015625
5077,41.015625
5078,41.015625
5079,42.968750
5080,42.968750
5081,42.968750
5082,44.921875
5083,44.921875
5084,44.921875
5085,44.921875
5086,46.875000
5087,46.875000
5088,46.875000
5089,46.875000
5090,48.828125
5091,46.875000
5092,48.828125
5093,48.828125
5094,50.781250
5095,50.781250
5096,50.781250
5097,50.781250
5098,52.734375
5099,52.734375
5100,52.734375
5101,52.734375
5102,52.734375
5103,54.687500
5104,54.687500
5105,54.687500
5106,54.687500
5107,56.640625
5108,56.640625
5109,56.640625
5110,56.640625
5111,56.640625
5112,58.593750
5113,58.593750
5114,58.593750
5115,58.593750
5116,58.593750
5117,58.593750
5118,60.546875
5119,60.546875
5120,60.546875
5121,60.546875
5122,60.546875
5123,60.546875
5124,60.546875
5125,60.546875
5126,60.546875
5127,62.500000
5128,62.500000
5129,62.500000
5130,62.500000
5131,62.500000
5132,62.500000
5133,62.500000
5134,62.500000
5135,64.453125
5136,64.453125
5137,64.453125
5138,64.453125
5139,64.453125
5140,64.453125
5141,64.453125
5142,64.453125
5143,64.453125
5144,64.453125
5145,64.453125
5146,64.453125
5147,64.453125
5148,64.453125
5149,64.453125
5150,64.453125
5151,64.453125
5152,64.453125
5153,64.453125
5154,64.453125
5155,64.453125
5156,66.406250
5157,66.406250
5158,64.453125
5159,64.453125
5160,66.406250
5161,64.453125
5162,64.453125
5163,66.406250
5164,64.453125
5165,64.453125
5166,64.453125
5167,64.453125
5168,64.453125
5169,64.453125
5170,64.453125
5171,64.453125
5172,64.453125
5173,64.453125
5174,64.453125
5175,64.453125
5176,64.453125
5177,64.453125
5178,62.500000
5179,64.453125
5180,62.500000
5181,62.500000
5182,62.500000
5183,62.500000
5184,62.500000
5185,62.500000
5186,62.500000
5187,62.500000
5188,60.546875
5189,62.500000
5190,60.546875
5191,60.546875
5192,60.546875
5193,60.546875
5194,58.593750
5195,58.593750
5196,58.593750
5197,58.593750
5198,58.593750
5199,58.593750
5200,56.640625
5201,58.593750
5202,56.640625
5203,56.640625
5204,56.640625
5205,56.640625
5206,56.640625
5207,54.687500
5208,54.687500
5209,54.687500
5210,52.734375
5211,52.734375
5212,52.734375
5213,52.734375
5214,52.734375
5215,52.734375
5216,50.781250
5217,50.781250
5218,50.781250
5219,50.781250
5220,48.828125
5221,48.828125
5222,48.828125
5223,48.828125
5224,46.875000
5225,46.875000
5226,46.875000
5227,46.875000
5228,44.921875
5229,44.921875
5230,44.921875
5231,44.921875
5232,42.968750
5233,42.968750
5234,42.968750
5235,41.015625
5236,41.015625
5237,41.015625
5238,41.015625
5239,41.015625
5240,39.062500
5241,39.062500
5242,39.062500
5243,37.109375
5244,37.109375
5245,37.109375
5246,35.156250
5247,35.156250
5248,35.156250
5249,33.203125
5250,31.250000
5251,33.203125
5252,31.250000
5253,31.250000
5254,31.250000
5255,29.296875
5256,29.296875
5257,29.296875
5258,27.343750
5259,27.343750
5260,25.390625
5261,25.390625
5262,25.390625
5263,25.390625
5264,21.484375
5265,23.437500
5266,21.484375
5267,21.484375
5268,21.484375
5269,19.531250
5270,19.531250
5271,17.578125
5272,17.578125
5273,15.625000
5274,15.625000
5275,15.625000
5276,15.625000
5277,13.671875
5278,13.671875
5279,11.718750
5280,11.718750
5281,9.765625
5282,9.765625
5283,9.765625
5284,7.812500
5285,7.812500
5286,5.859375
5287,5.859375
5288,3.906250
5289,3.906250
5290,3.906250
5291,3.906250
5292,1.953125
5293,1.953125
5294,0.000000
5295,0.000000
5296,-1.953125
5297,-1.953125
5298,-3.906250
5299,-3.906250
5300,-3.906250
5301,-5.859375
5302,-5.859375
5303,-5.859375
5304,-7.812500
5305,-7.812500
5306,-9.765625
5307,-9.765625
5308,-11.718750
5309,-11.718750
5310,-13.671875
5311,-13.671875
5312,-13.671875
5313,-15.625000
5314,-15.625000
5315,-17.578125
5316,-17.578125
5317,-19.531250
5318,-19.531250
5319,-19.531250
5320,-21.484375
5321,-21.484375
5322,-23.437500
5323,-23.437500
5324,-25.390625
5325,-25.390625
5326,-27.343750
5327,-27.343750
5328,-27.343750
5329,-29.296875
5330,-29.296875
5331,-31.250000
5332,-31.250000
5333,-31.250000
5334,-33.203125
5335,-33.203125
5336,-35.156250
5337,-35.156250
5338,-37.109375
5339,-37.109375
5340,-39.062500
5341,-39.062500
5342,-39.062500
5343,-41.015625
5344,-41.015625
5345,-42.968750
5346,-42.968750
5347,-42.968750
5348,-44.921875
5349,-44.921875
5350,-44.921875
5351,-46.875000
5352,-46.875000
5353,-48.828125
5354,-48.828125
5355,-48.828125
5356,-50.781250
5357,-50.781250
5358,-50.781250
5359,-50.781250
5360,-52.734375
5361,-54.687500
5362,-54.687500
5363,-54.687500
5364,-54.687500
5365,-56.640625
5366,-56.640625
5367,-56.640625
5368,-56.640625
5369,-58.593750
5370,-58.593750
5371,-60.546875
5372,-60.546875
5373,-60.546875
5374,-60.546875
5375,-62.500000
5376,-62.500000
5377,-62.500000
5378,-62.500000
5379,-64.453125
5380,-64.453125
5381,-66.406250
5382,-66.406250
5383,-66.406250
5384,-66.406250
5385,-68.359375
5386,-68.359375
5387,-68.359375
5388,-68.359375
5389,-70.312500
5390,-70.312500
5391,-70.312500
5392,-72.265625
5393,-72.265625
5394,-72.265625
5395,-72.265625
5396,-72.265625
5397,-74.218750
5398,-74.218750
5399,-74.218750
5400,-74.218750
5401,-74.218750
5402,-76.171875
5403,-74.218750
5404,-76.171875
5405,-76.171875
5406,-76.171875
5407,-76.171875
5408,-76.171875
5409,-76.171875
5410,-76.171875
5411,-78.125000
5412,-78.125000
5413,-78.125000
5414,-78.125000
5415,-78.125000
5416,-80.078125
5417,-78.125000
5418,-80.078125
5419,-80.078125
5420,-80.078125
5421,-80.078125
5422,-80.078125
5423,-80.078125
5424,-80.078125
5425,-80.078125
5426,-82.031250
5427,-82.031250
5428,-80.078125
5429,-82.031250
5430,-82.031250
5431,-80.078125
5432,-82.031250
5433,-82.031250
5434,-82.031250
5435,-82.031250
5436,-82.031250
5437,-82.031250
5438,-82.031250
5439,-82.031250
5440,-82.031250
5441,-82.031250
5442,-82.031250
5443,-82.031250
5444,-82.031250
5445,-82.031250
5446,-82.031250
5447,-82.031250
5448,-82.031250
5449,-82.031250
5450,-82.031250
5451,-82.031250
5452,-82.031250
5453,-82.031250
5454,-82.031250
5455,-82.031250
5456,-82.031250
5457,-82.031250
5458,-82.031250
5459,-82.031250
5460,-82.031250
5461,-82.031250
5462,-82.031250
5463,-82.031250
5464,-82.031250
5465,-80.078125
5466,-82.031250
5467,-82.031250
5468,-82.031250
5469,-82.031250
5470,-80.078125
5471,-80.078125
5472,-80.078125
5473,-80.078125
5474,-80.078125
5475,-80.078125
5476,-80.078125
5477,-80.078125
5478,-80.078125
5479,-80.078125
5480,-78.125000
5481,-78.125000
5482,-78.125000
5483,-78.125000
5484,-78.125000
5485,-78.125000
5486,-76.171875
5487,-76.171875
5488,-76.171875
5489,-76.171875
5490,-74.218750
5491,-76.171875
5492,-74.218750
5493,-74.218750
5494,-74.218750
5495,-74.218750
5496,-74.218750
5497,-72.265625
5498,-72.265625
5499,-72.265625
5500,-72.265625
5501,-70.312500
5502,-70.312500
5503,-70.312500
5504,-70.312500
5505,-68.359375
5506,-68.359375
5507,-68.359375
5508,-68.359375
5509,-66.406250
5510,-68.359375
5511,-66.406250
5512,-66.406250
5513,-66.406250
5514,-64.453125
5515,-64.453125
5516,-64.453125
5517,-64.453125
5518,-62.500000
5519,-62.500000
5520,-62.500000
5521,-60.546875
5522,-60.546875
5523,-60.546875
5524,-60.546875
5525,-58.593750
5526,-58.593750
5527,-58.593750
5528,-56.640625
5529,-56.640625
5530,-56.640625
5531,-54.687500
5532,-54.687500
5533,-54.687500
5534,-52.734375
5535,-52.734375
5536,-50.781250
5537,-50.781250
5538,-50.781250
5539,-50.781250
5540,-48.828125
5541,-48.828125
5542,-48.828125
5543,-46.875000
5544,-46.875000
5545,-44.921875
5546,-44.921875
5547,-44.921875
5548,-44.921875
5549,-42.968750
5550,-41.015625
5551,-41.015625
5552,-41.015625
5553,-41.015625
5554,-39.062500
5555,-39.062500
5556,-37.109375
5557,-37.109375
5558,-35.156250
5559,-35.156250
5560,-35.156250
5561,-33.203125
5562,-33.203125
5563,-31.250000
5564,-31.250000
5565,-31.250000
5566,-31.250000
5567,-29.296875
5568,-29.296875
5569,-27.343750
5570,-27.343750
5571,-25.390625
5572,-25.390625
5573,-23.437500
5574,-23.437500
5575,-23.437500
5576,-21.484375
5577,-21.484375
5578,-21.484375
5579,-19.531250
5580,-19.531250
5581,-17.578125
5582,-17.578125
5583,-15.625000
5584,-15.625000
5585,-13.671875
5586,-13.671875
5587,-13.671875
5588,-11.718750
5589,-11.718750
5590,-11.718750
5591,-9.765625
5592,-9.765625
5593,-7.812500
5594,-5.859375
5595,-5.859375
5596,-5.859375
5597,-5.859375
5598,-3.906250
5599,-3.906250
5600,-1.953125
5601,0.000000
5602,-1.953125
5603,0.000000
5604,0.000000
5605,1.953125
5606,1.953125
5607,3.906250
5608,3.906250
5609,3.906250
5610,7.812500
5611,5.859375
5612,5.859375
5613,7.812500
5614,9.765625
5615,9.765625
5616,9.765625
5617,11.718750
5618,11.718750
5619,13.671875
5620,13.671875
5621,13.671875
5622,15.625000
5623,15.625000
5624,17.578125
5625,17.578125
5626,19.531250
5627,19.531250
5628,19.531250
5629,21.484375
5630,21.484375
5631,23.437500
5632,23.437500
5633,23.437500
5634,25.390625
5635,25.390625
5636,25.390625
5637,27.343750
5638,27.343750
5639,27.343750
5640,29.296875
5641,29.296875
5642,29.296875
5643,31.250000
5644,31.250000
5645,33.203125
5646,33.203125
5647,33.203125
5648,33.203125
5649,35.156250
5650,35.156250
5651,35.156250
5652,37.109375
5653,37.109375
5654,39.062500
5655,37.109375
5656,39.062500
5657,39.062500
5658,41.015625
5659,41.015625
5660,41.015625
5661,41.015625
5662,41.015625
5663,42.968750
5664,44.921875
5665,42.968750
5666,44.921875
5667,44.921875
5668,44.921875
5669,46.875000
5670,46.875000
5671,46.875000
5672,48.828125
5673,48.828125
5674,48.828125
5675,48.828125
5676,48.828125
5677,48.828125
5678,50.781250
5679,50.781250
5680,50.781250
5681,52.734375
5682,50.781250
5683,52.734375
5684,54.687500
5685,54.687500
5686,52.734375
5687,54.687500
5688,54.687500
5689,56.640625
5690,56.640625
5691,56.640625
5692,56.640625
5693,56.640625
5694,56.640625
5695,58.593750
5696,58.593750
5697,58.593750
5698,58.593750
5699,58.593750
5700,58.593750
5701,58.593750
5702,60.546875
5703,60.546875
5704,60.546875
5705,60.546875
5706,60.546875
5707,60.546875
5708,60.546875
5709,60.546875
5710,60.546875
5711,60.546875
5712,62.500000
5713,62.500000
5714,62.500000
5715,62.500000
5716,62.500000
5717,62.500000
5718,62.500000
5719,64.453125
5720,64.453125
5721,62.500000
5722,64.453125
5723,62.500000
5724,64.453125
5725,64.453125
5726,64.453125
5727,64.453125
5728,64.453125
5729,64.453125
5730,64.453125
5731,64.453125
5732,64.453125
5733,64.453125
5734,64.453125
5735,64.453125
5736,64.453125
5737,64.453125
5738,64.453125
5739,64.453125
5740,64.453125
5741,64.453125
5742,64.453125
5743,64.453125
5744,64.453125
5745,64.453125
5746,64.453125
5747,64.453125
5748,64.453125
5749,64.453125
5750,64.453125
5751,64.453125
5752,64.453125
5753,64.453125
5754,64.453125
5755,64.453125
5756,64.453125
5757,64.453125
5758,64.453125
5759,62.500000
5760,64.453125
5761,64.453125
5762,62.500000
5763,62.500000
5764,62.500000
5765,62.500000
5766,62.500000
5767,60.546875
5768,62.500000
5769,60.546875
5770,62.500000
5771,62.500000
5772,60.546875
5773,60.546875
5774,60.546875
5775,60.546875
5776,60.546875
5777,60.546875
5778,58.593750
5779,58.593750
5780,58.593750
5781,58.593750
5782,58.593750
5783,56.640625
5784,56.640625
5785,56.640625
5786,56.640625
5787,56.640625
5788,56.640625
5789,54.687500
5790,54.687500
5791,54.687500
5792,54.687500
5793,52.734375
5794,52.734375
5795,52.734375
5796,52.734375
5797,50.781250
5798,50.781250
5799,48.828125
5800,50.781250
5801,50.781250
5802,50.781250
5803,48.828125
5804,46.875000
5805,48.828125
5806,48.828125
5807,46.875000
5808,46.875000
5809,46.875000
5810,46.875000
5811,44.921875
5812,44.921875
5813,44.921875
5814,44.921875
5815,42.968750
5816,42.968750
5817,42.968750
5818,42.968750
5819,41.015625
5820,41.015625
5821,39.062500
5822,41.015625
5823,39.062500
5824,39.062500
5825,37.109375
5826,37.109375
5827,37.109375
5828,37.109375
5829,35.156250
5830,35.156250
5831,33.203125
5832,35.156250
5833,33.203125
5834,33.203125
5835,31.250000
5836,31.250000
5837,29.296875
5838,29.296875
5839,29.296875
5840,29.296875
5841,27.343750
5842,27.343750
5843,25.390625
5844,25.390625
5845,25.390625
5846,23.437500
5847,23.437500
5848,23.437500
5849,21.484375
5850,21.484375
5851,21.484375
5852,19.531250
5853,19.531250
5854,17.578125
5855,17.578125
5856,15.625000
5857,15.625000
5858,15.625000
5859,15.625000
5860,13.671875
5861,13.671875
5862,11.718750
5863,11.718750
5864,9.765625
5865,9.765625
5866,9.765625
5867,7.812500
5868,7.812500
5869,5.859375
5870,5.859375
5871,5.859375
5872,3.906250
5873,3.906250
5874,3.906250
5875,1.953125
5876,1.953125
5877,0.000000
5878,0.000000
5879,-1.953125
5880,-1.953125
5881,-1.953125
5882,-3.906250
5883,-3.906250
5884,-5.859375
5885,-5.859375
5886,-5.859375
5887,-7.812500
5888,-7.812500
5889,-9.765625
5890,-9.765625
5891,-11.718750
5892,-11.718750
5893,-13.671875
5894,-13.671875
5895,-13.671875
5896,-15.625000
5897,-15.625000
5898,-17.578125
5899,-17.578125
5900,-19.531250
5901,-19.531250
5902,-19.531250
5903,-21.484375
5904,-21.484375
5905,-23.437500
5906,-23.437500
5907,-25.390625
5908,-25.390625
5909,-25.390625
5910,-27.343750
5911,-27.343750
5912,-29.296875
5913,-29.296875
5914,-31.250000
5915,-31.250000
5916,-31.250000
5917,-33.203125
5918,-33.203125
5919,-35.156250
5920,-35.156250
5921,-35.156250
5922,-37.109375
5923,-37.109375
5924,-37.109375
5925,-39.062500
5926,-39.062500
5927,-41.015625
5928,-41.015625
5929,-42.968750
5930,-42.968750
5931,-42.968750
5932,-44.921875
5933,-44.921875
5934,-46.875000
5935,-46.875000
5936,-46.875000
5937,-46.875000
5938,-48.828125
5939,-50.781250
5940,-50.781250
5941,-50.781250
5942,-50.781250
5943,-52.734375
5944,-52.734375
5945,-52.734375
5946,-52.734375
5947,-54.687500
5948,-56.640625
5949,-56.640625
5950,-56.640625
5951,-56.640625
5952,-56.640625
5953,-58.593750
5954,-58.593750
5955,-60.546875
5956,-60.546875
5957,-60.546875
5958,-62.500000
5959,-62.500000
5960,-62.500000
5961,-64.453125
5962,-62.500000
5963,-64.453125
5964,-66.406250
5965,-62.500000
5966,-66.406250
5967,-66.406250
5968,-66.406250
5969,-68.359375
5970,-68.359375
5971,-68.359375
5972,-68.359375
5973,-70.312500
5974,-70.312500
5975,-70.312500
5976,-70.312500
5977,-70.312500
5978,-70.312500
5979,-72.265625
5980,-72.265625
5981,-72.265625
5982,-74.218750
5983,-74.218750
5984,-74.218750
5985,-74.218750
5986,-74.218750
5987,-76.171875
5988,-76.171875
5989,-76.171875
5990,-76.171875
5991,-76.171875
5992,-76.171875
5993,-76.171875
5994,-76.171875
5995,-80.078125
5996,-78.125000
5997,-78.125000
5998,-78.125000
5999,-76.171875
6000,-78.125000
6001,-78.125000
6002,-78.125000
6003,-80.078125
6004,-80.078125
6005,-80.078125
6006,-80.078125
6007,-80.078125
6008,-80.078125
6009,-80.078125
6010,-80.078125
6011,-80.078125
6012,-85.937500
6013,-80.078125
6014,-80.078125
6015,-80.078125
6016,-76.171875
6017,-82.031250
6018,-80.078125
6019,-82.031250
6020,-82.031250
6021,-82.031250
6022,-82.031250
6023,-82.031250
6024,-82.031250
6025,-82.031250
6026,-82.031250
6027,-82.031250
6028,-82.031250
6029,-80.078125
6030,-82.031250
6031,-82.031250
6032,-82.031250
6033,-82.031250
6034,-82.031250
6035,-82.031250
6036,-82.031250
6037,-82.031250
6038,-82.031250
6039,-82.031250
6040,-82.031250
6041,-82.031250
6042,-82.031250
6043,-82.031250
6044,-82.031250
6045,-80.078125
6046,-82.031250
6047,-82.031250
6048,-80.078125
6049,-76.171875
6050,-80.078125
6051,-82.031250
6052,-80.078125
6053,-80.078125
6054,-80.078125
6055,-80.078125
6056,-80.078125
6057,-80.078125
6058,-80.078125
6059,-80.078125
6060,-80.078125
6061,-78.125000
6062,-80.078125
6063,-78.125000
6064,-76.171875
6065,-78.125000
6066,-78.125000
6067,-78.125000
6068,-76.171875
6069,-76.171875
6070,-76.171875
6071,-76.171875
6072,-76.171875
6073,-74.218750
6074,-74.218750
6075,-74.218750
6076,-74.218750
6077,-74.218750
6078,-74.218750
6079,-72.265625
6080,-72.265625
6081,-72.265625
6082,-72.265625
6083,-70.312500
6084,-70.312500
6085,-70.312500
6086,-70.312500
6087,-68.359375
6088,-68.359375
6089,-68.359375
6090,-68.359375
6091,-68.359375
6092,-68.359375
6093,-66.406250
6094,-66.406250
6095,-66.406250
6096,-64.453125
6097,-64.453125
6098,-64.453125
6099,-62.500000
6100,-62.500000
6101,-62.500000
6102,-62.500000
6103,-62.500000
6104,-60.546875
6105,-60.546875
6106,-60.546875
6107,-58.593750
6108,-58.593750
6109,-58.593750
6110,-56.640625
6111,-56.640625
6112,-56.640625
6113,-54.687500
6114,-54.687500
6115,-54.687500
6116,-52.734375
6117,-52.734375
6118,-52.734375
6119,-50.781250
6120,-50.781250
6121,-50.781250
6122,-50.781250
6123,-48.828125
6124,-48.828125
6125,-46.875000
6126,-46.875000
6127,-46.875000
6128,-44.921875
6129,-44.921875
6130,-44.921875
6131,-42.968750
6132,-42.968750
6133,-42.968750
6134,-41.015625
6135,-41.015625
6136,-41.015625
6137,-39.062500
6138,-39.062500
6139,-39.062500
6140,-37.109375
6141,-37.109375
6142,-35.156250
6143,-35.156250
6144,-33.203125
6145,-33.203125
6146,-33.203125
6147,-31.250000
6148,-31.250000
6149,-29.296875
6150,-29.296875
6151,-27.343750
6152,-27.343750
6153,-27.343750
6154,-25.390625
6155,-25.390625
6156,-23.437500
6157,-23.437500
6158,-23.437500
6159,-21.484375
6160,-21.484375
6161,-21.484375
6162,-19.531250
6163,-19.531250
6164,-17.578125
6165,-17.578125
6166,-15.625000
6167,-15.625000
6168,-15.625000
6169,-13.671875
6170,-13.671875
6171,-13.671875
6172,-11.718750
6173,-11.718750
6174,-9.765625
6175,-7.812500
6176,-7.812500
6177,-7.812500
6178,-7.812500
6179,-5.859375
6180,-5.859375
6181,-3.906250
6182,-3.906250
6183,-3.906250
6184,-1.953125
6185,-1.953125
6186,0.000000
6187,0.000000
6188,0.000000
6189,1.953125
6190,1.953125
6191,3.906250
6192,3.906250
6193,5.859375
6194,5.859375
6195,7.812500
6196,7.812500
6197,7.812500
6198,7.812500
6199,9.765625
6200,11.718750
6201,11.718750
6202,13.671875
6203,13.671875
6204,15.625000
6205,15.625000
6206,15.625000
6207,17.578125
6208,17.578125
6209,19.531250
6210,19.531250
6211,19.531250
6212,21.484375
6213,23.437500
6214,21.484375
6215,25.390625
6216,23.437500
6217,25.390625
6218,25.390625
6219,25.390625
6220,27.343750
6221,27.343750
6222,27.343750
6223,29.296875
6224,29.296875
6225,31.250000
6226,31.250000
6227,31.250000
6228,31.250000
6229,33.203125
6230,33.203125
6231,35.156250
6232,35.156250
6233,35.156250
6234,35.156250
6235,37.109375
6236,37.109375
6237,37.109375
6238,39.062500
6239,39.062500
6240,41.015625
6241,39.062500
6242,41.015625
6243,41.015625
6244,41.015625
6245,42.968750
6246,42.968750
6247,42.968750
6248,42.968750
6249,42.968750
6250,44.921875
6251,44.921875
6252,46.875000
6253,46.875000
6254,46.875000
6255,48.828125
6256,48.828125
6257,48.828125
6258,48.828125
6259,48.828125
6260,50.781250
6261,50.781250
6262,50.781250
6263,50.781250
6264,52.734375
6265,52.734375
6266,52.734375
6267,52.734375
6268,52.734375
6269,54.687500
6270,54.687500
6271,54.687500
6272,54.687500
6273,56.640625
6274,56.640625
6275,56.640625
6276,56.640625
6277,56.640625
6278,58.593750
6279,58.593750
6280,58.593750
6281,58.593750
6282,58.593750
6283,58.593750
6284,58.593750
6285,60.546875
6286,60.546875
6287,60.546875
6288,60.546875
6289,60.546875
6290,60.546875
6291,62.500000
6292,62.500000
6293,60.546875
6294,62.500000
6295,62.500000
6296,62.500000
6297,62.500000
6298,62.500000
6299,62.500000
6300,62.500000
6301,62.500000
6302,62.500000
6303,62.500000
6304,64.453125
6305,64.453125
6306,64.453125
6307,64.453125
6308,64.453125
6309,64.453125
6310,64.453125
6311,64.453125
6312,64.453125
6313,64.453125
6314,64.453125
6315,64.453125
6316,64.453125
6317,64.453125
6318,64.453125
6319,64.453125
6320,64.453125
6321,64.453125
6322,64.453125
6323,64.453125
6324,64.453125
6325,64.453125
6326,64.453125
6327,64.453125
6328,64.453125
6329,64.453125
6330,64.453125
6331,64.453125
6332,64.453125
6333,64.453125
6334,64.453125
6335,64.453125
6336,64.453125
6337,64.453125
6338,64.453125
6339,64.453125
6340,64.453125
6341,64.453125
6342,62.500000
6343,62.500000
6344,62.500000
6345,62.500000
6346,62.500000
6347,62.500000
6348,62.500000
6349,62.500000
6350,62.500000
6351,60.546875
6352,60.546875
6353,60.546875
6354,60.546875
6355,60.546875
6356,60.546875
6357,60.546875
6358,60.546875
6359,58.593750
6360,58.593750
6361,58.593750
6362,58.593750
6363,56.640625
6364,58.593750
6365,56.640625
6366,56.640625
6367,56.640625
6368,56.640625
6369,56.640625
6370,54.687500
6371,54.687500
6372,54.687500
6373,54.687500
6374,54.687500
6375,54.687500
6376,52.734375
6377,52.734375
6378,52.734375
6379,52.734375
6380,52.734375
6381,50.781250
6382,50.781250
6383,50.781250
6384,50.781250
6385,48.828125
6386,48.828125
6387,48.828125
6388,48.828125
6389,46.875000
6390,46.875000
6391,46.875000
6392,46.875000
6393,44.921875
6394,44.921875
6395,44.921875
6396,44.921875
6397,42.968750
6398,42.968750
6399,42.968750
6400,42.968750
6401,41.015625
6402,41.015625
6403,41.015625
6404,39.062500
6405,39.062500
6406,39.062500
6407,37.109375
6408,37.109375
6409,37.109375
6410,37.109375
6411,35.156250
6412,35.156250
6413,35.156250
6414,33.203125
6415,33.203125
6416,33.203125
6417,33.203125
6418,31.250000
6419,29.296875
6420,29.296875
6421,29.296875
6422,29.296875
6423,27.343750
6424,27.343750
6425,25.390625
6426,25.390625
6427,25.390625
6428,23.437500
6429,23.437500
6430,23.437500
6431,23.437500
6432,21.484375
6433,21.484375
6434,19.531250
6435,19.531250
6436,19.531250
6437,17.578125
6438,17.578125
6439,15.625000
6440,15.625000
6441,15.625000
6442,13.671875
6443,13.671875
6444,11.718750
6445,11.718750
6446,11.718750
6447,9.765625
6448,9.765625
6449,7.812500
6450,7.812500
6451,7.812500
6452,5.859375
6453,5.859375
6454,3.906250
6455,3.906250
6456,1.953125
6457,1.953125
6458,1.953125
6459,0.000000
6460,0.000000
6461,0.000000
6462,-1.953125
6463,-1.953125
6464,-3.906250
6465,-3.906250
6466,-5.859375
6467,-5.859375
6468,-5.859375
6469,-7.812500
6470,-7.812500
6471,-9.765625
6472,-9.765625
6473,-11.718750
6474,-11.718750
6475,-13.671875
6476,-13.671875
6477,-13.671875
6478,-15.625000
6479,-15.625000
6480,-17.578125
6481,-17.578125
6482,-17.578125
6483,-19.531250
6484,-19.531250
6485,-21.484375
6486,-21.484375
6487,-23.437500
6488,-23.437500
6489,-23.437500
6490,-25.390625
6491,-27.343750
6492,-27.343750
6493,-27.343750
6494,-29.296875
6495,-29.296875
6496,-29.296875
6497,-31.250000
6498,-31.250000
6499,-33.203125
6500,-35.156250
6501,-35.156250
6502,-35.156250
6503,-35.156250
6504,-37.109375
6505,-37.109375
6506,-39.062500
6507,-39.062500
6508,-41.015625
6509,-41.015625
6510,-41.015625
6511,-42.968750
6512,-42.968750
6513,-42.968750
6514,-44.921875
6515,-44.921875
6516,-44.921875
6517,-46.875000
6518,-46.875000
6519,-48.828125
6520,-48.828125
6521,-48.828125
6522,-50.781250
6523,-50.781250
6524,-50.781250
6525,-52.734375
6526,-52.734375
6527,-52.734375
6528,-54.687500
6529,-54.687500
6530,-54.687500
6531,-56.640625
6532,-56.640625
6533,-56.640625
6534,-58.593750
6535,-58.593750
6536,-58.593750
6537,-60.546875
6538,-60.546875
6539,-60.546875
6540,-62.500000
6541,-62.500000
6542,-62.500000
6543,-62.500000
6544,-64.453125
6545,-64.453125
6546,-64.453125
6547,-66.406250
6548,-66.406250
6549,-66.406250
6550,-66.406250
6551,-66.406250
6552,-66.406250
6553,-68.359375
6554,-68.359375
6555,-68.359375
6556,-70.312500
6557,-70.312500
6558,-70.312500
6559,-70.312500
6560,-72.265625
6561,-72.265625
6562,-72.265625
6563,-72.265625
6564,-72.265625
6565,-74.218750
6566,-74.218750
6567,-74.218750
6568,-74.218750
6569,-74.218750
6570,-76.171875
6571,-76.171875
6572,-76.171875
6573,-76.171875
6574,-76.171875
6575,-76.171875
6576,-78.125000
6577,-78.125000
6578,-78.125000
6579,-78.125000
6580,-78.125000
6581,-78.125000
6582,-78.125000
6583,-82.031250
6584,-78.125000
6585,-76.171875
6586,-78.125000
6587,-80.078125
6588,-80.078125
6589,-80.078125
6590,-80.078125
6591,-80.078125
6592,-80.078125
6593,-80.078125
6594,-80.078125
6595,-80.078125
6596,-80.078125
6597,-80.078125
6598,-82.031250
6599,-82.031250
6600,-82.031250
6601,-82.031250
6602,-80.078125
6603,-82.031250
6604,-82.031250
6605,-82.031250
6606,-82.031250
6607,-82.031250
6608,-82.031250
6609,-82.031250
6610,-82.031250
6611,-82.031250
6612,-82.031250
6613,-82.031250
6614,-82.031250
6615,-82.031250
6616,-82.031250
6617,-82.031250
6618,-82.031250
6619,-82.031250
6620,-82.031250
6621,-82.031250
6622,-82.031250
6623,-82.031250
6624,-82.031250
6625,-82.031250
6626,-82.031250
6627,-82.031250
6628,-82.031250
6629,-82.031250
6630,-82.031250
6631,-80.078125
6632,-82.031250
6633,-82.031250
6634,-82.031250
6635,-80.078125
6636,-80.078125
6637,-80.078125
6638,-80.078125
6639,-80.078125
6640,-80.078125
6641,-78.125000
6642,-80.078125
6643,-78.125000
6644,-78.125000
6645,-78.125000
6646,-78.125000
6647,-78.125000
6648,-78.125000
6649,-78.125000
6650,-76.171875
6651,-76.171875
6652,-76.171875
6653,-76.171875
6654,-76.171875
6655,-76.171875
6656,-74.218750
6657,-74.218750
6658,-74.218750
6659,-74.218750
6660,-74.218750
6661,-72.265625
6662,-72.265625
6663,-72.265625
6664,-72.265625
6665,-72.265625
6666,-72.265625
6667,-70.312500
6668,-70.312500
6669,-70.312500
6670,-68.359375
6671,-70.312500
6672,-68.359375
6673,-68.359375
6674,-68.359375
6675,-66.406250
6676,-66.406250
6677,-66.406250
6678,-64.453125
6679,-64.453125
6680,-64.453125
6681,-64.453125
6682,-64.453125
6683,-62.500000
6684,-62.500000
6685,-62.500000
6686,-60.546875
6687,-60.546875
6688,-60.546875
6689,-58.593750
6690,-58.593750
6691,-58.593750
6692,-58.593750
6693,-56.640625
6694,-56.640625
6695,-56.640625
6696,-54.687500
6697,-54.687500
6698,-54.687500
6699,-52.734375
6700,-52.734375
6701,-52.734375
6702,-50.781250
6703,-50.781250
6704,-50.781250
6705,-48.828125
6706,-48.828125
6707,-46.875000
6708,-46.875000
6709,-46.875000
6710,-44.921875
6711,-44.921875
6712,-44.921875
6713,-42.968750
6714,-42.968750
6715,-42.968750
6716,-41.015625
6717,-41.015625
6718,-39.062500
6719,-39.062500
6720,-39.062500
6721,-37.109375
6722,-37.109375
6723,-37.109375
6724,-37.109375
6725,-35.156250
6726,-33.203125
6727,-33.203125
6728,-33.203125
6729,-31.250000
6730,-31.250000
6731,-31.250000
6732,-29.296875
6733,-29.296875
6734,-29.296875
6735,-27.343750
6736,-27.343750
6737,-25.390625
6738,-25.390625
6739,-23.437500
6740,-23.437500
6741,-23.437500
6742,-21.484375
6743,-21.484375
6744,-19.531250
6745,-19.531250
6746,-19.531250
6747,-17.578125
6748,-17.578125
6749,-15.625000
6750,-15.625000
6751,-15.625000
6752,-13.671875
6753,-13.671875
6754,-11.718750
6755,-11.718750
6756,-9.765625
6757,-9.765625
6758,-7.812500
6759,-7.812500
6760,-7.812500
6761,-5.859375
6762,-5.859375
6763,-3.906250
6764,-3.906250
6765,-3.906250
6766,-1.953125
6767,-1.953125
6768,-1.953125
6769,0.000000
6770,1.953125
6771,1.953125
6772,1.953125
6773,3.906250
6774,3.906250
6775,5.859375
6776,5.859375
6777,7.812500
6778,7.812500
6779,7.812500
6780,9.765625
6781,9.765625
6782,11.718750
6783,11.718750
6784,11.718750
6785,13.671875
6786,13.671875
6787,15.625000
6788,15.625000
6789,15.625000
6790,17.578125
6791,17.578125
6792,19.531250
6793,19.531250
6794,19.531250
6795,21.484375
6796,21.484375
6797,21.484375
6798,23.437500
6799,23.437500
6800,25.390625
6801,25.390625
6802,27.343750
6803,27.343750
6804,27.343750
6805,27.343750
6806,29.296875
6807,29.296875
6808,31.250000
6809,31.250000
6810,31.250000
6811,31.250000
6812,33.203125
6813,33.203125
6814,35.156250
6815,35.156250
6816,35.156250
6817,37.109375
6818,37.109375
6819,37.109375
6820,37.109375
6821,39.062500
6822,39.062500
6823,39.062500
6824,39.062500
6825,41.015625
6826,41.015625
6827,42.968750
6828,42.968750
6829,42.968750
6830,42.968750
6831,44.921875
6832,44.921875
6833,44.921875
6834,44.921875
6835,46.875000
6836,46.875000
6837,46.875000
6838,46.875000
6839,48.828125
6840,48.828125
6841,48.828125
6842,50.781250
6843,50.781250
6844,50.781250
6845,50.781250
6846,50.781250
6847,52.734375
6848,52.734375
6849,52.734375
6850,52.734375
6851,52.734375
6852,54.687500
6853,54.687500
6854,54.687500
6855,54.687500
6856,54.687500
6857,56.640625
6858,56.640625
6859,56.640625
6860,56.640625
6861,58.593750
6862,56.640625
6863,58.593750
6864,58.593750
6865,58.593750
6866,58.593750
6867,58.593750
6868,60.546875
6869,60.546875
6870,60.546875
6871,60.546875
6872,60.546875
6873,60.546875
6874,60.546875
6875,60.546875
6876,62.500000
6877,60.546875
6878,62.500000
6879,62.500000
6880,62.500000
6881,62.500000
6882,62.500000
6883,62.500000
6884,62.500000
6885,62.500000
6886,62.500000
6887,64.453125
6888,64.453125
6889,62.500000
6890,64.453125
6891,64.453125
6892,64.453125
6893,64.453125
6894,64.453125
6895,64.453125
6896,64.453125
6897,64.453125
6898,64.453125
6899,64.453125
6900,64.453125
6901,64.453125
6902,64.453125
6903,64.453125
6904,64.453125
6905,64.453125
6906,64.453125
6907,64.453125
6908,64.453125
6909,64.453125
6910,64.453125
6911,64.453125
6912,64.453125
6913,64.453125
6914,64.453125
6915,64.453125
6916,64.453125
6917,64.453125
6918,64.453125
6919,64.453125
6920,64.453125
6921,64.453125
6922,64.453125
6923,64.453125
6924,62.500000
6925,64.453125
6926,62.500000
6927,62.500000
6928,62.500000
6929,62.500000
6930,62.500000
6931,62.500000
6932,60.546875
6933,62.500000
6934,60.546875
6935,60.546875
6936,60.546875
6937,60.546875
6938,60.546875
6939,60.546875
6940,58.593750
6941,58.593750
6942,58.593750
6943,58.593750
6944,58.593750
6945,58.593750
6946,58.593750
6947,58.593750
6948,56.640625
6949,56.640625
6950,56.640625
6951,56.640625
6952,54.687500
6953,56.640625
6954,54.687500
6955,54.687500
6956,54.687500
6957,52.734375
6958,54.687500
6959,52.734375
6960,52.734375
6961,52.734375
6962,52.734375
6963,52.734375
6964,50.781250
6965,50.781250
6966,50.781250
6967,50.781250
6968,48.828125
6969,48.828125
6970,48.828125
6971,48.828125
6972,48.828125
6973,46.875000
6974,46.875000
6975,46.875000
6976,44.921875
6977,44.921875
6978,44.921875
6979,44.921875
6980,42.968750
6981,42.968750
6982,41.015625
6983,42.968750
6984,41.015625
6985,41.015625
6986,41.015625
6987,39.062500
6988,39.062500
6989,39.062500
6990,37.109375
6991,37.109375
6992,37.109375
6993,37.109375
6994,35.156250
6995,35.156250
6996,35.156250
6997,33.203125
6998,33.203125
6999,33.203125
7000,31.250000
7001,31.250000
7002,31.250000
7003,29.296875
7004,29.296875
7005,29.296875
7006,27.343750
7007,27.343750
7008,25.390625
7009,25.390625
7010,25.390625
7011,23.437500
7012,25.390625
7013,23.437500
7014,21.484375
7015,21.484375
7016,21.484375
7017,19.531250
7018,19.531250
7019,17.578125
7020,17.578125
7021,17.578125
7022,15.625000
7023,15.625000
7024,13.671875
7025,13.671875
7026,13.671875
7027,11.718750
7028,9.765625
7029,11.718750
7030,9.765625
7031,9.765625
7032,7.812500
7033,7.812500
7034,5.859375
7035,5.859375
7036,3.906250
7037,3.906250
7038,3.906250
7039,1.953125
7040,1.953125
7041,1.953125
7042,0.000000
7043,0.000000
7044,-1.953125
7045,-1.953125
7046,-1.953125
7047,-3.906250
7048,-3.906250
7049,-3.906250
7050,-5.859375
7051,-7.812500
7052,-7.812500
7053,-7.812500
7054,-9.765625
7055,-9.765625
7056,-11.718750
7057,-11.718750
7058,-11.718750
7059,-13.671875
7060,-13.671875
7061,-15.625000
7062,-15.625000
7063,-17.578125
7064,-17.578125
7065,-17.578125
7066,-19.531250
7067,-21.484375
7068,-21.484375
7069,-21.484375
7070,-23.437500
7071,-23.437500
7072,-23.437500
7073,-25.390625
7074,-25.390625
7075,-25.390625
7076,-27.343750
7077,-29.296875
7078,-29.296875
7079,-31.250000
7080,-31.250000
7081,-33.203125
7082,-33.203125
7083,-33.203125
7084,-35.156250
7085,-35.156250
7086,-37.109375
7087,-37.109375
7088,-37.109375
7089,-39.062500
7090,-39.062500
7091,-41.015625
7092,-41.015625
7093,-41.015625
7094,-42.968750
7095,-42.968750
7096,-42.968750
7097,-44.921875
7098,-44.921875
7099,-46.875000
7100,-46.875000
7101,-46.875000
7102,-46.875000
7103,-48.828125
7104,-48.828125
7105,-50.781250
7106,-50.781250
7107,-50.781250
7108,-50.781250
7109,-52.734375
7110,-52.734375
7111,-52.734375
7112,-54.687500
7113,-54.687500
7114,-56.640625
7115,-56.640625
7116,-56.640625
7117,-56.640625
7118,-58.593750
7119,-58.593750
7120,-58.593750
7121,-60.546875
7122,-60.546875
7123,-60.546875
7124,-62.500000
7125,-62.500000
7126,-62.500000
7127,-62.500000
7128,-64.453125
7129,-64.453125
7130,-64.453125
7131,-66.406250
7132,-66.406250
7133,-66.406250
7134,-66.406250
7135,-68.359375
7136,-68.359375
7137,-68.359375
7138,-68.359375
7139,-70.312500
7140,-70.312500
7141,-70.312500
7142,-70.312500
7143,-72.265625
7144,-72.265625
7145,-72.265625
7146,-72.265625
7147,-72.265625
7148,-72.265625
7149,-74.218750
7150,-74.218750
7151,-74.218750
7152,-74.218750
7153,-76.171875
7154,-76.171875
7155,-76.171875
7156,-76.171875
7157,-76.171875
7158,-76.171875
7159,-78.125000
7160,-76.171875
7161,-76.171875
7162,-78.125000
7163,-78.125000
7164,-78.125000
7165,-78.125000
7166,-78.125000
7167,-80.078125
7168,-80.078125
7169,-78.125000
7170,-80.078125
7171,-80.078125
7172,-80.078125
7173,-80.078125
7174,-80.078125
7175,-80.078125
7176,-80.078125
7177,-80.078125
7178,-82.031250
7179,-80.078125
7180,-80.078125
7181,-82.031250
7182,-82.031250
7183,-82.031250
7184,-82.031250
7185,-82.031250
7186,-82.031250
7187,-82.031250
7188,-82.031250
7189,-82.031250
7190,-82.031250
7191,-82.031250
7192,-82.031250
7193,-82.031250
7194,-82.031250
7195,-82.031250
7196,-82.031250
7197,-82.031250
7198,-82.031250
7199,-82.031250
7200,-82.031250
7201,-82.031250
7202,-82.031250
7203,-82.031250
7204,-82.031250
7205,-82.031250
7206,-82.031250
7207,-82.031250
7208,-82.031250
7209,-82.031250
7210,-82.031250
7211,-82.031250
7212,-82.031250
7213,-80.078125
7214,-82.031250
7215,-80.078125
7216,-82.031250
7217,-80.078125
7218,-80.078125
7219,-80.078125
7220,-80.078125
7221,-80.078125
7222,-80.078125
7223,-80.078125
7224,-80.078125
7225,-80.078125
7226,-78.125000
7227,-78.125000
7228,-78.125000
7229,-78.125000
7230,-78.125000
7231,-78.125000
7232,-78.125000
7233,-76.171875
7234,-76.171875
7235,-76.171875
7236,-76.171875
7237,-76.171875
7238,-76.171875
7239,-74.218750
7240,-74.218750
7241,-76.171875
7242,-74.218750
7243,-74.218750
7244,-74.218750
7245,-72.265625
7246,-74.218750
7247,-72.265625
7248,-72.265625
7249,-70.312500
7250,-72.265625
7251,-70.312500
7252,-70.312500
7253,-70.312500
7254,-68.359375
7255,-68.359375
7256,-68.359375
7257,-68.359375
7258,-68.359375
7259,-66.406250
7260,-66.406250
7261,-66.406250
7262,-64.453125
7263,-64.453125
7264,-64.453125
7265,-64.453125
7266,-62.500000
7267,-62.500000
7268,-62.500000
7269,-60.546875
7270,-60.546875
7271,-60.546875
7272,-60.546875
7273,-58.593750
7274,-58.593750
7275,-58.593750
7276,-56.640625
7277,-56.640625
7278,-56.640625
7279,-54.687500
7280,-54.687500
7281,-54.687500
7282,-52.734375
7283,-52.734375
7284,-52.734375
7285,-52.734375
7286,-50.781250
7287,-50.781250
7288,-48.828125
7289,-48.828125
7290,-48.828125
7291,-46.875000
7292,-46.875000
7293,-46.875000
7294,-44.921875
7295,-44.921875
7296,-44.921875
7297,-42.968750
7298,-42.968750
7299,-42.968750
7300,-41.015625
7301,-41.015625
7302,-41.015625
7303,-39.062500
7304,-39.062500
7305,-37.109375
7306,-37.109375
7307,-35.156250
7308,-35.156250
7309,-35.156250
7310,-33.203125
7311,-33.203125
7312,-31.250000
7313,-31.250000
7314,-31.250000
7315,-29.296875
7316,-29.296875
7317,-29.296875
7318,-27.343750
7319,-27.343750
7320,-25.390625
7321,-25.390625
7322,-25.390625
7323,-23.437500
7324,-23.437500
7325,-23.437500
7326,-21.484375
7327,-21.484375
7328,-19.531250
7329,-19.531250
7330,-17.578125
7331,-17.578125
7332,-17.578125
7333,-15.625000
7334,-15.625000
7335,-13.671875
7336,-13.671875
7337,-11.718750
7338,-11.718750
7339,-11.718750
7340,-9.765625
7341,-9.765625
7342,-9.765625
7343,-7.812500
7344,-7.812500
7345,-5.859375
7346,-5.859375
7347,-3.906250
7348,-3.906250
7349,-1.953125
7350,-1.953125
7351,-1.953125
7352,0.000000
7353,0.000000
7354,1.953125
7355,1.953125
7356,3.906250
7357,3.906250
7358,3.906250
7359,5.859375
7360,5.859375
7361,5.859375
7362,7.812500
7363,7.812500
7364,9.765625
7365,9.765625
7366,11.718750
7367,11.718750
7368,13.671875
7369,13.671875
7370,13.671875
7371,15.625000
7372,15.625000
7373,17.578125
7374,17.578125
7375,17.578125
7376,19.531250
7377,19.531250
7378,19.531250
7379,21.484375
7380,21.484375
7381,23.437500
7382,23.437500
7383,23.437500
7384,25.390625
7385,25.390625
7386,25.390625
7387,27.343750
7388,27.343750
7389,29.296875
7390,29.296875
7391,29.296875
7392,31.250000
7393,31.250000
7394,31.250000
7395,33.203125
7396,33.203125
7397,33.203125
7398,35.156250
7399,35.156250
7400,37.109375
7401,35.156250
7402,37.109375
7403,37.109375
7404,37.109375
7405,39.062500
7406,39.062500
7407,41.015625
7408,41.015625
7409,41.015625
7410,42.968750
7411,42.968750
7412,42.968750
7413,42.968750
7414,44.921875
7415,44.921875
7416,44.921875
7417,44.921875
7418,46.875000
7419,46.875000
7420,46.875000
7421,46.875000
7422,48.828125
7423,48.828125
7424,48.828125
7425,48.828125
7426,50.781250
7427,50.781250
7428,50.781250
7429,50.781250
7430,52.734375
7431,52.734375
7432,52.734375
7433,52.734375
7434,52.734375
7435,52.734375
7436,54.687500
7437,54.687500
7438,54.687500
7439,54.687500
7440,56.640625
7441,56.640625
7442,56.640625
7443,56.640625
7444,56.640625
7445,56.640625
7446,58.593750
7447,58.593750
7448,58.593750
7449,58.593750
7450,58.593750
7451,58.593750
7452,58.593750
7453,60.546875
7454,60.546875
7455,60.546875
7456,60.546875
7457,60.546875
7458,60.546875
7459,60.546875
7460,60.546875
7461,60.546875
7462,60.546875
7463,62.500000
7464,62.500000
7465,62.500000
7466,62.500000
7467,62.500000
7468,62.500000
7469,62.500000
7470,62.500000
7471,62.500000
7472,62.500000
7473,62.500000
7474,62.500000
7475,62.500000
7476,64.453125
7477,64.453125
7478,64.453125
7479,64.453125
7480,64.453125
7481,64.453125
7482,64.453125
7483,64.453125
7484,64.453125
7485,64.453125
7486,64.453125
7487,64.453125
7488,64.453125
7489,64.453125
7490,64.453125
7491,64.453125
7492,64.453125
7493,64.453125
7494,64.453125
7495,64.453125
7496,64.453125
7497,64.453125
7498,64.453125
7499,64.453125
7500,64.453125
7501,64.453125
7502,62.500000
7503,62.500000
7504,64.453125
7505,64.453125
7506,62.500000
7507,62.500000
7508,62.500000
7509,62.500000
7510,62.500000
7511,62.500000
7512,62.500000
7513,62.500000
7514,62.500000
7515,62.500000
7516,60.546875
7517,60.546875
7518,60.546875
7519,60.546875
7520,60.546875
7521,60.546875
7522,60.546875
7523,60.546875
7524,58.593750
7525,58.593750
7526,58.593750
7527,58.593750
7528,58.593750
7529,58.593750
7530,56.640625
7531,56.640625
7532,56.640625
7533,56.640625
7534,54.687500
7535,56.640625
7536,54.687500
7537,54.687500
7538,54.687500
7539,54.687500
7540,54.687500
7541,52.734375
7542,52.734375
7543,52.734375
7544,52.734375
7545,52.734375
7546,50.781250
7547,50.781250
7548,50.781250
7549,50.781250
7550,48.828125
7551,48.828125
7552,48.828125
7553,48.828125
7554,46.875000
7555,46.875000
7556,46.875000
7557,46.875000
7558,44.921875
7559,44.921875
7560,44.921875
7561,44.921875
7562,42.968750
7563,42.968750
7564,42.968750
7565,42.968750
7566,41.015625
7567,41.015625
7568,41.015625
7569,41.015625
7570,39.062500
7571,39.062500
7572,39.062500
7573,37.109375
7574,37.109375
7575,37.109375
7576,35.156250
7577,35.156250
7578,35.156250
7579,33.203125
7580,33.203125
7581,33.203125
7582,33.203125
7583,31.250000
7584,31.250000
7585,29.296875
7586,29.296875
7587,29.296875
7588,29.296875
7589,27.343750
7590,27.343750
7591,25.390625
7592,25.390625
7593,25.390625
7594,23.437500
7595,23.437500
7596,23.437500
7597,21.484375
7598,21.484375
7599,19.531250
7600,19.531250
7601,19.531250
7602,17.578125
7603,17.578125
7604,15.625000
7605,15.625000
7606,15.625000
7607,13.671875
7608,13.671875
7609,11.718750
7610,11.718750
7611,11.718750
7612,9.765625
7613,9.765625
7614,9.765625
7615,7.812500
7616,7.812500
7617,5.859375
7618,5.859375
7619,5.859375
7620,3.906250
7621,3.906250
7622,3.906250
7623,1.953125
7624,1.953125
7625,0.000000
7626,0.000000
7627,-1.953125
7628,-1.953125
7629,-1.953125
7630,-3.906250
7631,-3.906250
7632,-5.859375
7633,-5.859375
7634,-5.859375
7635,-7.812500
7636,-7.812500
7637,-9.765625
7638,-9.765625
7639,-11.718750
7640,-11.718750
7641,-13.671875
7642,-13.671875
7643,-13.671875
7644,-15.625000
7645,-15.625000
7646,-17.578125
7647,-17.578125
7648,-17.578125
7649,-19.531250
7650,-21.484375
7651,-21.484375
7652,-21.484375
7653,-23.437500
7654,-23.437500
7655,-23.437500
7656,-25.390625
7657,-25.390625
7658,-27.343750
7659,-27.343750
7660,-29.296875
7661,-29.296875
7662,-29.296875
7663,-31.250000
7664,-31.250000
7665,-33.203125
7666,-33.203125
7667,-35.156250
7668,-35.156250
7669,-37.109375
7670,-37.109375
7671,-39.062500
7672,-37.109375
7673,-39.062500
7674,-41.015625
7675,-41.015625
7676,-42.968750
7677,-42.968750
7678,-42.968750
7679,-44.921875
7680,-44.921875
7681,-44.921875
7682,-46.875000
7683,-46.875000
7684,-46.875000
7685,-48.828125
7686,-48.828125
7687,-50.781250
7688,-50.781250
7689,-50.781250
7690,-52.734375
7691,-52.734375
7692,-52.734375
7693,-52.734375
7694,-54.687500
7695,-54.687500
7696,-54.687500
7697,-56.640625
7698,-56.640625
7699,-56.640625
7700,-58.593750
7701,-58.593750
7702,-56.640625
7703,-58.593750
7704,-60.546875
7705,-60.546875
7706,-60.546875
7707,-62.500000
7708,-62.500000
7709,-64.453125
7710,-62.500000
7711,-64.453125
7712,-64.453125
7713,-64.453125
7714,-66.406250
7715,-66.406250
7716,-66.406250
7717,-68.359375
7718,-66.406250
7719,-68.359375
7720,-68.359375
7721,-66.406250
7722,-70.312500
7723,-70.312500
7724,-70.312500
7725,-72.265625
7726,-72.265625
7727,-70.312500
7728,-72.265625
7729,-72.265625
7730,-72.265625
7731,-72.265625
7732,-74.218750
7733,-74.218750
7734,-74.218750
7735,-76.171875
7736,-76.171875
7737,-76.171875
7738,-76.171875
7739,-76.171875
7740,-76.171875
7741,-76.171875
7742,-76.171875
7743,-76.171875
7744,-80.078125
7745,-83.984375
7746,-78.125000
7747,-78.125000
7748,-78.125000
7749,-80.078125
7750,-78.125000
7751,-78.125000
7752,-80.078125
7753,-80.078125
7754,-80.078125
7755,-80.078125
7756,-80.078125
7757,-80.078125
7758,-80.078125
7759,-80.078125
7760,-80.078125
7761,-80.078125
7762,-76.171875
7763,-80.078125
7764,-82.031250
7765,-82.031250
7766,-82.031250
7767,-80.078125
7768,-82.031250
7769,-83.984375
7770,-82.031250
7771,-82.031250
7772,-82.031250
7773,-82.031250
7774,-82.031250
7775,-82.031250
7776,-82.031250
7777,-82.031250
7778,-82.031250
7779,-82.031250
7780,-82.031250
7781,-82.031250
7782,-82.031250
7783,-82.031250
7784,-82.031250
7785,-82.031250
7786,-82.031250
7787,-82.031250
7788,-82.031250
7789,-82.031250
7790,-82.031250
7791,-82.031250
7792,-82.031250
7793,-82.031250
7794,-82.031250
7795,-82.031250
7796,-82.031250
7797,-82.031250
7798,-82.031250
7799,-82.031250
7800,-80.078125
7801,-80.078125
7802,-82.031250
7803,-80.078125
7804,-80.078125
7805,-82.031250
7806,-80.078125
7807,-80.078125
7808,-80.078125
7809,-80.078125
7810,-78.125000
7811,-78.125000
7812,-78.125000
7813,-78.125000
7814,-78.125000
7815,-78.125000
7816,-78.125000
7817,-76.171875
7818,-76.171875
7819,-76.171875
7820,-76.171875
7821,-76.171875
7822,-76.171875
7823,-74.218750
7824,-74.218750
7825,-74.218750
7826,-74.218750
7827,-74.218750
7828,-72.265625
7829,-72.265625
7830,-72.265625
7831,-72.265625
7832,-72.265625
7833,-70.312500
7834,-70.312500
7835,-70.312500
7836,-68.359375
7837,-68.359375
7838,-68.359375
7839,-66.406250
7840,-68.359375
7841,-68.359375
7842,-66.406250
7843,-66.406250
7844,-66.406250
7845,-64.453125
7846,-64.453125
7847,-64.453125
7848,-64.453125
7849,-62.500000
7850,-62.500000
7851,-62.500000
7852,-60.546875
7853,-60.546875
7854,-60.546875
7855,-60.546875
7856,-58.593750
7857,-58.593750
7858,-58.593750
7859,-58.593750
7860,-56.640625
7861,-56.640625
7862,-56.640625
7863,-54.687500
7864,-54.687500
7865,-52.734375
7866,-52.734375
7867,-52.734375
7868,-50.781250
7869,-50.781250
7870,-50.781250
7871,-48.828125
7872,-48.828125
7873,-48.828125
7874,-46.875000
7875,-46.875000
7876,-46.875000
7877,-44.921875
7878,-44.921875
7879,-42.968750
7880,-42.968750
7881,-42.968750
7882,-41.015625
7883,-41.015625
7884,-39.062500
7885,-39.062500
7886,-39.062500
7887,-39.062500
7888,-37.109375
7889,-37.109375
7890,-35.156250
7891,-35.156250
7892,-33.203125
7893,-33.203125
7894,-33.203125
7895,-31.250000
7896,-31.250000
7897,-31.250000
7898,-29.296875
7899,-29.296875
7900,-27.343750
7901,-27.343750
7902,-27.343750
7903,-25.390625
7904,-25.390625
7905,-23.437500
7906,-23.437500
7907,-23.437500
7908,-21.484375
7909,-21.484375
7910,-19.531250
7911,-19.531250
7912,-19.531250
7913,-17.578125
7914,-17.578125
7915,-17.578125
7916,-15.625000
7917,-13.671875
7918,-13.671875
7919,-13.671875
7920,-11.718750
7921,-11.718750
7922,-9.765625
7923,-9.765625
7924,-9.765625
7925,-7.812500
7926,-5.859375
7927,-7.812500
7928,-5.859375
7929,-1.953125
7930,-3.906250
7931,-3.906250
7932,-1.953125
7933,-1.953125
7934,1.953125
7935,0.000000
7936,0.000000
7937,1.953125
7938,1.953125
7939,5.859375
7940,3.906250
7941,5.859375
7942,5.859375
7943,7.812500
7944,7.812500
7945,7.812500
7946,9.765625
7947,9.765625
7948,13.671875
7949,11.718750
7950,13.671875
7951,13.671875
7952,13.671875
7953,17.578125
7954,15.625000
7955,15.625000
7956,17.578125
7957,17.578125
7958,19.531250
7959,19.531250
7960,19.531250
7961,21.484375
7962,21.484375
7963,23.437500
7964,23.437500
7965,23.437500
7966,25.390625
7967,25.390625
7968,25.390625
7969,27.343750
7970,27.343750
7971,29.296875
7972,27.343750
7973,29.296875
7974,31.250000
7975,31.250000
7976,31.250000
7977,31.250000
7978,33.203125
7979,33.203125
7980,33.203125
7981,35.156250
7982,35.156250
7983,35.156250
7984,37.109375
7985,37.109375
7986,37.109375
7987,39.062500
7988,39.062500
7989,39.062500
7990,41.015625
7991,41.015625
7992,41.015625
7993,42.968750
7994,42.968750
7995,44.921875
7996,42.968750
7997,44.921875
7998,44.921875
7999,44.921875
8000,44.921875
8001,44.921875
8002,46.875000
8003,48.828125
8004,48.828125
8005,48.828125
8006,48.828125
8007,48.828125
8008,50.781250
8009,50.781250
8010,50.781250
8011,50.781250
8012,52.734375
8013,52.734375
8014,52.734375
8015,54.687500
8016,52.734375
8017,52.734375
8018,52.734375
8019,54.687500
8020,54.687500
8021,56.640625
8022,56.640625
8023,56.640625
8024,56.640625
8025,56.640625
8026,56.640625
8027,56.640625
8028,58.593750
8029,58.593750
8030,58.593750
8031,58.593750
8032,58.593750
8033,60.546875
8034,60.546875
8035,60.546875
8036,60.546875
8037,60.546875
8038,60.546875
8039,60.546875
8040,60.546875
8041,62.500000
8042,62.500000
8043,60.546875
8044,62.500000
8045,62.500000
8046,62.500000
8047,62.500000
8048,62.500000
8049,62.500000
8050,62.500000
8051,64.453125
8052,62.500000
8053,62.500000
8054,64.453125
8055,64.453125
8056,64.453125
8057,64.453125
8058,64.453125
8059,64.453125
8060,64.453125
8061,64.453125
8062,64.453125
8063,64.453125
8064,64.453125
8065,64.453125
8066,64.453125
8067,66.406250
8068,64.453125
8069,64.453125
8070,64.453125
8071,64.453125
8072,64.453125
8073,64.453125
8074,64.453125
8075,64.453125
8076,64.453125
8077,64.453125
8078,64.453125
8079,64.453125
8080,64.453125
8081,64.453125
8082,64.453125
8083,64.453125
8084,64.453125
8085,64.453125
8086,64.453125
8087,64.453125
8088,64.453125
8089,64.453125
8090,64.453125
8091,64.453125
8092,62.500000
8093,62.500000
8094,62.500000
8095,62.500000
8096,62.500000
8097,62.500000
8098,62.500000
8099,60.546875
8100,60.546875
8101,60.546875
8102,60.546875
8103,60.546875
8104,60.546875
8105,60.546875
8106,60.546875
8107,60.546875
8108,58.593750
8109,58.593750
8110,58.593750
8111,58.593750
8112,58.593750
8113,56.640625
8114,56.640625
8115,56.640625
8116,56.640625
8117,56.640625
8118,54.687500
8119,54.687500
8120,54.687500
8121,54.687500
8122,54.687500
8123,52.734375
8124,52.734375
8125,52.734375
8126,52.734375
8127,52.734375
8128,50.781250
8129,52.734375
8130,50.781250
8131,50.781250
8132,50.781250
8133,50.781250
8134,48.828125
8135,48.828125
8136,48.828125
8137,46.875000
8138,46.875000
8139,46.875000
8140,46.875000
8141,46.875000
8142,44.921875
8143,44.921875
8144,44.921875
8145,42.968750
8146,42.968750
8147,42.968750
8148,42.968750
8149,41.015625
8150,41.015625
8151,41.015625
8152,39.062500
8153,39.062500
8154,39.062500
8155,39.062500
8156,37.109375
8157,37.109375
8158,37.109375
8159,35.156250
8160,35.156250
8161,35.156250
8162,33.203125
8163,33.203125
8164,33.203125
8165,33.203125
8166,31.250000
8167,31.250000
8168,31.250000
8169,29.296875
8170,31.250000
8171,29.296875
8172,27.343750
8173,27.343750
8174,25.390625
8175,25.390625
8176,25.390625
8177,23.437500
8178,23.437500
8179,21.484375
8180,21.484375
8181,21.484375
8182,19.531250
8183,19.531250
8184,17.578125
8185,17.578125
8186,17.578125
8187,15.625000
8188,15.625000
8189,15.625000
8190,13.671875
8191,13.671875
8192,11.718750
8193,11.718750
8194,11.718750
8195,9.765625
8196,9.765625
8197,9.765625
8198,7.812500
8199,7.812500
8200,5.859375
8201,5.859375
8202,5.859375
8203,3.906250
8204,3.906250
8205,1.953125
8206,1.953125
8207,1.953125
8208,0.000000
8209,0.000000
8210,-1.953125
8211,-1.953125
8212,-1.953125
8213,-3.906250
8214,-5.859375
8215,-5.859375
8216,-5.859375
8217,-7.812500
8218,-7.812500
8219,-9.765625
8220,-9.765625
8221,-11.718750
8222,-11.718750
8223,-13.671875
8224,-13.671875
8225,-13.671875
8226,-15.625000
8227,-15.625000
8228,-17.578125
8229,-17.578125
8230,-17.578125
8231,-17.578125
8232,-21.484375
8233,-21.484375
8234,-21.484375
8235,-23.437500
8236,-23.437500
8237,-25.390625
8238,-25.390625
8239,-25.390625
8240,-27.343750
8241,-27.343750
8242,-29.296875
8243,-29.296875
8244,-31.250000
8245,-31.250000
8246,-31.250000
8247,-33.203125
8248,-33.203125
8249,-35.156250
8250,-35.156250
8251,-35.156250
8252,-37.109375
8253,-37.109375
8254,-39.062500
8255,-39.062500
8256,-41.015625
8257,-41.015625
8258,-42.968750
8259,-41.015625
8260,-42.968750
8261,-42.968750
8262,-44.921875
8263,-44.921875
8264,-44.921875
8265,-44.921875
8266,-46.875000
8267,-46.875000
8268,-48.828125
8269,-48.828125
8270,-50.781250
8271,-50.781250
8272,-50.781250
8273,-52.734375
8274,-52.734375
8275,-52.734375
8276,-54.687500
8277,-54.687500
8278,-54.687500
8279,-56.640625
8280,-56.640625
8281,-56.640625
8282,-56.640625
8283,-58.593750
8284,-58.593750
8285,-58.593750
8286,-60.546875
8287,-62.500000
8288,-60.546875
8289,-62.500000
8290,-62.500000
8291,-62.500000
8292,-62.500000
8293,-64.453125
8294,-64.453125
8295,-64.453125
8296,-66.406250
8297,-66.406250
8298,-66.406250
8299,-68.359375
8300,-68.359375
8301,-68.359375
8302,-68.359375
8303,-70.312500
8304,-68.359375
8305,-70.312500
8306,-70.312500
8307,-70.312500
8308,-72.265625
8309,-72.265625
8310,-72.265625
8311,-72.265625
8312,-72.265625
8313,-74.218750
8314,-74.218750
8315,-74.218750
8316,-74.218750
8317,-74.218750
8318,-76.171875
8319,-74.218750
8320,-76.171875
8321,-76.171875
8322,-76.171875
8323,-76.171875
8324,-78.125000
8325,-78.125000
8326,-78.125000
8327,-78.125000
8328,-78.125000
8329,-78.125000
8330,-78.125000
8331,-78.125000
8332,-78.125000
8333,-80.078125
8334,-80.078125
8335,-80.078125
8336,-80.078125
8337,-80.078125
8338,-80.078125
8339,-80.078125
8340,-80.078125
8341,-80.078125
8342,-80.078125
8343,-80.078125
8344,-82.031250
8345,-82.031250
8346,-82.031250
8347,-82.031250
8348,-82.031250
8349,-82.031250
8350,-82.031250
8351,-82.031250
8352,-82.031250
8353,-82.031250
8354,-82.031250
8355,-82.031250
8356,-82.031250
8357,-82.031250
8358,-82.031250
8359,-82.031250
8360,-82.031250
8361,-82.031250
8362,-82.031250
8363,-82.031250
8364,-82.031250
8365,-80.078125
8366,-82.031250
8367,-82.031250
8368,-82.031250
8369,-82.031250
8370,-82.031250
8371,-82.031250
8372,-82.031250
8373,-82.031250
8374,-82.031250
8375,-82.031250
8376,-82.031250
8377,-82.031250
8378,-82.031250
8379,-82.031250
8380,-82.031250
8381,-82.031250
8382,-80.078125
8383,-80.078125
8384,-80.078125
8385,-80.078125
8386,-80.078125
8387,-80.078125
8388,-80.078125
8389,-80.078125
8390,-80.078125
8391,-78.125000
8392,-78.125000
8393,-78.125000
8394,-78.125000
8395,-78.125000
8396,-78.125000
8397,-76.171875
8398,-78.125000
8399,-78.125000
8400,-76.171875
8401,-76.171875
8402,-76.171875
8403,-76.171875
8404,-74.218750
8405,-74.218750
8406,-74.218750
8407,-74.218750
8408,-74.218750
8409,-74.218750
8410,-72.265625
8411,-72.265625
8412,-72.265625
8413,-72.265625
8414,-70.312500
8415,-70.312500
8416,-70.312500
8417,-70.312500
8418,-70.312500
8419,-68.359375
8420,-68.359375
8421,-68.359375
8422,-68.359375
8423,-66.406250
8424,-66.406250
8425,-66.406250
8426,-66.406250
8427,-66.406250
8428,-64.453125
8429,-64.453125
8430,-64.453125
8431,-62.500000
8432,-62.500000
8433,-62.500000
8434,-62.500000
8435,-62.500000
8436,-60.546875
8437,-58.593750
8438,-58.593750
8439,-58.593750
8440,-58.593750
8441,-56.640625
8442,-56.640625
8443,-56.640625
8444,-56.640625
8445,-54.687500
8446,-54.687500
8447,-52.734375
8448,-52.734375
8449,-52.734375
8450,-52.734375
8451,-50.781250
8452,-50.781250
8453,-48.828125
8454,-48.828125
8455,-48.828125
8456,-48.828125
8457,-46.875000
8458,-46.875000
8459,-44.921875
8460,-44.921875
8461,-44.921875
8462,-42.968750
8463,-42.968750
8464,-42.968750
8465,-41.015625
8466,-39.062500
8467,-41.015625
8468,-39.062500
8469,-37.109375
8470,-37.109375
8471,-37.109375
8472,-35.156250
8473,-35.156250
8474,-35.156250
8475,-33.203125
8476,-33.203125
8477,-31.250000
8478,-31.250000
8479,-31.250000
8480,-29.296875
8481,-29.296875
8482,-27.343750
8483,-27.343750
8484,-27.343750
8485,-25.390625
8486,-25.390625
8487,-23.437500
8488,-23.437500
8489,-21.484375
8490,-21.484375
8491,-21.484375
8492,-19.531250
8493,-19.531250
8494,-19.531250
8495,-17.578125
8496,-17.578125
8497,-15.625000
8498,-15.625000
8499,-13.671875
8500,-15.625000
8501,-11.718750
8502,-11.718750
8503,-11.718750
8504,-11.718750
8505,-9.765625
8506,-9.765625
8507,-7.812500
8508,-7.812500
8509,-5.859375
8510,-5.859375
8511,-3.906250
8512,-3.906250
8513,-3.906250
8514,-3.906250
8515,-1.953125
8516,0.000000
8517,0.000000
8518,0.000000
8519,1.953125
8520,1.953125
8521,3.906250
8522,3.906250
8523,5.859375
8524,5.859375
8525,7.812500
8526,7.812500
8527,7.812500
8528,9.765625
8529,9.765625
8530,11.718750
8531,11.718750
8532,11.718750
8533,13.671875
8534,13.671875
8535,13.671875
8536,15.625000
8537,15.625000
8538,17.578125
8539,17.578125
8540,17.578125
8541,19.531250
8542,19.531250
8543,21.484375
8544,21.484375
8545,23.437500
8546,23.437500
8547,25.390625
8548,23.437500
8549,25.390625
8550,27.343750
8551,27.343750
8552,27.343750
8553,27.343750
8554,29.296875
8555,31.250000
8556,31.250000
8557,31.250000
8558,31.250000
8559,33.203125
8560,33.203125
8561,33.203125
8562,35.156250
8563,35.156250
8564,35.156250
8565,37.109375
8566,37.109375
8567,37.109375
8568,39.062500
8569,39.062500
8570,39.062500
8571,39.062500
8572,41.015625
8573,41.015625
8574,41.015625
8575,42.968750
8576,42.968750
8577,42.968750
8578,42.968750
8579,44.921875
8580,44.921875
8581,44.921875
8582,46.875000
8583,46.875000
8584,46.875000
8585,46.875000
8586,48.828125
8587,48.828125
8588,50.781250
8589,48.828125
8590,48.828125
8591,50.781250
8592,52.734375
8593,50.781250
8594,50.781250
8595,52.734375
8596,52.734375
8597,52.734375
8598,52.734375
8599,54.687500
8600,54.687500
8601,54.687500
8602,56.640625
8603,56.640625
8604,56.640625
8605,56.640625
8606,56.640625
8607,56.640625
8608,56.640625
8609,58.593750
8610,58.593750
8611,58.593750
8612,58.593750
8613,58.593750
8614,58.593750
8615,60.546875
8616,60.546875
8617,60.546875
8618,60.546875
8619,60.546875
8620,60.546875
8621,60.546875
8622,60.546875
8623,62.500000
8624,62.500000
8625,62.500000
8626,62.500000
8627,62.500000
8628,62.500000
8629,62.500000
8630,62.500000
8631,62.500000
8632,62.500000
8633,64.453125
8634,62.500000
8635,64.453125
8636,64.453125
8637,64.453125
8638,64.453125
8639,64.453125
8640,64.453125
8641,64.453125
8642,64.453125
8643,64.453125
8644,64.453125
8645,64.453125
8646,64.453125
8647,64.453125
8648,64.453125
8649,64.453125
8650,64.453125
8651,64.453125
8652,64.453125
8653,64.453125
8654,64.453125
8655,64.453125
8656,64.453125
8657,64.453125
8658,64.453125
8659,64.453125
8660,64.453125
8661,64.453125
8662,64.453125
8663,64.453125
8664,64.453125
8665,64.453125
8666,64.453125
8667,64.453125
8668,64.453125
8669,64.453125
8670,64.453125
8671,64.453125
8672,64.453125
8673,64.453125
8674,64.453125
8675,64.453125
8676,64.453125
8677,62.500000
8678,62.500000
8679,62.500000
8680,62.500000
8681,62.500000
8682,62.500000
8683,60.546875
8684,62.500000
8685,62.500000
8686,60.546875
8687,60.546875
8688,58.593750
8689,60.546875
8690,58.593750
8691,60.546875
8692,58.593750
8693,58.593750
8694,58.593750
8695,58.593750
8696,58.593750
8697,56.640625
8698,56.640625
8699,56.640625
8700,56.640625
8701,56.640625
8702,54.687500
8703,54.687500
8704,54.687500
8705,54.687500
8706,54.687500
8707,54.687500
8708,54.687500
8709,52.734375
8710,52.734375
8711,52.734375
8712,50.781250
8713,50.781250
8714,50.781250
8715,50.781250
8716,50.781250
8717,48.828125
8718,50.781250
8719,48.828125
8720,46.875000
8721,46.875000
8722,46.875000
8723,46.875000
8724,46.875000
8725,44.921875
8726,44.921875
8727,44.921875
8728,44.921875
8729,42.968750
8730,42.968750
8731,42.968750
8732,41.015625
8733,41.015625
8734,41.015625
8735,41.015625
8736,39.062500
8737,39.062500
8738,37.109375
8739,37.109375
8740,37.109375
8741,37.109375
8742,35.156250
8743,35.156250
8744,35.156250
8745,33.203125
8746,33.203125
8747,33.203125
8748,31.250000
8749,31.250000
8750,31.250000
8751,29.296875
8752,29.296875
8753,29.296875
8754,29.296875
8755,27.343750
8756,27.343750
8757,25.390625
8758,25.390625
8759,25.390625
8760,23.437500
8761,23.437500
8762,21.484375
8763,21.484375
8764,21.484375
8765,19.531250
8766,19.531250
8767,17.578125
8768,17.578125
8769,17.578125
8770,15.625000
8771,15.625000
8772,15.625000
8773,13.671875
8774,13.671875
8775,11.718750
8776,9.765625
8777,11.718750
8778,9.765625
8779,9.765625
8780,9.765625
8781,7.812500
8782,5.859375
8783,5.859375
8784,5.859375
8785,3.906250
8786,3.906250
8787,1.953125
8788,1.953125
8789,1.953125
8790,0.000000
8791,0.000000
8792,0.000000
8793,-1.953125
8794,-1.953125
8795,-3.906250
8796,-3.906250
8797,-5.859375
8798,-5.859375
8799,-5.859375
8800,-7.812500
8801,-9.765625
8802,-9.765625
8803,-9.765625
8804,-11.718750
8805,-11.718750
8806,-11.718750
8807,-13.671875
8808,-13.671875
8809,-13.671875
8810,-15.625000
8811,-15.625000
8812,-17.578125
8813,-17.578125
8814,-19.531250
8815,-19.531250
8816,-21.484375
8817,-21.484375
8818,-23.437500
8819,-23.437500
8820,-23.437500
8821,-25.390625
8822,-27.343750
8823,-27.343750
8824,-27.343750
8825,-29.296875
8826,-29.296875
8827,-31.250000
8828,-31.250000
8829,-31.250000
8830,-33.203125
8831,-33.203125
8832,-35.156250
8833,-35.156250
8834,-37.109375
8835,-37.109375
8836,-37.109375
8837,-39.062500
8838,-39.062500
8839,-41.015625
8840,-41.015625
8841,-41.015625
8842,-42.968750
8843,-42.968750
8844,-42.968750
8845,-44.921875
8846,-44.921875
8847,-44.921875
8848,-46.875000
8849,-46.875000
8850,-48.828125
8851,-48.828125
8852,-48.828125
8853,-50.781250
8854,-50.781250
8855,-52.734375
8856,-52.734375
8857,-52.734375
8858,-52.734375
8859,-54.687500
8860,-54.687500
8861,-54.687500
8862,-56.640625
8863,-56.640625
8864,-56.640625
8865,-58.593750
8866,-58.593750
8867,-58.593750
8868,-60.546875
8869,-60.546875
8870,-60.546875
8871,-62.500000
8872,-62.500000
8873,-62.500000
8874,-62.500000
8875,-64.453125
8876,-64.453125
8877,-64.453125
8878,-66.406250
8879,-66.406250
8880,-66.406250
8881,-66.406250
8882,-66.406250
8883,-68.359375
8884,-68.359375
8885,-68.359375
8886,-68.359375
8887,-70.312500
8888,-70.312500
8889,-70.312500
8890,-70.312500
8891,-72.265625
8892,-72.265625
8893,-72.265625
8894,-72.265625
8895,-72.265625
8896,-74.218750
8897,-74.218750
8898,-74.218750
8899,-74.218750
8900,-76.171875
8901,-76.171875
8902,-76.171875
8903,-76.171875
8904,-76.171875
8905,-78.125000
8906,-76.171875
8907,-76.171875
8908,-78.125000
8909,-78.125000
8910,-78.125000
8911,-78.125000
8912,-78.125000
8913,-78.125000
8914,-78.125000
8915,-80.078125
8916,-78.125000
8917,-80.078125
8918,-80.078125
8919,-80.078125
8920,-80.078125
8921,-80.078125
8922,-80.078125
8923,-80.078125
8924,-80.078125
8925,-80.078125
8926,-80.078125
8927,-82.031250
8928,-80.078125
8929,-82.031250
8930,-82.031250
8931,-82.031250
8932,-82.031250
8933,-82.031250
8934,-82.031250
8935,-82.031250
8936,-82.031250
8937,-82.031250
8938,-82.031250
8939,-82.031250
8940,-82.031250
8941,-82.031250
8942,-82.031250
8943,-82.031250
8944,-82.031250
8945,-82.031250
8946,-82.031250
8947,-82.031250
8948,-80.078125
8949,-82.031250
8950,-82.031250
8951,-82.031250
8952,-82.031250
8953,-82.031250
8954,-82.031250
8955,-82.031250
8956,-82.031250
8957,-80.078125
8958,-82.031250
8959,-82.031250
8960,-82.031250
8961,-82.031250
8962,-82.031250
8963,-82.031250
8964,-80.078125
8965,-80.078125
8966,-82.031250
8967,-80.078125
8968,-80.078125
8969,-80.078125
8970,-80.078125
8971,-80.078125
8972,-80.078125
8973,-78.125000
8974,-78.125000
8975,-78.125000
8976,-78.125000
8977,-78.125000
8978,-78.125000
8979,-78.125000
8980,-76.171875
8981,-76.171875
8982,-76.171875
8983,-76.171875
8984,-76.171875
8985,-76.171875
8986,-76.171875
8987,-74.218750
8988,-74.218750
8989,-74.218750
8990,-74.218750
8991,-74.218750
8992,-72.265625
8993,-72.265625
8994,-72.265625
8995,-72.265625
8996,-70.312500
8997,-70.312500
8998,-70.312500
8999,-70.312500
9000,-70.312500
9001,-68.359375
9002,-68.359375
9003,-68.359375
9004,-68.359375
9005,-66.406250
9006,-66.406250
9007,-66.406250
9008,-64.453125
9009,-64.453125
9010,-64.453125
9011,-64.453125
9012,-64.453125
9013,-62.500000
9014,-62.500000
9015,-62.500000
9016,-62.500000
9017,-60.546875
9018,-60.546875
9019,-60.546875
9020,-58.593750
9021,-58.593750
9022,-58.593750
9023,-58.593750
9024,-56.640625
9025,-56.640625
9026,-54.687500
9027,-54.687500
9028,-54.687500
9029,-54.687500
9030,-52.734375
9031,-52.734375
9032,-52.734375
9033,-50.781250
9034,-50.781250
9035,-50.781250
9036,-48.828125
9037,-48.828125
9038,-46.875000
9039,-46.875000
9040,-46.875000
9041,-44.921875
9042,-44.921875
9043,-44.921875
9044,-42.968750
9045,-42.968750
9046,-41.015625
9047,-41.015625
9048,-39.062500
9049,-39.062500
9050,-39.062500
9051,-39.062500
9052,-37.109375
9053,-37.109375
9054,-35.156250
9055,-35.156250
9056,-35.156250
9057,-33.203125
9058,-33.203125
9059,-33.203125
9060,-31.250000
9061,-31.250000
9062,-29.296875
9063,-29.296875
9064,-27.343750
9065,-27.343750
9066,-27.343750
9067,-25.390625
9068,-25.390625
9069,-25.390625
9070,-23.437500
9071,-23.437500
9072,-21.484375
9073,-21.484375
9074,-21.484375
9075,-19.531250
9076,-19.531250
9077,-17.578125
9078,-17.578125
9079,-17.578125
9080,-15.625000
9081,-15.625000
9082,-13.671875
9083,-13.671875
9084,-11.718750
9085,-11.718750
9086,-11.718750
9087,-9.765625
9088,-9.765625
9089,-7.812500
9090,-7.812500
9091,-7.812500
9092,-5.859375
9093,-5.859375
9094,-5.859375
9095,-3.906250
9096,-3.906250
9097,-1.953125
9098,-1.953125
9099,0.000000
9100,0.000000
9101,1.953125
9102,1.953125
9103,1.953125
9104,3.906250
9105,5.859375
9106,5.859375
9107,7.812500
9108,7.812500
9109,7.812500
9110,9.765625
9111,9.765625
9112,9.765625
9113,11.718750
9114,11.718750
9115,13.671875
9116,13.671875
9117,13.671875
9118,15.625000
9119,15.625000
9120,15.625000
9121,17.578125
9122,19.531250
9123,19.531250
9124,19.531250
9125,21.484375
9126,21.484375
9127,21.484375
9128,23.437500
9129,23.437500
9130,23.437500
9131,25.390625
9132,25.390625
9133,27.343750
9134,27.343750
9135,27.343750
9136,29.296875
9137,29.296875
9138,29.296875
9139,31.250000
9140,31.250000
9141,31.250000
9142,33.203125
9143,33.203125
9144,33.203125
9145,33.203125
9146,35.156250
9147,35.156250
9148,35.156250
9149,37.109375
9150,37.109375
9151,39.062500
9152,39.062500
9153,39.062500
9154,39.062500
9155,41.015625
9156,41.015625
9157,41.015625
9158,42.968750
9159,42.968750
9160,42.968750
9161,44.921875
9162,44.921875
9163,44.921875
9164,44.921875
9165,46.875000
9166,46.875000
9167,46.875000
9168,46.875000
9169,48.828125
9170,48.828125
9171,48.828125
9172,48.828125
9173,50.781250
9174,50.781250
9175,50.781250
9176,50.781250
9177,52.734375
9178,52.734375
9179,52.734375
9180,54.687500
9181,54.687500
9182,54.687500
9183,54.687500
9184,54.687500
9185,54.687500
9186,56.640625
9187,56.640625
9188,56.640625
9189,56.640625
9190,56.640625
9191,56.640625
9192,58.593750
9193,58.593750
9194,58.593750
9195,58.593750
9196,58.593750
9197,58.593750
9198,58.593750
9199,60.546875
9200,60.546875
9201,60.546875
9202,60.546875
9203,60.546875
9204,60.546875
9205,60.546875
9206,60.546875
9207,62.500000
9208,60.546875
9209,62.500000
9210,62.500000
9211,62.500000
9212,62.500000
9213,62.500000
9214,62.500000
9215,62.500000
9216,62.500000
9217,62.500000
9218,64.453125
9219,64.453125
9220,64.453125
9221,62.500000
9222,62.500000
9223,64.453125
9224,64.453125
9225,64.453125
9226,64.453125
9227,64.453125
9228,64.453125
9229,64.453125
9230,64.453125
9231,64.453125
9232,64.453125
9233,64.453125
9234,64.453125
9235,64.453125
9236,64.453125
9237,64.453125
9238,64.453125
9239,64.453125
9240,64.453125
9241,64.453125
9242,64.453125
9243,64.453125
9244,64.453125
9245,64.453125
9246,64.453125
9247,64.453125
9248,64.453125
9249,64.453125
9250,64.453125
9251,64.453125
9252,62.500000
9253,64.453125
9254,64.453125
9255,62.500000
9256,64.453125
9257,62.500000
9258,62.500000
9259,62.500000
9260,62.500000
9261,62.500000
9262,62.500000
9263,60.546875
9264,62.500000
9265,60.546875
9266,60.546875
9267,60.546875
9268,60.546875
9269,60.546875
9270,60.546875
9271,58.593750
9272,58.593750
9273,58.593750
9274,58.593750
9275,58.593750
9276,58.593750
9277,58.593750
9278,56.640625
9279,56.640625
9280,56.640625
9281,56.640625
9282,56.640625
9283,56.640625
9284,54.687500
9285,54.687500
9286,54.687500
9287,54.687500
9288,54.687500
9289,54.687500
9290,52.734375
9291,52.734375
9292,52.734375
9293,52.734375
9294,50.781250
9295,50.781250
9296,50.781250
9297,50.781250
9298,48.828125
9299,48.828125
9300,48.828125
9301,48.828125
9302,48.828125
9303,46.875000
9304,46.875000
9305,46.875000
9306,46.875000
9307,44.921875
9308,44.921875
9309,44.921875
9310,42.968750
9311,42.968750
9312,42.968750
9313,42.968750
9314,41.015625
9315,41.015625
9316,41.015625
9317,41.015625
9318,39.062500
9319,39.062500
9320,39.062500
9321,37.109375
9322,37.109375
9323,35.156250
9324,35.156250
9325,35.156250
9326,33.203125
9327,33.203125
9328,33.203125
9329,33.203125
9330,33.203125
9331,31.250000
9332,31.250000
9333,29.296875
9334,29.296875
9335,29.296875
9336,27.343750
9337,27.343750
9338,27.343750
9339,25.390625
9340,25.390625
9341,25.390625
9342,23.437500
9343,23.437500
9344,21.484375
9345,21.484375
9346,21.484375
9347,19.531250
9348,19.531250
9349,17.578125
9350,17.578125
9351,17.578125
9352,15.625000
9353,15.625000
9354,15.625000
9355,13.671875
9356,13.671875
9357,13.671875
9358,11.718750
9359,11.718750
9360,9.765625
9361,9.765625
9362,7.812500
9363,7.812500
9364,7.812500
9365,5.859375
9366,5.859375
9367,3.906250
9368,3.906250
9369,3.906250
9370,1.953125
9371,1.953125
9372,0.000000
9373,0.000000
9374,0.000000
9375,-1.953125
9376,-1.953125
9377,-3.906250
9378,-3.906250
9379,-5.859375
9380,-5.859375
9381,-5.859375
9382,-7.812500
9383,-7.812500
9384,-9.765625
9385,-9.765625
9386,-11.718750
9387,-11.718750
9388,-13.671875
9389,-13.671875
9390,-13.671875
9391,-15.625000
9392,-15.625000
9393,-17.578125
9394,-17.578125
9395,-17.578125
9396,-19.531250
9397,-19.531250
9398,-19.531250
9399,-21.484375
9400,-23.437500
9401,-23.437500
9402,-23.437500
9403,-25.390625
9404,-27.343750
9405,-27.343750
9406,-27.343750
9407,-29.296875
9408,-29.296875
9409,-31.250000
9410,-31.250000
9411,-31.250000
9412,-33.203125
9413,-33.203125
9414,-33.203125
9415,-35.156250
9416,-37.109375
9417,-37.109375
9418,-37.109375
9419,-37.109375
9420,-39.062500
9421,-39.062500
9422,-41.015625
9423,-41.015625
9424,-42.968750
9425,-42.968750
9426,-42.968750
9427,-42.968750
9428,-44.921875
9429,-44.921875
9430,-46.875000
9431,-46.875000
9432,-46.875000
9433,-48.828125
9434,-48.828125
9435,-50.781250
9436,-50.781250
9437,-50.781250
9438,-50.781250
9439,-52.734375
9440,-52.734375
9441,-54.687500
9442,-54.687500
9443,-54.687500
9444,-56.640625
9445,-56.640625
9446,-58.593750
9447,-56.640625
9448,-58.593750
9449,-58.593750
9450,-58.593750
9451,-60.546875
9452,-60.546875
9453,-60.546875
9454,-62.500000
9455,-62.500000
9456,-62.500000
9457,-62.500000
9458,-64.453125
9459,-64.453125
9460,-64.453125
9461,-66.406250
9462,-66.406250
9463,-66.406250
9464,-66.406250
9465,-66.406250
9466,-68.359375
9467,-68.359375
9468,-68.359375
9469,-68.359375
9470,-70.312500
9471,-70.312500
9472,-70.312500
9473,-70.312500
9474,-72.265625
9475,-72.265625
9476,-72.265625
9477,-72.265625
9478,-74.218750
9479,-74.218750
9480,-74.218750
9481,-74.218750
9482,-74.218750
9483,-74.218750
9484,-74.218750
9485,-76.171875
9486,-76.171875
9487,-76.171875
9488,-76.171875
9489,-76.171875
9490,-78.125000
9491,-76.171875
9492,-78.125000
9493,-78.125000
9494,-78.125000
9495,-78.125000
9496,-78.125000
9497,-78.125000
9498,-78.125000
9499,-78.125000
9500,-78.125000
9501,-80.078125
9502,-80.078125
9503,-80.078125
9504,-80.078125
9505,-80.078125
9506,-80.078125
9507,-80.078125
9508,-80.078125
9509,-80.078125
9510,-82.031250
9511,-80.078125
9512,-82.031250
9513,-82.031250
9514,-82.031250
9515,-80.078125
9516,-82.031250
9517,-82.031250
9518,-82.031250
9519,-82.031250
9520,-82.031250
9521,-82.031250
9522,-82.031250
9523,-82.031250
9524,-82.031250
9525,-82.031250
9526,-82.031250
9527,-82.031250
9528,-82.031250
9529,-82.031250
9530,-82.031250
9531,-82.031250
9532,-82.031250
9533,-82.031250
9534,-82.031250
9535,-82.031250
9536,-82.031250
9537,-82.031250
9538,-80.078125
9539,-82.031250
9540,-82.031250
9541,-82.031250
9542,-82.031250
9543,-82.031250
9544,-80.078125
9545,-80.078125
9546,-82.031250
9547,-80.078125
9548,-80.078125
9549,-80.078125
9550,-80.078125
9551,-80.078125
9552,-80.078125
9553,-80.078125
9554,-78.125000
9555,-78.125000
9556,-80.078125
9557,-78.125000
9558,-78.125000
9559,-78.125000
9560,-78.125000
9561,-78.125000
9562,-76.171875
9563,-76.171875
9564,-76.171875
9565,-76.171875
9566,-76.171875
9567,-76.171875
9568,-76.171875
9569,-74.218750
9570,-74.218750
9571,-74.218750
9572,-74.218750
9573,-74.218750
9574,-72.265625
9575,-72.265625
9576,-72.265625
9577,-72.265625
9578,-72.265625
9579,-70.312500
9580,-70.312500
9581,-70.312500
9582,-70.312500
9583,-68.359375
9584,-68.359375
9585,-68.359375
9586,-68.359375
9587,-68.359375
9588,-66.406250
9589,-66.406250
9590,-66.406250
9591,-66.406250
9592,-64.453125
9593,-64.453125
9594,-64.453125
9595,-64.453125
9596,-64.453125
9597,-62.500000
9598,-62.500000
9599,-60.546875
9600,-60.546875
9601,-60.546875
9602,-60.546875
9603,-58.593750
9604,-56.640625
9605,-58.593750
9606,-58.593750
9607,-56.640625
9608,-56.640625
9609,-54.687500
9610,-54.687500
9611,-54.687500
9612,-54.687500
9613,-52.734375
9614,-52.734375
9615,-52.734375
9616,-50.781250
9617,-50.781250
9618,-48.828125
9619,-48.828125
9620,-48.828125
9621,-46.875000
9622,-46.875000
9623,-46.875000
9624,-44.921875
9625,-44.921875
9626,-44.921875
9627,-42.968750
9628,-42.968750
9629,-42.968750
9630,-41.015625
9631,-39.062500
9632,-41.015625
9633,-39.062500
9634,-37.109375
9635,-37.109375
9636,-37.109375
9637,-37.109375
9638,-35.156250
9639,-35.156250
9640,-33.203125
9641,-33.203125
9642,-31.250000
9643,-31.250000
9644,-29.296875
9645,-29.296875
9646,-29.296875
9647,-29.296875
9648,-27.343750
9649,-25.390625
9650,-25.390625
9651,-25.390625
9652,-25.390625
9653,-23.437500
9654,-21.484375
9655,-21.484375
9656,-21.484375
9657,-21.484375
9658,-19.531250
9659,-17.578125
9660,-17.578125
9661,-17.578125
9662,-17.578125
9663,-15.625000
9664,-13.671875
9665,-13.671875
9666,-13.671875
9667,-13.671875
9668,-11.718750
9669,-11.718750
9670,-9.765625
9671,-9.765625
9672,-9.765625
9673,-7.812500
9674,-7.812500
9675,-5.859375
9676,-3.906250
9677,-3.906250
9678,-3.906250
9679,-3.906250
9680,-1.953125
9681,-1.953125
9682,0.000000
9683,0.000000
9684,1.953125
9685,1.953125
9686,1.953125
9687,3.906250
9688,3.906250
9689,5.859375
9690,5.859375
9691,7.812500
9692,7.812500
9693,9.765625
9694,9.765625
9695,11.718750
9696,11.718750
9697,11.718750
9698,13.671875
9699,13.671875
9700,13.671875
9701,15.625000
9702,15.625000
9703,17.578125
9704,17.578125
9705,19.531250
9706,19.531250
9707,19.531250
9708,21.484375
9709,21.484375
9710,21.484375
9711,23.437500
9712,23.437500
9713,25.390625
9714,25.390625
9715,25.390625
9716,27.343750
9717,27.343750
9718,27.343750
9719,29.296875
9720,29.296875
9721,29.296875
9722,31.250000
9723,31.250000
9724,31.250000
9725,33.203125
9726,33.203125
9727,33.203125
9728,33.203125
9729,35.156250
9730,35.156250
9731,37.109375
9732,37.109375
9733,37.109375
9734,39.062500
9735,39.062500
9736,39.062500
9737,39.062500
9738,39.062500
9739,41.015625
9740,41.015625
9741,42.968750
9742,42.968750
9743,42.968750
9744,44.921875
9745,44.921875
9746,44.921875
9747,44.921875
9748,46.875000
9749,46.875000
9750,46.875000
9751,48.828125
9752,48.828125
9753,48.828125
9754,48.828125
9755,50.781250
9756,50.781250
9757,50.781250
9758,50.781250
9759,50.781250
9760,52.734375
9761,52.734375
9762,52.734375
9763,52.734375
9764,52.734375
9765,54.687500
9766,54.687500
9767,54.687500
9768,54.687500
9769,56.640625
9770,54.687500
9771,56.640625
9772,56.640625
9773,56.640625
9774,56.640625
9775,58.593750
9776,58.593750
9777,58.593750
9778,58.593750
9779,58.593750
9780,58.593750
9781,60.546875
9782,58.593750
9783,58.593750
9784,60.546875
9785,60.546875
9786,60.546875
9787,60.546875
9788,60.546875
9789,60.546875
9790,60.546875
9791,62.500000
9792,62.500000
9793,62.500000
9794,62.500000
9795,62.500000
9796,62.500000
9797,62.500000
9798,62.500000
9799,62.500000
9800,62.500000
9801,62.500000
9802,62.500000
9803,62.500000
9804,64.453125
9805,64.453125
9806,64.453125
9807,64.453125
9808,64.453125
9809,64.453125
9810,64.453125
9811,64.453125
9812,64.453125
9813,64.453125
9814,64.453125
9815,64.453125
9816,64.453125
9817,64.453125
9818,64.453125
9819,64.453125
9820,64.453125
9821,64.453125
9822,64.453125
9823,64.453125
9824,64.453125
9825,64.453125
9826,64.453125
9827,64.453125
9828,64.453125
9829,64.453125
9830,64.453125
9831,64.453125
9832,64.453125
9833,64.453125
9834,64.453125
9835,64.453125
9836,62.500000
9837,62.500000
9838,62.500000
9839,62.500000
9840,62.500000
9841,62.500000
9842,62.500000
9843,62.500000
9844,62.500000
9845,60.546875
9846,62.500000
9847,60.546875
9848,60.546875
9849,60.546875
9850,60.546875
9851,60.546875
9852,60.546875
9853,58.593750
9854,58.593750
9855,58.593750
9856,58.593750
9857,58.593750
9858,58.593750
9859,58.593750
9860,58.593750
9861,56.640625
9862,56.640625
9863,56.640625
9864,56.640625
9865,54.687500
9866,54.687500
9867,54.687500
9868,54.687500
9869,54.687500
9870,54.687500
9871,52.734375
9872,52.734375
9873,52.734375
9874,52.734375
9875,52.734375
9876,50.781250
9877,50.781250
9878,48.828125
9879,50.781250
9880,48.828125
9881,48.828125
9882,48.828125
9883,48.828125
9884,48.828125
9885,48.828125
9886,46.875000
9887,46.875000
9888,44.921875
9889,44.921875
9890,44.921875
9891,44.921875
9892,44.921875
9893,42.968750
9894,42.968750
9895,42.968750
9896,41.015625
9897,41.015625
9898,41.015625
9899,41.015625
9900,41.015625
9901,39.062500
9902,39.062500
9903,37.109375
9904,37.109375
9905,37.109375
9906,37.109375
9907,35.156250
9908,35.156250
9909,35.156250
9910,33.203125
9911,33.203125
9912,33.203125
9913,31.250000
9914,31.250000
9915,31.250000
9916,29.296875
9917,29.296875
9918,27.343750
9919,27.343750
9920,27.343750
9921,27.343750
9922,25.390625
9923,25.390625
9924,23.437500
9925,23.437500
9926,23.437500
9927,21.484375
9928,21.484375
9929,21.484375
9930,19.531250
9931,17.578125
9932,19.531250
9933,17.578125
9934,17.578125
9935,15.625000
9936,15.625000
9937,13.671875
9938,13.671875
9939,13.671875
9940,11.718750
9941,11.718750
9942,11.718750
9943,9.765625
9944,9.765625
9945,7.812500
9946,7.812500
9947,7.812500
9948,7.812500
9949,3.906250
9950,3.906250
9951,3.906250
9952,3.906250
9953,1.953125
9954,1.953125
9955,0.000000
9956,0.000000
9957,-1.953125
9958,-1.953125
9959,-1.953125
9960,-1.953125
9961,-3.906250
9962,-3.906250
9963,-5.859375
9964,-7.812500
9965,-5.859375
9966,-7.812500
9967,-9.765625
9968,-9.765625
9969,-11.718750
9970,-11.718750
9971,-11.718750
9972,-13.671875
9973,-13.671875
9974,-15.625000
9975,-15.625000
9976,-17.578125
9977,-17.578125
9978,-17.578125
9979,-19.531250
9980,-21.484375
9981,-21.484375
9982,-21.484375
9983,-23.437500
9984,-23.437500
9985,-25.390625
9986,-25.390625
9987,-25.390625
9988,-27.343750
9989,-27.343750
9990,-29.296875
9991,-29.296875
9992,-29.296875
9993,-31.250000
9994,-31.250000
9995,-33.203125
9996,-35.156250
9997,-35.156250
9998,-35.156250
9999,-37.109375
10000,-37.109375
