Channel              :,CH1
Frequency            :,  ?
Period               :,  ?
PK-PK                :,31.25mV
Probe attenuation    :,1X
Voltage per ADC value:,0.244141mV
Time interval        :,1.00000us

index,CH1_Voltage(mV)
1,-11.718750
2,-11.718750
3,-11.718750
4,-11.718750
5,-11.718750
6,-11.718750
7,-11.718750
8,-11.718750
9,-11.718750
10,-11.718750
11,-11.718750
12,-11.718750
13,-11.718750
14,-11.718750
15,-11.718750
16,-11.718750
17,-11.718750
18,-11.718750
19,-11.718750
20,-11.718750
21,-11.718750
22,-11.718750
23,-11.718750
24,-11.718750
25,-11.718750
26,-11.718750
27,-11.718750
28,-11.718750
29,-11.718750
30,-15.625000
31,-11.718750
32,-11.718750
33,-11.718750
34,-15.625000
35,-15.625000
36,-15.625000
37,-15.625000
38,-11.718750
39,-11.718750
40,-15.625000
41,-15.625000
42,-15.625000
43,-15.625000
44,-15.625000
45,-15.625000
46,-15.625000
47,-15.625000
48,-15.625000
49,-15.625000
50,-15.625000
51,-15.625000
52,-15.625000
53,-15.625000
54,-15.625000
55,-15.625000
56,-15.625000
57,-15.625000
58,-15.625000
59,-15.625000
60,-15.625000
61,-15.625000
62,-15.625000
63,-15.625000
64,-15.625000
65,-15.625000
66,-15.625000
67,-15.625000
68,-15.625000
69,-15.625000
70,-15.625000
71,-15.625000
72,-15.625000
73,-15.625000
74,-15.625000
75,-15.625000
76,-15.625000
77,-15.625000
78,-15.625000
79,-15.625000
80,-15.625000
81,-15.625000
82,-19.531250
83,-19.531250
84,-15.625000
85,-15.625000
86,-19.531250
87,-19.531250
88,-19.531250
89,-19.531250
90,-19.531250
91,-19.531250
92,-19.531250
93,-19.531250
94,-19.531250
95,-19.531250
96,-19.531250
97,-19.531250
98,-19.531250
99,-19.531250
100,-15.625000
101,-19.531250
102,-19.531250
103,-19.531250
104,-19.531250
105,-19.531250
106,-19.531250
107,-19.531250
108,-19.531250
109,-19.531250
110,-19.531250
111,-19.531250
112,-19.531250
113,-19.531250
114,-19.531250
115,-19.531250
116,-19.531250
117,-19.531250
118,-19.531250
119,-19.531250
120,-19.531250
121,-19.531250
122,-19.531250
123,-19.531250
124,-19.531250
125,-19.531250
126,-19.531250
127,-19.531250
128,-19.531250
129,-19.531250
130,-19.531250
131,-19.531250
132,-19.531250
133,-19.531250
134,-19.531250
135,-19.531250
136,-23.437500
137,-19.531250
138,-23.437500
139,-23.437500
140,-23.437500
141,-19.531250
142,-23.437500
143,-23.437500
144,-23.437500
145,-23.437500
146,-23.437500
147,-23.437500
148,-23.437500
149,-23.437500
150,-23.437500
151,-19.531250
152,-23.437500
153,-23.437500
154,-23.437500
155,-23.437500
156,-23.437500
157,-23.437500
158,-23.437500
159,-23.437500
160,-23.437500
161,-23.437500
162,-23.437500
163,-23.437500
164,-23.437500
165,-23.437500
166,-27.343750
167,-19.531250
168,-23.437500
169,-23.437500
170,-27.343750
171,-23.437500
172,-23.437500
173,-23.437500
174,-23.437500
175,-23.437500
176,-23.437500
177,-23.437500
178,-23.437500
179,-23.437500
180,-27.343750
181,-23.437500
182,-23.437500
183,-23.437500
184,-23.437500
185,-23.437500
186,-27.343750
187,-27.343750
188,-23.437500
189,-27.343750
190,-27.343750
191,-23.437500
192,-23.437500
193,-27.343750
194,-27.343750
195,-27.343750
196,-27.343750
197,-27.343750
198,-27.343750
199,-27.343750
200,-27.343750
201,-23.437500
202,-27.343750
203,-27.343750
204,-27.343750
205,-27.343750
206,-27.343750
207,-27.343750
208,-27.343750
209,-27.343750
210,-27.343750
211,-27.343750
212,-27.343750
213,-27.343750
214,-27.343750
215,-27.343750
216,-27.343750
217,-27.343750
218,-27.343750
219,-27.343750
220,-27.343750
221,-27.343750
222,-27.343750
223,-27.343750
224,-27.343750
225,-27.343750
226,-27.343750
227,-27.343750
228,-27.343750
229,-27.343750
230,-27.343750
231,-27.343750
232,-27.343750
233,-27.343750
234,-27.343750
235,-27.343750
236,-27.343750
237,-27.343750
238,-27.343750
239,-27.343750
240,-27.343750
241,-27.343750
242,-27.343750
243,-27.343750
244,-27.343750
245,-27.343750
246,-27.343750
247,-27.343750
248,-27.343750
249,-27.343750
250,-27.343750
251,-27.343750
252,-27.343750
253,-27.343750
254,-27.343750
255,-27.343750
256,-27.343750
257,-27.343750
258,-27.343750
259,-27.343750
260,-27.343750
261,-27.343750
262,-27.343750
263,-27.343750
264,-27.343750
265,-27.343750
266,-27.343750
267,-27.343750
268,-27.343750
269,-27.343750
270,-27.343750
271,-27.343750
272,-27.343750
273,-27.343750
274,-27.343750
275,-27.343750
276,-27.343750
277,-27.343750
278,-27.343750
279,-27.343750
280,-27.343750
281,-27.343750
282,-27.343750
283,-27.343750
284,-27.343750
285,-27.343750
286,-27.343750
287,-27.343750
288,-27.343750
289,-27.343750
290,-27.343750
291,-27.343750
292,-27.343750
293,-27.343750
294,-27.343750
295,-27.343750
296,-27.343750
297,-27.343750
298,-27.343750
299,-27.343750
300,-27.343750
301,-27.343750
302,-27.343750
303,-27.343750
304,-31.250000
305,-27.343750
306,-27.343750
307,-27.343750
308,-27.343750
309,-27.343750
310,-27.343750
311,-27.343750
312,-27.343750
313,-27.343750
314,-27.343750
315,-27.343750
316,-27.343750
317,-27.343750
318,-27.343750
319,-27.343750
320,-27.343750
321,-27.343750
322,-27.343750
323,-27.343750
324,-27.343750
325,-27.343750
326,-27.343750
327,-27.343750
328,-27.343750
329,-27.343750
330,-27.343750
331,-27.343750
332,-27.343750
333,-27.343750
334,-27.343750
335,-27.343750
336,-27.343750
337,-27.343750
338,-27.343750
339,-27.343750
340,-27.343750
341,-27.343750
342,-27.343750
343,-27.343750
344,-27.343750
345,-27.343750
346,-27.343750
347,-27.343750
348,-27.343750
349,-27.343750
350,-27.343750
351,-27.343750
352,-27.343750
353,-27.343750
354,-27.343750
355,-27.343750
356,-27.343750
357,-27.343750
358,-27.343750
359,-27.343750
360,-27.343750
361,-27.343750
362,-27.343750
363,-27.343750
364,-27.343750
365,-23.437500
366,-27.343750
367,-27.343750
368,-27.343750
369,-23.437500
370,-23.437500
371,-23.437500
372,-23.437500
373,-23.437500
374,-27.343750
375,-27.343750
376,-27.343750
377,-27.343750
378,-23.437500
379,-23.437500
380,-23.437500
381,-23.437500
382,-27.343750
383,-23.437500
384,-23.437500
385,-23.437500
386,-23.437500
387,-23.437500
388,-23.437500
389,-23.437500
390,-23.437500
391,-23.437500
392,-23.437500
393,-23.437500
394,-23.437500
395,-23.437500
396,-23.437500
397,-23.437500
398,-23.437500
399,-23.437500
400,-23.437500
401,-23.437500
402,-23.437500
403,-23.437500
404,-23.437500
405,-23.437500
406,-23.437500
407,-23.437500
408,-23.437500
409,-23.437500
410,-23.437500
411,-23.437500
412,-23.437500
413,-23.437500
414,-23.437500
415,-23.437500
416,-23.437500
417,-23.437500
418,-23.437500
419,-23.437500
420,-23.437500
421,-23.437500
422,-23.437500
423,-23.437500
424,-23.437500
425,-23.437500
426,-23.437500
427,-23.437500
428,-23.437500
429,-23.437500
430,-23.437500
431,-23.437500
432,-23.437500
433,-19.531250
434,-23.437500
435,-19.531250
436,-19.531250
437,-19.531250
438,-19.531250
439,-19.531250
440,-19.531250
441,-23.437500
442,-19.531250
443,-19.531250
444,-19.531250
445,-19.531250
446,-19.531250
447,-19.531250
448,-19.531250
449,-19.531250
450,-19.531250
451,-19.531250
452,-19.531250
453,-19.531250
454,-19.531250
455,-19.531250
456,-19.531250
457,-19.531250
458,-19.531250
459,-19.531250
460,-19.531250
461,-19.531250
462,-19.531250
463,-19.531250
464,-19.531250
465,-19.531250
466,-19.531250
467,-19.531250
468,-19.531250
469,-19.531250
470,-19.531250
471,-19.531250
472,-19.531250
473,-19.531250
474,-15.625000
475,-15.625000
476,-15.625000
477,-15.625000
478,-19.531250
479,-15.625000
480,-15.625000
481,-15.625000
482,-19.531250
483,-15.625000
484,-15.625000
485,-15.625000
486,-15.625000
487,-15.625000
488,-15.625000
489,-15.625000
490,-15.625000
491,-15.625000
492,-15.625000
493,-15.625000
494,-15.625000
495,-15.625000
496,-15.625000
497,-15.625000
498,-15.625000
499,-15.625000
500,-15.625000
501,-15.625000
502,-15.625000
503,-15.625000
504,-15.625000
505,-15.625000
506,-15.625000
507,-15.625000
508,-15.625000
509,-15.625000
510,-15.625000
511,-15.625000
512,-15.625000
513,-15.625000
514,-15.625000
515,-11.718750
516,-11.718750
517,-11.718750
518,-15.625000
519,-11.718750
520,-11.718750
521,-11.718750
522,-11.718750
523,-11.718750
524,-11.718750
525,-11.718750
526,-11.718750
527,-11.718750
528,-11.718750
529,-11.718750
530,-11.718750
531,-11.718750
532,-11.718750
533,-11.718750
534,-11.718750
535,-11.718750
536,-11.718750
537,-11.718750
538,-11.718750
539,-11.718750
540,-11.718750
541,-11.718750
542,-11.718750
543,-11.718750
544,-11.718750
545,-11.718750
546,-11.718750
547,-11.718750
548,-11.718750
549,-11.718750
550,-11.718750
551,-11.718750
552,-11.718750
553,-11.718750
554,-11.718750
555,-11.718750
556,-11.718750
557,-11.718750
558,-11.718750
559,-11.718750
560,-11.718750
561,-11.718750
562,-11.718750
563,-11.718750
564,-7.812500
565,-7.812500
566,-11.718750
567,-7.812500
568,-7.812500
569,-11.718750
570,-7.812500
571,-7.812500
572,-7.812500
573,-7.812500
574,-7.812500
575,-7.812500
576,-7.812500
577,-7.812500
578,-11.718750
579,-7.812500
580,-7.812500
581,-7.812500
582,-7.812500
583,-7.812500
584,-7.812500
585,-7.812500
586,-7.812500
587,-7.812500
588,-7.812500
589,-7.812500
590,-7.812500
591,-7.812500
592,-7.812500
593,-7.812500
594,-7.812500
595,-7.812500
596,-7.812500
597,-7.812500
598,-7.812500
599,-7.812500
600,-7.812500
601,-7.812500
602,-7.812500
603,-7.812500
604,-7.812500
605,-7.812500
606,-7.812500
607,-7.812500
608,-7.812500
609,-7.812500
610,-7.812500
611,-7.812500
612,-7.812500
613,-7.812500
614,-7.812500
615,-7.812500
616,-7.812500
617,-7.812500
618,-7.812500
619,-7.812500
620,-7.812500
621,-7.812500
622,-7.812500
623,-7.812500
624,-7.812500
625,-3.906250
626,-3.906250
627,-7.812500
628,-3.906250
629,-7.812500
630,-7.812500
631,-7.812500
632,-7.812500
633,-3.906250
634,-3.906250
635,-3.906250
636,-3.906250
637,-7.812500
638,-3.906250
639,-3.906250
640,-3.906250
641,-3.906250
642,-3.906250
643,-3.906250
644,-3.906250
645,-3.906250
646,-3.906250
647,-3.906250
648,-3.906250
649,-3.906250
650,-3.906250
651,-3.906250
652,-3.906250
653,-3.906250
654,-3.906250
655,-3.906250
656,-3.906250
657,-3.906250
658,-3.906250
659,-3.906250
660,-3.906250
661,-3.906250
662,-3.906250
663,-3.906250
664,-3.906250
665,-3.906250
666,-3.906250
667,-3.906250
668,-3.906250
669,-3.906250
670,-3.906250
671,-3.906250
672,-3.906250
673,-3.906250
674,-3.906250
675,-3.906250
676,-3.906250
677,-3.906250
678,-3.906250
679,-3.906250
680,-3.906250
681,-3.906250
682,-3.906250
683,-3.906250
684,-3.906250
685,-3.906250
686,-3.906250
687,-3.906250
688,-3.906250
689,-3.906250
690,-3.906250
691,-3.906250
692,-3.906250
693,-3.906250
694,-3.906250
695,-3.906250
696,-3.906250
697,-3.906250
698,-3.906250
699,-3.906250
700,-3.906250
701,-3.906250
702,-3.906250
703,-3.906250
704,-3.906250
705,-3.906250
706,-3.906250
707,-3.906250
708,-3.906250
709,-3.906250
710,-3.906250
711,-3.906250
712,-3.906250
713,-3.906250
714,-3.906250
715,-3.906250
716,-3.906250
717,-3.906250
718,-3.906250
719,-3.906250
720,-3.906250
721,-3.906250
722,-3.906250
723,-3.906250
724,-3.906250
725,-3.906250
726,-3.906250
727,-3.906250
728,-3.906250
729,-3.906250
730,-3.906250
731,-3.906250
732,-3.906250
733,-3.906250
734,-3.906250
735,-3.906250
736,-3.906250
737,-3.906250
738,-3.906250
739,-3.906250
740,-3.906250
741,-3.906250
742,-3.906250
743,-3.906250
744,-3.906250
745,-3.906250
746,-3.906250
747,-3.906250
748,-3.906250
749,-3.906250
750,-3.906250
751,-3.906250
752,-3.906250
753,-3.906250
754,-3.906250
755,-3.906250
756,-3.906250
757,-3.906250
758,-3.906250
759,-3.906250
760,-3.906250
761,-3.906250
762,-3.906250
763,-3.906250
764,-3.906250
765,-3.906250
766,-3.906250
767,-3.906250
768,-3.906250
769,-3.906250
770,-3.906250
771,-3.906250
772,-3.906250
773,-3.906250
774,-3.906250
775,-3.906250
776,-3.906250
777,-3.906250
778,-3.906250
779,-3.906250
780,-3.906250
781,-3.906250
782,-3.906250
783,-3.906250
784,-3.906250
785,-3.906250
786,-3.906250
787,-3.906250
788,-3.906250
789,-3.906250
790,-3.906250
791,-3.906250
792,-3.906250
793,-3.906250
794,-3.906250
795,-3.906250
796,-3.906250
797,-3.906250
798,-3.906250
799,-3.906250
800,-3.906250
801,-3.906250
802,-3.906250
803,-3.906250
804,-3.906250
805,-3.906250
806,-3.906250
807,-3.906250
808,-3.906250
809,-3.906250
810,-3.906250
811,-3.906250
812,-3.906250
813,-3.906250
814,-3.906250
815,-3.906250
816,-3.906250
817,-3.906250
818,-3.906250
819,-3.906250
820,-3.906250
821,-3.906250
822,-3.906250
823,-3.906250
824,-3.906250
825,-3.906250
826,-3.906250
827,-3.906250
828,-3.906250
829,-3.906250
830,-3.906250
831,-3.906250
832,-3.906250
833,-3.906250
834,-3.906250
835,-3.906250
836,-3.906250
837,-3.906250
838,-3.906250
839,-3.906250
840,-3.906250
841,-3.906250
842,-3.906250
843,-3.906250
844,-3.906250
845,-3.906250
846,-3.906250
847,-3.906250
848,-3.906250
849,-3.906250
850,-3.906250
851,-3.906250
852,-3.906250
853,-3.906250
854,-3.906250
855,-3.906250
856,-3.906250
857,-3.906250
858,-3.906250
859,-3.906250
860,-3.906250
861,-3.906250
862,-3.906250
863,-3.906250
864,-3.906250
865,-3.906250
866,-3.906250
867,-3.906250
868,-3.906250
869,-7.812500
870,-3.906250
871,-3.906250
872,-3.906250
873,-3.906250
874,-3.906250
875,-3.906250
876,-3.906250
877,-3.906250
878,-3.906250
879,-3.906250
880,-3.906250
881,-7.812500
882,-7.812500
883,-7.812500
884,-7.812500
885,-3.906250
886,-7.812500
887,-3.906250
888,-7.812500
889,-3.906250
890,-3.906250
891,-3.906250
892,-7.812500
893,-3.906250
894,-7.812500
895,-3.906250
896,-7.812500
897,-7.812500
898,-7.812500
899,-3.906250
900,-3.906250
901,-3.906250
902,-7.812500
903,-7.812500
904,-7.812500
905,-7.812500
906,-7.812500
907,-7.812500
908,-7.812500
909,-7.812500
910,-7.812500
911,-7.812500
912,-7.812500
913,-7.812500
914,-7.812500
915,-7.812500
916,-7.812500
917,-7.812500
918,-7.812500
919,-7.812500
920,-7.812500
921,-7.812500
922,-7.812500
923,-7.812500
924,-7.812500
925,-7.812500
926,-7.812500
927,-7.812500
928,-7.812500
929,-7.812500
930,-7.812500
931,-7.812500
932,-7.812500
933,-7.812500
934,-7.812500
935,-7.812500
936,-7.812500
937,-7.812500
938,-7.812500
939,-7.812500
940,-7.812500
941,-7.812500
942,-7.812500
943,-7.812500
944,-7.812500
945,-7.812500
946,-7.812500
947,-7.812500
948,-7.812500
949,-7.812500
950,-7.812500
951,-7.812500
952,-7.812500
953,-7.812500
954,-7.812500
955,-7.812500
956,-7.812500
957,-7.812500
958,-7.812500
959,-7.812500
960,-7.812500
961,-7.812500
962,-7.812500
963,-7.812500
964,-11.718750
965,-11.718750
966,-7.812500
967,-7.812500
968,-11.718750
969,-11.718750
970,-7.812500
971,-11.718750
972,-11.718750
973,-11.718750
974,-11.718750
975,-7.812500
976,-11.718750
977,-11.718750
978,-11.718750
979,-11.718750
980,-11.718750
981,-11.718750
982,-11.718750
983,-11.718750
984,-11.718750
985,-11.718750
986,-11.718750
987,-11.718750
988,-11.718750
989,-11.718750
990,-11.718750
991,-11.718750
992,-11.718750
993,-11.718750
994,-11.718750
995,-11.718750
996,-11.718750
997,-11.718750
998,-11.718750
999,-11.718750
1000,-11.718750
1001,-11.718750
1002,-11.718750
1003,-11.718750
1004,-11.718750
1005,-11.718750
1006,-11.718750
1007,-11.718750
1008,-11.718750
1009,-11.718750
1010,-11.718750
1011,-11.718750
1012,-11.718750
1013,-11.718750
1014,-11.718750
1015,-11.718750
1016,-11.718750
1017,-11.718750
1018,-11.718750
1019,-11.718750
1020,-11.718750
1021,-11.718750
1022,-11.718750
1023,-15.625000
1024,-11.718750
1025,-11.718750
1026,-11.718750
1027,-11.718750
1028,-11.718750
1029,-11.718750
1030,-11.718750
1031,-15.625000
1032,-15.625000
1033,-15.625000
1034,-11.718750
1035,-15.625000
1036,-15.625000
1037,-15.625000
1038,-15.625000
1039,-15.625000
1040,-15.625000
1041,-15.625000
1042,-15.625000
1043,-15.625000
1044,-15.625000
1045,-15.625000
1046,-15.625000
1047,-15.625000
1048,-15.625000
1049,-15.625000
1050,-15.625000
1051,-15.625000
1052,-15.625000
1053,-15.625000
1054,-15.625000
1055,-15.625000
1056,-15.625000
1057,-15.625000
1058,-15.625000
1059,-15.625000
1060,-15.625000
1061,-15.625000
1062,-15.625000
1063,-15.625000
1064,-15.625000
1065,-15.625000
1066,-15.625000
1067,-15.625000
1068,-15.625000
1069,-15.625000
1070,-15.625000
1071,-15.625000
1072,-15.625000
1073,-15.625000
1074,-19.531250
1075,-19.531250
1076,-15.625000
1077,-19.531250
1078,-19.531250
1079,-19.531250
1080,-19.531250
1081,-15.625000
1082,-19.531250
1083,-15.625000
1084,-19.531250
1085,-19.531250
1086,-19.531250
1087,-19.531250
1088,-19.531250
1089,-19.531250
1090,-19.531250
1091,-19.531250
1092,-19.531250
1093,-19.531250
1094,-19.531250
1095,-19.531250
1096,-19.531250
1097,-19.531250
1098,-19.531250
1099,-19.531250
1100,-19.531250
1101,-19.531250
1102,-19.531250
1103,-19.531250
1104,-19.531250
1105,-19.531250
1106,-19.531250
1107,-19.531250
1108,-19.531250
1109,-19.531250
1110,-19.531250
1111,-19.531250
1112,-19.531250
1113,-19.531250
1114,-19.531250
1115,-23.437500
1116,-19.531250
1117,-19.531250
1118,-19.531250
1119,-19.531250
1120,-19.531250
1121,-19.531250
1122,-19.531250
1123,-19.531250
1124,-19.531250
1125,-23.437500
1126,-19.531250
1127,-23.437500
1128,-23.437500
1129,-23.437500
1130,-23.437500
1131,-19.531250
1132,-19.531250
1133,-23.437500
1134,-23.437500
1135,-23.437500
1136,-23.437500
1137,-23.437500
1138,-23.437500
1139,-23.437500
1140,-23.437500
1141,-23.437500
1142,-23.437500
1143,-23.437500
1144,-23.437500
1145,-23.437500
1146,-23.437500
1147,-23.437500
1148,-23.437500
1149,-23.437500
1150,-23.437500
1151,-23.437500
1152,-23.437500
1153,-23.437500
1154,-23.437500
1155,-23.437500
1156,-23.437500
1157,-23.437500
1158,-23.437500
1159,-23.437500
1160,-23.437500
1161,-23.437500
1162,-23.437500
1163,-23.437500
1164,-23.437500
1165,-23.437500
1166,-23.437500
1167,-23.437500
1168,-23.437500
1169,-23.437500
1170,-23.437500
1171,-23.437500
1172,-23.437500
1173,-23.437500
1174,-23.437500
1175,-23.437500
1176,-23.437500
1177,-23.437500
1178,-23.437500
1179,-23.437500
1180,-27.343750
1181,-27.343750
1182,-23.437500
1183,-23.437500
1184,-23.437500
1185,-23.437500
1186,-23.437500
1187,-23.437500
1188,-27.343750
1189,-23.437500
1190,-23.437500
1191,-23.437500
1192,-27.343750
1193,-27.343750
1194,-27.343750
1195,-27.343750
1196,-27.343750
1197,-27.343750
1198,-27.343750
1199,-27.343750
1200,-27.343750
1201,-23.437500
1202,-23.437500
1203,-27.343750
1204,-27.343750
1205,-27.343750
1206,-27.343750
1207,-27.343750
1208,-27.343750
1209,-27.343750
1210,-27.343750
1211,-27.343750
1212,-27.343750
1213,-27.343750
1214,-27.343750
1215,-27.343750
1216,-27.343750
1217,-27.343750
1218,-27.343750
1219,-27.343750
1220,-27.343750
1221,-27.343750
1222,-27.343750
1223,-27.343750
1224,-27.343750
1225,-27.343750
1226,-27.343750
1227,-27.343750
1228,-27.343750
1229,-27.343750
1230,-27.343750
1231,-27.343750
1232,-27.343750
1233,-27.343750
1234,-27.343750
1235,-27.343750
1236,-27.343750
1237,-27.343750
1238,-27.343750
1239,-27.343750
1240,-27.343750
1241,-27.343750
1242,-27.343750
1243,-27.343750
1244,-27.343750
1245,-27.343750
1246,-27.343750
1247,-27.343750
1248,-27.343750
1249,-27.343750
1250,-27.343750
1251,-27.343750
1252,-27.343750
1253,-27.343750
1254,-27.343750
1255,-27.343750
1256,-27.343750
1257,-27.343750
1258,-27.343750
1259,-27.343750
1260,-27.343750
1261,-27.343750
1262,-27.343750
1263,-27.343750
1264,-27.343750
1265,-27.343750
1266,-27.343750
1267,-27.343750
1268,-27.343750
1269,-27.343750
1270,-27.343750
1271,-27.343750
1272,-31.250000
1273,-27.343750
1274,-27.343750
1275,-31.250000
1276,-27.343750
1277,-27.343750
1278,-27.343750
1279,-27.343750
1280,-27.343750
1281,-27.343750
1282,-27.343750
1283,-27.343750
1284,-27.343750
1285,-27.343750
1286,-27.343750
1287,-27.343750
1288,-27.343750
1289,-27.343750
1290,-27.343750
1291,-27.343750
1292,-27.343750
1293,-27.343750
1294,-27.343750
1295,-27.343750
1296,-27.343750
1297,-27.343750
1298,-27.343750
1299,-27.343750
1300,-27.343750
1301,-27.343750
1302,-27.343750
1303,-27.343750
1304,-27.343750
1305,-27.343750
1306,-27.343750
1307,-27.343750
1308,-27.343750
1309,-27.343750
1310,-27.343750
1311,-27.343750
1312,-27.343750
1313,-27.343750
1314,-27.343750
1315,-27.343750
1316,-27.343750
1317,-27.343750
1318,-27.343750
1319,-27.343750
1320,-27.343750
1321,-27.343750
1322,-27.343750
1323,-27.343750
1324,-27.343750
1325,-27.343750
1326,-27.343750
1327,-27.343750
1328,-27.343750
1329,-27.343750
1330,-27.343750
1331,-27.343750
1332,-27.343750
1333,-27.343750
1334,-27.343750
1335,-27.343750
1336,-27.343750
1337,-27.343750
1338,-27.343750
1339,-27.343750
1340,-27.343750
1341,-27.343750
1342,-27.343750
1343,-27.343750
1344,-27.343750
1345,-27.343750
1346,-27.343750
1347,-27.343750
1348,-27.343750
1349,-27.343750
1350,-27.343750
1351,-27.343750
1352,-27.343750
1353,-27.343750
1354,-27.343750
1355,-27.343750
1356,-27.343750
1357,-27.343750
1358,-27.343750
1359,-27.343750
1360,-27.343750
1361,-27.343750
1362,-27.343750
1363,-27.343750
1364,-27.343750
1365,-27.343750
1366,-23.437500
1367,-27.343750
1368,-27.343750
1369,-27.343750
1370,-27.343750
1371,-27.343750
1372,-27.343750
1373,-27.343750
1374,-27.343750
1375,-27.343750
1376,-27.343750
1377,-23.437500
1378,-23.437500
1379,-23.437500
1380,-23.437500
1381,-27.343750
1382,-27.343750
1383,-23.437500
1384,-23.437500
1385,-23.437500
1386,-23.437500
1387,-23.437500
1388,-23.437500
1389,-23.437500
1390,-23.437500
1391,-23.437500
1392,-23.437500
1393,-23.437500
1394,-23.437500
1395,-23.437500
1396,-23.437500
1397,-23.437500
1398,-23.437500
1399,-23.437500
1400,-23.437500
1401,-23.437500
1402,-23.437500
1403,-23.437500
1404,-23.437500
1405,-23.437500
1406,-23.437500
1407,-23.437500
1408,-23.437500
1409,-23.437500
1410,-23.437500
1411,-23.437500
1412,-23.437500
1413,-23.437500
1414,-23.437500
1415,-23.437500
1416,-23.437500
1417,-23.437500
1418,-23.437500
1419,-23.437500
1420,-23.437500
1421,-23.437500
1422,-23.437500
1423,-23.437500
1424,-23.437500
1425,-19.531250
1426,-19.531250
1427,-19.531250
1428,-19.531250
1429,-19.531250
1430,-19.531250
1431,-19.531250
1432,-19.531250
1433,-19.531250
1434,-19.531250
1435,-19.531250
1436,-19.531250
1437,-19.531250
1438,-19.531250
1439,-19.531250
1440,-19.531250
1441,-19.531250
1442,-19.531250
1443,-19.531250
1444,-19.531250
1445,-19.531250
1446,-19.531250
1447,-19.531250
1448,-19.531250
1449,-19.531250
1450,-19.531250
1451,-19.531250
1452,-19.531250
1453,-19.531250
1454,-19.531250
1455,-19.531250
1456,-19.531250
1457,-19.531250
1458,-19.531250
1459,-19.531250
1460,-19.531250
1461,-15.625000
1462,-19.531250
1463,-19.531250
1464,-19.531250
1465,-19.531250
1466,-19.531250
1467,-15.625000
1468,-19.531250
1469,-15.625000
1470,-15.625000
1471,-15.625000
1472,-19.531250
1473,-15.625000
1474,-15.625000
1475,-15.625000
1476,-15.625000
1477,-15.625000
1478,-15.625000
1479,-15.625000
1480,-15.625000
1481,-15.625000
1482,-15.625000
1483,-15.625000
1484,-15.625000
1485,-15.625000
1486,-15.625000
1487,-15.625000
1488,-15.625000
1489,-15.625000
1490,-15.625000
1491,-15.625000
1492,-15.625000
1493,-15.625000
1494,-15.625000
1495,-15.625000
1496,-15.625000
1497,-15.625000
1498,-15.625000
1499,-15.625000
1500,-15.625000
1501,-15.625000
1502,-15.625000
1503,-15.625000
1504,-15.625000
1505,-15.625000
1506,-11.718750
1507,-11.718750
1508,-15.625000
1509,-15.625000
1510,-11.718750
1511,-11.718750
1512,-11.718750
1513,-11.718750
1514,-15.625000
1515,-11.718750
1516,-11.718750
1517,-11.718750
1518,-11.718750
1519,-11.718750
1520,-11.718750
1521,-11.718750
1522,-11.718750
1523,-11.718750
1524,-11.718750
1525,-11.718750
1526,-11.718750
1527,-11.718750
1528,-11.718750
1529,-11.718750
1530,-11.718750
1531,-11.718750
1532,-11.718750
1533,-11.718750
1534,-11.718750
1535,-11.718750
1536,-11.718750
1537,-11.718750
1538,-11.718750
1539,-11.718750
1540,-11.718750
1541,-11.718750
1542,-11.718750
1543,-11.718750
1544,-11.718750
1545,-11.718750
1546,-11.718750
1547,-11.718750
1548,-7.812500
1549,-7.812500
1550,-7.812500
1551,-7.812500
1552,-7.812500
1553,-7.812500
1554,-7.812500
1555,-7.812500
1556,-7.812500
1557,-7.812500
1558,-7.812500
1559,-7.812500
1560,-7.812500
1561,-7.812500
1562,-7.812500
1563,-7.812500
1564,-7.812500
1565,-7.812500
1566,-7.812500
1567,-7.812500
1568,-7.812500
1569,-7.812500
1570,-7.812500
1571,-7.812500
1572,-7.812500
1573,-7.812500
1574,-3.906250
1575,-7.812500
1576,-7.812500
1577,-7.812500
1578,-7.812500
1579,-7.812500
1580,-7.812500
1581,-7.812500
1582,-7.812500
1583,-7.812500
1584,-7.812500
1585,-7.812500
1586,-7.812500
1587,-7.812500
1588,-7.812500
1589,-7.812500
1590,-7.812500
1591,-7.812500
1592,-7.812500
1593,-7.812500
1594,-7.812500
1595,-7.812500
1596,-7.812500
1597,-7.812500
1598,-7.812500
1599,-7.812500
1600,-7.812500
1601,-7.812500
1602,-7.812500
1603,-3.906250
1604,-7.812500
1605,-3.906250
1606,-7.812500
1607,-3.906250
1608,-7.812500
1609,-3.906250
1610,-3.906250
1611,-3.906250
1612,-3.906250
1613,-3.906250
1614,-7.812500
1615,-7.812500
1616,-7.812500
1617,-3.906250
1618,-3.906250
1619,-3.906250
1620,-3.906250
1621,-3.906250
1622,-3.906250
1623,-3.906250
1624,-3.906250
1625,-3.906250
1626,-3.906250
1627,-3.906250
1628,-3.906250
1629,-3.906250
1630,-3.906250
1631,-3.906250
1632,-3.906250
1633,-3.906250
1634,-3.906250
1635,-3.906250
1636,-3.906250
1637,-3.906250
1638,-3.906250
1639,-3.906250
1640,-3.906250
1641,-3.906250
1642,-3.906250
1643,-3.906250
1644,-3.906250
1645,-3.906250
1646,-3.906250
1647,-3.906250
1648,-3.906250
1649,-3.906250
1650,-3.906250
1651,-3.906250
1652,-3.906250
1653,-3.906250
1654,-3.906250
1655,-3.906250
1656,-3.906250
1657,-3.906250
1658,-3.906250
1659,-3.906250
1660,-3.906250
1661,-3.906250
1662,-3.906250
1663,-3.906250
1664,-3.906250
1665,-3.906250
1666,-3.906250
1667,-3.906250
1668,-3.906250
1669,-3.906250
1670,-3.906250
1671,-3.906250
1672,-3.906250
1673,-3.906250
1674,-3.906250
1675,-3.906250
1676,-3.906250
1677,-3.906250
1678,-3.906250
1679,-3.906250
1680,-3.906250
1681,-3.906250
1682,-3.906250
1683,-3.906250
1684,-3.906250
1685,-3.906250
1686,-3.906250
1687,-3.906250
1688,-3.906250
1689,-3.906250
1690,-3.906250
1691,-3.906250
1692,-3.906250
1693,-3.906250
1694,-3.906250
1695,0.000000
1696,0.000000
1697,-3.906250
1698,-3.906250
1699,-3.906250
1700,-3.906250
1701,-3.906250
1702,-3.906250
1703,-3.906250
1704,-3.906250
1705,0.000000
1706,-3.906250
1707,0.000000
1708,-3.906250
1709,-3.906250
1710,-3.906250
1711,-3.906250
1712,-3.906250
1713,-3.906250
1714,0.000000
1715,0.000000
1716,-3.906250
1717,0.000000
1718,-3.906250
1719,-3.906250
1720,-3.906250
1721,-3.906250
1722,-3.906250
1723,-3.906250
1724,-3.906250
1725,-3.906250
1726,-3.906250
1727,-3.906250
1728,-3.906250
1729,0.000000
1730,-3.906250
1731,-3.906250
1732,-3.906250
1733,-3.906250
1734,-3.906250
1735,-3.906250
1736,-3.906250
1737,-3.906250
1738,-3.906250
1739,-3.906250
1740,-3.906250
1741,-3.906250
1742,-3.906250
1743,-3.906250
1744,-3.906250
1745,-3.906250
1746,-3.906250
1747,-3.906250
1748,-3.906250
1749,-3.906250
1750,-3.906250
1751,-3.906250
1752,-3.906250
1753,-3.906250
1754,-3.906250
1755,-3.906250
1756,-3.906250
1757,-3.906250
1758,-3.906250
1759,-3.906250
1760,-3.906250
1761,-3.906250
1762,-3.906250
1763,-3.906250
1764,-3.906250
1765,-3.906250
1766,-3.906250
1767,-3.906250
1768,-3.906250
1769,-3.906250
1770,-3.906250
1771,-3.906250
1772,-3.906250
1773,-3.906250
1774,-3.906250
1775,-3.906250
1776,-3.906250
1777,-3.906250
1778,-3.906250
1779,-3.906250
1780,-3.906250
1781,-3.906250
1782,-3.906250
1783,-3.906250
1784,-3.906250
1785,-3.906250
1786,-3.906250
1787,-3.906250
1788,-3.906250
1789,-3.906250
1790,-3.906250
1791,-3.906250
1792,-3.906250
1793,-3.906250
1794,-3.906250
1795,-3.906250
1796,-3.906250
1797,-3.906250
1798,-3.906250
1799,-3.906250
1800,-3.906250
1801,-3.906250
1802,-3.906250
1803,-3.906250
1804,-3.906250
1805,-3.906250
1806,-3.906250
1807,-3.906250
1808,-3.906250
1809,-3.906250
1810,-3.906250
1811,-3.906250
1812,-3.906250
1813,-3.906250
1814,-3.906250
1815,-3.906250
1816,-3.906250
1817,-3.906250
1818,-3.906250
1819,-3.906250
1820,-3.906250
1821,-3.906250
1822,-3.906250
1823,-3.906250
1824,-3.906250
1825,-3.906250
1826,-3.906250
1827,-3.906250
1828,-3.906250
1829,-3.906250
1830,-3.906250
1831,-3.906250
1832,-3.906250
1833,-3.906250
1834,-3.906250
1835,-3.906250
1836,-3.906250
1837,-3.906250
1838,-3.906250
1839,-3.906250
1840,-3.906250
1841,-3.906250
1842,-3.906250
1843,-3.906250
1844,-3.906250
1845,-3.906250
1846,-3.906250
1847,-3.906250
1848,-3.906250
1849,-3.906250
1850,-3.906250
1851,-3.906250
1852,-3.906250
1853,-3.906250
1854,-3.906250
1855,-3.906250
1856,-3.906250
1857,-3.906250
1858,-7.812500
1859,-3.906250
1860,-3.906250
1861,-3.906250
1862,-3.906250
1863,-3.906250
1864,-3.906250
1865,-3.906250
1866,-3.906250
1867,-3.906250
1868,-3.906250
1869,-3.906250
1870,-3.906250
1871,-3.906250
1872,-7.812500
1873,-7.812500
1874,-3.906250
1875,-7.812500
1876,-7.812500
1877,-3.906250
1878,-3.906250
1879,-3.906250
1880,-3.906250
1881,-3.906250
1882,-3.906250
1883,-3.906250
1884,-7.812500
1885,-7.812500
1886,-7.812500
1887,-7.812500
1888,-7.812500
1889,-7.812500
1890,-7.812500
1891,-7.812500
1892,-7.812500
1893,-7.812500
1894,-7.812500
1895,-7.812500
1896,-7.812500
1897,-7.812500
1898,-7.812500
1899,-7.812500
1900,-7.812500
1901,-7.812500
1902,-7.812500
1903,-7.812500
1904,-7.812500
1905,-7.812500
1906,-7.812500
1907,-7.812500
1908,-7.812500
1909,-7.812500
1910,-7.812500
1911,-7.812500
1912,-7.812500
1913,-7.812500
1914,-7.812500
1915,-7.812500
1916,-7.812500
1917,-7.812500
1918,-7.812500
1919,-7.812500
1920,-7.812500
1921,-7.812500
1922,-7.812500
1923,-7.812500
1924,-7.812500
1925,-7.812500
1926,-7.812500
1927,-7.812500
1928,-7.812500
1929,-7.812500
1930,-7.812500
1931,-7.812500
1932,-7.812500
1933,-7.812500
1934,-7.812500
1935,-7.812500
1936,-7.812500
1937,-7.812500
1938,-7.812500
1939,-7.812500
1940,-7.812500
1941,-7.812500
1942,-7.812500
1943,-7.812500
1944,-7.812500
1945,-7.812500
1946,-7.812500
1947,-7.812500
1948,-7.812500
1949,-7.812500
1950,-7.812500
1951,-11.718750
1952,-7.812500
1953,-7.812500
1954,-7.812500
1955,-7.812500
1956,-11.718750
1957,-7.812500
1958,-7.812500
1959,-7.812500
1960,-7.812500
1961,-11.718750
1962,-11.718750
1963,-11.718750
1964,-7.812500
1965,-11.718750
1966,-11.718750
1967,-11.718750
1968,-11.718750
1969,-11.718750
1970,-11.718750
1971,-11.718750
1972,-11.718750
1973,-11.718750
1974,-11.718750
1975,-11.718750
1976,-11.718750
1977,-11.718750
1978,-11.718750
1979,-11.718750
1980,-11.718750
1981,-11.718750
1982,-11.718750
1983,-11.718750
1984,-11.718750
1985,-11.718750
1986,-11.718750
1987,-11.718750
1988,-11.718750
1989,-11.718750
1990,-11.718750
1991,-11.718750
1992,-11.718750
1993,-11.718750
1994,-11.718750
1995,-11.718750
1996,-11.718750
1997,-11.718750
1998,-11.718750
1999,-11.718750
2000,-11.718750
2001,-11.718750
2002,-11.718750
2003,-11.718750
2004,-11.718750
2005,-11.718750
2006,-15.625000
2007,-11.718750
2008,-11.718750
2009,-11.718750
2010,-15.625000
2011,-15.625000
2012,-15.625000
2013,-11.718750
2014,-11.718750
2015,-15.625000
2016,-15.625000
2017,-15.625000
2018,-15.625000
2019,-15.625000
2020,-15.625000
2021,-15.625000
2022,-15.625000
2023,-15.625000
2024,-15.625000
2025,-15.625000
2026,-15.625000
2027,-15.625000
2028,-15.625000
2029,-15.625000
2030,-15.625000
2031,-15.625000
2032,-15.625000
2033,-15.625000
2034,-15.625000
2035,-15.625000
2036,-15.625000
2037,-15.625000
2038,-15.625000
2039,-15.625000
2040,-15.625000
2041,-15.625000
2042,-15.625000
2043,-15.625000
2044,-15.625000
2045,-15.625000
2046,-15.625000
2047,-15.625000
2048,-15.625000
2049,-15.625000
2050,-15.625000
2051,-15.625000
2052,-15.625000
2053,-15.625000
2054,-15.625000
2055,-15.625000
2056,-15.625000
2057,-15.625000
2058,-15.625000
2059,-15.625000
2060,-19.531250
2061,-15.625000
2062,-15.625000
2063,-19.531250
2064,-15.625000
2065,-15.625000
2066,-19.531250
2067,-15.625000
2068,-15.625000
2069,-19.531250
2070,-19.531250
2071,-19.531250
2072,-19.531250
2073,-15.625000
2074,-19.531250
2075,-19.531250
2076,-19.531250
2077,-19.531250
2078,-19.531250
2079,-19.531250
2080,-19.531250
2081,-19.531250
2082,-19.531250
2083,-19.531250
2084,-19.531250
2085,-19.531250
2086,-19.531250
2087,-19.531250
2088,-19.531250
2089,-19.531250
2090,-19.531250
2091,-19.531250
2092,-19.531250
2093,-19.531250
2094,-19.531250
2095,-19.531250
2096,-19.531250
2097,-19.531250
2098,-19.531250
2099,-19.531250
2100,-19.531250
2101,-19.531250
2102,-19.531250
2103,-19.531250
2104,-19.531250
2105,-19.531250
2106,-19.531250
2107,-19.531250
2108,-19.531250
2109,-23.437500
2110,-19.531250
2111,-19.531250
2112,-19.531250
2113,-19.531250
2114,-19.531250
2115,-19.531250
2116,-23.437500
2117,-23.437500
2118,-23.437500
2119,-23.437500
2120,-23.437500
2121,-23.437500
2122,-23.437500
2123,-23.437500
2124,-23.437500
2125,-23.437500
2126,-23.437500
2127,-23.437500
2128,-23.437500
2129,-23.437500
2130,-23.437500
2131,-23.437500
2132,-23.437500
2133,-23.437500
2134,-23.437500
2135,-23.437500
2136,-23.437500
2137,-23.437500
2138,-23.437500
2139,-23.437500
2140,-23.437500
2141,-23.437500
2142,-23.437500
2143,-23.437500
2144,-23.437500
2145,-23.437500
2146,-23.437500
2147,-23.437500
2148,-23.437500
2149,-23.437500
2150,-23.437500
2151,-23.437500
2152,-23.437500
2153,-23.437500
2154,-23.437500
2155,-23.437500
2156,-23.437500
2157,-23.437500
2158,-23.437500
2159,-23.437500
2160,-23.437500
2161,-23.437500
2162,-23.437500
2163,-23.437500
2164,-23.437500
2165,-23.437500
2166,-23.437500
2167,-27.343750
2168,-27.343750
2169,-23.437500
2170,-23.437500
2171,-23.437500
2172,-23.437500
2173,-23.437500
2174,-27.343750
2175,-27.343750
2176,-23.437500
2177,-23.437500
2178,-27.343750
2179,-27.343750
2180,-27.343750
2181,-27.343750
2182,-23.437500
2183,-23.437500
2184,-27.343750
2185,-27.343750
2186,-27.343750
2187,-27.343750
2188,-27.343750
2189,-27.343750
2190,-27.343750
2191,-27.343750
2192,-27.343750
2193,-27.343750
2194,-27.343750
2195,-27.343750
2196,-27.343750
2197,-27.343750
2198,-27.343750
2199,-27.343750
2200,-27.343750
2201,-27.343750
2202,-27.343750
2203,-27.343750
2204,-27.343750
2205,-27.343750
2206,-27.343750
2207,-27.343750
2208,-27.343750
2209,-27.343750
2210,-27.343750
2211,-27.343750
2212,-27.343750
2213,-27.343750
2214,-27.343750
2215,-27.343750
2216,-27.343750
2217,-27.343750
2218,-27.343750
2219,-27.343750
2220,-27.343750
2221,-27.343750
2222,-27.343750
2223,-27.343750
2224,-27.343750
2225,-27.343750
2226,-27.343750
2227,-27.343750
2228,-27.343750
2229,-27.343750
2230,-27.343750
2231,-27.343750
2232,-27.343750
2233,-27.343750
2234,-27.343750
2235,-27.343750
2236,-27.343750
2237,-27.343750
2238,-27.343750
2239,-27.343750
2240,-27.343750
2241,-27.343750
2242,-27.343750
2243,-27.343750
2244,-27.343750
2245,-27.343750
2246,-27.343750
2247,-27.343750
2248,-27.343750
2249,-27.343750
2250,-27.343750
2251,-27.343750
2252,-27.343750
2253,-27.343750
2254,-27.343750
2255,-27.343750
2256,-27.343750
2257,-27.343750
2258,-27.343750
2259,-27.343750
2260,-27.343750
2261,-27.343750
2262,-27.343750
2263,-27.343750
2264,-27.343750
2265,-27.343750
2266,-27.343750
2267,-27.343750
2268,-27.343750
2269,-27.343750
2270,-27.343750
2271,-27.343750
2272,-27.343750
2273,-27.343750
2274,-27.343750
2275,-27.343750
2276,-27.343750
2277,-27.343750
2278,-27.343750
2279,-27.343750
2280,-27.343750
2281,-27.343750
2282,-27.343750
2283,-27.343750
2284,-27.343750
2285,-27.343750
2286,-27.343750
2287,-27.343750
2288,-27.343750
2289,-27.343750
2290,-27.343750
2291,-27.343750
2292,-27.343750
2293,-27.343750
2294,-27.343750
2295,-27.343750
2296,-27.343750
2297,-27.343750
2298,-27.343750
2299,-27.343750
2300,-27.343750
2301,-27.343750
2302,-27.343750
2303,-27.343750
2304,-27.343750
2305,-27.343750
2306,-27.343750
2307,-27.343750
2308,-27.343750
2309,-27.343750
2310,-27.343750
2311,-27.343750
2312,-27.343750
2313,-27.343750
2314,-27.343750
2315,-27.343750
2316,-27.343750
2317,-27.343750
2318,-27.343750
2319,-27.343750
2320,-27.343750
2321,-27.343750
2322,-27.343750
2323,-27.343750
2324,-27.343750
2325,-27.343750
2326,-27.343750
2327,-27.343750
2328,-27.343750
2329,-27.343750
2330,-27.343750
2331,-27.343750
2332,-27.343750
2333,-27.343750
2334,-27.343750
2335,-27.343750
2336,-27.343750
2337,-27.343750
2338,-27.343750
2339,-23.437500
2340,-23.437500
2341,-27.343750
2342,-27.343750
2343,-27.343750
2344,-27.343750
2345,-27.343750
2346,-27.343750
2347,-27.343750
2348,-27.343750
2349,-27.343750
2350,-27.343750
2351,-23.437500
2352,-23.437500
2353,-23.437500
2354,-23.437500
2355,-27.343750
2356,-23.437500
2357,-23.437500
2358,-23.437500
2359,-23.437500
2360,-23.437500
2361,-23.437500
2362,-23.437500
2363,-23.437500
2364,-23.437500
2365,-27.343750
2366,-23.437500
2367,-23.437500
2368,-23.437500
2369,-23.437500
2370,-23.437500
2371,-23.437500
2372,-23.437500
2373,-23.437500
2374,-23.437500
2375,-23.437500
2376,-23.437500
2377,-23.437500
2378,-23.437500
2379,-23.437500
2380,-23.437500
2381,-23.437500
2382,-23.437500
2383,-23.437500
2384,-23.437500
2385,-23.437500
2386,-23.437500
2387,-23.437500
2388,-23.437500
2389,-23.437500
2390,-23.437500
2391,-23.437500
2392,-23.437500
2393,-23.437500
2394,-23.437500
2395,-23.437500
2396,-23.437500
2397,-23.437500
2398,-23.437500
2399,-23.437500
2400,-23.437500
2401,-23.437500
2402,-23.437500
2403,-23.437500
2404,-23.437500
2405,-23.437500
2406,-23.437500
2407,-23.437500
2408,-23.437500
2409,-23.437500
2410,-23.437500
2411,-23.437500
2412,-23.437500
2413,-19.531250
2414,-19.531250
2415,-23.437500
2416,-23.437500
2417,-23.437500
2418,-19.531250
2419,-19.531250
2420,-19.531250
2421,-19.531250
2422,-19.531250
2423,-19.531250
2424,-19.531250
2425,-19.531250
2426,-19.531250
2427,-19.531250
2428,-19.531250
2429,-19.531250
2430,-19.531250
2431,-19.531250
2432,-19.531250
2433,-19.531250
2434,-19.531250
2435,-19.531250
2436,-19.531250
2437,-19.531250
2438,-19.531250
2439,-19.531250
2440,-19.531250
2441,-19.531250
2442,-19.531250
2443,-19.531250
2444,-19.531250
2445,-19.531250
2446,-19.531250
2447,-19.531250
2448,-19.531250
2449,-19.531250
2450,-19.531250
2451,-19.531250
2452,-15.625000
2453,-15.625000
2454,-15.625000
2455,-19.531250
2456,-19.531250
2457,-15.625000
2458,-19.531250
2459,-15.625000
2460,-15.625000
2461,-15.625000
2462,-15.625000
2463,-15.625000
2464,-15.625000
2465,-15.625000
2466,-15.625000
2467,-15.625000
2468,-15.625000
2469,-15.625000
2470,-15.625000
2471,-15.625000
2472,-15.625000
2473,-15.625000
2474,-15.625000
2475,-15.625000
2476,-15.625000
2477,-15.625000
2478,-15.625000
2479,-15.625000
2480,-15.625000
2481,-15.625000
2482,-15.625000
2483,-15.625000
2484,-15.625000
2485,-15.625000
2486,-15.625000
2487,-15.625000
2488,-15.625000
2489,-15.625000
2490,-15.625000
2491,-15.625000
2492,-15.625000
2493,-11.718750
2494,-15.625000
2495,-15.625000
2496,-11.718750
2497,-11.718750
2498,-11.718750
2499,-11.718750
2500,-15.625000
2501,-11.718750
2502,-15.625000
2503,-11.718750
2504,-11.718750
2505,-11.718750
2506,-11.718750
2507,-11.718750
2508,-11.718750
2509,-11.718750
2510,-11.718750
2511,-11.718750
2512,-11.718750
2513,-11.718750
2514,-11.718750
2515,-11.718750
2516,-11.718750
2517,-11.718750
2518,-11.718750
2519,-11.718750
2520,-11.718750
2521,-11.718750
2522,-11.718750
2523,-11.718750
2524,-11.718750
2525,-11.718750
2526,-11.718750
2527,-11.718750
2528,-11.718750
2529,-11.718750
2530,-11.718750
2531,-11.718750
2532,-11.718750
2533,-11.718750
2534,-11.718750
2535,-11.718750
2536,-11.718750
2537,-11.718750
2538,-11.718750
2539,-7.812500
2540,-11.718750
2541,-7.812500
2542,-11.718750
2543,-11.718750
2544,-7.812500
2545,-11.718750
2546,-11.718750
2547,-7.812500
2548,-11.718750
2549,-7.812500
2550,-7.812500
2551,-7.812500
2552,-7.812500
2553,-7.812500
2554,-7.812500
2555,-7.812500
2556,-7.812500
2557,-7.812500
2558,-7.812500
2559,-7.812500
2560,-7.812500
2561,-7.812500
2562,-7.812500
2563,-7.812500
2564,-7.812500
2565,-7.812500
2566,-7.812500
2567,-7.812500
2568,-7.812500
2569,-7.812500
2570,-7.812500
2571,-7.812500
2572,-7.812500
2573,-7.812500
2574,-7.812500
2575,-7.812500
2576,-7.812500
2577,-7.812500
2578,-7.812500
2579,-7.812500
2580,-7.812500
2581,-7.812500
2582,-7.812500
2583,-7.812500
2584,-7.812500
2585,-7.812500
2586,-7.812500
2587,-3.906250
2588,-7.812500
2589,-7.812500
2590,-7.812500
2591,-7.812500
2592,-3.906250
2593,-3.906250
2594,-3.906250
2595,-7.812500
2596,-7.812500
2597,-7.812500
2598,-3.906250
2599,-3.906250
2600,-7.812500
2601,-3.906250
2602,-3.906250
2603,-3.906250
2604,-3.906250
2605,-3.906250
2606,-7.812500
2607,-3.906250
2608,-3.906250
2609,-3.906250
2610,-3.906250
2611,-3.906250
2612,-3.906250
2613,-3.906250
2614,-3.906250
2615,-3.906250
2616,-3.906250
2617,-3.906250
2618,-3.906250
2619,-3.906250
2620,-3.906250
2621,-3.906250
2622,-3.906250
2623,-3.906250
2624,-3.906250
2625,-3.906250
2626,-3.906250
2627,-3.906250
2628,-3.906250
2629,-3.906250
2630,-3.906250
2631,-3.906250
2632,-3.906250
2633,-3.906250
2634,-3.906250
2635,-3.906250
2636,-3.906250
2637,-3.906250
2638,-3.906250
2639,-3.906250
2640,-3.906250
2641,-3.906250
2642,-3.906250
2643,-3.906250
2644,-3.906250
2645,-3.906250
2646,-3.906250
2647,-3.906250
2648,-3.906250
2649,-3.906250
2650,-3.906250
2651,-3.906250
2652,-3.906250
2653,-3.906250
2654,-3.906250
2655,-3.906250
2656,-3.906250
2657,-3.906250
2658,-3.906250
2659,-3.906250
2660,-3.906250
2661,-3.906250
2662,-3.906250
2663,-3.906250
2664,-3.906250
2665,-3.906250
2666,-3.906250
2667,-3.906250
2668,-3.906250
2669,-3.906250
2670,-3.906250
2671,-3.906250
2672,-3.906250
2673,-3.906250
2674,-3.906250
2675,-3.906250
2676,-3.906250
2677,-3.906250
2678,-3.906250
2679,-3.906250
2680,-3.906250
2681,-3.906250
2682,-3.906250
2683,-3.906250
2684,-3.906250
2685,-3.906250
2686,-3.906250
2687,-3.906250
2688,-3.906250
2689,-3.906250
2690,-3.906250
2691,-3.906250
2692,-3.906250
2693,-3.906250
2694,-3.906250
2695,-3.906250
2696,-3.906250
2697,-3.906250
2698,-3.906250
2699,-3.906250
2700,-3.906250
2701,-3.906250
2702,-3.906250
2703,-3.906250
2704,-3.906250
2705,0.000000
2706,-3.906250
2707,-3.906250
2708,-3.906250
2709,-3.906250
2710,-3.906250
2711,-3.906250
2712,-3.906250
2713,-3.906250
2714,0.000000
2715,0.000000
2716,0.000000
2717,-3.906250
2718,-3.906250
2719,0.000000
2720,-3.906250
2721,0.000000
2722,0.000000
2723,0.000000
2724,0.000000
2725,-3.906250
2726,-3.906250
2727,-3.906250
2728,-3.906250
2729,0.000000
2730,0.000000
2731,-3.906250
2732,-3.906250
2733,-3.906250
2734,0.000000
2735,0.000000
2736,0.000000
2737,0.000000
2738,-3.906250
2739,-3.906250
2740,-3.906250
2741,-3.906250
2742,-3.906250
2743,-3.906250
2744,0.000000
2745,0.000000
2746,-3.906250
2747,-3.906250
2748,-3.906250
2749,-3.906250
2750,-3.906250
2751,-3.906250
2752,-3.906250
2753,-3.906250
2754,-3.906250
2755,-3.906250
2756,-3.906250
2757,-3.906250
2758,-3.906250
2759,-3.906250
2760,-3.906250
2761,0.000000
2762,-3.906250
2763,-3.906250
2764,-3.906250
2765,-3.906250
2766,-3.906250
2767,-3.906250
2768,-3.906250
2769,-3.906250
2770,-3.906250
2771,-3.906250
2772,-3.906250
2773,-3.906250
2774,-3.906250
2775,-3.906250
2776,-3.906250
2777,-3.906250
2778,-3.906250
2779,-3.906250
2780,-3.906250
2781,-3.906250
2782,-3.906250
2783,-3.906250
2784,-3.906250
2785,-3.906250
2786,-3.906250
2787,-3.906250
2788,-3.906250
2789,-3.906250
2790,-3.906250
2791,-3.906250
2792,-3.906250
2793,-3.906250
2794,-3.906250
2795,-3.906250
2796,-3.906250
2797,-3.906250
2798,-3.906250
2799,-3.906250
2800,-3.906250
2801,-3.906250
2802,-3.906250
2803,-3.906250
2804,-3.906250
2805,-3.906250
2806,-3.906250
2807,-3.906250
2808,-3.906250
2809,-3.906250
2810,-3.906250
2811,-3.906250
2812,-3.906250
2813,-3.906250
2814,-3.906250
2815,-3.906250
2816,-3.906250
2817,-3.906250
2818,-3.906250
2819,-3.906250
2820,-3.906250
2821,-3.906250
2822,-3.906250
2823,-3.906250
2824,-3.906250
2825,-3.906250
2826,-3.906250
2827,-3.906250
2828,-3.906250
2829,-3.906250
2830,-3.906250
2831,-3.906250
2832,-3.906250
2833,-3.906250
2834,-3.906250
2835,-3.906250
2836,-3.906250
2837,-3.906250
2838,-3.906250
2839,-3.906250
2840,-3.906250
2841,-3.906250
2842,-3.906250
2843,-3.906250
2844,-3.906250
2845,-3.906250
2846,-3.906250
2847,-3.906250
2848,-3.906250
2849,-3.906250
2850,-3.906250
2851,-3.906250
2852,-3.906250
2853,-3.906250
2854,-3.906250
2855,-3.906250
2856,-3.906250
2857,-3.906250
2858,-3.906250
2859,-7.812500
2860,-3.906250
2861,-3.906250
2862,-3.906250
2863,-3.906250
2864,-3.906250
2865,-3.906250
2866,-3.906250
2867,-3.906250
2868,-7.812500
2869,-3.906250
2870,-3.906250
2871,-3.906250
2872,-7.812500
2873,-7.812500
2874,-7.812500
2875,-7.812500
2876,-7.812500
2877,-7.812500
2878,-7.812500
2879,-3.906250
2880,-3.906250
2881,-3.906250
2882,-7.812500
2883,-7.812500
2884,-7.812500
2885,-7.812500
2886,-7.812500
2887,-7.812500
2888,-7.812500
2889,-7.812500
2890,-7.812500
2891,-7.812500
2892,-7.812500
2893,-7.812500
2894,-7.812500
2895,-7.812500
2896,-7.812500
2897,-7.812500
2898,-7.812500
2899,-7.812500
2900,-7.812500
2901,-7.812500
2902,-7.812500
2903,-7.812500
2904,-7.812500
2905,-7.812500
2906,-7.812500
2907,-7.812500
2908,-7.812500
2909,-7.812500
2910,-7.812500
2911,-7.812500
2912,-7.812500
2913,-7.812500
2914,-7.812500
2915,-7.812500
2916,-7.812500
2917,-7.812500
2918,-7.812500
2919,-7.812500
2920,-7.812500
2921,-7.812500
2922,-7.812500
2923,-7.812500
2924,-7.812500
2925,-7.812500
2926,-7.812500
2927,-7.812500
2928,-7.812500
2929,-7.812500
2930,-7.812500
2931,-7.812500
2932,-7.812500
2933,-7.812500
2934,-11.718750
2935,-11.718750
2936,-11.718750
2937,-7.812500
2938,-11.718750
2939,-11.718750
2940,-11.718750
2941,-11.718750
2942,-11.718750
2943,-11.718750
2944,-11.718750
2945,-11.718750
2946,-11.718750
2947,-11.718750
2948,-11.718750
2949,-11.718750
2950,-11.718750
2951,-11.718750
2952,-11.718750
2953,-11.718750
2954,-11.718750
2955,-11.718750
2956,-11.718750
2957,-11.718750
2958,-11.718750
2959,-11.718750
2960,-11.718750
2961,-11.718750
2962,-11.718750
2963,-11.718750
2964,-11.718750
2965,-11.718750
2966,-11.718750
2967,-11.718750
2968,-11.718750
2969,-11.718750
2970,-11.718750
2971,-11.718750
2972,-11.718750
2973,-11.718750
2974,-11.718750
2975,-11.718750
2976,-11.718750
2977,-11.718750
2978,-11.718750
2979,-11.718750
2980,-11.718750
2981,-11.718750
2982,-11.718750
2983,-11.718750
2984,-11.718750
2985,-11.718750
2986,-11.718750
2987,-11.718750
2988,-11.718750
2989,-11.718750
2990,-11.718750
2991,-15.625000
2992,-15.625000
2993,-11.718750
2994,-15.625000
2995,-15.625000
2996,-15.625000
2997,-15.625000
2998,-15.625000
2999,-11.718750
3000,-15.625000
3001,-15.625000
3002,-11.718750
3003,-15.625000
3004,-15.625000
3005,-15.625000
3006,-15.625000
3007,-15.625000
3008,-15.625000
3009,-15.625000
3010,-15.625000
3011,-15.625000
3012,-15.625000
3013,-15.625000
3014,-15.625000
3015,-15.625000
3016,-15.625000
3017,-15.625000
3018,-15.625000
3019,-15.625000
3020,-15.625000
3021,-15.625000
3022,-15.625000
3023,-15.625000
3024,-15.625000
3025,-15.625000
3026,-15.625000
3027,-15.625000
3028,-15.625000
3029,-15.625000
3030,-15.625000
3031,-15.625000
3032,-15.625000
3033,-15.625000
3034,-15.625000
3035,-15.625000
3036,-15.625000
3037,-15.625000
3038,-15.625000
3039,-15.625000
3040,-15.625000
3041,-15.625000
3042,-15.625000
3043,-15.625000
3044,-15.625000
3045,-19.531250
3046,-15.625000
3047,-15.625000
3048,-19.531250
3049,-19.531250
3050,-19.531250
3051,-19.531250
3052,-19.531250
3053,-19.531250
3054,-19.531250
3055,-19.531250
3056,-19.531250
3057,-19.531250
3058,-19.531250
3059,-19.531250
3060,-19.531250
3061,-19.531250
3062,-19.531250
3063,-19.531250
3064,-19.531250
3065,-19.531250
3066,-19.531250
3067,-19.531250
3068,-19.531250
3069,-19.531250
3070,-19.531250
3071,-19.531250
3072,-19.531250
3073,-19.531250
3074,-19.531250
3075,-19.531250
3076,-19.531250
3077,-19.531250
3078,-19.531250
3079,-19.531250
3080,-19.531250
3081,-19.531250
3082,-19.531250
3083,-19.531250
3084,-19.531250
3085,-19.531250
3086,-19.531250
3087,-19.531250
3088,-19.531250
3089,-19.531250
3090,-19.531250
3091,-19.531250
3092,-19.531250
3093,-19.531250
3094,-19.531250
3095,-19.531250
3096,-19.531250
3097,-23.437500
3098,-19.531250
3099,-19.531250
3100,-19.531250
3101,-23.437500
3102,-23.437500
3103,-23.437500
3104,-23.437500
3105,-23.437500
3106,-23.437500
3107,-23.437500
3108,-19.531250
3109,-23.437500
3110,-23.437500
3111,-23.437500
3112,-23.437500
3113,-23.437500
3114,-23.437500
3115,-23.437500
3116,-23.437500
3117,-23.437500
3118,-23.437500
3119,-23.437500
3120,-23.437500
3121,-23.437500
3122,-23.437500
3123,-23.437500
3124,-23.437500
3125,-23.437500
3126,-23.437500
3127,-23.437500
3128,-23.437500
3129,-23.437500
3130,-23.437500
3131,-23.437500
3132,-23.437500
3133,-23.437500
3134,-23.437500
3135,-23.437500
3136,-23.437500
3137,-23.437500
3138,-23.437500
3139,-23.437500
3140,-23.437500
3141,-23.437500
3142,-23.437500
3143,-23.437500
3144,-23.437500
3145,-23.437500
3146,-23.437500
3147,-23.437500
3148,-23.437500
3149,-23.437500
3150,-23.437500
3151,-23.437500
3152,-23.437500
3153,-27.343750
3154,-27.343750
3155,-23.437500
3156,-23.437500
3157,-23.437500
3158,-27.343750
3159,-23.437500
3160,-27.343750
3161,-27.343750
3162,-27.343750
3163,-27.343750
3164,-27.343750
3165,-23.437500
3166,-27.343750
3167,-27.343750
3168,-27.343750
3169,-27.343750
3170,-27.343750
3171,-27.343750
3172,-27.343750
3173,-27.343750
3174,-27.343750
3175,-27.343750
3176,-27.343750
3177,-27.343750
3178,-27.343750
3179,-27.343750
3180,-27.343750
3181,-27.343750
3182,-27.343750
3183,-27.343750
3184,-27.343750
3185,-27.343750
3186,-27.343750
3187,-27.343750
3188,-27.343750
3189,-27.343750
3190,-27.343750
3191,-27.343750
3192,-27.343750
3193,-27.343750
3194,-27.343750
3195,-27.343750
3196,-27.343750
3197,-27.343750
3198,-27.343750
3199,-27.343750
3200,-27.343750
3201,-27.343750
3202,-27.343750
3203,-27.343750
3204,-27.343750
3205,-27.343750
3206,-27.343750
3207,-27.343750
3208,-27.343750
3209,-27.343750
3210,-27.343750
3211,-27.343750
3212,-27.343750
3213,-27.343750
3214,-27.343750
3215,-27.343750
3216,-27.343750
3217,-27.343750
3218,-27.343750
3219,-27.343750
3220,-27.343750
3221,-27.343750
3222,-27.343750
3223,-27.343750
3224,-27.343750
3225,-27.343750
3226,-27.343750
3227,-27.343750
3228,-27.343750
3229,-27.343750
3230,-27.343750
3231,-27.343750
3232,-27.343750
3233,-27.343750
3234,-27.343750
3235,-27.343750
3236,-27.343750
3237,-27.343750
3238,-27.343750
3239,-27.343750
3240,-27.343750
3241,-27.343750
3242,-27.343750
3243,-27.343750
3244,-27.343750
3245,-27.343750
3246,-27.343750
3247,-27.343750
3248,-27.343750
3249,-27.343750
3250,-27.343750
3251,-27.343750
3252,-27.343750
3253,-27.343750
3254,-27.343750
3255,-27.343750
3256,-27.343750
3257,-27.343750
3258,-27.343750
3259,-27.343750
3260,-27.343750
3261,-27.343750
3262,-27.343750
3263,-27.343750
3264,-27.343750
3265,-27.343750
3266,-27.343750
3267,-27.343750
3268,-27.343750
3269,-27.343750
3270,-27.343750
3271,-27.343750
3272,-27.343750
3273,-27.343750
3274,-27.343750
3275,-27.343750
3276,-27.343750
3277,-27.343750
3278,-27.343750
3279,-27.343750
3280,-27.343750
3281,-27.343750
3282,-27.343750
3283,-27.343750
3284,-27.343750
3285,-27.343750
3286,-27.343750
3287,-27.343750
3288,-27.343750
3289,-27.343750
3290,-27.343750
3291,-27.343750
3292,-27.343750
3293,-27.343750
3294,-27.343750
3295,-27.343750
3296,-27.343750
3297,-27.343750
3298,-27.343750
3299,-27.343750
3300,-27.343750
3301,-27.343750
3302,-27.343750
3303,-27.343750
3304,-27.343750
3305,-27.343750
3306,-27.343750
3307,-27.343750
3308,-27.343750
3309,-27.343750
3310,-27.343750
3311,-27.343750
3312,-27.343750
3313,-27.343750
3314,-27.343750
3315,-27.343750
3316,-27.343750
3317,-27.343750
3318,-27.343750
3319,-27.343750
3320,-27.343750
3321,-27.343750
3322,-27.343750
3323,-27.343750
3324,-27.343750
3325,-27.343750
3326,-27.343750
3327,-27.343750
3328,-27.343750
3329,-27.343750
3330,-27.343750
3331,-27.343750
3332,-27.343750
3333,-27.343750
3334,-27.343750
3335,-27.343750
3336,-27.343750
3337,-27.343750
3338,-27.343750
3339,-27.343750
3340,-27.343750
3341,-23.437500
3342,-23.437500
3343,-23.437500
3344,-27.343750
3345,-27.343750
3346,-23.437500
3347,-23.437500
3348,-23.437500
3349,-23.437500
3350,-27.343750
3351,-23.437500
3352,-23.437500
3353,-23.437500
3354,-23.437500
3355,-23.437500
3356,-23.437500
3357,-23.437500
3358,-23.437500
3359,-23.437500
3360,-23.437500
3361,-23.437500
3362,-23.437500
3363,-23.437500
3364,-23.437500
3365,-23.437500
3366,-23.437500
3367,-23.437500
3368,-23.437500
3369,-23.437500
3370,-23.437500
3371,-23.437500
3372,-23.437500
3373,-23.437500
3374,-23.437500
3375,-23.437500
3376,-23.437500
3377,-23.437500
3378,-23.437500
3379,-23.437500
3380,-23.437500
3381,-23.437500
3382,-23.437500
3383,-23.437500
3384,-23.437500
3385,-23.437500
3386,-23.437500
3387,-23.437500
3388,-23.437500
3389,-23.437500
3390,-19.531250
3391,-23.437500
3392,-23.437500
3393,-23.437500
3394,-23.437500
3395,-23.437500
3396,-23.437500
3397,-19.531250
3398,-23.437500
3399,-19.531250
3400,-19.531250
3401,-23.437500
3402,-23.437500
3403,-19.531250
3404,-19.531250
3405,-19.531250
3406,-19.531250
3407,-19.531250
3408,-19.531250
3409,-19.531250
3410,-19.531250
3411,-19.531250
3412,-19.531250
3413,-19.531250
3414,-19.531250
3415,-19.531250
3416,-19.531250
3417,-19.531250
3418,-19.531250
3419,-19.531250
3420,-19.531250
3421,-19.531250
3422,-19.531250
3423,-19.531250
3424,-19.531250
3425,-19.531250
3426,-19.531250
3427,-19.531250
3428,-19.531250
3429,-19.531250
3430,-19.531250
3431,-19.531250
3432,-19.531250
3433,-19.531250
3434,-19.531250
3435,-19.531250
3436,-19.531250
3437,-19.531250
3438,-19.531250
3439,-19.531250
3440,-19.531250
3441,-19.531250
3442,-19.531250
3443,-19.531250
3444,-19.531250
3445,-19.531250
3446,-19.531250
3447,-15.625000
3448,-19.531250
3449,-15.625000
3450,-19.531250
3451,-15.625000
3452,-15.625000
3453,-15.625000
3454,-15.625000
3455,-15.625000
3456,-15.625000
3457,-15.625000
3458,-15.625000
3459,-15.625000
3460,-15.625000
3461,-15.625000
3462,-15.625000
3463,-15.625000
3464,-15.625000
3465,-15.625000
3466,-15.625000
3467,-15.625000
3468,-15.625000
3469,-15.625000
3470,-15.625000
3471,-15.625000
3472,-15.625000
3473,-15.625000
3474,-15.625000
3475,-15.625000
3476,-15.625000
3477,-15.625000
3478,-15.625000
3479,-15.625000
3480,-15.625000
3481,-15.625000
3482,-15.625000
3483,-15.625000
3484,-15.625000
3485,-11.718750
3486,-11.718750
3487,-11.718750
3488,-11.718750
3489,-11.718750
3490,-15.625000
3491,-11.718750
3492,-11.718750
3493,-11.718750
3494,-11.718750
3495,-11.718750
3496,-11.718750
3497,-11.718750
3498,-11.718750
3499,-11.718750
3500,-11.718750
3501,-11.718750
3502,-11.718750
3503,-11.718750
3504,-11.718750
3505,-11.718750
3506,-11.718750
3507,-11.718750
3508,-7.812500
3509,-11.718750
3510,-11.718750
3511,-11.718750
3512,-11.718750
3513,-11.718750
3514,-11.718750
3515,-11.718750
3516,-11.718750
3517,-11.718750
3518,-11.718750
3519,-11.718750
3520,-11.718750
3521,-11.718750
3522,-11.718750
3523,-11.718750
3524,-11.718750
3525,-11.718750
3526,-11.718750
3527,-11.718750
3528,-11.718750
3529,-11.718750
3530,-11.718750
3531,-11.718750
3532,-11.718750
3533,-7.812500
3534,-7.812500
3535,-11.718750
3536,-11.718750
3537,-7.812500
3538,-7.812500
3539,-7.812500
3540,-7.812500
3541,-7.812500
3542,-11.718750
3543,-7.812500
3544,-7.812500
3545,-7.812500
3546,-7.812500
3547,-7.812500
3548,-7.812500
3549,-7.812500
3550,-7.812500
3551,-7.812500
3552,-7.812500
3553,-7.812500
3554,-7.812500
3555,-7.812500
3556,-7.812500
3557,-7.812500
3558,-7.812500
3559,-7.812500
3560,-7.812500
3561,-7.812500
3562,-7.812500
3563,-7.812500
3564,-7.812500
3565,-7.812500
3566,-7.812500
3567,-7.812500
3568,-7.812500
3569,-7.812500
3570,-7.812500
3571,-7.812500
3572,-7.812500
3573,-7.812500
3574,-7.812500
3575,-7.812500
3576,-7.812500
3577,-7.812500
3578,-7.812500
3579,-7.812500
3580,-7.812500
3581,-3.906250
3582,-7.812500
3583,-7.812500
3584,-7.812500
3585,-7.812500
3586,-7.812500
3587,-7.812500
3588,-7.812500
3589,-7.812500
3590,-7.812500
3591,-7.812500
3592,-3.906250
3593,-3.906250
3594,-7.812500
3595,-3.906250
3596,-7.812500
3597,-7.812500
3598,-7.812500
3599,-7.812500
3600,-7.812500
3601,-3.906250
3602,-7.812500
3603,-3.906250
3604,-3.906250
3605,-3.906250
3606,-7.812500
3607,-3.906250
3608,-3.906250
3609,-3.906250
3610,-3.906250
3611,-3.906250
3612,-3.906250
3613,-3.906250
3614,-3.906250
3615,-3.906250
3616,-3.906250
3617,-3.906250
3618,-3.906250
3619,-3.906250
3620,-3.906250
3621,-3.906250
3622,-3.906250
3623,-3.906250
3624,-3.906250
3625,-3.906250
3626,-3.906250
3627,-3.906250
3628,-3.906250
3629,-3.906250
3630,-3.906250
3631,-3.906250
3632,-3.906250
3633,-3.906250
3634,-3.906250
3635,-3.906250
3636,-3.906250
3637,-3.906250
3638,-3.906250
3639,-3.906250
3640,-3.906250
3641,-3.906250
3642,-3.906250
3643,0.000000
3644,-3.906250
3645,-3.906250
3646,-3.906250
3647,-3.906250
3648,-3.906250
3649,-3.906250
3650,-3.906250
3651,-3.906250
3652,-3.906250
3653,-3.906250
3654,-3.906250
3655,-3.906250
3656,-3.906250
3657,-3.906250
3658,-3.906250
3659,-3.906250
3660,0.000000
3661,-3.906250
3662,-3.906250
3663,-3.906250
3664,-3.906250
3665,-3.906250
3666,-3.906250
3667,-3.906250
3668,-3.906250
3669,-3.906250
3670,-3.906250
3671,-3.906250
3672,-3.906250
3673,-3.906250
3674,-3.906250
3675,-3.906250
3676,0.000000
3677,-3.906250
3678,-3.906250
3679,-3.906250
3680,-3.906250
3681,-3.906250
3682,-3.906250
3683,-3.906250
3684,-3.906250
3685,-3.906250
3686,-3.906250
3687,-3.906250
3688,-3.906250
3689,-3.906250
3690,-3.906250
3691,-3.906250
3692,-3.906250
3693,-3.906250
3694,-3.906250
3695,-3.906250
3696,-3.906250
3697,-3.906250
3698,-3.906250
3699,-3.906250
3700,-3.906250
3701,-3.906250
3702,-3.906250
3703,-3.906250
3704,-3.906250
3705,-3.906250
3706,-3.906250
3707,-3.906250
3708,-3.906250
3709,-3.906250
3710,-3.906250
3711,-3.906250
3712,-3.906250
3713,-3.906250
3714,-3.906250
3715,-3.906250
3716,-3.906250
3717,-3.906250
3718,-3.906250
3719,-3.906250
3720,-3.906250
3721,-3.906250
3722,-3.906250
3723,-3.906250
3724,-3.906250
3725,-3.906250
3726,-3.906250
3727,-3.906250
3728,-3.906250
3729,-3.906250
3730,-3.906250
3731,-3.906250
3732,-3.906250
3733,-3.906250
3734,-3.906250
3735,-3.906250
3736,-3.906250
3737,-3.906250
3738,-3.906250
3739,-3.906250
3740,-3.906250
3741,-3.906250
3742,-3.906250
3743,-3.906250
3744,-3.906250
3745,-3.906250
3746,-3.906250
3747,-3.906250
3748,-3.906250
3749,-3.906250
3750,-3.906250
3751,-3.906250
3752,-3.906250
3753,-3.906250
3754,-3.906250
3755,-3.906250
3756,-3.906250
3757,-3.906250
3758,-3.906250
3759,-3.906250
3760,-3.906250
3761,-3.906250
3762,-3.906250
3763,-3.906250
3764,-3.906250
3765,-3.906250
3766,-3.906250
3767,0.000000
3768,-3.906250
3769,-3.906250
3770,-3.906250
3771,-3.906250
3772,-3.906250
3773,-3.906250
3774,-3.906250
3775,-3.906250
3776,-3.906250
3777,-3.906250
3778,-3.906250
3779,-3.906250
3780,-3.906250
3781,-3.906250
3782,-3.906250
3783,-3.906250
3784,-3.906250
3785,-3.906250
3786,-3.906250
3787,-3.906250
3788,-3.906250
3789,-3.906250
3790,-3.906250
3791,-3.906250
3792,-3.906250
3793,-3.906250
3794,-3.906250
3795,-3.906250
3796,-3.906250
3797,-3.906250
3798,-3.906250
3799,-3.906250
3800,-3.906250
3801,-3.906250
3802,-3.906250
3803,-3.906250
3804,-3.906250
3805,-3.906250
3806,-3.906250
3807,-3.906250
3808,-3.906250
3809,-3.906250
3810,-3.906250
3811,-3.906250
3812,-3.906250
3813,-3.906250
3814,-3.906250
3815,-3.906250
3816,-3.906250
3817,-3.906250
3818,-3.906250
3819,-3.906250
3820,-3.906250
3821,-3.906250
3822,-3.906250
3823,-3.906250
3824,-3.906250
3825,-3.906250
3826,-3.906250
3827,-3.906250
3828,-3.906250
3829,-3.906250
3830,-3.906250
3831,-3.906250
3832,-3.906250
3833,-3.906250
3834,-3.906250
3835,-3.906250
3836,-3.906250
3837,-3.906250
3838,-3.906250
3839,-7.812500
3840,-3.906250
3841,-3.906250
3842,-3.906250
3843,-3.906250
3844,-3.906250
3845,-3.906250
3846,-3.906250
3847,-3.906250
3848,-3.906250
3849,-3.906250
3850,-3.906250
3851,-3.906250
3852,-7.812500
3853,-7.812500
3854,-7.812500
3855,-3.906250
3856,-7.812500
3857,-7.812500
3858,-3.906250
3859,-7.812500
3860,-7.812500
3861,-7.812500
3862,-7.812500
3863,-7.812500
3864,-7.812500
3865,-7.812500
3866,-7.812500
3867,-3.906250
3868,-7.812500
3869,-7.812500
3870,-7.812500
3871,-7.812500
3872,-7.812500
3873,-3.906250
3874,-3.906250
3875,-7.812500
3876,-7.812500
3877,-3.906250
3878,-7.812500
3879,-7.812500
3880,-7.812500
3881,-7.812500
3882,-7.812500
3883,-7.812500
3884,-7.812500
3885,-7.812500
3886,-7.812500
3887,-7.812500
3888,-7.812500
3889,-7.812500
3890,-7.812500
3891,-7.812500
3892,-7.812500
3893,-7.812500
3894,-7.812500
3895,-7.812500
3896,-7.812500
3897,-7.812500
3898,-7.812500
3899,-7.812500
3900,-7.812500
3901,-7.812500
3902,-7.812500
3903,-7.812500
3904,-7.812500
3905,-7.812500
3906,-7.812500
3907,-7.812500
3908,-7.812500
3909,-7.812500
3910,-7.812500
3911,-7.812500
3912,-7.812500
3913,-7.812500
3914,-7.812500
3915,-7.812500
3916,-7.812500
3917,-7.812500
3918,-7.812500
3919,-7.812500
3920,-7.812500
3921,-7.812500
3922,-7.812500
3923,-7.812500
3924,-7.812500
3925,-7.812500
3926,-7.812500
3927,-7.812500
3928,-11.718750
3929,-11.718750
3930,-11.718750
3931,-11.718750
3932,-7.812500
3933,-11.718750
3934,-7.812500
3935,-11.718750
3936,-11.718750
3937,-11.718750
3938,-11.718750
3939,-11.718750
3940,-11.718750
3941,-11.718750
3942,-11.718750
3943,-11.718750
3944,-11.718750
3945,-11.718750
3946,-11.718750
3947,-11.718750
3948,-11.718750
3949,-11.718750
3950,-11.718750
3951,-11.718750
3952,-11.718750
3953,-11.718750
3954,-11.718750
3955,-11.718750
3956,-11.718750
3957,-11.718750
3958,-11.718750
3959,-11.718750
3960,-11.718750
3961,-11.718750
3962,-11.718750
3963,-11.718750
3964,-11.718750
3965,-11.718750
3966,-11.718750
3967,-11.718750
3968,-11.718750
3969,-11.718750
3970,-11.718750
3971,-11.718750
3972,-11.718750
3973,-11.718750
3974,-11.718750
3975,-11.718750
3976,-11.718750
3977,-11.718750
3978,-11.718750
3979,-11.718750
3980,-15.625000
3981,-11.718750
3982,-15.625000
3983,-11.718750
3984,-15.625000
3985,-11.718750
3986,-15.625000
3987,-11.718750
3988,-11.718750
3989,-11.718750
3990,-15.625000
3991,-11.718750
3992,-15.625000
3993,-15.625000
3994,-15.625000
3995,-15.625000
3996,-11.718750
3997,-11.718750
3998,-15.625000
3999,-15.625000
4000,-15.625000
4001,-15.625000
4002,-15.625000
4003,-15.625000
4004,-15.625000
4005,-15.625000
4006,-15.625000
4007,-15.625000
4008,-15.625000
4009,-15.625000
4010,-15.625000
4011,-15.625000
4012,-15.625000
4013,-15.625000
4014,-15.625000
4015,-15.625000
4016,-15.625000
4017,-15.625000
4018,-15.625000
4019,-15.625000
4020,-15.625000
4021,-15.625000
4022,-15.625000
4023,-15.625000
4024,-15.625000
4025,-15.625000
4026,-15.625000
4027,-15.625000
4028,-15.625000
4029,-15.625000
4030,-15.625000
4031,-15.625000
4032,-15.625000
4033,-19.531250
4034,-15.625000
4035,-15.625000
4036,-15.625000
4037,-19.531250
4038,-15.625000
4039,-15.625000
4040,-19.531250
4041,-19.531250
4042,-19.531250
4043,-19.531250
4044,-19.531250
4045,-19.531250
4046,-19.531250
4047,-19.531250
4048,-19.531250
4049,-19.531250
4050,-19.531250
4051,-19.531250
4052,-19.531250
4053,-19.531250
4054,-19.531250
4055,-19.531250
4056,-19.531250
4057,-19.531250
4058,-19.531250
4059,-19.531250
4060,-19.531250
4061,-19.531250
4062,-19.531250
4063,-19.531250
4064,-19.531250
4065,-23.437500
4066,-19.531250
4067,-19.531250
4068,-19.531250
4069,-19.531250
4070,-23.437500
4071,-19.531250
4072,-19.531250
4073,-19.531250
4074,-19.531250
4075,-23.437500
4076,-19.531250
4077,-19.531250
4078,-19.531250
4079,-19.531250
4080,-23.437500
4081,-19.531250
4082,-23.437500
4083,-23.437500
4084,-19.531250
4085,-23.437500
4086,-19.531250
4087,-23.437500
4088,-23.437500
4089,-23.437500
4090,-23.437500
4091,-23.437500
4092,-23.437500
4093,-23.437500
4094,-23.437500
4095,-23.437500
4096,-23.437500
4097,-23.437500
4098,-23.437500
4099,-23.437500
4100,-23.437500
4101,-23.437500
4102,-23.437500
4103,-23.437500
4104,-23.437500
4105,-23.437500
4106,-23.437500
4107,-23.437500
4108,-23.437500
4109,-23.437500
4110,-23.437500
4111,-23.437500
4112,-23.437500
4113,-23.437500
4114,-23.437500
4115,-23.437500
4116,-23.437500
4117,-23.437500
4118,-23.437500
4119,-23.437500
4120,-23.437500
4121,-23.437500
4122,-23.437500
4123,-23.437500
4124,-23.437500
4125,-23.437500
4126,-23.437500
4127,-23.437500
4128,-23.437500
4129,-23.437500
4130,-23.437500
4131,-23.437500
4132,-23.437500
4133,-23.437500
4134,-23.437500
4135,-23.437500
4136,-23.437500
4137,-23.437500
4138,-23.437500
4139,-23.437500
4140,-23.437500
4141,-23.437500
4142,-23.437500
4143,-23.437500
4144,-23.437500
4145,-23.437500
4146,-23.437500
4147,-27.343750
4148,-27.343750
4149,-23.437500
4150,-23.437500
4151,-23.437500
4152,-23.437500
4153,-27.343750
4154,-27.343750
4155,-27.343750
4156,-27.343750
4157,-27.343750
4158,-27.343750
4159,-27.343750
4160,-27.343750
4161,-27.343750
4162,-27.343750
4163,-27.343750
4164,-27.343750
4165,-27.343750
4166,-27.343750
4167,-27.343750
4168,-27.343750
4169,-27.343750
4170,-27.343750
4171,-27.343750
4172,-27.343750
4173,-27.343750
4174,-27.343750
4175,-27.343750
4176,-27.343750
4177,-27.343750
4178,-27.343750
4179,-27.343750
4180,-27.343750
4181,-27.343750
4182,-27.343750
4183,-27.343750
4184,-27.343750
4185,-27.343750
4186,-27.343750
4187,-27.343750
4188,-27.343750
4189,-27.343750
4190,-27.343750
4191,-27.343750
4192,-27.343750
4193,-27.343750
4194,-27.343750
4195,-27.343750
4196,-27.343750
4197,-27.343750
4198,-27.343750
4199,-27.343750
4200,-27.343750
4201,-27.343750
4202,-27.343750
4203,-27.343750
4204,-27.343750
4205,-27.343750
4206,-27.343750
4207,-27.343750
4208,-27.343750
4209,-27.343750
4210,-27.343750
4211,-27.343750
4212,-27.343750
4213,-27.343750
4214,-27.343750
4215,-27.343750
4216,-27.343750
4217,-27.343750
4218,-27.343750
4219,-27.343750
4220,-27.343750
4221,-27.343750
4222,-27.343750
4223,-27.343750
4224,-27.343750
4225,-27.343750
4226,-27.343750
4227,-27.343750
4228,-27.343750
4229,-27.343750
4230,-27.343750
4231,-27.343750
4232,-27.343750
4233,-27.343750
4234,-27.343750
4235,-27.343750
4236,-27.343750
4237,-27.343750
4238,-27.343750
4239,-27.343750
4240,-27.343750
4241,-27.343750
4242,-27.343750
4243,-27.343750
4244,-27.343750
4245,-27.343750
4246,-27.343750
4247,-27.343750
4248,-27.343750
4249,-27.343750
4250,-27.343750
4251,-27.343750
4252,-27.343750
4253,-27.343750
4254,-27.343750
4255,-27.343750
4256,-27.343750
4257,-27.343750
4258,-27.343750
4259,-27.343750
4260,-27.343750
4261,-27.343750
4262,-27.343750
4263,-27.343750
4264,-27.343750
4265,-27.343750
4266,-27.343750
4267,-27.343750
4268,-27.343750
4269,-27.343750
4270,-27.343750
4271,-27.343750
4272,-27.343750
4273,-27.343750
4274,-27.343750
4275,-27.343750
4276,-27.343750
4277,-27.343750
4278,-27.343750
4279,-27.343750
4280,-27.343750
4281,-27.343750
4282,-27.343750
4283,-27.343750
4284,-27.343750
4285,-27.343750
4286,-27.343750
4287,-27.343750
4288,-27.343750
4289,-27.343750
4290,-27.343750
4291,-27.343750
4292,-27.343750
4293,-27.343750
4294,-27.343750
4295,-27.343750
4296,-27.343750
4297,-27.343750
4298,-27.343750
4299,-27.343750
4300,-27.343750
4301,-27.343750
4302,-27.343750
4303,-27.343750
4304,-27.343750
4305,-27.343750
4306,-27.343750
4307,-27.343750
4308,-27.343750
4309,-27.343750
4310,-27.343750
4311,-27.343750
4312,-27.343750
4313,-27.343750
4314,-27.343750
4315,-27.343750
4316,-27.343750
4317,-27.343750
4318,-27.343750
4319,-27.343750
4320,-27.343750
4321,-27.343750
4322,-27.343750
4323,-27.343750
4324,-27.343750
4325,-27.343750
4326,-27.343750
4327,-27.343750
4328,-23.437500
4329,-23.437500
4330,-23.437500
4331,-27.343750
4332,-27.343750
4333,-27.343750
4334,-23.437500
4335,-23.437500
4336,-23.437500
4337,-23.437500
4338,-23.437500
4339,-23.437500
4340,-23.437500
4341,-23.437500
4342,-23.437500
4343,-23.437500
4344,-23.437500
4345,-23.437500
4346,-23.437500
4347,-23.437500
4348,-23.437500
4349,-23.437500
4350,-23.437500
4351,-23.437500
4352,-23.437500
4353,-23.437500
4354,-27.343750
4355,-23.437500
4356,-23.437500
4357,-23.437500
4358,-23.437500
4359,-23.437500
4360,-23.437500
4361,-23.437500
4362,-23.437500
4363,-23.437500
4364,-23.437500
4365,-23.437500
4366,-23.437500
4367,-23.437500
4368,-23.437500
4369,-23.437500
4370,-23.437500
4371,-23.437500
4372,-23.437500
4373,-23.437500
4374,-23.437500
4375,-23.437500
4376,-19.531250
4377,-23.437500
4378,-23.437500
4379,-23.437500
4380,-23.437500
4381,-23.437500
4382,-23.437500
4383,-23.437500
4384,-23.437500
4385,-19.531250
4386,-19.531250
4387,-19.531250
4388,-23.437500
4389,-19.531250
4390,-19.531250
4391,-19.531250
4392,-19.531250
4393,-19.531250
4394,-19.531250
4395,-19.531250
4396,-19.531250
4397,-19.531250
4398,-19.531250
4399,-19.531250
4400,-19.531250
4401,-19.531250
4402,-19.531250
4403,-19.531250
4404,-19.531250
4405,-19.531250
4406,-19.531250
4407,-19.531250
4408,-19.531250
4409,-19.531250
4410,-19.531250
4411,-19.531250
4412,-19.531250
4413,-19.531250
4414,-19.531250
4415,-19.531250
4416,-19.531250
4417,-19.531250
4418,-19.531250
4419,-19.531250
4420,-19.531250
4421,-19.531250
4422,-19.531250
4423,-19.531250
4424,-19.531250
4425,-19.531250
4426,-19.531250
4427,-19.531250
4428,-19.531250
4429,-19.531250
4430,-19.531250
4431,-15.625000
4432,-15.625000
4433,-15.625000
4434,-15.625000
4435,-15.625000
4436,-19.531250
4437,-19.531250
4438,-15.625000
4439,-15.625000
4440,-15.625000
4441,-15.625000
4442,-15.625000
4443,-15.625000
4444,-15.625000
4445,-15.625000
4446,-15.625000
4447,-15.625000
4448,-15.625000
4449,-15.625000
4450,-15.625000
4451,-15.625000
4452,-15.625000
4453,-15.625000
4454,-15.625000
4455,-15.625000
4456,-15.625000
4457,-15.625000
4458,-15.625000
4459,-15.625000
4460,-15.625000
4461,-15.625000
4462,-15.625000
4463,-15.625000
4464,-15.625000
4465,-15.625000
4466,-15.625000
4467,-15.625000
4468,-15.625000
4469,-15.625000
4470,-15.625000
4471,-15.625000
4472,-15.625000
4473,-15.625000
4474,-15.625000
4475,-15.625000
4476,-11.718750
4477,-11.718750
4478,-15.625000
4479,-11.718750
4480,-15.625000
4481,-11.718750
4482,-11.718750
4483,-11.718750
4484,-11.718750
4485,-11.718750
4486,-11.718750
4487,-11.718750
4488,-11.718750
4489,-11.718750
4490,-11.718750
4491,-11.718750
4492,-11.718750
4493,-11.718750
4494,-11.718750
4495,-11.718750
4496,-11.718750
4497,-11.718750
4498,-11.718750
4499,-11.718750
4500,-11.718750
4501,-11.718750
4502,-11.718750
4503,-11.718750
4504,-11.718750
4505,-11.718750
4506,-11.718750
4507,-11.718750
4508,-11.718750
4509,-11.718750
4510,-11.718750
4511,-11.718750
4512,-11.718750
4513,-11.718750
4514,-11.718750
4515,-11.718750
4516,-11.718750
4517,-11.718750
4518,-11.718750
4519,-11.718750
4520,-11.718750
4521,-11.718750
4522,-11.718750
4523,-11.718750
4524,-11.718750
4525,-7.812500
4526,-7.812500
4527,-7.812500
4528,-7.812500
4529,-7.812500
4530,-7.812500
4531,-7.812500
4532,-7.812500
4533,-7.812500
4534,-7.812500
4535,-7.812500
4536,-7.812500
4537,-7.812500
4538,-7.812500
4539,-7.812500
4540,-7.812500
4541,-7.812500
4542,-7.812500
4543,-7.812500
4544,-7.812500
4545,-7.812500
4546,-7.812500
4547,-7.812500
4548,-7.812500
4549,-7.812500
4550,-7.812500
4551,-7.812500
4552,-7.812500
4553,-7.812500
4554,-7.812500
4555,-7.812500
4556,-7.812500
4557,-7.812500
4558,-7.812500
4559,-7.812500
4560,-7.812500
4561,-7.812500
4562,-7.812500
4563,-7.812500
4564,-7.812500
4565,-7.812500
4566,-7.812500
4567,-7.812500
4568,-7.812500
4569,-7.812500
4570,-7.812500
4571,-7.812500
4572,-7.812500
4573,-7.812500
4574,-7.812500
4575,-3.906250
4576,-7.812500
4577,-7.812500
4578,-7.812500
4579,-3.906250
4580,-3.906250
4581,-7.812500
4582,-7.812500
4583,-3.906250
4584,-3.906250
4585,-7.812500
4586,-7.812500
4587,-3.906250
4588,-3.906250
4589,-3.906250
4590,-7.812500
4591,-3.906250
4592,-3.906250
4593,-3.906250
4594,-7.812500
4595,-3.906250
4596,-7.812500
4597,-3.906250
4598,-3.906250
4599,-3.906250
4600,-3.906250
4601,-3.906250
4602,-3.906250
4603,-3.906250
4604,-3.906250
4605,-3.906250
4606,-3.906250
4607,-3.906250
4608,-3.906250
4609,-3.906250
4610,-3.906250
4611,-3.906250
4612,-3.906250
4613,-3.906250
4614,-3.906250
4615,-3.906250
4616,-3.906250
4617,-3.906250
4618,-3.906250
4619,-3.906250
4620,-3.906250
4621,-3.906250
4622,-3.906250
4623,-3.906250
4624,-3.906250
4625,-3.906250
4626,-3.906250
4627,-3.906250
4628,-3.906250
4629,-3.906250
4630,-3.906250
4631,-3.906250
4632,-3.906250
4633,-3.906250
4634,-3.906250
4635,-3.906250
4636,-3.906250
4637,-3.906250
4638,-3.906250
4639,-3.906250
4640,-3.906250
4641,-3.906250
4642,-3.906250
4643,-3.906250
4644,-3.906250
4645,-3.906250
4646,-3.906250
4647,-3.906250
4648,-3.906250
4649,-3.906250
4650,-3.906250
4651,-3.906250
4652,-3.906250
4653,-3.906250
4654,-3.906250
4655,-3.906250
4656,-3.906250
4657,-3.906250
4658,-3.906250
4659,-3.906250
4660,-3.906250
4661,-3.906250
4662,-3.906250
4663,-3.906250
4664,-3.906250
4665,-3.906250
4666,-3.906250
4667,-3.906250
4668,-3.906250
4669,-3.906250
4670,-3.906250
4671,-3.906250
4672,-3.906250
4673,-3.906250
4674,-3.906250
4675,-3.906250
4676,-3.906250
4677,-3.906250
4678,-3.906250
4679,-3.906250
4680,-3.906250
4681,-3.906250
4682,-3.906250
4683,-3.906250
4684,0.000000
4685,-3.906250
4686,-3.906250
4687,-3.906250
4688,-3.906250
4689,-3.906250
4690,-3.906250
4691,-3.906250
4692,-3.906250
4693,-3.906250
4694,-3.906250
4695,0.000000
4696,-3.906250
4697,-3.906250
4698,-3.906250
4699,-3.906250
4700,0.000000
4701,-3.906250
4702,-3.906250
4703,-3.906250
4704,-3.906250
4705,-3.906250
4706,0.000000
4707,-3.906250
4708,-3.906250
4709,-3.906250
4710,-3.906250
4711,-3.906250
4712,-3.906250
4713,0.000000
4714,0.000000
4715,-3.906250
4716,-3.906250
4717,-3.906250
4718,-3.906250
4719,-3.906250
4720,0.000000
4721,0.000000
4722,-3.906250
4723,-3.906250
4724,-3.906250
4725,-3.906250
4726,-3.906250
4727,-3.906250
4728,-3.906250
4729,-3.906250
4730,-3.906250
4731,-3.906250
4732,-3.906250
4733,-3.906250
4734,-3.906250
4735,-3.906250
4736,-3.906250
4737,-3.906250
4738,-3.906250
4739,0.000000
4740,-3.906250
4741,-3.906250
4742,-3.906250
4743,-3.906250
4744,-3.906250
4745,-3.906250
4746,-3.906250
4747,-3.906250
4748,-3.906250
4749,-3.906250
4750,-3.906250
4751,-3.906250
4752,-3.906250
4753,-3.906250
4754,-3.906250
4755,-3.906250
4756,-3.906250
4757,-3.906250
4758,-3.906250
4759,-3.906250
4760,-3.906250
4761,-3.906250
4762,-3.906250
4763,-3.906250
4764,-3.906250
4765,-3.906250
4766,-3.906250
4767,-3.906250
4768,-3.906250
4769,-3.906250
4770,-3.906250
4771,-3.906250
4772,-3.906250
4773,-3.906250
4774,-3.906250
4775,-3.906250
4776,-3.906250
4777,0.000000
4778,-3.906250
4779,-3.906250
4780,-3.906250
4781,-3.906250
4782,-3.906250
4783,-3.906250
4784,-3.906250
4785,-3.906250
4786,-3.906250
4787,-3.906250
4788,-3.906250
4789,-3.906250
4790,-3.906250
4791,-3.906250
4792,-3.906250
4793,-3.906250
4794,-3.906250
4795,-3.906250
4796,-3.906250
4797,-3.906250
4798,-3.906250
4799,-3.906250
4800,-3.906250
4801,-3.906250
4802,-3.906250
4803,-3.906250
4804,-3.906250
4805,-3.906250
4806,-3.906250
4807,-3.906250
4808,-3.906250
4809,-3.906250
4810,-3.906250
4811,-3.906250
4812,-3.906250
4813,-3.906250
4814,-3.906250
4815,-3.906250
4816,-3.906250
4817,-3.906250
4818,-3.906250
4819,-3.906250
4820,-3.906250
4821,-3.906250
4822,-3.906250
4823,-3.906250
4824,-3.906250
4825,-3.906250
4826,-3.906250
4827,-3.906250
4828,-3.906250
4829,-3.906250
4830,-3.906250
4831,-3.906250
4832,-3.906250
4833,-3.906250
4834,-3.906250
4835,-3.906250
4836,-3.906250
4837,-3.906250
4838,-7.812500
4839,-3.906250
4840,-3.906250
4841,-3.906250
4842,-7.812500
4843,-3.906250
4844,-3.906250
4845,-3.906250
4846,-3.906250
4847,-3.906250
4848,-7.812500
4849,-3.906250
4850,-3.906250
4851,-3.906250
4852,-3.906250
4853,-7.812500
4854,-7.812500
4855,-3.906250
4856,-7.812500
4857,-7.812500
4858,-7.812500
4859,-3.906250
4860,-3.906250
4861,-3.906250
4862,-7.812500
4863,-7.812500
4864,-7.812500
4865,-7.812500
4866,-7.812500
4867,-7.812500
4868,-7.812500
4869,-7.812500
4870,-7.812500
4871,-7.812500
4872,-7.812500
4873,-7.812500
4874,-7.812500
4875,-7.812500
4876,-7.812500
4877,-7.812500
4878,-7.812500
4879,-7.812500
4880,-7.812500
4881,-7.812500
4882,-7.812500
4883,-7.812500
4884,-7.812500
4885,-7.812500
4886,-7.812500
4887,-7.812500
4888,-7.812500
4889,-7.812500
4890,-7.812500
4891,-7.812500
4892,-7.812500
4893,-7.812500
4894,-7.812500
4895,-7.812500
4896,-7.812500
4897,-7.812500
4898,-7.812500
4899,-7.812500
4900,-7.812500
4901,-7.812500
4902,-7.812500
4903,-7.812500
4904,-7.812500
4905,-7.812500
4906,-7.812500
4907,-7.812500
4908,-7.812500
4909,-7.812500
4910,-7.812500
4911,-7.812500
4912,-7.812500
4913,-7.812500
4914,-7.812500
4915,-7.812500
4916,-7.812500
4917,-7.812500
4918,-7.812500
4919,-7.812500
4920,-7.812500
4921,-7.812500
4922,-7.812500
4923,-7.812500
4924,-7.812500
4925,-7.812500
4926,-11.718750
4927,-7.812500
4928,-11.718750
4929,-11.718750
4930,-11.718750
4931,-7.812500
4932,-7.812500
4933,-7.812500
4934,-11.718750
4935,-11.718750
4936,-11.718750
4937,-11.718750
4938,-11.718750
4939,-11.718750
4940,-11.718750
4941,-11.718750
4942,-11.718750
4943,-11.718750
4944,-11.718750
4945,-11.718750
4946,-11.718750
4947,-11.718750
4948,-11.718750
4949,-11.718750
4950,-11.718750
4951,-11.718750
4952,-11.718750
4953,-11.718750
4954,-11.718750
4955,-11.718750
4956,-11.718750
4957,-11.718750
4958,-11.718750
4959,-11.718750
4960,-11.718750
4961,-11.718750
4962,-11.718750
4963,-11.718750
4964,-11.718750
4965,-11.718750
4966,-11.718750
4967,-11.718750
4968,-11.718750
4969,-11.718750
4970,-11.718750
4971,-11.718750
4972,-11.718750
4973,-11.718750
4974,-11.718750
4975,-11.718750
4976,-11.718750
4977,-11.718750
4978,-15.625000
4979,-15.625000
4980,-15.625000
4981,-15.625000
4982,-15.625000
4983,-15.625000
4984,-15.625000
4985,-15.625000
4986,-15.625000
4987,-15.625000
4988,-15.625000
4989,-15.625000
4990,-15.625000
4991,-15.625000
4992,-15.625000
4993,-15.625000
4994,-15.625000
4995,-15.625000
4996,-15.625000
4997,-15.625000
4998,-15.625000
4999,-15.625000
5000,-15.625000
5001,-15.625000
5002,-15.625000
5003,-15.625000
5004,-15.625000
5005,-15.625000
5006,-15.625000
5007,-15.625000
5008,-15.625000
5009,-15.625000
5010,-15.625000
5011,-15.625000
5012,-15.625000
5013,-15.625000
5014,-15.625000
5015,-15.625000
5016,-15.625000
5017,-15.625000
5018,-19.531250
5019,-15.625000
5020,-15.625000
5021,-15.625000
5022,-15.625000
5023,-15.625000
5024,-15.625000
5025,-19.531250
5026,-19.531250
5027,-19.531250
5028,-19.531250
5029,-19.531250
5030,-19.531250
5031,-19.531250
5032,-19.531250
5033,-19.531250
5034,-19.531250
5035,-19.531250
5036,-19.531250
5037,-19.531250
5038,-19.531250
5039,-19.531250
5040,-19.531250
5041,-19.531250
5042,-19.531250
5043,-19.531250
5044,-19.531250
5045,-19.531250
5046,-19.531250
5047,-19.531250
5048,-19.531250
5049,-19.531250
5050,-19.531250
5051,-19.531250
5052,-19.531250
5053,-19.531250
5054,-19.531250
5055,-19.531250
5056,-19.531250
5057,-19.531250
5058,-19.531250
5059,-19.531250
5060,-19.531250
5061,-19.531250
5062,-19.531250
5063,-19.531250
5064,-23.437500
5065,-19.531250
5066,-19.531250
5067,-19.531250
5068,-19.531250
5069,-19.531250
5070,-19.531250
5071,-19.531250
5072,-19.531250
5073,-19.531250
5074,-23.437500
5075,-23.437500
5076,-23.437500
5077,-23.437500
5078,-23.437500
5079,-23.437500
5080,-23.437500
5081,-19.531250
5082,-23.437500
5083,-23.437500
5084,-23.437500
5085,-23.437500
5086,-23.437500
5087,-19.531250
5088,-23.437500
5089,-23.437500
5090,-23.437500
5091,-23.437500
5092,-23.437500
5093,-23.437500
5094,-23.437500
5095,-23.437500
5096,-23.437500
5097,-23.437500
5098,-23.437500
5099,-23.437500
5100,-23.437500
5101,-23.437500
5102,-23.437500
5103,-23.437500
5104,-23.437500
5105,-23.437500
5106,-23.437500
5107,-23.437500
5108,-23.437500
5109,-23.437500
5110,-23.437500
5111,-23.437500
5112,-23.437500
5113,-23.437500
5114,-23.437500
5115,-23.437500
5116,-23.437500
5117,-23.437500
5118,-23.437500
5119,-23.437500
5120,-27.343750
5121,-23.437500
5122,-23.437500
5123,-23.437500
5124,-23.437500
5125,-23.437500
5126,-23.437500
5127,-23.437500
5128,-27.343750
5129,-27.343750
5130,-23.437500
5131,-27.343750
5132,-27.343750
5133,-27.343750
5134,-27.343750
5135,-27.343750
5136,-27.343750
5137,-27.343750
5138,-27.343750
5139,-27.343750
5140,-27.343750
5141,-27.343750
5142,-27.343750
5143,-27.343750
5144,-27.343750
5145,-27.343750
5146,-27.343750
5147,-27.343750
5148,-27.343750
5149,-27.343750
5150,-27.343750
5151,-27.343750
5152,-27.343750
5153,-27.343750
5154,-27.343750
5155,-27.343750
5156,-27.343750
5157,-27.343750
5158,-27.343750
5159,-27.343750
5160,-27.343750
5161,-27.343750
5162,-27.343750
5163,-27.343750
5164,-27.343750
5165,-27.343750
5166,-27.343750
5167,-27.343750
5168,-27.343750
5169,-27.343750
5170,-27.343750
5171,-27.343750
5172,-27.343750
5173,-27.343750
5174,-27.343750
5175,-27.343750
5176,-27.343750
5177,-27.343750
5178,-27.343750
5179,-27.343750
5180,-27.343750
5181,-27.343750
5182,-27.343750
5183,-27.343750
5184,-27.343750
5185,-27.343750
5186,-27.343750
5187,-27.343750
5188,-27.343750
5189,-27.343750
5190,-27.343750
5191,-27.343750
5192,-27.343750
5193,-27.343750
5194,-27.343750
5195,-27.343750
5196,-27.343750
5197,-27.343750
5198,-27.343750
5199,-27.343750
5200,-27.343750
5201,-27.343750
5202,-27.343750
5203,-27.343750
5204,-27.343750
5205,-27.343750
5206,-27.343750
5207,-27.343750
5208,-27.343750
5209,-27.343750
5210,-27.343750
5211,-27.343750
5212,-27.343750
5213,-27.343750
5214,-27.343750
5215,-27.343750
5216,-27.343750
5217,-27.343750
5218,-27.343750
5219,-27.343750
5220,-27.343750
5221,-27.343750
5222,-27.343750
5223,-27.343750
5224,-27.343750
5225,-27.343750
5226,-27.343750
5227,-27.343750
5228,-27.343750
5229,-27.343750
5230,-27.343750
5231,-27.343750
5232,-27.343750
5233,-27.343750
5234,-27.343750
5235,-27.343750
5236,-27.343750
5237,-27.343750
5238,-27.343750
5239,-27.343750
5240,-27.343750
5241,-27.343750
5242,-27.343750
5243,-27.343750
5244,-27.343750
5245,-27.343750
5246,-27.343750
5247,-27.343750
5248,-27.343750
5249,-27.343750
5250,-27.343750
5251,-27.343750
5252,-27.343750
5253,-27.343750
5254,-27.343750
5255,-27.343750
5256,-27.343750
5257,-27.343750
5258,-27.343750
5259,-27.343750
5260,-27.343750
5261,-27.343750
5262,-27.343750
5263,-27.343750
5264,-27.343750
5265,-27.343750
5266,-27.343750
5267,-27.343750
5268,-27.343750
5269,-27.343750
5270,-27.343750
5271,-27.343750
5272,-27.343750
5273,-27.343750
5274,-27.343750
5275,-27.343750
5276,-27.343750
5277,-27.343750
5278,-27.343750
5279,-27.343750
5280,-27.343750
5281,-27.343750
5282,-27.343750
5283,-27.343750
5284,-27.343750
5285,-27.343750
5286,-27.343750
5287,-27.343750
5288,-27.343750
5289,-27.343750
5290,-27.343750
5291,-27.343750
5292,-27.343750
5293,-27.343750
5294,-27.343750
5295,-27.343750
5296,-27.343750
5297,-27.343750
5298,-27.343750
5299,-27.343750
5300,-27.343750
5301,-27.343750
5302,-27.343750
5303,-27.343750
5304,-27.343750
5305,-27.343750
5306,-27.343750
5307,-27.343750
5308,-27.343750
5309,-27.343750
5310,-27.343750
5311,-27.343750
5312,-27.343750
5313,-27.343750
5314,-27.343750
5315,-27.343750
5316,-23.437500
5317,-23.437500
5318,-23.437500
5319,-23.437500
5320,-27.343750
5321,-23.437500
5322,-23.437500
5323,-23.437500
5324,-23.437500
5325,-23.437500
5326,-23.437500
5327,-23.437500
5328,-23.437500
5329,-23.437500
5330,-23.437500
5331,-23.437500
5332,-23.437500
5333,-23.437500
5334,-23.437500
5335,-23.437500
5336,-23.437500
5337,-23.437500
5338,-23.437500
5339,-23.437500
5340,-23.437500
5341,-23.437500
5342,-23.437500
5343,-23.437500
5344,-23.437500
5345,-23.437500
5346,-23.437500
5347,-23.437500
5348,-23.437500
5349,-23.437500
5350,-23.437500
5351,-23.437500
5352,-23.437500
5353,-23.437500
5354,-23.437500
5355,-23.437500
5356,-23.437500
5357,-23.437500
5358,-23.437500
5359,-23.437500
5360,-23.437500
5361,-23.437500
5362,-23.437500
5363,-23.437500
5364,-23.437500
5365,-23.437500
5366,-23.437500
5367,-23.437500
5368,-23.437500
5369,-19.531250
5370,-23.437500
5371,-23.437500
5372,-23.437500
5373,-19.531250
5374,-19.531250
5375,-19.531250
5376,-19.531250
5377,-19.531250
5378,-23.437500
5379,-23.437500
5380,-19.531250
5381,-19.531250
5382,-19.531250
5383,-19.531250
5384,-19.531250
5385,-19.531250
5386,-19.531250
5387,-19.531250
5388,-19.531250
5389,-19.531250
5390,-19.531250
5391,-19.531250
5392,-19.531250
5393,-19.531250
5394,-19.531250
5395,-19.531250
5396,-19.531250
5397,-19.531250
5398,-19.531250
5399,-19.531250
5400,-19.531250
5401,-19.531250
5402,-19.531250
5403,-15.625000
5404,-19.531250
5405,-19.531250
5406,-19.531250
5407,-19.531250
5408,-19.531250
5409,-19.531250
5410,-19.531250
5411,-15.625000
5412,-19.531250
5413,-19.531250
5414,-19.531250
5415,-15.625000
5416,-19.531250
5417,-19.531250
5418,-15.625000
5419,-15.625000
5420,-15.625000
5421,-15.625000
5422,-15.625000
5423,-15.625000
5424,-15.625000
5425,-15.625000
5426,-15.625000
5427,-15.625000
5428,-15.625000
5429,-15.625000
5430,-15.625000
5431,-15.625000
5432,-15.625000
5433,-15.625000
5434,-15.625000
5435,-15.625000
5436,-15.625000
5437,-15.625000
5438,-15.625000
5439,-15.625000
5440,-15.625000
5441,-15.625000
5442,-15.625000
5443,-15.625000
5444,-15.625000
5445,-15.625000
5446,-15.625000
5447,-15.625000
5448,-15.625000
5449,-11.718750
5450,-15.625000
5451,-15.625000
5452,-15.625000
5453,-15.625000
5454,-15.625000
5455,-15.625000
5456,-11.718750
5457,-15.625000
5458,-15.625000
5459,-11.718750
5460,-11.718750
5461,-11.718750
5462,-11.718750
5463,-11.718750
5464,-11.718750
5465,-11.718750
5466,-11.718750
5467,-11.718750
5468,-11.718750
5469,-11.718750
5470,-11.718750
5471,-11.718750
5472,-11.718750
5473,-11.718750
5474,-11.718750
5475,-11.718750
5476,-11.718750
5477,-11.718750
5478,-11.718750
5479,-11.718750
5480,-11.718750
5481,-11.718750
5482,-11.718750
5483,-11.718750
5484,-11.718750
5485,-11.718750
5486,-11.718750
5487,-11.718750
5488,-11.718750
5489,-11.718750
5490,-11.718750
5491,-11.718750
5492,-11.718750
5493,-11.718750
5494,-11.718750
5495,-11.718750
5496,-11.718750
5497,-11.718750
5498,-11.718750
5499,-11.718750
5500,-11.718750
5501,-11.718750
5502,-11.718750
5503,-11.718750
5504,-11.718750
5505,-11.718750
5506,-11.718750
5507,-7.812500
5508,-7.812500
5509,-11.718750
5510,-11.718750
5511,-7.812500
5512,-7.812500
5513,-11.718750
5514,-11.718750
5515,-7.812500
5516,-7.812500
5517,-7.812500
5518,-7.812500
5519,-7.812500
5520,-7.812500
5521,-7.812500
5522,-7.812500
5523,-7.812500
5524,-7.812500
5525,-7.812500
5526,-7.812500
5527,-7.812500
5528,-7.812500
5529,-7.812500
5530,-7.812500
5531,-7.812500
5532,-7.812500
5533,-7.812500
5534,-7.812500
5535,-7.812500
5536,-7.812500
5537,-7.812500
5538,-7.812500
5539,-7.812500
5540,-7.812500
5541,-7.812500
5542,-7.812500
5543,-7.812500
5544,-7.812500
5545,-7.812500
5546,-7.812500
5547,-7.812500
5548,-7.812500
5549,-7.812500
5550,-7.812500
5551,-7.812500
5552,-7.812500
5553,-7.812500
5554,-7.812500
5555,-7.812500
5556,-7.812500
5557,-7.812500
5558,-7.812500
5559,-7.812500
5560,-7.812500
5561,-3.906250
5562,-3.906250
5563,-7.812500
5564,-7.812500
5565,-3.906250
5566,-7.812500
5567,-7.812500
5568,-7.812500
5569,-3.906250
5570,-3.906250
5571,-3.906250
5572,-3.906250
5573,-3.906250
5574,-7.812500
5575,-7.812500
5576,-3.906250
5577,-3.906250
5578,-3.906250
5579,-3.906250
5580,-3.906250
5581,-3.906250
5582,-3.906250
5583,-3.906250
5584,-3.906250
5585,-3.906250
5586,-3.906250
5587,-3.906250
5588,-3.906250
5589,-3.906250
5590,-3.906250
5591,-3.906250
5592,-3.906250
5593,-3.906250
5594,-3.906250
5595,-3.906250
5596,-3.906250
5597,-3.906250
5598,-3.906250
5599,-3.906250
5600,-3.906250
5601,-3.906250
5602,-3.906250
5603,-3.906250
5604,-3.906250
5605,-3.906250
5606,-3.906250
5607,-3.906250
5608,-3.906250
5609,-3.906250
5610,-3.906250
5611,-3.906250
5612,-3.906250
5613,-3.906250
5614,-3.906250
5615,-3.906250
5616,-3.906250
5617,-3.906250
5618,-3.906250
5619,-3.906250
5620,-3.906250
5621,-3.906250
5622,-3.906250
5623,-3.906250
5624,-3.906250
5625,-3.906250
5626,-3.906250
5627,-3.906250
5628,-3.906250
5629,-3.906250
5630,-3.906250
5631,-3.906250
5632,-3.906250
5633,-3.906250
5634,-3.906250
5635,-3.906250
5636,-3.906250
5637,-3.906250
5638,-3.906250
5639,-3.906250
5640,-3.906250
5641,-3.906250
5642,-3.906250
5643,-3.906250
5644,-3.906250
5645,-3.906250
5646,-3.906250
5647,-3.906250
5648,-3.906250
5649,-3.906250
5650,-3.906250
5651,-3.906250
5652,-3.906250
5653,-3.906250
5654,-3.906250
5655,-3.906250
5656,-3.906250
5657,-3.906250
5658,-3.906250
5659,-3.906250
5660,-3.906250
5661,-3.906250
5662,-3.906250
5663,-3.906250
5664,-3.906250
5665,-3.906250
5666,-3.906250
5667,-3.906250
5668,-3.906250
5669,-3.906250
5670,-3.906250
5671,-3.906250
5672,-3.906250
5673,0.000000
5674,-3.906250
5675,-3.906250
5676,0.000000
5677,-3.906250
5678,-3.906250
5679,-3.906250
5680,-3.906250
5681,-3.906250
5682,0.000000
5683,-3.906250
5684,-3.906250
5685,-3.906250
5686,-3.906250
5687,-3.906250
5688,-3.906250
5689,-3.906250
5690,-3.906250
5691,-3.906250
5692,-3.906250
5693,0.000000
5694,0.000000
5695,-3.906250
5696,-3.906250
5697,-3.906250
5698,-3.906250
5699,0.000000
5700,-3.906250
5701,-3.906250
5702,-3.906250
5703,-3.906250
5704,-3.906250
5705,-3.906250
5706,-3.906250
5707,-3.906250
5708,-3.906250
5709,-3.906250
5710,-3.906250
5711,0.000000
5712,-3.906250
5713,-3.906250
5714,-3.906250
5715,-3.906250
5716,-3.906250
5717,-3.906250
5718,-3.906250
5719,-3.906250
5720,-3.906250
5721,-3.906250
5722,-3.906250
5723,-3.906250
5724,0.000000
5725,-3.906250
5726,-3.906250
5727,-3.906250
5728,-3.906250
5729,-3.906250
5730,-3.906250
5731,-3.906250
5732,-3.906250
5733,-3.906250
5734,-3.906250
5735,-3.906250
5736,-3.906250
5737,-3.906250
5738,-3.906250
5739,-3.906250
5740,-3.906250
5741,-3.906250
5742,-3.906250
5743,-3.906250
5744,-3.906250
5745,-3.906250
5746,-3.906250
5747,-3.906250
5748,-3.906250
5749,-3.906250
5750,-3.906250
5751,-3.906250
5752,-3.906250
5753,-3.906250
5754,-3.906250
5755,-3.906250
5756,-3.906250
5757,-3.906250
5758,-3.906250
5759,-3.906250
5760,-3.906250
5761,-3.906250
5762,-3.906250
5763,-3.906250
5764,-3.906250
5765,-3.906250
5766,-3.906250
5767,-3.906250
5768,-3.906250
5769,-3.906250
5770,-3.906250
5771,-3.906250
5772,-3.906250
5773,-3.906250
5774,-3.906250
5775,-3.906250
5776,-3.906250
5777,-3.906250
5778,-3.906250
5779,-3.906250
5780,-3.906250
5781,-3.906250
5782,-3.906250
5783,-3.906250
5784,-3.906250
5785,-3.906250
5786,-3.906250
5787,-3.906250
5788,-3.906250
5789,-3.906250
5790,-3.906250
5791,-3.906250
5792,-3.906250
5793,-3.906250
5794,-3.906250
5795,-3.906250
5796,-3.906250
5797,-3.906250
5798,-3.906250
5799,-3.906250
5800,-3.906250
5801,-3.906250
5802,-3.906250
5803,-3.906250
5804,-3.906250
5805,-3.906250
5806,-3.906250
5807,-3.906250
5808,-3.906250
5809,-3.906250
5810,-3.906250
5811,-3.906250
5812,-3.906250
5813,-3.906250
5814,-3.906250
5815,-3.906250
5816,-3.906250
5817,-3.906250
5818,-3.906250
5819,-3.906250
5820,-3.906250
5821,-3.906250
5822,-3.906250
5823,-3.906250
5824,-3.906250
5825,-3.906250
5826,-3.906250
5827,-3.906250
5828,-3.906250
5829,-3.906250
5830,-3.906250
5831,-3.906250
5832,-3.906250
5833,-3.906250
5834,-3.906250
5835,-3.906250
5836,-3.906250
5837,-3.906250
5838,-3.906250
5839,-3.906250
5840,-3.906250
5841,-3.906250
5842,-3.906250
5843,-3.906250
5844,-3.906250
5845,-3.906250
5846,-3.906250
5847,-3.906250
5848,-3.906250
5849,-3.906250
5850,-7.812500
5851,-3.906250
5852,-3.906250
5853,-3.906250
5854,-7.812500
5855,-7.812500
5856,-7.812500
5857,-3.906250
5858,-7.812500
5859,-7.812500
5860,-7.812500
5861,-7.812500
5862,-7.812500
5863,-7.812500
5864,-7.812500
5865,-7.812500
5866,-7.812500
5867,-7.812500
5868,-7.812500
5869,-7.812500
5870,-7.812500
5871,-7.812500
5872,-7.812500
5873,-7.812500
5874,-7.812500
5875,-7.812500
5876,-7.812500
5877,-7.812500
5878,-7.812500
5879,-7.812500
5880,-7.812500
5881,-7.812500
5882,-7.812500
5883,-7.812500
5884,-7.812500
5885,-7.812500
5886,-7.812500
5887,-7.812500
5888,-7.812500
5889,-7.812500
5890,-7.812500
5891,-7.812500
5892,-7.812500
5893,-7.812500
5894,-7.812500
5895,-7.812500
5896,-7.812500
5897,-7.812500
5898,-7.812500
5899,-7.812500
5900,-7.812500
5901,-11.718750
5902,-7.812500
5903,-7.812500
5904,-7.812500
5905,-7.812500
5906,-7.812500
5907,-11.718750
5908,-7.812500
5909,-11.718750
5910,-11.718750
5911,-7.812500
5912,-7.812500
5913,-7.812500
5914,-11.718750
5915,-7.812500
5916,-7.812500
5917,-7.812500
5918,-11.718750
5919,-11.718750
5920,-11.718750
5921,-11.718750
5922,-11.718750
5923,-11.718750
5924,-11.718750
5925,-11.718750
5926,-11.718750
5927,-11.718750
5928,-11.718750
5929,-11.718750
5930,-11.718750
5931,-11.718750
5932,-11.718750
5933,-11.718750
5934,-11.718750
5935,-11.718750
5936,-11.718750
5937,-11.718750
5938,-11.718750
5939,-11.718750
5940,-11.718750
5941,-11.718750
5942,-11.718750
5943,-11.718750
5944,-11.718750
5945,-11.718750
5946,-11.718750
5947,-11.718750
5948,-11.718750
5949,-11.718750
5950,-11.718750
5951,-11.718750
5952,-11.718750
5953,-11.718750
5954,-11.718750
5955,-11.718750
5956,-11.718750
5957,-11.718750
5958,-11.718750
5959,-11.718750
5960,-11.718750
5961,-11.718750
5962,-11.718750
5963,-15.625000
5964,-11.718750
5965,-15.625000
5966,-15.625000
5967,-15.625000
5968,-15.625000
5969,-15.625000
5970,-15.625000
5971,-11.718750
5972,-15.625000
5973,-15.625000
5974,-15.625000
5975,-15.625000
5976,-15.625000
5977,-15.625000
5978,-15.625000
5979,-15.625000
5980,-15.625000
5981,-15.625000
5982,-15.625000
5983,-15.625000
5984,-15.625000
5985,-15.625000
5986,-15.625000
5987,-15.625000
5988,-15.625000
5989,-15.625000
5990,-15.625000
5991,-15.625000
5992,-15.625000
5993,-15.625000
5994,-15.625000
5995,-15.625000
5996,-15.625000
5997,-15.625000
5998,-15.625000
5999,-15.625000
6000,-15.625000
6001,-15.625000
6002,-15.625000
6003,-15.625000
6004,-15.625000
6005,-15.625000
6006,-15.625000
6007,-15.625000
6008,-15.625000
6009,-19.531250
6010,-15.625000
6011,-15.625000
6012,-19.531250
6013,-15.625000
6014,-19.531250
6015,-19.531250
6016,-19.531250
6017,-19.531250
6018,-19.531250
6019,-19.531250
6020,-19.531250
6021,-19.531250
6022,-19.531250
6023,-19.531250
6024,-19.531250
6025,-19.531250
6026,-19.531250
6027,-19.531250
6028,-19.531250
6029,-19.531250
6030,-19.531250
6031,-19.531250
6032,-19.531250
6033,-19.531250
6034,-19.531250
6035,-19.531250
6036,-19.531250
6037,-19.531250
6038,-19.531250
6039,-19.531250
6040,-19.531250
6041,-19.531250
6042,-19.531250
6043,-19.531250
6044,-19.531250
6045,-19.531250
6046,-19.531250
6047,-19.531250
6048,-19.531250
6049,-19.531250
6050,-23.437500
6051,-19.531250
6052,-19.531250
6053,-19.531250
6054,-19.531250
6055,-19.531250
6056,-23.437500
6057,-23.437500
6058,-23.437500
6059,-19.531250
6060,-23.437500
6061,-23.437500
6062,-19.531250
6063,-19.531250
6064,-19.531250
6065,-23.437500
6066,-23.437500
6067,-23.437500
6068,-23.437500
6069,-23.437500
6070,-23.437500
6071,-23.437500
6072,-23.437500
6073,-23.437500
6074,-23.437500
6075,-23.437500
6076,-23.437500
6077,-23.437500
6078,-23.437500
6079,-23.437500
6080,-23.437500
6081,-23.437500
6082,-23.437500
6083,-23.437500
6084,-23.437500
6085,-23.437500
6086,-23.437500
6087,-23.437500
6088,-23.437500
6089,-23.437500
6090,-23.437500
6091,-23.437500
6092,-23.437500
6093,-23.437500
6094,-23.437500
6095,-23.437500
6096,-23.437500
6097,-23.437500
6098,-23.437500
6099,-23.437500
6100,-23.437500
6101,-23.437500
6102,-23.437500
6103,-23.437500
6104,-23.437500
6105,-23.437500
6106,-27.343750
6107,-23.437500
6108,-23.437500
6109,-23.437500
6110,-23.437500
6111,-23.437500
6112,-23.437500
6113,-23.437500
6114,-23.437500
6115,-23.437500
6116,-23.437500
6117,-27.343750
6118,-27.343750
6119,-27.343750
6120,-27.343750
6121,-23.437500
6122,-27.343750
6123,-27.343750
6124,-27.343750
6125,-27.343750
6126,-27.343750
6127,-27.343750
6128,-27.343750
6129,-27.343750
6130,-27.343750
6131,-27.343750
6132,-27.343750
6133,-27.343750
6134,-27.343750
6135,-27.343750
6136,-27.343750
6137,-27.343750
6138,-27.343750
6139,-27.343750
6140,-27.343750
6141,-27.343750
6142,-27.343750
6143,-27.343750
6144,-27.343750
6145,-27.343750
6146,-27.343750
6147,-27.343750
6148,-27.343750
6149,-27.343750
6150,-27.343750
6151,-27.343750
6152,-27.343750
6153,-27.343750
6154,-27.343750
6155,-27.343750
6156,-27.343750
6157,-27.343750
6158,-27.343750
6159,-27.343750
6160,-27.343750
6161,-27.343750
6162,-27.343750
6163,-27.343750
6164,-27.343750
6165,-27.343750
6166,-27.343750
6167,-27.343750
6168,-27.343750
6169,-27.343750
6170,-27.343750
6171,-27.343750
6172,-27.343750
6173,-27.343750
6174,-27.343750
6175,-27.343750
6176,-27.343750
6177,-27.343750
6178,-27.343750
6179,-27.343750
6180,-27.343750
6181,-27.343750
6182,-27.343750
6183,-27.343750
6184,-27.343750
6185,-27.343750
6186,-27.343750
6187,-27.343750
6188,-27.343750
6189,-27.343750
6190,-27.343750
6191,-27.343750
6192,-27.343750
6193,-27.343750
6194,-27.343750
6195,-27.343750
6196,-27.343750
6197,-27.343750
6198,-27.343750
6199,-27.343750
6200,-27.343750
6201,-27.343750
6202,-27.343750
6203,-27.343750
6204,-27.343750
6205,-27.343750
6206,-27.343750
6207,-27.343750
6208,-27.343750
6209,-27.343750
6210,-27.343750
6211,-27.343750
6212,-27.343750
6213,-27.343750
6214,-27.343750
6215,-27.343750
6216,-27.343750
6217,-27.343750
6218,-27.343750
6219,-27.343750
6220,-27.343750
6221,-27.343750
6222,-27.343750
6223,-27.343750
6224,-27.343750
6225,-27.343750
6226,-27.343750
6227,-27.343750
6228,-27.343750
6229,-27.343750
6230,-27.343750
6231,-27.343750
6232,-27.343750
6233,-27.343750
6234,-27.343750
6235,-27.343750
6236,-27.343750
6237,-27.343750
6238,-27.343750
6239,-27.343750
6240,-27.343750
6241,-27.343750
6242,-27.343750
6243,-27.343750
6244,-27.343750
6245,-27.343750
6246,-27.343750
6247,-27.343750
6248,-27.343750
6249,-27.343750
6250,-27.343750
6251,-27.343750
6252,-27.343750
6253,-27.343750
6254,-27.343750
6255,-27.343750
6256,-27.343750
6257,-27.343750
6258,-27.343750
6259,-27.343750
6260,-27.343750
6261,-27.343750
6262,-27.343750
6263,-27.343750
6264,-27.343750
6265,-27.343750
6266,-27.343750
6267,-27.343750
6268,-27.343750
6269,-27.343750
6270,-27.343750
6271,-27.343750
6272,-27.343750
6273,-27.343750
6274,-27.343750
6275,-27.343750
6276,-27.343750
6277,-27.343750
6278,-27.343750
6279,-27.343750
6280,-27.343750
6281,-27.343750
6282,-27.343750
6283,-27.343750
6284,-27.343750
6285,-27.343750
6286,-27.343750
6287,-27.343750
6288,-27.343750
6289,-27.343750
6290,-23.437500
6291,-27.343750
6292,-27.343750
6293,-27.343750
6294,-27.343750
6295,-27.343750
6296,-27.343750
6297,-27.343750
6298,-27.343750
6299,-27.343750
6300,-27.343750
6301,-27.343750
6302,-27.343750
6303,-27.343750
6304,-27.343750
6305,-23.437500
6306,-27.343750
6307,-23.437500
6308,-23.437500
6309,-23.437500
6310,-23.437500
6311,-23.437500
6312,-27.343750
6313,-23.437500
6314,-27.343750
6315,-23.437500
6316,-27.343750
6317,-23.437500
6318,-23.437500
6319,-23.437500
6320,-23.437500
6321,-23.437500
6322,-23.437500
6323,-23.437500
6324,-23.437500
6325,-23.437500
6326,-23.437500
6327,-23.437500
6328,-23.437500
6329,-23.437500
6330,-23.437500
6331,-23.437500
6332,-23.437500
6333,-23.437500
6334,-23.437500
6335,-23.437500
6336,-23.437500
6337,-23.437500
6338,-23.437500
6339,-23.437500
6340,-23.437500
6341,-23.437500
6342,-23.437500
6343,-23.437500
6344,-23.437500
6345,-23.437500
6346,-23.437500
6347,-23.437500
6348,-23.437500
6349,-23.437500
6350,-23.437500
6351,-23.437500
6352,-23.437500
6353,-23.437500
6354,-23.437500
6355,-23.437500
6356,-19.531250
6357,-19.531250
6358,-19.531250
6359,-19.531250
6360,-19.531250
6361,-19.531250
6362,-19.531250
6363,-19.531250
6364,-19.531250
6365,-19.531250
6366,-19.531250
6367,-19.531250
6368,-19.531250
6369,-19.531250
6370,-19.531250
6371,-19.531250
6372,-19.531250
6373,-19.531250
6374,-19.531250
6375,-19.531250
6376,-19.531250
6377,-19.531250
6378,-19.531250
6379,-19.531250
6380,-19.531250
6381,-19.531250
6382,-19.531250
6383,-19.531250
6384,-19.531250
6385,-19.531250
6386,-19.531250
6387,-19.531250
6388,-19.531250
6389,-19.531250
6390,-19.531250
6391,-19.531250
6392,-19.531250
6393,-19.531250
6394,-19.531250
6395,-19.531250
6396,-19.531250
6397,-19.531250
6398,-19.531250
6399,-19.531250
6400,-19.531250
6401,-19.531250
6402,-19.531250
6403,-19.531250
6404,-19.531250
6405,-19.531250
6406,-15.625000
6407,-15.625000
6408,-15.625000
6409,-15.625000
6410,-19.531250
6411,-15.625000
6412,-15.625000
6413,-15.625000
6414,-15.625000
6415,-15.625000
6416,-15.625000
6417,-15.625000
6418,-15.625000
6419,-15.625000
6420,-15.625000
6421,-15.625000
6422,-15.625000
6423,-15.625000
6424,-15.625000
6425,-15.625000
6426,-15.625000
6427,-15.625000
6428,-15.625000
6429,-15.625000
6430,-15.625000
6431,-15.625000
6432,-15.625000
6433,-15.625000
6434,-15.625000
6435,-15.625000
6436,-15.625000
6437,-15.625000
6438,-15.625000
6439,-15.625000
6440,-15.625000
6441,-15.625000
6442,-15.625000
6443,-15.625000
6444,-15.625000
6445,-11.718750
6446,-11.718750
6447,-15.625000
6448,-11.718750
6449,-11.718750
6450,-11.718750
6451,-15.625000
6452,-11.718750
6453,-11.718750
6454,-11.718750
6455,-11.718750
6456,-15.625000
6457,-11.718750
6458,-11.718750
6459,-11.718750
6460,-11.718750
6461,-11.718750
6462,-11.718750
6463,-11.718750
6464,-11.718750
6465,-11.718750
6466,-11.718750
6467,-11.718750
6468,-11.718750
6469,-11.718750
6470,-11.718750
6471,-11.718750
6472,-11.718750
6473,-11.718750
6474,-11.718750
6475,-11.718750
6476,-11.718750
6477,-11.718750
6478,-11.718750
6479,-11.718750
6480,-11.718750
6481,-11.718750
6482,-11.718750
6483,-11.718750
6484,-11.718750
6485,-11.718750
6486,-11.718750
6487,-7.812500
6488,-11.718750
6489,-11.718750
6490,-11.718750
6491,-11.718750
6492,-7.812500
6493,-7.812500
6494,-7.812500
6495,-7.812500
6496,-7.812500
6497,-7.812500
6498,-7.812500
6499,-7.812500
6500,-7.812500
6501,-11.718750
6502,-7.812500
6503,-7.812500
6504,-7.812500
6505,-7.812500
6506,-11.718750
6507,-7.812500
6508,-7.812500
6509,-7.812500
6510,-7.812500
6511,-7.812500
6512,-7.812500
6513,-7.812500
6514,-7.812500
6515,-7.812500
6516,-7.812500
6517,-7.812500
6518,-7.812500
6519,-7.812500
6520,-7.812500
6521,-7.812500
6522,-7.812500
6523,-7.812500
6524,-7.812500
6525,-7.812500
6526,-7.812500
6527,-7.812500
6528,-7.812500
6529,-7.812500
6530,-7.812500
6531,-7.812500
6532,-7.812500
6533,-7.812500
6534,-7.812500
6535,-7.812500
6536,-7.812500
6537,-7.812500
6538,-7.812500
6539,-7.812500
6540,-7.812500
6541,-7.812500
6542,-7.812500
6543,-7.812500
6544,-7.812500
6545,-7.812500
6546,-7.812500
6547,-7.812500
6548,-7.812500
6549,-7.812500
6550,-7.812500
6551,-7.812500
6552,-7.812500
6553,-7.812500
6554,-7.812500
6555,-3.906250
6556,-7.812500
6557,-7.812500
6558,-7.812500
6559,-3.906250
6560,-7.812500
6561,-7.812500
6562,-7.812500
6563,-3.906250
6564,-3.906250
6565,-3.906250
6566,-7.812500
6567,-3.906250
6568,-3.906250
6569,-3.906250
6570,-7.812500
6571,-3.906250
6572,-3.906250
6573,-3.906250
6574,-3.906250
6575,-7.812500
6576,-3.906250
6577,-3.906250
6578,-3.906250
6579,-3.906250
6580,-3.906250
6581,-3.906250
6582,-3.906250
6583,-3.906250
6584,-3.906250
6585,-3.906250
6586,-3.906250
6587,-3.906250
6588,-3.906250
6589,-3.906250
6590,-3.906250
6591,-3.906250
6592,-3.906250
6593,-3.906250
6594,-3.906250
6595,-3.906250
6596,-3.906250
6597,-3.906250
6598,-3.906250
6599,-3.906250
6600,-3.906250
6601,-3.906250
6602,-3.906250
6603,-3.906250
6604,-3.906250
6605,-3.906250
6606,-3.906250
6607,-3.906250
6608,-3.906250
6609,-3.906250
6610,-3.906250
6611,-3.906250
6612,-3.906250
6613,-3.906250
6614,-3.906250
6615,-3.906250
6616,-3.906250
6617,-3.906250
6618,-3.906250
6619,-3.906250
6620,-3.906250
6621,-3.906250
6622,-3.906250
6623,-3.906250
6624,-3.906250
6625,-3.906250
6626,-3.906250
6627,-3.906250
6628,-3.906250
6629,-3.906250
6630,-3.906250
6631,-3.906250
6632,-3.906250
6633,-3.906250
6634,-3.906250
6635,-3.906250
6636,-3.906250
6637,-3.906250
6638,-3.906250
6639,-3.906250
6640,-3.906250
6641,-3.906250
6642,-3.906250
6643,-3.906250
6644,-3.906250
6645,-3.906250
6646,-3.906250
6647,-3.906250
6648,-3.906250
6649,-3.906250
6650,-3.906250
6651,-3.906250
6652,-3.906250
6653,-3.906250
6654,-3.906250
6655,-3.906250
6656,-3.906250
6657,-3.906250
6658,-3.906250
6659,-3.906250
6660,-3.906250
6661,-3.906250
6662,-3.906250
6663,-3.906250
6664,-3.906250
6665,-3.906250
6666,-3.906250
6667,-3.906250
6668,-3.906250
6669,-3.906250
6670,-3.906250
6671,-3.906250
6672,-3.906250
6673,-3.906250
6674,-3.906250
6675,-3.906250
6676,-3.906250
6677,-3.906250
6678,-3.906250
6679,-3.906250
6680,-3.906250
6681,-3.906250
6682,-3.906250
6683,-3.906250
6684,-3.906250
6685,-3.906250
6686,-3.906250
6687,-3.906250
6688,-3.906250
6689,-3.906250
6690,-3.906250
6691,-3.906250
6692,-3.906250
6693,-3.906250
6694,-3.906250
6695,-3.906250
6696,-3.906250
6697,-3.906250
6698,-3.906250
6699,-3.906250
6700,-3.906250
6701,-3.906250
6702,-3.906250
6703,-3.906250
6704,-3.906250
6705,-3.906250
6706,-3.906250
6707,-3.906250
6708,-3.906250
6709,-3.906250
6710,-3.906250
6711,-3.906250
6712,-3.906250
6713,-3.906250
6714,-3.906250
6715,-3.906250
6716,-3.906250
6717,-3.906250
6718,-3.906250
6719,-3.906250
6720,-3.906250
6721,-3.906250
6722,-3.906250
6723,-3.906250
6724,-3.906250
6725,-3.906250
6726,-3.906250
6727,-3.906250
6728,-3.906250
6729,-3.906250
6730,-3.906250
6731,-3.906250
6732,-3.906250
6733,-3.906250
6734,-3.906250
6735,-3.906250
6736,-3.906250
6737,-3.906250
6738,-3.906250
6739,-3.906250
6740,-3.906250
6741,-3.906250
6742,-3.906250
6743,-3.906250
6744,-3.906250
6745,-3.906250
6746,-3.906250
6747,-3.906250
6748,-3.906250
6749,-3.906250
6750,-3.906250
6751,-3.906250
6752,-3.906250
6753,-3.906250
6754,-3.906250
6755,-3.906250
6756,-3.906250
6757,-3.906250
6758,-3.906250
6759,-3.906250
6760,-3.906250
6761,-3.906250
6762,-3.906250
6763,-3.906250
6764,-3.906250
6765,-3.906250
6766,-3.906250
6767,-3.906250
6768,-3.906250
6769,-3.906250
6770,-3.906250
6771,-3.906250
6772,-3.906250
6773,-3.906250
6774,-3.906250
6775,-3.906250
6776,-3.906250
6777,-3.906250
6778,-3.906250
6779,-3.906250
6780,-3.906250
6781,-3.906250
6782,-3.906250
6783,-3.906250
6784,-3.906250
6785,-3.906250
6786,-3.906250
6787,-3.906250
6788,-3.906250
6789,-3.906250
6790,-3.906250
6791,-3.906250
6792,-3.906250
6793,-3.906250
6794,-3.906250
6795,-3.906250
6796,-3.906250
6797,-3.906250
6798,-3.906250
6799,-3.906250
6800,-3.906250
6801,-3.906250
6802,-3.906250
6803,-3.906250
6804,-3.906250
6805,-3.906250
6806,-3.906250
6807,-3.906250
6808,-3.906250
6809,-3.906250
6810,-7.812500
6811,-3.906250
6812,-7.812500
6813,-7.812500
6814,-3.906250
6815,-7.812500
6816,-7.812500
6817,-3.906250
6818,-7.812500
6819,-7.812500
6820,-7.812500
6821,-3.906250
6822,-3.906250
6823,-3.906250
6824,-7.812500
6825,-3.906250
6826,-7.812500
6827,-7.812500
6828,-7.812500
6829,-7.812500
6830,-7.812500
6831,-7.812500
6832,-7.812500
6833,-7.812500
6834,-7.812500
6835,-7.812500
6836,-7.812500
6837,-7.812500
6838,-7.812500
6839,-7.812500
6840,-7.812500
6841,-3.906250
6842,-7.812500
6843,-7.812500
6844,-7.812500
6845,-7.812500
6846,-7.812500
6847,-7.812500
6848,-7.812500
6849,-3.906250
6850,-7.812500
6851,-7.812500
6852,-7.812500
6853,-7.812500
6854,-7.812500
6855,-7.812500
6856,-7.812500
6857,-7.812500
6858,-7.812500
6859,-7.812500
6860,-7.812500
6861,-7.812500
6862,-7.812500
6863,-7.812500
6864,-7.812500
6865,-7.812500
6866,-7.812500
6867,-7.812500
6868,-7.812500
6869,-7.812500
6870,-7.812500
6871,-7.812500
6872,-7.812500
6873,-7.812500
6874,-7.812500
6875,-7.812500
6876,-7.812500
6877,-7.812500
6878,-7.812500
6879,-7.812500
6880,-7.812500
6881,-7.812500
6882,-7.812500
6883,-7.812500
6884,-7.812500
6885,-7.812500
6886,-7.812500
6887,-7.812500
6888,-7.812500
6889,-7.812500
6890,-7.812500
6891,-7.812500
6892,-7.812500
6893,-7.812500
6894,-11.718750
6895,-7.812500
6896,-11.718750
6897,-7.812500
6898,-7.812500
6899,-11.718750
6900,-7.812500
6901,-7.812500
6902,-7.812500
6903,-7.812500
6904,-11.718750
6905,-7.812500
6906,-11.718750
6907,-11.718750
6908,-11.718750
6909,-11.718750
6910,-11.718750
6911,-11.718750
6912,-11.718750
6913,-11.718750
6914,-11.718750
6915,-11.718750
6916,-11.718750
6917,-11.718750
6918,-11.718750
6919,-11.718750
6920,-11.718750
6921,-11.718750
6922,-11.718750
6923,-11.718750
6924,-11.718750
6925,-11.718750
6926,-11.718750
6927,-11.718750
6928,-11.718750
6929,-11.718750
6930,-11.718750
6931,-11.718750
6932,-11.718750
6933,-11.718750
6934,-11.718750
6935,-11.718750
6936,-11.718750
6937,-11.718750
6938,-11.718750
6939,-11.718750
6940,-11.718750
6941,-11.718750
6942,-11.718750
6943,-11.718750
6944,-15.625000
6945,-11.718750
6946,-11.718750
6947,-11.718750
6948,-15.625000
6949,-11.718750
6950,-11.718750
6951,-15.625000
6952,-15.625000
6953,-15.625000
6954,-11.718750
6955,-15.625000
6956,-15.625000
6957,-15.625000
6958,-15.625000
6959,-11.718750
6960,-15.625000
6961,-15.625000
6962,-15.625000
6963,-15.625000
6964,-15.625000
6965,-15.625000
6966,-15.625000
6967,-15.625000
6968,-15.625000
6969,-15.625000
6970,-15.625000
6971,-15.625000
6972,-15.625000
6973,-15.625000
6974,-15.625000
6975,-15.625000
6976,-15.625000
6977,-15.625000
6978,-15.625000
6979,-15.625000
6980,-15.625000
6981,-15.625000
6982,-15.625000
6983,-15.625000
6984,-15.625000
6985,-15.625000
6986,-15.625000
6987,-15.625000
6988,-15.625000
6989,-15.625000
6990,-15.625000
6991,-15.625000
6992,-15.625000
6993,-15.625000
6994,-15.625000
6995,-15.625000
6996,-15.625000
6997,-15.625000
6998,-15.625000
6999,-15.625000
7000,-19.531250
7001,-15.625000
7002,-15.625000
7003,-15.625000
7004,-15.625000
7005,-19.531250
7006,-15.625000
7007,-19.531250
7008,-19.531250
7009,-15.625000
7010,-19.531250
7011,-19.531250
7012,-19.531250
7013,-19.531250
7014,-19.531250
7015,-19.531250
7016,-19.531250
7017,-19.531250
7018,-19.531250
7019,-19.531250
7020,-19.531250
7021,-19.531250
7022,-19.531250
7023,-19.531250
7024,-19.531250
7025,-19.531250
7026,-19.531250
7027,-19.531250
7028,-19.531250
7029,-19.531250
7030,-19.531250
7031,-19.531250
7032,-19.531250
7033,-19.531250
7034,-19.531250
7035,-19.531250
7036,-19.531250
7037,-19.531250
7038,-19.531250
7039,-19.531250
7040,-19.531250
7041,-19.531250
7042,-19.531250
7043,-19.531250
7044,-19.531250
7045,-19.531250
7046,-19.531250
7047,-19.531250
7048,-23.437500
7049,-23.437500
7050,-23.437500
7051,-19.531250
7052,-23.437500
7053,-19.531250
7054,-23.437500
7055,-19.531250
7056,-23.437500
7057,-23.437500
7058,-23.437500
7059,-23.437500
7060,-23.437500
7061,-23.437500
7062,-23.437500
7063,-23.437500
7064,-23.437500
7065,-23.437500
7066,-23.437500
7067,-23.437500
7068,-23.437500
7069,-23.437500
7070,-23.437500
7071,-23.437500
7072,-23.437500
7073,-23.437500
7074,-23.437500
7075,-23.437500
7076,-23.437500
7077,-23.437500
7078,-23.437500
7079,-23.437500
7080,-23.437500
7081,-23.437500
7082,-23.437500
7083,-23.437500
7084,-23.437500
7085,-23.437500
7086,-23.437500
7087,-23.437500
7088,-23.437500
7089,-23.437500
7090,-23.437500
7091,-23.437500
7092,-27.343750
7093,-23.437500
7094,-23.437500
7095,-23.437500
7096,-23.437500
7097,-27.343750
7098,-27.343750
7099,-23.437500
7100,-27.343750
7101,-27.343750
7102,-23.437500
7103,-27.343750
7104,-23.437500
7105,-23.437500
7106,-27.343750
7107,-27.343750
7108,-27.343750
7109,-27.343750
7110,-27.343750
7111,-23.437500
7112,-27.343750
7113,-27.343750
7114,-27.343750
7115,-27.343750
7116,-27.343750
7117,-27.343750
7118,-27.343750
7119,-27.343750
7120,-27.343750
7121,-27.343750
7122,-27.343750
7123,-27.343750
7124,-27.343750
7125,-27.343750
7126,-27.343750
7127,-27.343750
7128,-27.343750
7129,-23.437500
7130,-27.343750
7131,-27.343750
7132,-27.343750
7133,-27.343750
7134,-27.343750
7135,-27.343750
7136,-27.343750
7137,-27.343750
7138,-27.343750
7139,-27.343750
7140,-27.343750
7141,-27.343750
7142,-27.343750
7143,-27.343750
7144,-27.343750
7145,-27.343750
7146,-27.343750
7147,-27.343750
7148,-27.343750
7149,-27.343750
7150,-27.343750
7151,-27.343750
7152,-27.343750
7153,-27.343750
7154,-27.343750
7155,-27.343750
7156,-27.343750
7157,-27.343750
7158,-27.343750
7159,-27.343750
7160,-27.343750
7161,-27.343750
7162,-27.343750
7163,-27.343750
7164,-27.343750
7165,-27.343750
7166,-27.343750
7167,-27.343750
7168,-27.343750
7169,-27.343750
7170,-27.343750
7171,-27.343750
7172,-27.343750
7173,-27.343750
7174,-27.343750
7175,-27.343750
7176,-27.343750
7177,-27.343750
7178,-27.343750
7179,-27.343750
7180,-31.250000
7181,-27.343750
7182,-27.343750
7183,-27.343750
7184,-27.343750
7185,-27.343750
7186,-27.343750
7187,-27.343750
7188,-27.343750
7189,-27.343750
7190,-31.250000
7191,-27.343750
7192,-27.343750
7193,-27.343750
7194,-27.343750
7195,-27.343750
7196,-27.343750
7197,-27.343750
7198,-27.343750
7199,-27.343750
7200,-31.250000
7201,-27.343750
7202,-27.343750
7203,-27.343750
7204,-27.343750
7205,-27.343750
7206,-27.343750
7207,-27.343750
7208,-27.343750
7209,-27.343750
7210,-27.343750
7211,-27.343750
7212,-27.343750
7213,-27.343750
7214,-27.343750
7215,-27.343750
7216,-27.343750
7217,-27.343750
7218,-27.343750
7219,-27.343750
7220,-31.250000
7221,-27.343750
7222,-27.343750
7223,-27.343750
7224,-27.343750
7225,-27.343750
7226,-27.343750
7227,-27.343750
7228,-27.343750
7229,-27.343750
7230,-27.343750
7231,-27.343750
7232,-27.343750
7233,-27.343750
7234,-27.343750
7235,-27.343750
7236,-27.343750
7237,-27.343750
7238,-27.343750
7239,-27.343750
7240,-27.343750
7241,-27.343750
7242,-27.343750
7243,-27.343750
7244,-27.343750
7245,-27.343750
7246,-27.343750
7247,-27.343750
7248,-27.343750
7249,-27.343750
7250,-27.343750
7251,-27.343750
7252,-27.343750
7253,-27.343750
7254,-27.343750
7255,-27.343750
7256,-27.343750
7257,-27.343750
7258,-27.343750
7259,-27.343750
7260,-27.343750
7261,-27.343750
7262,-27.343750
7263,-27.343750
7264,-27.343750
7265,-27.343750
7266,-27.343750
7267,-27.343750
7268,-27.343750
7269,-27.343750
7270,-27.343750
7271,-27.343750
7272,-27.343750
7273,-27.343750
7274,-27.343750
7275,-27.343750
7276,-27.343750
7277,-27.343750
7278,-27.343750
7279,-27.343750
7280,-27.343750
7281,-27.343750
7282,-27.343750
7283,-27.343750
7284,-27.343750
7285,-27.343750
7286,-23.437500
7287,-27.343750
7288,-27.343750
7289,-27.343750
7290,-27.343750
7291,-23.437500
7292,-27.343750
7293,-23.437500
7294,-27.343750
7295,-23.437500
7296,-23.437500
7297,-23.437500
7298,-27.343750
7299,-23.437500
7300,-23.437500
7301,-23.437500
7302,-27.343750
7303,-23.437500
7304,-23.437500
7305,-23.437500
7306,-23.437500
7307,-23.437500
7308,-23.437500
7309,-23.437500
7310,-23.437500
7311,-23.437500
7312,-23.437500
7313,-23.437500
7314,-23.437500
7315,-23.437500
7316,-23.437500
7317,-23.437500
7318,-23.437500
7319,-23.437500
7320,-23.437500
7321,-23.437500
7322,-23.437500
7323,-23.437500
7324,-23.437500
7325,-23.437500
7326,-23.437500
7327,-23.437500
7328,-23.437500
7329,-23.437500
7330,-23.437500
7331,-23.437500
7332,-23.437500
7333,-23.437500
7334,-23.437500
7335,-23.437500
7336,-23.437500
7337,-23.437500
7338,-23.437500
7339,-23.437500
7340,-23.437500
7341,-23.437500
7342,-23.437500
7343,-23.437500
7344,-23.437500
7345,-23.437500
7346,-23.437500
7347,-23.437500
7348,-23.437500
7349,-19.531250
7350,-19.531250
7351,-19.531250
7352,-19.531250
7353,-19.531250
7354,-23.437500
7355,-19.531250
7356,-23.437500
7357,-19.531250
7358,-19.531250
7359,-19.531250
7360,-19.531250
7361,-19.531250
7362,-19.531250
7363,-19.531250
7364,-19.531250
7365,-19.531250
7366,-19.531250
7367,-19.531250
7368,-19.531250
7369,-19.531250
7370,-19.531250
7371,-19.531250
7372,-19.531250
7373,-19.531250
7374,-19.531250
7375,-19.531250
7376,-19.531250
7377,-19.531250
7378,-19.531250
7379,-19.531250
7380,-19.531250
7381,-19.531250
7382,-19.531250
7383,-19.531250
7384,-19.531250
7385,-19.531250
7386,-15.625000
7387,-15.625000
7388,-15.625000
7389,-15.625000
7390,-19.531250
7391,-15.625000
7392,-15.625000
7393,-15.625000
7394,-15.625000
7395,-15.625000
7396,-15.625000
7397,-15.625000
7398,-19.531250
7399,-15.625000
7400,-15.625000
7401,-15.625000
7402,-15.625000
7403,-15.625000
7404,-15.625000
7405,-15.625000
7406,-15.625000
7407,-15.625000
7408,-15.625000
7409,-15.625000
7410,-15.625000
7411,-15.625000
7412,-15.625000
7413,-15.625000
7414,-15.625000
7415,-15.625000
7416,-15.625000
7417,-15.625000
7418,-15.625000
7419,-15.625000
7420,-15.625000
7421,-15.625000
7422,-15.625000
7423,-15.625000
7424,-15.625000
7425,-15.625000
7426,-15.625000
7427,-15.625000
7428,-11.718750
7429,-15.625000
7430,-15.625000
7431,-11.718750
7432,-11.718750
7433,-11.718750
7434,-15.625000
7435,-11.718750
7436,-15.625000
7437,-11.718750
7438,-15.625000
7439,-11.718750
7440,-11.718750
7441,-11.718750
7442,-11.718750
7443,-11.718750
7444,-11.718750
7445,-11.718750
7446,-11.718750
7447,-11.718750
7448,-11.718750
7449,-11.718750
7450,-11.718750
7451,-11.718750
7452,-11.718750
7453,-11.718750
7454,-11.718750
7455,-11.718750
7456,-11.718750
7457,-11.718750
7458,-11.718750
7459,-11.718750
7460,-11.718750
7461,-11.718750
7462,-11.718750
7463,-11.718750
7464,-11.718750
7465,-11.718750
7466,-11.718750
7467,-11.718750
7468,-11.718750
7469,-11.718750
7470,-11.718750
7471,-11.718750
7472,-11.718750
7473,-11.718750
7474,-11.718750
7475,-11.718750
7476,-11.718750
7477,-11.718750
7478,-11.718750
7479,-11.718750
7480,-11.718750
7481,-11.718750
7482,-11.718750
7483,-7.812500
7484,-7.812500
7485,-7.812500
7486,-7.812500
7487,-7.812500
7488,-7.812500
7489,-7.812500
7490,-7.812500
7491,-7.812500
7492,-7.812500
7493,-7.812500
7494,-7.812500
7495,-7.812500
7496,-7.812500
7497,-7.812500
7498,-7.812500
7499,-7.812500
7500,-7.812500
7501,-7.812500
7502,-7.812500
7503,-7.812500
7504,-7.812500
7505,-7.812500
7506,-7.812500
7507,-7.812500
7508,-7.812500
7509,-7.812500
7510,-7.812500
7511,-7.812500
7512,-7.812500
7513,-7.812500
7514,-7.812500
7515,-7.812500
7516,-7.812500
7517,-7.812500
7518,-7.812500
7519,-7.812500
7520,-7.812500
7521,-7.812500
7522,-3.906250
7523,-7.812500
7524,-7.812500
7525,-7.812500
7526,-7.812500
7527,-7.812500
7528,-7.812500
7529,-7.812500
7530,-7.812500
7531,-3.906250
7532,-3.906250
7533,-3.906250
7534,-7.812500
7535,-7.812500
7536,-7.812500
7537,-7.812500
7538,-7.812500
7539,-7.812500
7540,-3.906250
7541,-7.812500
7542,-7.812500
7543,-3.906250
7544,-7.812500
7545,-3.906250
7546,-3.906250
7547,-3.906250
7548,-3.906250
7549,-3.906250
7550,-3.906250
7551,-7.812500
7552,-7.812500
7553,-3.906250
7554,-7.812500
7555,-3.906250
7556,-3.906250
7557,-3.906250
7558,-3.906250
7559,-7.812500
7560,-3.906250
7561,-3.906250
7562,-3.906250
7563,-3.906250
7564,-3.906250
7565,-3.906250
7566,-3.906250
7567,-3.906250
7568,-3.906250
7569,-3.906250
7570,-3.906250
7571,-3.906250
7572,-3.906250
7573,-3.906250
7574,-3.906250
7575,-3.906250
7576,-3.906250
7577,-3.906250
7578,-3.906250
7579,-3.906250
7580,-3.906250
7581,-3.906250
7582,-3.906250
7583,-3.906250
7584,-3.906250
7585,-3.906250
7586,-3.906250
7587,-3.906250
7588,-3.906250
7589,-3.906250
7590,-3.906250
7591,-3.906250
7592,-3.906250
7593,-3.906250
7594,-3.906250
7595,-3.906250
7596,-3.906250
7597,-3.906250
7598,-3.906250
7599,-3.906250
7600,-3.906250
7601,-3.906250
7602,-3.906250
7603,-3.906250
7604,-3.906250
7605,-3.906250
7606,-3.906250
7607,-3.906250
7608,-3.906250
7609,-3.906250
7610,-3.906250
7611,-3.906250
7612,-3.906250
7613,-3.906250
7614,-3.906250
7615,-3.906250
7616,-3.906250
7617,-3.906250
7618,-3.906250
7619,-3.906250
7620,-3.906250
7621,-3.906250
7622,-3.906250
7623,-3.906250
7624,-3.906250
7625,-3.906250
7626,-3.906250
7627,-3.906250
7628,-3.906250
7629,-3.906250
7630,-3.906250
7631,-3.906250
7632,-3.906250
7633,-3.906250
7634,-3.906250
7635,-3.906250
7636,-3.906250
7637,-3.906250
7638,-3.906250
7639,-3.906250
7640,-3.906250
7641,-3.906250
7642,-3.906250
7643,-3.906250
7644,-3.906250
7645,-3.906250
7646,-3.906250
7647,-3.906250
7648,-3.906250
7649,-3.906250
7650,-3.906250
7651,-3.906250
7652,-3.906250
7653,-3.906250
7654,-3.906250
7655,-3.906250
7656,-3.906250
7657,-3.906250
7658,-3.906250
7659,-3.906250
7660,-3.906250
7661,-3.906250
7662,-3.906250
7663,-3.906250
7664,-3.906250
7665,-3.906250
7666,-3.906250
7667,-3.906250
7668,-3.906250
7669,-3.906250
7670,-3.906250
7671,-3.906250
7672,-3.906250
7673,-3.906250
7674,-3.906250
7675,-3.906250
7676,-3.906250
7677,-3.906250
7678,-3.906250
7679,-3.906250
7680,-3.906250
7681,-3.906250
7682,-3.906250
7683,-3.906250
7684,-3.906250
7685,-3.906250
7686,-3.906250
7687,-3.906250
7688,-3.906250
7689,-3.906250
7690,-3.906250
7691,-3.906250
7692,-3.906250
7693,-3.906250
7694,-3.906250
7695,-3.906250
7696,-3.906250
7697,-3.906250
7698,-3.906250
7699,-3.906250
7700,-3.906250
7701,-3.906250
7702,-3.906250
7703,-3.906250
7704,-3.906250
7705,-3.906250
7706,-3.906250
7707,-3.906250
7708,-3.906250
7709,-3.906250
7710,-3.906250
7711,-3.906250
7712,-3.906250
7713,-3.906250
7714,-3.906250
7715,-3.906250
7716,-3.906250
7717,-3.906250
7718,-3.906250
7719,-3.906250
7720,-3.906250
7721,-3.906250
7722,-3.906250
7723,-3.906250
7724,-3.906250
7725,-3.906250
7726,-3.906250
7727,-3.906250
7728,-3.906250
7729,-3.906250
7730,-3.906250
7731,-3.906250
7732,-3.906250
7733,-3.906250
7734,-3.906250
7735,-3.906250
7736,-3.906250
7737,-3.906250
7738,-3.906250
7739,-3.906250
7740,-3.906250
7741,-3.906250
7742,-3.906250
7743,-3.906250
7744,-3.906250
7745,-3.906250
7746,-3.906250
7747,-3.906250
7748,-3.906250
7749,-3.906250
7750,-3.906250
7751,-3.906250
7752,-3.906250
7753,-3.906250
7754,-3.906250
7755,-3.906250
7756,-3.906250
7757,-3.906250
7758,-3.906250
7759,-3.906250
7760,-3.906250
7761,-3.906250
7762,-3.906250
7763,-3.906250
7764,-3.906250
7765,-3.906250
7766,-3.906250
7767,-3.906250
7768,-3.906250
7769,-3.906250
7770,-3.906250
7771,-3.906250
7772,-3.906250
7773,-3.906250
7774,-3.906250
7775,-3.906250
7776,-3.906250
7777,-3.906250
7778,-3.906250
7779,-3.906250
7780,-3.906250
7781,-3.906250
7782,-3.906250
7783,-3.906250
7784,-3.906250
7785,-3.906250
7786,-3.906250
7787,-3.906250
7788,-3.906250
7789,-3.906250
7790,-3.906250
7791,-3.906250
7792,-3.906250
7793,-3.906250
7794,-3.906250
7795,-3.906250
7796,-3.906250
7797,-3.906250
7798,-3.906250
7799,-3.906250
7800,-3.906250
7801,-3.906250
7802,-3.906250
7803,-7.812500
7804,-3.906250
7805,-7.812500
7806,-3.906250
7807,-3.906250
7808,-3.906250
7809,-3.906250
7810,-3.906250
7811,-3.906250
7812,-3.906250
7813,-3.906250
7814,-3.906250
7815,-3.906250
7816,-7.812500
7817,-7.812500
7818,-7.812500
7819,-3.906250
7820,-7.812500
7821,-7.812500
7822,-7.812500
7823,-7.812500
7824,-7.812500
7825,-7.812500
7826,-7.812500
7827,-7.812500
7828,-7.812500
7829,-7.812500
7830,-7.812500
7831,-7.812500
7832,-7.812500
7833,-7.812500
7834,-7.812500
7835,-7.812500
7836,-7.812500
7837,-7.812500
7838,-7.812500
7839,-7.812500
7840,-7.812500
7841,-7.812500
7842,-7.812500
7843,-7.812500
7844,-7.812500
7845,-7.812500
7846,-7.812500
7847,-7.812500
7848,-7.812500
7849,-7.812500
7850,-7.812500
7851,-7.812500
7852,-7.812500
7853,-7.812500
7854,-7.812500
7855,-7.812500
7856,-7.812500
7857,-7.812500
7858,-7.812500
7859,-7.812500
7860,-7.812500
7861,-7.812500
7862,-7.812500
7863,-7.812500
7864,-7.812500
7865,-7.812500
7866,-7.812500
7867,-7.812500
7868,-7.812500
7869,-7.812500
7870,-7.812500
7871,-7.812500
7872,-7.812500
7873,-7.812500
7874,-7.812500
7875,-7.812500
7876,-7.812500
7877,-7.812500
7878,-7.812500
7879,-7.812500
7880,-7.812500
7881,-7.812500
7882,-7.812500
7883,-7.812500
7884,-7.812500
7885,-7.812500
7886,-7.812500
7887,-7.812500
7888,-7.812500
7889,-11.718750
7890,-7.812500
7891,-7.812500
7892,-7.812500
7893,-7.812500
7894,-7.812500
7895,-7.812500
7896,-11.718750
7897,-11.718750
7898,-11.718750
7899,-7.812500
7900,-11.718750
7901,-11.718750
7902,-11.718750
7903,-11.718750
7904,-11.718750
7905,-11.718750
7906,-11.718750
7907,-11.718750
7908,-11.718750
7909,-11.718750
7910,-11.718750
7911,-11.718750
7912,-11.718750
7913,-11.718750
7914,-11.718750
7915,-11.718750
7916,-11.718750
7917,-11.718750
7918,-11.718750
7919,-11.718750
7920,-11.718750
7921,-11.718750
7922,-11.718750
7923,-11.718750
7924,-11.718750
7925,-11.718750
7926,-11.718750
7927,-11.718750
7928,-11.718750
7929,-11.718750
7930,-11.718750
7931,-11.718750
7932,-11.718750
7933,-11.718750
7934,-11.718750
7935,-11.718750
7936,-11.718750
7937,-11.718750
7938,-11.718750
7939,-11.718750
7940,-11.718750
7941,-11.718750
7942,-11.718750
7943,-15.625000
7944,-15.625000
7945,-15.625000
7946,-15.625000
7947,-15.625000
7948,-11.718750
7949,-15.625000
7950,-15.625000
7951,-15.625000
7952,-15.625000
7953,-15.625000
7954,-15.625000
7955,-15.625000
7956,-15.625000
7957,-15.625000
7958,-15.625000
7959,-15.625000
7960,-15.625000
7961,-15.625000
7962,-15.625000
7963,-15.625000
7964,-15.625000
7965,-15.625000
7966,-15.625000
7967,-15.625000
7968,-15.625000
7969,-15.625000
7970,-15.625000
7971,-15.625000
7972,-15.625000
7973,-15.625000
7974,-15.625000
7975,-15.625000
7976,-15.625000
7977,-15.625000
7978,-15.625000
7979,-15.625000
7980,-15.625000
7981,-15.625000
7982,-15.625000
7983,-15.625000
7984,-15.625000
7985,-15.625000
7986,-15.625000
7987,-15.625000
7988,-15.625000
7989,-15.625000
7990,-19.531250
7991,-15.625000
7992,-15.625000
7993,-15.625000
7994,-15.625000
7995,-15.625000
7996,-19.531250
7997,-15.625000
7998,-19.531250
7999,-15.625000
8000,-19.531250
8001,-19.531250
8002,-19.531250
8003,-19.531250
8004,-19.531250
8005,-19.531250
8006,-19.531250
8007,-19.531250
8008,-19.531250
8009,-19.531250
8010,-19.531250
8011,-19.531250
8012,-19.531250
8013,-19.531250
8014,-19.531250
8015,-19.531250
8016,-19.531250
8017,-19.531250
8018,-19.531250
8019,-19.531250
8020,-19.531250
8021,-19.531250
8022,-19.531250
8023,-19.531250
8024,-19.531250
8025,-19.531250
8026,-19.531250
8027,-19.531250
8028,-19.531250
8029,-19.531250
8030,-19.531250
8031,-19.531250
8032,-19.531250
8033,-19.531250
8034,-19.531250
8035,-19.531250
8036,-19.531250
8037,-19.531250
8038,-19.531250
8039,-19.531250
8040,-19.531250
8041,-23.437500
8042,-19.531250
8043,-23.437500
8044,-23.437500
8045,-19.531250
8046,-19.531250
8047,-19.531250
8048,-23.437500
8049,-23.437500
8050,-19.531250
8051,-19.531250
8052,-19.531250
8053,-23.437500
8054,-23.437500
8055,-23.437500
8056,-23.437500
8057,-23.437500
8058,-23.437500
8059,-23.437500
8060,-23.437500
8061,-23.437500
8062,-23.437500
8063,-23.437500
8064,-23.437500
8065,-23.437500
8066,-23.437500
8067,-23.437500
8068,-23.437500
8069,-23.437500
8070,-23.437500
8071,-23.437500
8072,-23.437500
8073,-23.437500
8074,-23.437500
8075,-23.437500
8076,-23.437500
8077,-23.437500
8078,-23.437500
8079,-23.437500
8080,-23.437500
8081,-23.437500
8082,-23.437500
8083,-23.437500
8084,-23.437500
8085,-23.437500
8086,-23.437500
8087,-23.437500
8088,-23.437500
8089,-23.437500
8090,-23.437500
8091,-23.437500
8092,-23.437500
8093,-23.437500
8094,-23.437500
8095,-23.437500
8096,-23.437500
8097,-23.437500
8098,-27.343750
8099,-23.437500
8100,-27.343750
8101,-27.343750
8102,-27.343750
8103,-27.343750
8104,-27.343750
8105,-27.343750
8106,-27.343750
8107,-27.343750
8108,-27.343750
8109,-27.343750
8110,-27.343750
8111,-27.343750
8112,-27.343750
8113,-27.343750
8114,-27.343750
8115,-27.343750
8116,-27.343750
8117,-27.343750
8118,-27.343750
8119,-27.343750
8120,-27.343750
8121,-27.343750
8122,-27.343750
8123,-27.343750
8124,-27.343750
8125,-27.343750
8126,-27.343750
8127,-27.343750
8128,-27.343750
8129,-27.343750
8130,-27.343750
8131,-27.343750
8132,-27.343750
8133,-27.343750
8134,-27.343750
8135,-27.343750
8136,-27.343750
8137,-27.343750
8138,-27.343750
8139,-27.343750
8140,-27.343750
8141,-27.343750
8142,-27.343750
8143,-27.343750
8144,-27.343750
8145,-27.343750
8146,-27.343750
8147,-27.343750
8148,-27.343750
8149,-27.343750
8150,-27.343750
8151,-27.343750
8152,-27.343750
8153,-27.343750
8154,-27.343750
8155,-27.343750
8156,-27.343750
8157,-27.343750
8158,-27.343750
8159,-27.343750
8160,-27.343750
8161,-27.343750
8162,-27.343750
8163,-27.343750
8164,-27.343750
8165,-27.343750
8166,-27.343750
8167,-27.343750
8168,-27.343750
8169,-27.343750
8170,-27.343750
8171,-27.343750
8172,-27.343750
8173,-27.343750
8174,-27.343750
8175,-27.343750
8176,-27.343750
8177,-27.343750
8178,-27.343750
8179,-27.343750
8180,-27.343750
8181,-27.343750
8182,-27.343750
8183,-27.343750
8184,-27.343750
8185,-27.343750
8186,-27.343750
8187,-27.343750
8188,-27.343750
8189,-27.343750
8190,-27.343750
8191,-27.343750
8192,-27.343750
8193,-27.343750
8194,-27.343750
8195,-27.343750
8196,-27.343750
8197,-27.343750
8198,-27.343750
8199,-27.343750
8200,-27.343750
8201,-27.343750
8202,-27.343750
8203,-27.343750
8204,-27.343750
8205,-27.343750
8206,-27.343750
8207,-27.343750
8208,-27.343750
8209,-27.343750
8210,-27.343750
8211,-27.343750
8212,-27.343750
8213,-27.343750
8214,-27.343750
8215,-27.343750
8216,-27.343750
8217,-27.343750
8218,-27.343750
8219,-27.343750
8220,-27.343750
8221,-27.343750
8222,-27.343750
8223,-27.343750
8224,-27.343750
8225,-27.343750
8226,-27.343750
8227,-27.343750
8228,-27.343750
8229,-27.343750
8230,-27.343750
8231,-27.343750
8232,-27.343750
8233,-27.343750
8234,-27.343750
8235,-27.343750
8236,-27.343750
8237,-27.343750
8238,-27.343750
8239,-27.343750
8240,-27.343750
8241,-27.343750
8242,-27.343750
8243,-27.343750
8244,-27.343750
8245,-27.343750
8246,-27.343750
8247,-27.343750
8248,-27.343750
8249,-27.343750
8250,-27.343750
8251,-27.343750
8252,-27.343750
8253,-27.343750
8254,-27.343750
8255,-27.343750
8256,-27.343750
8257,-27.343750
8258,-27.343750
8259,-27.343750
8260,-27.343750
8261,-27.343750
8262,-27.343750
8263,-27.343750
8264,-27.343750
8265,-27.343750
8266,-27.343750
8267,-27.343750
8268,-27.343750
8269,-27.343750
8270,-27.343750
8271,-27.343750
8272,-27.343750
8273,-27.343750
8274,-27.343750
8275,-27.343750
8276,-23.437500
8277,-27.343750
8278,-27.343750
8279,-27.343750
8280,-23.437500
8281,-23.437500
8282,-27.343750
8283,-23.437500
8284,-23.437500
8285,-27.343750
8286,-27.343750
8287,-23.437500
8288,-23.437500
8289,-23.437500
8290,-23.437500
8291,-23.437500
8292,-23.437500
8293,-23.437500
8294,-23.437500
8295,-23.437500
8296,-23.437500
8297,-23.437500
8298,-23.437500
8299,-23.437500
8300,-23.437500
8301,-23.437500
8302,-23.437500
8303,-23.437500
8304,-23.437500
8305,-23.437500
8306,-23.437500
8307,-23.437500
8308,-23.437500
8309,-23.437500
8310,-23.437500
8311,-23.437500
8312,-23.437500
8313,-23.437500
8314,-23.437500
8315,-23.437500
8316,-23.437500
8317,-23.437500
8318,-23.437500
8319,-23.437500
8320,-23.437500
8321,-23.437500
8322,-23.437500
8323,-23.437500
8324,-23.437500
8325,-23.437500
8326,-23.437500
8327,-23.437500
8328,-23.437500
8329,-23.437500
8330,-23.437500
8331,-23.437500
8332,-19.531250
8333,-23.437500
8334,-23.437500
8335,-19.531250
8336,-23.437500
8337,-19.531250
8338,-23.437500
8339,-19.531250
8340,-23.437500
8341,-19.531250
8342,-23.437500
8343,-19.531250
8344,-23.437500
8345,-19.531250
8346,-19.531250
8347,-19.531250
8348,-19.531250
8349,-19.531250
8350,-19.531250
8351,-19.531250
8352,-19.531250
8353,-19.531250
8354,-19.531250
8355,-19.531250
8356,-19.531250
8357,-19.531250
8358,-19.531250
8359,-19.531250
8360,-19.531250
8361,-19.531250
8362,-19.531250
8363,-19.531250
8364,-19.531250
8365,-19.531250
8366,-19.531250
8367,-19.531250
8368,-19.531250
8369,-19.531250
8370,-19.531250
8371,-19.531250
8372,-19.531250
8373,-19.531250
8374,-19.531250
8375,-19.531250
8376,-19.531250
8377,-19.531250
8378,-19.531250
8379,-19.531250
8380,-19.531250
8381,-19.531250
8382,-15.625000
8383,-15.625000
8384,-15.625000
8385,-15.625000
8386,-15.625000
8387,-15.625000
8388,-15.625000
8389,-15.625000
8390,-15.625000
8391,-15.625000
8392,-15.625000
8393,-15.625000
8394,-15.625000
8395,-15.625000
8396,-15.625000
8397,-15.625000
8398,-15.625000
8399,-15.625000
8400,-15.625000
8401,-15.625000
8402,-15.625000
8403,-15.625000
8404,-15.625000
8405,-15.625000
8406,-15.625000
8407,-15.625000
8408,-15.625000
8409,-15.625000
8410,-15.625000
8411,-15.625000
8412,-15.625000
8413,-15.625000
8414,-15.625000
8415,-15.625000
8416,-15.625000
8417,-11.718750
8418,-15.625000
8419,-15.625000
8420,-15.625000
8421,-11.718750
8422,-11.718750
8423,-11.718750
8424,-15.625000
8425,-11.718750
8426,-11.718750
8427,-11.718750
8428,-11.718750
8429,-11.718750
8430,-11.718750
8431,-11.718750
8432,-11.718750
8433,-11.718750
8434,-11.718750
8435,-11.718750
8436,-11.718750
8437,-11.718750
8438,-11.718750
8439,-11.718750
8440,-11.718750
8441,-11.718750
8442,-11.718750
8443,-11.718750
8444,-11.718750
8445,-11.718750
8446,-11.718750
8447,-11.718750
8448,-11.718750
8449,-11.718750
8450,-11.718750
8451,-11.718750
8452,-11.718750
8453,-11.718750
8454,-11.718750
8455,-11.718750
8456,-11.718750
8457,-11.718750
8458,-11.718750
8459,-11.718750
8460,-11.718750
8461,-11.718750
8462,-11.718750
8463,-7.812500
8464,-11.718750
8465,-11.718750
8466,-7.812500
8467,-11.718750
8468,-11.718750
8469,-7.812500
8470,-7.812500
8471,-7.812500
8472,-7.812500
8473,-7.812500
8474,-11.718750
8475,-7.812500
8476,-7.812500
8477,-7.812500
8478,-7.812500
8479,-7.812500
8480,-7.812500
8481,-7.812500
8482,-7.812500
8483,-7.812500
8484,-7.812500
8485,-7.812500
8486,-7.812500
8487,-7.812500
8488,-7.812500
8489,-7.812500
8490,-7.812500
8491,-7.812500
8492,-7.812500
8493,-7.812500
8494,-7.812500
8495,-7.812500
8496,-7.812500
8497,-7.812500
8498,-7.812500
8499,-7.812500
8500,-7.812500
8501,-7.812500
8502,-7.812500
8503,-7.812500
8504,-7.812500
8505,-7.812500
8506,-7.812500
8507,-7.812500
8508,-7.812500
8509,-7.812500
8510,-7.812500
8511,-7.812500
8512,-7.812500
8513,-7.812500
8514,-7.812500
8515,-7.812500
8516,-7.812500
8517,-7.812500
8518,-7.812500
8519,-7.812500
8520,-7.812500
8521,-7.812500
8522,-7.812500
8523,-7.812500
8524,-7.812500
8525,-3.906250
8526,-3.906250
8527,-3.906250
8528,-7.812500
8529,-7.812500
8530,-7.812500
8531,-7.812500
8532,-7.812500
8533,-7.812500
8534,-7.812500
8535,-7.812500
8536,-3.906250
8537,-3.906250
8538,-7.812500
8539,-3.906250
8540,-3.906250
8541,-3.906250
8542,-3.906250
8543,-3.906250
8544,-7.812500
8545,-3.906250
8546,-3.906250
8547,-3.906250
8548,-3.906250
8549,-3.906250
8550,-3.906250
8551,-3.906250
8552,-3.906250
8553,-3.906250
8554,-3.906250
8555,-3.906250
8556,-3.906250
8557,-3.906250
8558,-3.906250
8559,-3.906250
8560,-3.906250
8561,-3.906250
8562,-3.906250
8563,-3.906250
8564,-3.906250
8565,-3.906250
8566,-3.906250
8567,-3.906250
8568,-3.906250
8569,-3.906250
8570,-3.906250
8571,-3.906250
8572,-3.906250
8573,-3.906250
8574,-3.906250
8575,-3.906250
8576,-3.906250
8577,-3.906250
8578,-3.906250
8579,-3.906250
8580,-3.906250
8581,-3.906250
8582,-3.906250
8583,-3.906250
8584,-3.906250
8585,-3.906250
8586,-3.906250
8587,-3.906250
8588,-3.906250
8589,-3.906250
8590,-3.906250
8591,-3.906250
8592,-3.906250
8593,-3.906250
8594,-3.906250
8595,-3.906250
8596,-3.906250
8597,-3.906250
8598,-3.906250
8599,-3.906250
8600,-3.906250
8601,-3.906250
8602,-3.906250
8603,-3.906250
8604,-3.906250
8605,-3.906250
8606,-3.906250
8607,-3.906250
8608,-3.906250
8609,-3.906250
8610,-3.906250
8611,-3.906250
8612,-3.906250
8613,-3.906250
8614,-3.906250
8615,-3.906250
8616,-3.906250
8617,-3.906250
8618,-3.906250
8619,-3.906250
8620,-3.906250
8621,-3.906250
8622,-3.906250
8623,-3.906250
8624,-3.906250
8625,-3.906250
8626,-3.906250
8627,-3.906250
8628,-3.906250
8629,-3.906250
8630,-3.906250
8631,-3.906250
8632,-3.906250
8633,-3.906250
8634,-3.906250
8635,-3.906250
8636,0.000000
8637,-3.906250
8638,-3.906250
8639,-3.906250
8640,-3.906250
8641,-3.906250
8642,-3.906250
8643,-3.906250
8644,-3.906250
8645,-3.906250
8646,-3.906250
8647,-3.906250
8648,-3.906250
8649,-3.906250
8650,-3.906250
8651,-3.906250
8652,-3.906250
8653,-3.906250
8654,-3.906250
8655,-3.906250
8656,-3.906250
8657,-3.906250
8658,-3.906250
8659,-3.906250
8660,-3.906250
8661,-3.906250
8662,-3.906250
8663,-3.906250
8664,-3.906250
8665,-3.906250
8666,-3.906250
8667,-3.906250
8668,-3.906250
8669,-3.906250
8670,-3.906250
8671,-3.906250
8672,-3.906250
8673,-3.906250
8674,-3.906250
8675,-3.906250
8676,-3.906250
8677,-3.906250
8678,-3.906250
8679,-3.906250
8680,-3.906250
8681,-3.906250
8682,-3.906250
8683,-3.906250
8684,-3.906250
8685,-3.906250
8686,-3.906250
8687,-3.906250
8688,-3.906250
8689,-3.906250
8690,-3.906250
8691,-3.906250
8692,-3.906250
8693,-3.906250
8694,-3.906250
8695,-3.906250
8696,-3.906250
8697,-3.906250
8698,-3.906250
8699,-3.906250
8700,-3.906250
8701,-3.906250
8702,-3.906250
8703,-3.906250
8704,-3.906250
8705,-3.906250
8706,-3.906250
8707,-3.906250
8708,-3.906250
8709,-3.906250
8710,-3.906250
8711,-3.906250
8712,-3.906250
8713,-3.906250
8714,-3.906250
8715,-3.906250
8716,-3.906250
8717,-3.906250
8718,-3.906250
8719,-3.906250
8720,-3.906250
8721,-3.906250
8722,-3.906250
8723,-3.906250
8724,-3.906250
8725,-3.906250
8726,-3.906250
8727,-3.906250
8728,-3.906250
8729,-3.906250
8730,-3.906250
8731,-3.906250
8732,-3.906250
8733,-3.906250
8734,-3.906250
8735,-3.906250
8736,-3.906250
8737,-3.906250
8738,-3.906250
8739,-3.906250
8740,-3.906250
8741,-3.906250
8742,-3.906250
8743,-3.906250
8744,-3.906250
8745,-3.906250
8746,-3.906250
8747,-3.906250
8748,-3.906250
8749,-3.906250
8750,-3.906250
8751,-3.906250
8752,-3.906250
8753,-3.906250
8754,-3.906250
8755,-3.906250
8756,-3.906250
8757,-3.906250
8758,-3.906250
8759,-3.906250
8760,-3.906250
8761,-3.906250
8762,-3.906250
8763,-3.906250
8764,-3.906250
8765,-3.906250
8766,-7.812500
8767,-3.906250
8768,-3.906250
8769,-3.906250
8770,-3.906250
8771,-3.906250
8772,-7.812500
8773,-3.906250
8774,-3.906250
8775,-3.906250
8776,-3.906250
8777,-3.906250
8778,-3.906250
8779,-3.906250
8780,-3.906250
8781,-3.906250
8782,-3.906250
8783,-7.812500
8784,-3.906250
8785,-3.906250
8786,-3.906250
8787,-3.906250
8788,-7.812500
8789,-3.906250
8790,-3.906250
8791,-3.906250
8792,-3.906250
8793,-3.906250
8794,-3.906250
8795,-3.906250
8796,-3.906250
8797,-3.906250
8798,-3.906250
8799,-3.906250
8800,-7.812500
8801,-3.906250
8802,-7.812500
8803,-7.812500
8804,-7.812500
8805,-3.906250
8806,-3.906250
8807,-3.906250
8808,-7.812500
8809,-3.906250
8810,-7.812500
8811,-7.812500
8812,-7.812500
8813,-3.906250
8814,-7.812500
8815,-3.906250
8816,-7.812500
8817,-3.906250
8818,-7.812500
8819,-7.812500
8820,-7.812500
8821,-3.906250
8822,-7.812500
8823,-7.812500
8824,-7.812500
8825,-7.812500
8826,-7.812500
8827,-7.812500
8828,-7.812500
8829,-7.812500
8830,-7.812500
8831,-7.812500
8832,-7.812500
8833,-7.812500
8834,-7.812500
8835,-7.812500
8836,-7.812500
8837,-7.812500
8838,-7.812500
8839,-7.812500
8840,-7.812500
8841,-7.812500
8842,-7.812500
8843,-7.812500
8844,-7.812500
8845,-7.812500
8846,-7.812500
8847,-7.812500
8848,-7.812500
8849,-7.812500
8850,-7.812500
8851,-7.812500
8852,-7.812500
8853,-7.812500
8854,-7.812500
8855,-7.812500
8856,-7.812500
8857,-7.812500
8858,-7.812500
8859,-7.812500
8860,-7.812500
8861,-7.812500
8862,-7.812500
8863,-7.812500
8864,-7.812500
8865,-7.812500
8866,-7.812500
8867,-7.812500
8868,-7.812500
8869,-7.812500
8870,-7.812500
8871,-7.812500
8872,-7.812500
8873,-7.812500
8874,-7.812500
8875,-7.812500
8876,-7.812500
8877,-7.812500
8878,-7.812500
8879,-7.812500
8880,-7.812500
8881,-11.718750
8882,-11.718750
8883,-7.812500
8884,-11.718750
8885,-7.812500
8886,-11.718750
8887,-11.718750
8888,-11.718750
8889,-11.718750
8890,-11.718750
8891,-11.718750
8892,-11.718750
8893,-7.812500
8894,-11.718750
8895,-11.718750
8896,-11.718750
8897,-11.718750
8898,-11.718750
8899,-11.718750
8900,-11.718750
8901,-11.718750
8902,-11.718750
8903,-11.718750
8904,-11.718750
8905,-11.718750
8906,-11.718750
8907,-11.718750
8908,-11.718750
8909,-11.718750
8910,-11.718750
8911,-11.718750
8912,-11.718750
8913,-11.718750
8914,-11.718750
8915,-11.718750
8916,-11.718750
8917,-11.718750
8918,-11.718750
8919,-11.718750
8920,-11.718750
8921,-11.718750
8922,-11.718750
8923,-11.718750
8924,-11.718750
8925,-11.718750
8926,-11.718750
8927,-11.718750
8928,-11.718750
8929,-11.718750
8930,-11.718750
8931,-11.718750
8932,-11.718750
8933,-11.718750
8934,-11.718750
8935,-11.718750
8936,-11.718750
8937,-11.718750
8938,-15.625000
8939,-11.718750
8940,-15.625000
8941,-11.718750
8942,-15.625000
8943,-11.718750
8944,-11.718750
8945,-11.718750
8946,-15.625000
8947,-11.718750
8948,-11.718750
8949,-15.625000
8950,-15.625000
8951,-15.625000
8952,-15.625000
8953,-15.625000
8954,-15.625000
8955,-15.625000
8956,-15.625000
8957,-15.625000
8958,-15.625000
8959,-15.625000
8960,-15.625000
8961,-15.625000
8962,-15.625000
8963,-15.625000
8964,-15.625000
8965,-15.625000
8966,-15.625000
8967,-15.625000
8968,-15.625000
8969,-15.625000
8970,-15.625000
8971,-15.625000
8972,-15.625000
8973,-15.625000
8974,-15.625000
8975,-15.625000
8976,-15.625000
8977,-19.531250
8978,-15.625000
8979,-15.625000
8980,-15.625000
8981,-15.625000
8982,-15.625000
8983,-15.625000
8984,-15.625000
8985,-15.625000
8986,-15.625000
8987,-15.625000
8988,-19.531250
8989,-15.625000
8990,-19.531250
8991,-15.625000
8992,-15.625000
8993,-19.531250
8994,-19.531250
8995,-19.531250
8996,-19.531250
8997,-19.531250
8998,-19.531250
8999,-19.531250
9000,-19.531250
9001,-19.531250
9002,-19.531250
9003,-19.531250
9004,-19.531250
9005,-19.531250
9006,-19.531250
9007,-19.531250
9008,-15.625000
9009,-19.531250
9010,-19.531250
9011,-19.531250
9012,-19.531250
9013,-19.531250
9014,-19.531250
9015,-19.531250
9016,-19.531250
9017,-19.531250
9018,-19.531250
9019,-19.531250
9020,-19.531250
9021,-19.531250
9022,-19.531250
9023,-19.531250
9024,-19.531250
9025,-19.531250
9026,-19.531250
9027,-19.531250
9028,-19.531250
9029,-19.531250
9030,-23.437500
9031,-19.531250
9032,-19.531250
9033,-19.531250
9034,-19.531250
9035,-19.531250
9036,-23.437500
9037,-19.531250
9038,-19.531250
9039,-23.437500
9040,-19.531250
9041,-19.531250
9042,-19.531250
9043,-23.437500
9044,-19.531250
9045,-23.437500
9046,-23.437500
9047,-23.437500
9048,-23.437500
9049,-23.437500
9050,-23.437500
9051,-23.437500
9052,-23.437500
9053,-23.437500
9054,-23.437500
9055,-23.437500
9056,-23.437500
9057,-23.437500
9058,-23.437500
9059,-23.437500
9060,-23.437500
9061,-23.437500
9062,-23.437500
9063,-23.437500
9064,-23.437500
9065,-23.437500
9066,-23.437500
9067,-23.437500
9068,-23.437500
9069,-23.437500
9070,-23.437500
9071,-23.437500
9072,-23.437500
9073,-23.437500
9074,-23.437500
9075,-23.437500
9076,-23.437500
9077,-23.437500
9078,-23.437500
9079,-23.437500
9080,-23.437500
9081,-23.437500
9082,-23.437500
9083,-23.437500
9084,-23.437500
9085,-23.437500
9086,-23.437500
9087,-23.437500
9088,-23.437500
9089,-23.437500
9090,-23.437500
9091,-23.437500
9092,-23.437500
9093,-23.437500
9094,-27.343750
9095,-27.343750
9096,-23.437500
9097,-23.437500
9098,-23.437500
9099,-27.343750
9100,-27.343750
9101,-27.343750
9102,-27.343750
9103,-27.343750
9104,-27.343750
9105,-27.343750
9106,-27.343750
9107,-27.343750
9108,-27.343750
9109,-27.343750
9110,-27.343750
9111,-27.343750
9112,-27.343750
9113,-27.343750
9114,-27.343750
9115,-27.343750
9116,-27.343750
9117,-27.343750
9118,-27.343750
9119,-27.343750
9120,-27.343750
9121,-27.343750
9122,-27.343750
9123,-27.343750
9124,-27.343750
9125,-27.343750
9126,-27.343750
9127,-27.343750
9128,-27.343750
9129,-27.343750
9130,-27.343750
9131,-27.343750
9132,-27.343750
9133,-27.343750
9134,-27.343750
9135,-27.343750
9136,-27.343750
9137,-27.343750
9138,-27.343750
9139,-27.343750
9140,-27.343750
9141,-27.343750
9142,-27.343750
9143,-27.343750
9144,-27.343750
9145,-27.343750
9146,-27.343750
9147,-27.343750
9148,-27.343750
9149,-27.343750
9150,-27.343750
9151,-27.343750
9152,-27.343750
9153,-27.343750
9154,-27.343750
9155,-31.250000
9156,-27.343750
9157,-31.250000
9158,-27.343750
9159,-27.343750
9160,-27.343750
9161,-27.343750
9162,-27.343750
9163,-27.343750
9164,-27.343750
9165,-27.343750
9166,-27.343750
9167,-27.343750
9168,-27.343750
9169,-27.343750
9170,-27.343750
9171,-27.343750
9172,-27.343750
9173,-27.343750
9174,-27.343750
9175,-27.343750
9176,-31.250000
9177,-27.343750
9178,-31.250000
9179,-27.343750
9180,-27.343750
9181,-27.343750
9182,-27.343750
9183,-27.343750
9184,-27.343750
9185,-27.343750
9186,-27.343750
9187,-27.343750
9188,-31.250000
9189,-27.343750
9190,-27.343750
9191,-27.343750
9192,-27.343750
9193,-27.343750
9194,-27.343750
9195,-27.343750
9196,-27.343750
9197,-27.343750
9198,-27.343750
9199,-27.343750
9200,-27.343750
9201,-27.343750
9202,-27.343750
9203,-27.343750
9204,-27.343750
9205,-27.343750
9206,-27.343750
9207,-27.343750
9208,-27.343750
9209,-27.343750
9210,-27.343750
9211,-27.343750
9212,-27.343750
9213,-27.343750
9214,-27.343750
9215,-27.343750
9216,-27.343750
9217,-27.343750
9218,-27.343750
9219,-27.343750
9220,-27.343750
9221,-27.343750
9222,-27.343750
9223,-27.343750
9224,-27.343750
9225,-27.343750
9226,-27.343750
9227,-27.343750
9228,-27.343750
9229,-27.343750
9230,-27.343750
9231,-27.343750
9232,-27.343750
9233,-27.343750
9234,-27.343750
9235,-27.343750
9236,-27.343750
9237,-27.343750
9238,-27.343750
9239,-27.343750
9240,-27.343750
9241,-27.343750
9242,-27.343750
9243,-27.343750
9244,-27.343750
9245,-27.343750
9246,-27.343750
9247,-27.343750
9248,-27.343750
9249,-27.343750
9250,-27.343750
9251,-27.343750
9252,-27.343750
9253,-27.343750
9254,-27.343750
9255,-27.343750
9256,-27.343750
9257,-27.343750
9258,-27.343750
9259,-27.343750
9260,-27.343750
9261,-27.343750
9262,-27.343750
9263,-27.343750
9264,-27.343750
9265,-27.343750
9266,-27.343750
9267,-27.343750
9268,-27.343750
9269,-27.343750
9270,-27.343750
9271,-27.343750
9272,-27.343750
9273,-27.343750
9274,-27.343750
9275,-27.343750
9276,-27.343750
9277,-27.343750
9278,-23.437500
9279,-27.343750
9280,-23.437500
9281,-27.343750
9282,-27.343750
9283,-27.343750
9284,-27.343750
9285,-23.437500
9286,-23.437500
9287,-23.437500
9288,-23.437500
9289,-23.437500
9290,-23.437500
9291,-23.437500
9292,-23.437500
9293,-23.437500
9294,-23.437500
9295,-23.437500
9296,-23.437500
9297,-23.437500
9298,-23.437500
9299,-23.437500
9300,-23.437500
9301,-23.437500
9302,-23.437500
9303,-23.437500
9304,-23.437500
9305,-23.437500
9306,-23.437500
9307,-23.437500
9308,-23.437500
9309,-23.437500
9310,-23.437500
9311,-23.437500
9312,-23.437500
9313,-23.437500
9314,-23.437500
9315,-23.437500
9316,-23.437500
9317,-23.437500
9318,-23.437500
9319,-23.437500
9320,-23.437500
9321,-23.437500
9322,-23.437500
9323,-23.437500
9324,-23.437500
9325,-23.437500
9326,-23.437500
9327,-19.531250
9328,-19.531250
9329,-19.531250
9330,-23.437500
9331,-19.531250
9332,-19.531250
9333,-19.531250
9334,-19.531250
9335,-19.531250
9336,-19.531250
9337,-19.531250
9338,-19.531250
9339,-19.531250
9340,-19.531250
9341,-19.531250
9342,-19.531250
9343,-19.531250
9344,-19.531250
9345,-19.531250
9346,-19.531250
9347,-19.531250
9348,-19.531250
9349,-19.531250
9350,-19.531250
9351,-19.531250
9352,-19.531250
9353,-19.531250
9354,-19.531250
9355,-19.531250
9356,-19.531250
9357,-19.531250
9358,-19.531250
9359,-19.531250
9360,-19.531250
9361,-19.531250
9362,-19.531250
9363,-19.531250
9364,-19.531250
9365,-19.531250
9366,-19.531250
9367,-19.531250
9368,-19.531250
9369,-19.531250
9370,-19.531250
9371,-15.625000
9372,-19.531250
9373,-15.625000
9374,-15.625000
9375,-15.625000
9376,-15.625000
9377,-15.625000
9378,-15.625000
9379,-15.625000
9380,-15.625000
9381,-15.625000
9382,-15.625000
9383,-15.625000
9384,-15.625000
9385,-15.625000
9386,-15.625000
9387,-15.625000
9388,-15.625000
9389,-15.625000
9390,-15.625000
9391,-15.625000
9392,-15.625000
9393,-15.625000
9394,-15.625000
9395,-15.625000
9396,-15.625000
9397,-15.625000
9398,-15.625000
9399,-15.625000
9400,-15.625000
9401,-15.625000
9402,-15.625000
9403,-15.625000
9404,-15.625000
9405,-15.625000
9406,-15.625000
9407,-15.625000
9408,-15.625000
9409,-15.625000
9410,-15.625000
9411,-15.625000
9412,-15.625000
9413,-15.625000
9414,-15.625000
9415,-11.718750
9416,-11.718750
9417,-11.718750
9418,-11.718750
9419,-11.718750
9420,-11.718750
9421,-11.718750
9422,-15.625000
9423,-11.718750
9424,-11.718750
9425,-11.718750
9426,-11.718750
9427,-11.718750
9428,-11.718750
9429,-11.718750
9430,-11.718750
9431,-11.718750
9432,-11.718750
9433,-11.718750
9434,-11.718750
9435,-11.718750
9436,-11.718750
9437,-11.718750
9438,-11.718750
9439,-11.718750
9440,-11.718750
9441,-11.718750
9442,-11.718750
9443,-11.718750
9444,-11.718750
9445,-11.718750
9446,-11.718750
9447,-11.718750
9448,-11.718750
9449,-11.718750
9450,-11.718750
9451,-11.718750
9452,-11.718750
9453,-11.718750
9454,-7.812500
9455,-7.812500
9456,-11.718750
9457,-7.812500
9458,-7.812500
9459,-7.812500
9460,-7.812500
9461,-7.812500
9462,-7.812500
9463,-7.812500
9464,-7.812500
9465,-7.812500
9466,-7.812500
9467,-7.812500
9468,-7.812500
9469,-7.812500
9470,-7.812500
9471,-7.812500
9472,-7.812500
9473,-7.812500
9474,-7.812500
9475,-7.812500
9476,-7.812500
9477,-7.812500
9478,-7.812500
9479,-7.812500
9480,-7.812500
9481,-7.812500
9482,-7.812500
9483,-7.812500
9484,-7.812500
9485,-7.812500
9486,-7.812500
9487,-7.812500
9488,-7.812500
9489,-7.812500
9490,-7.812500
9491,-7.812500
9492,-7.812500
9493,-7.812500
9494,-7.812500
9495,-7.812500
9496,-7.812500
9497,-7.812500
9498,-7.812500
9499,-7.812500
9500,-3.906250
9501,-7.812500
9502,-7.812500
9503,-7.812500
9504,-7.812500
9505,-7.812500
9506,-7.812500
9507,-7.812500
9508,-7.812500
9509,-3.906250
9510,-7.812500
9511,-7.812500
9512,-7.812500
9513,-7.812500
9514,-7.812500
9515,-7.812500
9516,-3.906250
9517,-3.906250
9518,-3.906250
9519,-7.812500
9520,-7.812500
9521,-3.906250
9522,-7.812500
9523,-3.906250
9524,-7.812500
9525,-3.906250
9526,-7.812500
9527,-7.812500
9528,-7.812500
9529,-7.812500
9530,-3.906250
9531,-3.906250
9532,-3.906250
9533,-3.906250
9534,-3.906250
9535,-3.906250
9536,-3.906250
9537,-3.906250
9538,-3.906250
9539,-3.906250
9540,-3.906250
9541,-3.906250
9542,-3.906250
9543,-3.906250
9544,-3.906250
9545,-3.906250
9546,-3.906250
9547,-3.906250
9548,-3.906250
9549,-3.906250
9550,-3.906250
9551,-3.906250
9552,-3.906250
9553,-3.906250
9554,-3.906250
9555,-3.906250
9556,-3.906250
9557,-3.906250
9558,-3.906250
9559,-3.906250
9560,-3.906250
9561,-3.906250
9562,-3.906250
9563,-3.906250
9564,-3.906250
9565,-3.906250
9566,-3.906250
9567,-3.906250
9568,-3.906250
9569,-3.906250
9570,-3.906250
9571,-3.906250
9572,-3.906250
9573,-3.906250
9574,-3.906250
9575,-3.906250
9576,-3.906250
9577,-3.906250
9578,-3.906250
9579,-3.906250
9580,-3.906250
9581,-3.906250
9582,-3.906250
9583,-3.906250
9584,-3.906250
9585,-3.906250
9586,-3.906250
9587,-3.906250
9588,-3.906250
9589,-3.906250
9590,-3.906250
9591,-3.906250
9592,-3.906250
9593,-3.906250
9594,-3.906250
9595,-3.906250
9596,-3.906250
9597,-3.906250
9598,-3.906250
9599,-3.906250
9600,-3.906250
9601,-3.906250
9602,-3.906250
9603,-3.906250
9604,-3.906250
9605,-3.906250
9606,-3.906250
9607,-3.906250
9608,-3.906250
9609,-3.906250
9610,-3.906250
9611,-3.906250
9612,-3.906250
9613,-3.906250
9614,-3.906250
9615,-3.906250
9616,-3.906250
9617,-3.906250
9618,-3.906250
9619,-3.906250
9620,-3.906250
9621,-3.906250
9622,-3.906250
9623,-3.906250
9624,-3.906250
9625,-3.906250
9626,-3.906250
9627,-3.906250
9628,-3.906250
9629,-3.906250
9630,-3.906250
9631,-3.906250
9632,-3.906250
9633,-3.906250
9634,-3.906250
9635,-3.906250
9636,-3.906250
9637,-3.906250
9638,-3.906250
9639,-3.906250
9640,-3.906250
9641,-3.906250
9642,-3.906250
9643,-3.906250
9644,-3.906250
9645,-3.906250
9646,-3.906250
9647,-3.906250
9648,-3.906250
9649,-3.906250
9650,-3.906250
9651,-3.906250
9652,-3.906250
9653,-3.906250
9654,-3.906250
9655,-3.906250
9656,-3.906250
9657,-3.906250
9658,-3.906250
9659,-3.906250
9660,-3.906250
9661,-3.906250
9662,-3.906250
9663,-3.906250
9664,-3.906250
9665,-3.906250
9666,-3.906250
9667,-3.906250
9668,-3.906250
9669,-3.906250
9670,-3.906250
9671,-3.906250
9672,-3.906250
9673,-3.906250
9674,-3.906250
9675,-3.906250
9676,-3.906250
9677,-3.906250
9678,-3.906250
9679,-3.906250
9680,-3.906250
9681,-3.906250
9682,-3.906250
9683,-3.906250
9684,-3.906250
9685,-3.906250
9686,-3.906250
9687,-3.906250
9688,-3.906250
9689,-3.906250
9690,-3.906250
9691,-3.906250
9692,-3.906250
9693,-3.906250
9694,-3.906250
9695,-3.906250
9696,-3.906250
9697,-3.906250
9698,-3.906250
9699,-3.906250
9700,-3.906250
9701,-3.906250
9702,-3.906250
9703,-3.906250
9704,-3.906250
9705,-3.906250
9706,-3.906250
9707,-3.906250
9708,-3.906250
9709,-3.906250
9710,-3.906250
9711,-3.906250
9712,-3.906250
9713,-3.906250
9714,-3.906250
9715,-3.906250
9716,-3.906250
9717,-3.906250
9718,-3.906250
9719,-3.906250
9720,-3.906250
9721,-3.906250
9722,-3.906250
9723,-3.906250
9724,-3.906250
9725,-3.906250
9726,-3.906250
9727,-3.906250
9728,-3.906250
9729,-3.906250
9730,-3.906250
9731,-3.906250
9732,-3.906250
9733,-3.906250
9734,-3.906250
9735,-3.906250
9736,-3.906250
9737,-3.906250
9738,-3.906250
9739,-3.906250
9740,-3.906250
9741,-3.906250
9742,-3.906250
9743,-3.906250
9744,-3.906250
9745,-3.906250
9746,-3.906250
9747,-3.906250
9748,-3.906250
9749,-3.906250
9750,-3.906250
9751,-3.906250
9752,-3.906250
9753,-3.906250
9754,-3.906250
9755,-3.906250
9756,-3.906250
9757,-3.906250
9758,-3.906250
9759,-3.906250
9760,-3.906250
9761,-3.906250
9762,-3.906250
9763,-3.906250
9764,-3.906250
9765,-3.906250
9766,-7.812500
9767,-3.906250
9768,-7.812500
9769,-3.906250
9770,-7.812500
9771,-3.906250
9772,-3.906250
9773,-3.906250
9774,-3.906250
9775,-3.906250
9776,-3.906250
9777,-3.906250
9778,-3.906250
9779,-3.906250
9780,-7.812500
9781,-3.906250
9782,-3.906250
9783,-7.812500
9784,-7.812500
9785,-7.812500
9786,-3.906250
9787,-7.812500
9788,-7.812500
9789,-3.906250
9790,-7.812500
9791,-3.906250
9792,-7.812500
9793,-7.812500
9794,-7.812500
9795,-3.906250
9796,-7.812500
9797,-7.812500
9798,-7.812500
9799,-7.812500
9800,-7.812500
9801,-7.812500
9802,-7.812500
9803,-7.812500
9804,-7.812500
9805,-7.812500
9806,-7.812500
9807,-7.812500
9808,-7.812500
9809,-7.812500
9810,-7.812500
9811,-7.812500
9812,-7.812500
9813,-3.906250
9814,-7.812500
9815,-7.812500
9816,-7.812500
9817,-7.812500
9818,-7.812500
9819,-7.812500
9820,-7.812500
9821,-7.812500
9822,-7.812500
9823,-7.812500
9824,-7.812500
9825,-7.812500
9826,-7.812500
9827,-7.812500
9828,-7.812500
9829,-7.812500
9830,-7.812500
9831,-7.812500
9832,-7.812500
9833,-7.812500
9834,-7.812500
9835,-7.812500
9836,-7.812500
9837,-7.812500
9838,-7.812500
9839,-7.812500
9840,-7.812500
9841,-7.812500
9842,-7.812500
9843,-7.812500
9844,-7.812500
9845,-7.812500
9846,-7.812500
9847,-7.812500
9848,-7.812500
9849,-7.812500
9850,-7.812500
9851,-7.812500
9852,-7.812500
9853,-7.812500
9854,-7.812500
9855,-7.812500
9856,-7.812500
9857,-7.812500
9858,-7.812500
9859,-7.812500
9860,-7.812500
9861,-7.812500
9862,-7.812500
9863,-7.812500
9864,-11.718750
9865,-11.718750
9866,-7.812500
9867,-7.812500
9868,-7.812500
9869,-7.812500
9870,-11.718750
9871,-7.812500
9872,-7.812500
9873,-7.812500
9874,-11.718750
9875,-11.718750
9876,-7.812500
9877,-7.812500
9878,-7.812500
9879,-11.718750
9880,-11.718750
9881,-11.718750
9882,-11.718750
9883,-11.718750
9884,-11.718750
9885,-11.718750
9886,-11.718750
9887,-11.718750
9888,-11.718750
9889,-11.718750
9890,-11.718750
9891,-11.718750
9892,-11.718750
9893,-11.718750
9894,-11.718750
9895,-11.718750
9896,-11.718750
9897,-11.718750
9898,-11.718750
9899,-11.718750
9900,-11.718750
9901,-11.718750
9902,-11.718750
9903,-11.718750
9904,-11.718750
9905,-11.718750
9906,-11.718750
9907,-11.718750
9908,-11.718750
9909,-11.718750
9910,-11.718750
9911,-11.718750
9912,-11.718750
9913,-11.718750
9914,-11.718750
9915,-11.718750
9916,-11.718750
9917,-11.718750
9918,-11.718750
9919,-11.718750
9920,-11.718750
9921,-11.718750
9922,-11.718750
9923,-11.718750
9924,-11.718750
9925,-11.718750
9926,-15.625000
9927,-15.625000
9928,-11.718750
9929,-15.625000
9930,-15.625000
9931,-15.625000
9932,-15.625000
9933,-11.718750
9934,-15.625000
9935,-11.718750
9936,-15.625000
9937,-11.718750
9938,-15.625000
9939,-15.625000
9940,-15.625000
9941,-15.625000
9942,-15.625000
9943,-11.718750
9944,-15.625000
9945,-15.625000
9946,-15.625000
9947,-15.625000
9948,-15.625000
9949,-15.625000
9950,-15.625000
9951,-15.625000
9952,-15.625000
9953,-15.625000
9954,-15.625000
9955,-15.625000
9956,-15.625000
9957,-15.625000
9958,-15.625000
9959,-15.625000
9960,-15.625000
9961,-15.625000
9962,-15.625000
9963,-15.625000
9964,-15.625000
9965,-15.625000
9966,-15.625000
9967,-15.625000
9968,-15.625000
9969,-15.625000
9970,-15.625000
9971,-15.625000
9972,-15.625000
9973,-15.625000
9974,-15.625000
9975,-15.625000
9976,-15.625000
9977,-15.625000
9978,-15.625000
9979,-15.625000
9980,-15.625000
9981,-15.625000
9982,-19.531250
9983,-15.625000
9984,-19.531250
9985,-15.625000
9986,-19.531250
9987,-19.531250
9988,-19.531250
9989,-19.531250
9990,-19.531250
9991,-19.531250
9992,-19.531250
9993,-19.531250
9994,-19.531250
9995,-19.531250
9996,-19.531250
9997,-19.531250
9998,-19.531250
9999,-19.531250
10000,-19.531250
