Channel              :,CH1
Frequency            :,1.012kHz
Period               :,0.989ms
PK-PK                :,183.6mV
Probe attenuation    :,1X
Voltage per ADC value:,0.244141mV
Time interval        :,1.00000us

index,CH1_Voltage(mV)
1,-58.593750
2,-58.593750
3,-58.593750
4,-54.687500
5,-54.687500
6,-54.687500
7,-54.687500
8,-54.687500
9,-54.687500
10,-50.781250
11,-50.781250
12,-50.781250
13,-50.781250
14,-50.781250
15,-50.781250
16,-50.781250
17,-46.875000
18,-46.875000
19,-46.875000
20,-46.875000
21,-46.875000
22,-46.875000
23,-46.875000
24,-42.968750
25,-42.968750
26,-42.968750
27,-42.968750
28,-42.968750
29,-42.968750
30,-39.062500
31,-39.062500
32,-39.062500
33,-39.062500
34,-39.062500
35,-39.062500
36,-39.062500
37,-39.062500
38,-35.156250
39,-35.156250
40,-35.156250
41,-35.156250
42,-35.156250
43,-35.156250
44,-31.250000
45,-31.250000
46,-31.250000
47,-31.250000
48,-31.250000
49,-31.250000
50,-27.343750
51,-31.250000
52,-27.343750
53,-27.343750
54,-27.343750
55,-27.343750
56,-27.343750
57,-27.343750
58,-23.437500
59,-23.437500
60,-23.437500
61,-23.437500
62,-23.437500
63,-23.437500
64,-19.531250
65,-19.531250
66,-19.531250
67,-19.531250
68,-19.531250
69,-19.531250
70,-15.625000
71,-15.625000
72,-15.625000
73,-15.625000
74,-15.625000
75,-15.625000
76,-15.625000
77,-15.625000
78,-11.718750
79,-11.718750
80,-11.718750
81,-11.718750
82,-11.718750
83,-11.718750
84,-7.812500
85,-7.812500
86,-7.812500
87,-7.812500
88,-7.812500
89,-7.812500
90,-7.812500
91,-7.812500
92,-3.906250
93,-3.906250
94,-3.906250
95,-3.906250
96,-3.906250
97,-3.906250
98,0.000000
99,0.000000
100,0.000000
101,0.000000
102,0.000000
103,0.000000
104,3.906250
105,3.906250
106,3.906250
107,3.906250
108,3.906250
109,3.906250
110,7.812500
111,7.812500
112,7.812500
113,7.812500
114,7.812500
115,7.812500
116,7.812500
117,7.812500
118,11.718750
119,11.718750
120,11.718750
121,11.718750
122,11.718750
123,11.718750
124,15.625000
125,15.625000
126,15.625000
127,15.625000
128,15.625000
129,15.625000
130,15.625000
131,15.625000
132,19.531250
133,19.531250
134,19.531250
135,19.531250
136,19.531250
137,19.531250
138,23.437500
139,23.437500
140,23.437500
141,23.437500
142,23.437500
143,23.437500
144,23.437500
145,23.437500
146,23.437500
147,27.343750
148,27.343750
149,27.343750
150,27.343750
151,27.343750
152,27.343750
153,31.250000
154,31.250000
155,31.250000
156,31.250000
157,31.250000
158,31.250000
159,31.250000
160,31.250000
161,35.156250
162,31.250000
163,35.156250
164,35.156250
165,35.156250
166,35.156250
167,35.156250
168,35.156250
169,39.062500
170,39.062500
171,39.062500
172,39.062500
173,39.062500
174,39.062500
175,39.062500
176,39.062500
177,39.062500
178,39.062500
179,39.062500
180,42.968750
181,42.968750
182,42.968750
183,42.968750
184,42.968750
185,42.968750
186,42.968750
187,42.968750
188,46.875000
189,46.875000
190,46.875000
191,46.875000
192,46.875000
193,46.875000
194,46.875000
195,46.875000
196,46.875000
197,46.875000
198,50.781250
199,50.781250
200,50.781250
201,50.781250
202,50.781250
203,50.781250
204,50.781250
205,50.781250
206,50.781250
207,54.687500
208,54.687500
209,54.687500
210,54.687500
211,54.687500
212,54.687500
213,54.687500
214,54.687500
215,54.687500
216,54.687500
217,54.687500
218,54.687500
219,54.687500
220,58.593750
221,58.593750
222,58.593750
223,54.687500
224,58.593750
225,58.593750
226,58.593750
227,58.593750
228,58.593750
229,58.593750
230,58.593750
231,62.500000
232,62.500000
233,62.500000
234,62.500000
235,62.500000
236,62.500000
237,62.500000
238,62.500000
239,62.500000
240,62.500000
241,62.500000
242,62.500000
243,62.500000
244,66.406250
245,66.406250
246,66.406250
247,66.406250
248,66.406250
249,66.406250
250,66.406250
251,66.406250
252,66.406250
253,66.406250
254,66.406250
255,66.406250
256,66.406250
257,66.406250
258,70.312500
259,66.406250
260,70.312500
261,70.312500
262,70.312500
263,70.312500
264,70.312500
265,70.312500
266,70.312500
267,70.312500
268,70.312500
269,70.312500
270,70.312500
271,70.312500
272,70.312500
273,70.312500
274,70.312500
275,74.218750
276,70.312500
277,70.312500
278,70.312500
279,74.218750
280,70.312500
281,74.218750
282,74.218750
283,74.218750
284,74.218750
285,74.218750
286,74.218750
287,74.218750
288,74.218750
289,74.218750
290,74.218750
291,74.218750
292,74.218750
293,74.218750
294,74.218750
295,74.218750
296,74.218750
297,74.218750
298,74.218750
299,74.218750
300,74.218750
301,74.218750
302,74.218750
303,74.218750
304,74.218750
305,74.218750
306,74.218750
307,74.218750
308,74.218750
309,74.218750
310,74.218750
311,74.218750
312,74.218750
313,74.218750
314,74.218750
315,74.218750
316,74.218750
317,78.125000
318,74.218750
319,74.218750
320,74.218750
321,74.218750
322,74.218750
323,74.218750
324,74.218750
325,74.218750
326,74.218750
327,78.125000
328,78.125000
329,74.218750
330,74.218750
331,74.218750
332,74.218750
333,74.218750
334,74.218750
335,74.218750
336,74.218750
337,74.218750
338,74.218750
339,74.218750
340,74.218750
341,74.218750
342,74.218750
343,74.218750
344,74.218750
345,74.218750
346,74.218750
347,74.218750
348,74.218750
349,74.218750
350,74.218750
351,74.218750
352,74.218750
353,74.218750
354,74.218750
355,74.218750
356,74.218750
357,74.218750
358,74.218750
359,74.218750
360,74.218750
361,74.218750
362,74.218750
363,74.218750
364,74.218750
365,74.218750
366,74.218750
367,74.218750
368,74.218750
369,74.218750
370,74.218750
371,74.218750
372,74.218750
373,74.218750
374,74.218750
375,70.312500
376,74.218750
377,70.312500
378,70.312500
379,70.312500
380,70.312500
381,70.312500
382,70.312500
383,70.312500
384,70.312500
385,70.312500
386,70.312500
387,70.312500
388,70.312500
389,70.312500
390,70.312500
391,70.312500
392,66.406250
393,70.312500
394,70.312500
395,70.312500
396,66.406250
397,70.312500
398,66.406250
399,66.406250
400,66.406250
401,66.406250
402,66.406250
403,66.406250
404,66.406250
405,66.406250
406,66.406250
407,66.406250
408,66.406250
409,66.406250
410,66.406250
411,66.406250
412,62.500000
413,62.500000
414,62.500000
415,62.500000
416,62.500000
417,62.500000
418,62.500000
419,62.500000
420,62.500000
421,62.500000
422,62.500000
423,62.500000
424,62.500000
425,58.593750
426,58.593750
427,58.593750
428,58.593750
429,58.593750
430,58.593750
431,58.593750
432,58.593750
433,58.593750
434,58.593750
435,58.593750
436,58.593750
437,58.593750
438,54.687500
439,54.687500
440,54.687500
441,54.687500
442,54.687500
443,54.687500
444,54.687500
445,54.687500
446,54.687500
447,54.687500
448,50.781250
449,54.687500
450,50.781250
451,50.781250
452,50.781250
453,50.781250
454,50.781250
455,50.781250
456,50.781250
457,50.781250
458,46.875000
459,46.875000
460,46.875000
461,46.875000
462,46.875000
463,46.875000
464,46.875000
465,46.875000
466,46.875000
467,42.968750
468,42.968750
469,42.968750
470,42.968750
471,42.968750
472,42.968750
473,42.968750
474,42.968750
475,42.968750
476,42.968750
477,42.968750
478,42.968750
479,39.062500
480,39.062500
481,39.062500
482,39.062500
483,39.062500
484,39.062500
485,39.062500
486,39.062500
487,35.156250
488,35.156250
489,35.156250
490,35.156250
491,35.156250
492,35.156250
493,31.250000
494,35.156250
495,31.250000
496,31.250000
497,31.250000
498,31.250000
499,31.250000
500,31.250000
501,31.250000
502,31.250000
503,27.343750
504,27.343750
505,27.343750
506,27.343750
507,27.343750
508,27.343750
509,27.343750
510,23.437500
511,23.437500
512,23.437500
513,23.437500
514,23.437500
515,23.437500
516,23.437500
517,23.437500
518,23.437500
519,19.531250
520,19.531250
521,19.531250
522,19.531250
523,19.531250
524,19.531250
525,15.625000
526,19.531250
527,15.625000
528,15.625000
529,15.625000
530,15.625000
531,15.625000
532,11.718750
533,11.718750
534,11.718750
535,11.718750
536,11.718750
537,11.718750
538,11.718750
539,7.812500
540,11.718750
541,7.812500
542,7.812500
543,7.812500
544,7.812500
545,7.812500
546,7.812500
547,7.812500
548,3.906250
549,3.906250
550,3.906250
551,3.906250
552,3.906250
553,3.906250
554,0.000000
555,0.000000
556,0.000000
557,0.000000
558,0.000000
559,0.000000
560,0.000000
561,-3.906250
562,-3.906250
563,-3.906250
564,-3.906250
565,-3.906250
566,-3.906250
567,-7.812500
568,-7.812500
569,-7.812500
570,-7.812500
571,-7.812500
572,-7.812500
573,-7.812500
574,-11.718750
575,-11.718750
576,-11.718750
577,-11.718750
578,-11.718750
579,-11.718750
580,-15.625000
581,-15.625000
582,-15.625000
583,-15.625000
584,-15.625000
585,-15.625000
586,-15.625000
587,-19.531250
588,-19.531250
589,-19.531250
590,-19.531250
591,-19.531250
592,-19.531250
593,-19.531250
594,-23.437500
595,-23.437500
596,-23.437500
597,-23.437500
598,-23.437500
599,-23.437500
600,-27.343750
601,-27.343750
602,-27.343750
603,-27.343750
604,-27.343750
605,-31.250000
606,-27.343750
607,-31.250000
608,-31.250000
609,-31.250000
610,-31.250000
611,-31.250000
612,-31.250000
613,-35.156250
614,-35.156250
615,-35.156250
616,-35.156250
617,-35.156250
618,-39.062500
619,-35.156250
620,-39.062500
621,-39.062500
622,-39.062500
623,-39.062500
624,-39.062500
625,-39.062500
626,-42.968750
627,-42.968750
628,-42.968750
629,-42.968750
630,-42.968750
631,-42.968750
632,-46.875000
633,-46.875000
634,-46.875000
635,-46.875000
636,-46.875000
637,-46.875000
638,-46.875000
639,-50.781250
640,-50.781250
641,-50.781250
642,-50.781250
643,-50.781250
644,-50.781250
645,-50.781250
646,-50.781250
647,-50.781250
648,-54.687500
649,-54.687500
650,-54.687500
651,-54.687500
652,-54.687500
653,-54.687500
654,-54.687500
655,-58.593750
656,-58.593750
657,-58.593750
658,-58.593750
659,-58.593750
660,-58.593750
661,-58.593750
662,-58.593750
663,-62.500000
664,-62.500000
665,-62.500000
666,-62.500000
667,-62.500000
668,-62.500000
669,-66.406250
670,-66.406250
671,-66.406250
672,-66.406250
673,-66.406250
674,-66.406250
675,-70.312500
676,-70.312500
677,-70.312500
678,-70.312500
679,-70.312500
680,-70.312500
681,-70.312500
682,-70.312500
683,-74.218750
684,-74.218750
685,-74.218750
686,-74.218750
687,-74.218750
688,-74.218750
689,-78.125000
690,-74.218750
691,-78.125000
692,-78.125000
693,-78.125000
694,-78.125000
695,-78.125000
696,-78.125000
697,-78.125000
698,-78.125000
699,-82.031250
700,-82.031250
701,-82.031250
702,-82.031250
703,-82.031250
704,-82.031250
705,-82.031250
706,-82.031250
707,-85.937500
708,-85.937500
709,-85.937500
710,-85.937500
711,-85.937500
712,-85.937500
713,-85.937500
714,-85.937500
715,-85.937500
716,-85.937500
717,-85.937500
718,-89.843750
719,-89.843750
720,-89.843750
721,-89.843750
722,-89.843750
723,-89.843750
724,-89.843750
725,-89.843750
726,-93.750000
727,-93.750000
728,-93.750000
729,-93.750000
730,-93.750000
731,-93.750000
732,-93.750000
733,-93.750000
734,-93.750000
735,-93.750000
736,-93.750000
737,-97.656250
738,-97.656250
739,-97.656250
740,-97.656250
741,-97.656250
742,-97.656250
743,-97.656250
744,-97.656250
745,-97.656250
746,-97.656250
747,-97.656250
748,-101.562500
749,-97.656250
750,-97.656250
751,-97.656250
752,-101.562500
753,-101.562500
754,-101.562500
755,-101.562500
756,-101.562500
757,-101.562500
758,-101.562500
759,-101.562500
760,-101.562500
761,-101.562500
762,-101.562500
763,-101.562500
764,-101.562500
765,-105.468750
766,-105.468750
767,-105.468750
768,-105.468750
769,-105.468750
770,-105.468750
771,-105.468750
772,-105.468750
773,-105.468750
774,-105.468750
775,-105.468750
776,-105.468750
777,-105.468750
778,-105.468750
779,-105.468750
780,-105.468750
781,-105.468750
782,-105.468750
783,-105.468750
784,-105.468750
785,-105.468750
786,-105.468750
787,-109.375000
788,-105.468750
789,-109.375000
790,-109.375000
791,-109.375000
792,-109.375000
793,-105.468750
794,-109.375000
795,-109.375000
796,-109.375000
797,-109.375000
798,-109.375000
799,-109.375000
800,-109.375000
801,-109.375000
802,-109.375000
803,-109.375000
804,-109.375000
805,-109.375000
806,-109.375000
807,-109.375000
808,-109.375000
809,-109.375000
810,-109.375000
811,-109.375000
812,-109.375000
813,-109.375000
814,-109.375000
815,-109.375000
816,-109.375000
817,-109.375000
818,-109.375000
819,-109.375000
820,-109.375000
821,-109.375000
822,-109.375000
823,-109.375000
824,-109.375000
825,-109.375000
826,-109.375000
827,-109.375000
828,-109.375000
829,-109.375000
830,-109.375000
831,-109.375000
832,-109.375000
833,-109.375000
834,-109.375000
835,-109.375000
836,-109.375000
837,-109.375000
838,-109.375000
839,-109.375000
840,-109.375000
841,-109.375000
842,-109.375000
843,-109.375000
844,-109.375000
845,-109.375000
846,-109.375000
847,-109.375000
848,-109.375000
849,-109.375000
850,-109.375000
851,-109.375000
852,-109.375000
853,-109.375000
854,-109.375000
855,-109.375000
856,-109.375000
857,-109.375000
858,-109.375000
859,-105.468750
860,-109.375000
861,-105.468750
862,-105.468750
863,-109.375000
864,-105.468750
865,-105.468750
866,-105.468750
867,-105.468750
868,-105.468750
869,-105.468750
870,-105.468750
871,-105.468750
872,-105.468750
873,-105.468750
874,-105.468750
875,-105.468750
876,-105.468750
877,-101.562500
878,-101.562500
879,-101.562500
880,-105.468750
881,-101.562500
882,-101.562500
883,-101.562500
884,-101.562500
885,-101.562500
886,-101.562500
887,-101.562500
888,-101.562500
889,-101.562500
890,-101.562500
891,-101.562500
892,-97.656250
893,-97.656250
894,-97.656250
895,-97.656250
896,-97.656250
897,-97.656250
898,-97.656250
899,-97.656250
900,-97.656250
901,-97.656250
902,-97.656250
903,-93.750000
904,-97.656250
905,-93.750000
906,-93.750000
907,-93.750000
908,-93.750000
909,-93.750000
910,-93.750000
911,-93.750000
912,-93.750000
913,-93.750000
914,-93.750000
915,-89.843750
916,-93.750000
917,-89.843750
918,-89.843750
919,-89.843750
920,-89.843750
921,-89.843750
922,-89.843750
923,-89.843750
924,-89.843750
925,-89.843750
926,-85.937500
927,-85.937500
928,-85.937500
929,-85.937500
930,-85.937500
931,-85.937500
932,-85.937500
933,-85.937500
934,-85.937500
935,-82.031250
936,-85.937500
937,-82.031250
938,-82.031250
939,-82.031250
940,-82.031250
941,-82.031250
942,-82.031250
943,-82.031250
944,-78.125000
945,-78.125000
946,-78.125000
947,-78.125000
948,-78.125000
949,-78.125000
950,-78.125000
951,-78.125000
952,-78.125000
953,-74.218750
954,-74.218750
955,-74.218750
956,-74.218750
957,-74.218750
958,-74.218750
959,-74.218750
960,-74.218750
961,-74.218750
962,-70.312500
963,-70.312500
964,-70.312500
965,-70.312500
966,-70.312500
967,-70.312500
968,-70.312500
969,-70.312500
970,-66.406250
971,-66.406250
972,-66.406250
973,-66.406250
974,-66.406250
975,-66.406250
976,-66.406250
977,-62.500000
978,-62.500000
979,-62.500000
980,-62.500000
981,-62.500000
982,-62.500000
983,-62.500000
984,-62.500000
985,-58.593750
986,-58.593750
987,-58.593750
988,-58.593750
989,-58.593750
990,-58.593750
991,-58.593750
992,-54.687500
993,-54.687500
994,-54.687500
995,-54.687500
996,-54.687500
997,-54.687500
998,-50.781250
999,-50.781250
1000,-50.781250
1001,-50.781250
1002,-50.781250
1003,-50.781250
1004,-50.781250
1005,-50.781250
1006,-46.875000
1007,-46.875000
1008,-46.875000
1009,-46.875000
1010,-46.875000
1011,-46.875000
1012,-46.875000
1013,-42.968750
1014,-42.968750
1015,-42.968750
1016,-42.968750
1017,-42.968750
1018,-39.062500
1019,-42.968750
1020,-39.062500
1021,-39.062500
1022,-39.062500
1023,-39.062500
1024,-39.062500
1025,-39.062500
1026,-35.156250
1027,-35.156250
1028,-35.156250
1029,-35.156250
1030,-35.156250
1031,-35.156250
1032,-35.156250
1033,-31.250000
1034,-31.250000
1035,-31.250000
1036,-31.250000
1037,-31.250000
1038,-27.343750
1039,-27.343750
1040,-27.343750
1041,-27.343750
1042,-27.343750
1043,-27.343750
1044,-27.343750
1045,-23.437500
1046,-23.437500
1047,-23.437500
1048,-23.437500
1049,-23.437500
1050,-23.437500
1051,-19.531250
1052,-19.531250
1053,-19.531250
1054,-19.531250
1055,-19.531250
1056,-19.531250
1057,-19.531250
1058,-19.531250
1059,-15.625000
1060,-15.625000
1061,-15.625000
1062,-15.625000
1063,-15.625000
1064,-11.718750
1065,-11.718750
1066,-11.718750
1067,-11.718750
1068,-11.718750
1069,-11.718750
1070,-11.718750
1071,-11.718750
1072,-7.812500
1073,-7.812500
1074,-7.812500
1075,-7.812500
1076,-7.812500
1077,-7.812500
1078,-7.812500
1079,-3.906250
1080,-3.906250
1081,-3.906250
1082,-3.906250
1083,-3.906250
1084,0.000000
1085,0.000000
1086,0.000000
1087,0.000000
1088,0.000000
1089,0.000000
1090,0.000000
1091,0.000000
1092,3.906250
1093,3.906250
1094,3.906250
1095,3.906250
1096,3.906250
1097,3.906250
1098,3.906250
1099,3.906250
1100,7.812500
1101,7.812500
1102,7.812500
1103,7.812500
1104,7.812500
1105,11.718750
1106,11.718750
1107,11.718750
1108,11.718750
1109,11.718750
1110,11.718750
1111,11.718750
1112,11.718750
1113,15.625000
1114,15.625000
1115,15.625000
1116,15.625000
1117,15.625000
1118,15.625000
1119,15.625000
1120,19.531250
1121,19.531250
1122,19.531250
1123,19.531250
1124,19.531250
1125,19.531250
1126,19.531250
1127,19.531250
1128,23.437500
1129,23.437500
1130,23.437500
1131,23.437500
1132,23.437500
1133,23.437500
1134,27.343750
1135,27.343750
1136,27.343750
1137,27.343750
1138,27.343750
1139,27.343750
1140,27.343750
1141,27.343750
1142,27.343750
1143,27.343750
1144,31.250000
1145,31.250000
1146,31.250000
1147,31.250000
1148,31.250000
1149,35.156250
1150,31.250000
1151,35.156250
1152,35.156250
1153,35.156250
1154,35.156250
1155,35.156250
1156,35.156250
1157,35.156250
1158,39.062500
1159,39.062500
1160,39.062500
1161,39.062500
1162,39.062500
1163,39.062500
1164,39.062500
1165,39.062500
1166,39.062500
1167,42.968750
1168,42.968750
1169,42.968750
1170,42.968750
1171,42.968750
1172,42.968750
1173,42.968750
1174,42.968750
1175,42.968750
1176,46.875000
1177,46.875000
1178,46.875000
1179,46.875000
1180,46.875000
1181,46.875000
1182,46.875000
1183,46.875000
1184,50.781250
1185,50.781250
1186,50.781250
1187,50.781250
1188,50.781250
1189,50.781250
1190,50.781250
1191,50.781250
1192,50.781250
1193,50.781250
1194,50.781250
1195,50.781250
1196,54.687500
1197,54.687500
1198,54.687500
1199,54.687500
1200,54.687500
1201,54.687500
1202,54.687500
1203,54.687500
1204,54.687500
1205,54.687500
1206,58.593750
1207,58.593750
1208,58.593750
1209,58.593750
1210,58.593750
1211,58.593750
1212,58.593750
1213,58.593750
1214,58.593750
1215,58.593750
1216,58.593750
1217,58.593750
1218,62.500000
1219,62.500000
1220,62.500000
1221,62.500000
1222,62.500000
1223,62.500000
1224,62.500000
1225,62.500000
1226,62.500000
1227,62.500000
1228,62.500000
1229,62.500000
1230,66.406250
1231,62.500000
1232,66.406250
1233,66.406250
1234,66.406250
1235,66.406250
1236,66.406250
1237,66.406250
1238,66.406250
1239,66.406250
1240,66.406250
1241,66.406250
1242,66.406250
1243,66.406250
1244,66.406250
1245,66.406250
1246,70.312500
1247,66.406250
1248,66.406250
1249,70.312500
1250,70.312500
1251,66.406250
1252,70.312500
1253,70.312500
1254,70.312500
1255,70.312500
1256,70.312500
1257,70.312500
1258,70.312500
1259,70.312500
1260,70.312500
1261,70.312500
1262,70.312500
1263,70.312500
1264,70.312500
1265,70.312500
1266,70.312500
1267,74.218750
1268,70.312500
1269,70.312500
1270,70.312500
1271,74.218750
1272,74.218750
1273,74.218750
1274,74.218750
1275,74.218750
1276,74.218750
1277,74.218750
1278,74.218750
1279,74.218750
1280,74.218750
1281,74.218750
1282,74.218750
1283,74.218750
1284,74.218750
1285,74.218750
1286,74.218750
1287,74.218750
1288,74.218750
1289,74.218750
1290,74.218750
1291,74.218750
1292,74.218750
1293,74.218750
1294,74.218750
1295,74.218750
1296,74.218750
1297,74.218750
1298,78.125000
1299,74.218750
1300,74.218750
1301,74.218750
1302,74.218750
1303,78.125000
1304,78.125000
1305,78.125000
1306,78.125000
1307,78.125000
1308,78.125000
1309,78.125000
1310,74.218750
1311,74.218750
1312,78.125000
1313,74.218750
1314,74.218750
1315,78.125000
1316,78.125000
1317,74.218750
1318,78.125000
1319,78.125000
1320,78.125000
1321,78.125000
1322,74.218750
1323,78.125000
1324,78.125000
1325,74.218750
1326,74.218750
1327,74.218750
1328,74.218750
1329,74.218750
1330,74.218750
1331,78.125000
1332,78.125000
1333,74.218750
1334,74.218750
1335,74.218750
1336,74.218750
1337,74.218750
1338,74.218750
1339,74.218750
1340,74.218750
1341,74.218750
1342,74.218750
1343,74.218750
1344,74.218750
1345,74.218750
1346,74.218750
1347,74.218750
1348,74.218750
1349,74.218750
1350,74.218750
1351,74.218750
1352,74.218750
1353,74.218750
1354,74.218750
1355,74.218750
1356,74.218750
1357,74.218750
1358,74.218750
1359,74.218750
1360,74.218750
1361,74.218750
1362,70.312500
1363,70.312500
1364,70.312500
1365,70.312500
1366,70.312500
1367,70.312500
1368,70.312500
1369,70.312500
1370,70.312500
1371,70.312500
1372,70.312500
1373,70.312500
1374,70.312500
1375,70.312500
1376,70.312500
1377,70.312500
1378,70.312500
1379,70.312500
1380,70.312500
1381,70.312500
1382,70.312500
1383,70.312500
1384,66.406250
1385,66.406250
1386,66.406250
1387,66.406250
1388,66.406250
1389,66.406250
1390,66.406250
1391,66.406250
1392,66.406250
1393,66.406250
1394,66.406250
1395,66.406250
1396,66.406250
1397,66.406250
1398,66.406250
1399,66.406250
1400,66.406250
1401,66.406250
1402,62.500000
1403,62.500000
1404,62.500000
1405,62.500000
1406,66.406250
1407,62.500000
1408,62.500000
1409,62.500000
1410,62.500000
1411,62.500000
1412,62.500000
1413,62.500000
1414,62.500000
1415,58.593750
1416,58.593750
1417,58.593750
1418,58.593750
1419,58.593750
1420,58.593750
1421,58.593750
1422,58.593750
1423,58.593750
1424,58.593750
1425,58.593750
1426,58.593750
1427,58.593750
1428,54.687500
1429,54.687500
1430,54.687500
1431,54.687500
1432,54.687500
1433,54.687500
1434,54.687500
1435,54.687500
1436,54.687500
1437,54.687500
1438,50.781250
1439,50.781250
1440,50.781250
1441,50.781250
1442,50.781250
1443,50.781250
1444,50.781250
1445,50.781250
1446,50.781250
1447,50.781250
1448,46.875000
1449,46.875000
1450,46.875000
1451,46.875000
1452,46.875000
1453,46.875000
1454,46.875000
1455,46.875000
1456,46.875000
1457,42.968750
1458,42.968750
1459,42.968750
1460,42.968750
1461,42.968750
1462,42.968750
1463,42.968750
1464,42.968750
1465,39.062500
1466,39.062500
1467,39.062500
1468,39.062500
1469,39.062500
1470,39.062500
1471,39.062500
1472,39.062500
1473,39.062500
1474,39.062500
1475,35.156250
1476,35.156250
1477,35.156250
1478,35.156250
1479,35.156250
1480,35.156250
1481,35.156250
1482,35.156250
1483,31.250000
1484,31.250000
1485,31.250000
1486,31.250000
1487,31.250000
1488,31.250000
1489,27.343750
1490,31.250000
1491,27.343750
1492,27.343750
1493,27.343750
1494,27.343750
1495,27.343750
1496,27.343750
1497,27.343750
1498,27.343750
1499,23.437500
1500,23.437500
1501,23.437500
1502,23.437500
1503,23.437500
1504,19.531250
1505,19.531250
1506,19.531250
1507,19.531250
1508,19.531250
1509,19.531250
1510,19.531250
1511,19.531250
1512,19.531250
1513,15.625000
1514,15.625000
1515,15.625000
1516,15.625000
1517,15.625000
1518,15.625000
1519,15.625000
1520,11.718750
1521,11.718750
1522,11.718750
1523,11.718750
1524,11.718750
1525,11.718750
1526,11.718750
1527,11.718750
1528,7.812500
1529,7.812500
1530,7.812500
1531,7.812500
1532,7.812500
1533,3.906250
1534,7.812500
1535,3.906250
1536,3.906250
1537,3.906250
1538,3.906250
1539,3.906250
1540,3.906250
1541,0.000000
1542,0.000000
1543,0.000000
1544,0.000000
1545,0.000000
1546,0.000000
1547,0.000000
1548,-3.906250
1549,-3.906250
1550,-3.906250
1551,-3.906250
1552,-3.906250
1553,-3.906250
1554,-7.812500
1555,-7.812500
1556,-7.812500
1557,-7.812500
1558,-7.812500
1559,-7.812500
1560,-11.718750
1561,-11.718750
1562,-11.718750
1563,-11.718750
1564,-11.718750
1565,-11.718750
1566,-11.718750
1567,-11.718750
1568,-15.625000
1569,-15.625000
1570,-15.625000
1571,-15.625000
1572,-15.625000
1573,-15.625000
1574,-19.531250
1575,-19.531250
1576,-19.531250
1577,-19.531250
1578,-19.531250
1579,-19.531250
1580,-19.531250
1581,-19.531250
1582,-23.437500
1583,-23.437500
1584,-23.437500
1585,-23.437500
1586,-23.437500
1587,-23.437500
1588,-27.343750
1589,-27.343750
1590,-27.343750
1591,-27.343750
1592,-27.343750
1593,-27.343750
1594,-27.343750
1595,-31.250000
1596,-31.250000
1597,-31.250000
1598,-31.250000
1599,-31.250000
1600,-31.250000
1601,-35.156250
1602,-31.250000
1603,-35.156250
1604,-35.156250
1605,-35.156250
1606,-35.156250
1607,-39.062500
1608,-39.062500
1609,-39.062500
1610,-39.062500
1611,-39.062500
1612,-39.062500
1613,-39.062500
1614,-39.062500
1615,-42.968750
1616,-42.968750
1617,-42.968750
1618,-42.968750
1619,-42.968750
1620,-42.968750
1621,-46.875000
1622,-46.875000
1623,-46.875000
1624,-46.875000
1625,-46.875000
1626,-46.875000
1627,-46.875000
1628,-50.781250
1629,-50.781250
1630,-50.781250
1631,-50.781250
1632,-50.781250
1633,-50.781250
1634,-50.781250
1635,-54.687500
1636,-54.687500
1637,-54.687500
1638,-54.687500
1639,-54.687500
1640,-54.687500
1641,-58.593750
1642,-58.593750
1643,-58.593750
1644,-58.593750
1645,-58.593750
1646,-58.593750
1647,-58.593750
1648,-58.593750
1649,-62.500000
1650,-62.500000
1651,-62.500000
1652,-62.500000
1653,-62.500000
1654,-62.500000
1655,-66.406250
1656,-66.406250
1657,-66.406250
1658,-66.406250
1659,-66.406250
1660,-66.406250
1661,-66.406250
1662,-66.406250
1663,-66.406250
1664,-70.312500
1665,-70.312500
1666,-70.312500
1667,-70.312500
1668,-70.312500
1669,-70.312500
1670,-70.312500
1671,-70.312500
1672,-74.218750
1673,-74.218750
1674,-74.218750
1675,-74.218750
1676,-74.218750
1677,-74.218750
1678,-74.218750
1679,-74.218750
1680,-78.125000
1681,-78.125000
1682,-78.125000
1683,-78.125000
1684,-78.125000
1685,-78.125000
1686,-78.125000
1687,-78.125000
1688,-82.031250
1689,-82.031250
1690,-82.031250
1691,-82.031250
1692,-82.031250
1693,-82.031250
1694,-82.031250
1695,-82.031250
1696,-82.031250
1697,-82.031250
1698,-85.937500
1699,-85.937500
1700,-85.937500
1701,-85.937500
1702,-85.937500
1703,-85.937500
1704,-85.937500
1705,-85.937500
1706,-85.937500
1707,-89.843750
1708,-89.843750
1709,-89.843750
1710,-89.843750
1711,-89.843750
1712,-89.843750
1713,-89.843750
1714,-89.843750
1715,-89.843750
1716,-89.843750
1717,-93.750000
1718,-93.750000
1719,-93.750000
1720,-93.750000
1721,-93.750000
1722,-93.750000
1723,-93.750000
1724,-93.750000
1725,-93.750000
1726,-93.750000
1727,-93.750000
1728,-93.750000
1729,-97.656250
1730,-97.656250
1731,-97.656250
1732,-97.656250
1733,-97.656250
1734,-97.656250
1735,-97.656250
1736,-97.656250
1737,-97.656250
1738,-97.656250
1739,-97.656250
1740,-101.562500
1741,-97.656250
1742,-101.562500
1743,-101.562500
1744,-101.562500
1745,-101.562500
1746,-101.562500
1747,-101.562500
1748,-101.562500
1749,-101.562500
1750,-101.562500
1751,-101.562500
1752,-101.562500
1753,-101.562500
1754,-101.562500
1755,-101.562500
1756,-101.562500
1757,-105.468750
1758,-105.468750
1759,-105.468750
1760,-105.468750
1761,-105.468750
1762,-105.468750
1763,-105.468750
1764,-105.468750
1765,-105.468750
1766,-105.468750
1767,-105.468750
1768,-105.468750
1769,-105.468750
1770,-105.468750
1771,-105.468750
1772,-105.468750
1773,-105.468750
1774,-105.468750
1775,-105.468750
1776,-105.468750
1777,-109.375000
1778,-109.375000
1779,-109.375000
1780,-109.375000
1781,-109.375000
1782,-109.375000
1783,-109.375000
1784,-109.375000
1785,-109.375000
1786,-109.375000
1787,-109.375000
1788,-109.375000
1789,-109.375000
1790,-109.375000
1791,-109.375000
1792,-109.375000
1793,-109.375000
1794,-109.375000
1795,-109.375000
1796,-109.375000
1797,-109.375000
1798,-109.375000
1799,-109.375000
1800,-109.375000
1801,-109.375000
1802,-109.375000
1803,-109.375000
1804,-109.375000
1805,-109.375000
1806,-109.375000
1807,-109.375000
1808,-109.375000
1809,-109.375000
1810,-109.375000
1811,-109.375000
1812,-109.375000
1813,-109.375000
1814,-109.375000
1815,-109.375000
1816,-109.375000
1817,-109.375000
1818,-109.375000
1819,-109.375000
1820,-109.375000
1821,-109.375000
1822,-109.375000
1823,-109.375000
1824,-109.375000
1825,-109.375000
1826,-109.375000
1827,-109.375000
1828,-109.375000
1829,-109.375000
1830,-109.375000
1831,-109.375000
1832,-109.375000
1833,-109.375000
1834,-109.375000
1835,-109.375000
1836,-109.375000
1837,-109.375000
1838,-109.375000
1839,-109.375000
1840,-109.375000
1841,-109.375000
1842,-109.375000
1843,-109.375000
1844,-105.468750
1845,-105.468750
1846,-105.468750
1847,-105.468750
1848,-105.468750
1849,-105.468750
1850,-105.468750
1851,-105.468750
1852,-105.468750
1853,-105.468750
1854,-105.468750
1855,-105.468750
1856,-105.468750
1857,-105.468750
1858,-105.468750
1859,-105.468750
1860,-105.468750
1861,-105.468750
1862,-105.468750
1863,-105.468750
1864,-105.468750
1865,-105.468750
1866,-101.562500
1867,-105.468750
1868,-105.468750
1869,-101.562500
1870,-101.562500
1871,-101.562500
1872,-101.562500
1873,-101.562500
1874,-101.562500
1875,-101.562500
1876,-101.562500
1877,-101.562500
1878,-101.562500
1879,-101.562500
1880,-101.562500
1881,-97.656250
1882,-97.656250
1883,-97.656250
1884,-97.656250
1885,-97.656250
1886,-97.656250
1887,-97.656250
1888,-97.656250
1889,-97.656250
1890,-97.656250
1891,-97.656250
1892,-97.656250
1893,-97.656250
1894,-93.750000
1895,-97.656250
1896,-97.656250
1897,-93.750000
1898,-93.750000
1899,-93.750000
1900,-93.750000
1901,-93.750000
1902,-93.750000
1903,-93.750000
1904,-93.750000
1905,-89.843750
1906,-93.750000
1907,-89.843750
1908,-89.843750
1909,-89.843750
1910,-89.843750
1911,-89.843750
1912,-89.843750
1913,-89.843750
1914,-89.843750
1915,-89.843750
1916,-89.843750
1917,-85.937500
1918,-85.937500
1919,-85.937500
1920,-85.937500
1921,-85.937500
1922,-85.937500
1923,-85.937500
1924,-85.937500
1925,-85.937500
1926,-85.937500
1927,-82.031250
1928,-82.031250
1929,-82.031250
1930,-82.031250
1931,-82.031250
1932,-82.031250
1933,-82.031250
1934,-78.125000
1935,-78.125000
1936,-78.125000
1937,-78.125000
1938,-78.125000
1939,-78.125000
1940,-78.125000
1941,-78.125000
1942,-78.125000
1943,-74.218750
1944,-74.218750
1945,-74.218750
1946,-74.218750
1947,-74.218750
1948,-74.218750
1949,-74.218750
1950,-70.312500
1951,-70.312500
1952,-70.312500
1953,-70.312500
1954,-70.312500
1955,-70.312500
1956,-66.406250
1957,-70.312500
1958,-66.406250
1959,-66.406250
1960,-66.406250
1961,-66.406250
1962,-66.406250
1963,-66.406250
1964,-66.406250
1965,-62.500000
1966,-62.500000
1967,-62.500000
1968,-62.500000
1969,-62.500000
1970,-62.500000
1971,-62.500000
1972,-62.500000
1973,-58.593750
1974,-58.593750
1975,-58.593750
1976,-58.593750
1977,-58.593750
1978,-58.593750
1979,-58.593750
1980,-54.687500
1981,-54.687500
1982,-54.687500
1983,-54.687500
1984,-54.687500
1985,-54.687500
1986,-50.781250
1987,-50.781250
1988,-50.781250
1989,-50.781250
1990,-50.781250
1991,-50.781250
1992,-50.781250
1993,-50.781250
1994,-46.875000
1995,-46.875000
1996,-46.875000
1997,-46.875000
1998,-46.875000
1999,-46.875000
2000,-42.968750
2001,-42.968750
2002,-42.968750
2003,-42.968750
2004,-42.968750
2005,-42.968750
2006,-39.062500
2007,-39.062500
2008,-39.062500
2009,-39.062500
2010,-39.062500
2011,-39.062500
2012,-39.062500
2013,-35.156250
2014,-39.062500
2015,-35.156250
2016,-35.156250
2017,-35.156250
2018,-35.156250
2019,-35.156250
2020,-31.250000
2021,-31.250000
2022,-31.250000
2023,-31.250000
2024,-31.250000
2025,-31.250000
2026,-31.250000
2027,-31.250000
2028,-27.343750
2029,-27.343750
2030,-27.343750
2031,-27.343750
2032,-27.343750
2033,-27.343750
2034,-23.437500
2035,-23.437500
2036,-23.437500
2037,-23.437500
2038,-23.437500
2039,-23.437500
2040,-19.531250
2041,-19.531250
2042,-19.531250
2043,-19.531250
2044,-19.531250
2045,-19.531250
2046,-19.531250
2047,-15.625000
2048,-15.625000
2049,-15.625000
2050,-15.625000
2051,-15.625000
2052,-15.625000
2053,-11.718750
2054,-11.718750
2055,-11.718750
2056,-11.718750
2057,-11.718750
2058,-11.718750
2059,-11.718750
2060,-11.718750
2061,-7.812500
2062,-7.812500
2063,-7.812500
2064,-7.812500
2065,-7.812500
2066,-7.812500
2067,-3.906250
2068,-3.906250
2069,-3.906250
2070,-3.906250
2071,-3.906250
2072,-3.906250
2073,0.000000
2074,0.000000
2075,0.000000
2076,0.000000
2077,0.000000
2078,0.000000
2079,3.906250
2080,3.906250
2081,3.906250
2082,3.906250
2083,3.906250
2084,3.906250
2085,3.906250
2086,3.906250
2087,3.906250
2088,7.812500
2089,7.812500
2090,7.812500
2091,7.812500
2092,7.812500
2093,11.718750
2094,11.718750
2095,11.718750
2096,11.718750
2097,11.718750
2098,11.718750
2099,11.718750
2100,15.625000
2101,15.625000
2102,15.625000
2103,15.625000
2104,15.625000
2105,15.625000
2106,15.625000
2107,19.531250
2108,19.531250
2109,19.531250
2110,19.531250
2111,19.531250
2112,19.531250
2113,19.531250
2114,19.531250
2115,19.531250
2116,23.437500
2117,23.437500
2118,23.437500
2119,23.437500
2120,23.437500
2121,23.437500
2122,27.343750
2123,27.343750
2124,27.343750
2125,27.343750
2126,27.343750
2127,27.343750
2128,27.343750
2129,27.343750
2130,31.250000
2131,31.250000
2132,31.250000
2133,31.250000
2134,31.250000
2135,31.250000
2136,31.250000
2137,31.250000
2138,31.250000
2139,35.156250
2140,35.156250
2141,35.156250
2142,35.156250
2143,35.156250
2144,35.156250
2145,35.156250
2146,35.156250
2147,39.062500
2148,39.062500
2149,39.062500
2150,39.062500
2151,39.062500
2152,39.062500
2153,39.062500
2154,42.968750
2155,42.968750
2156,39.062500
2157,42.968750
2158,42.968750
2159,42.968750
2160,42.968750
2161,42.968750
2162,42.968750
2163,46.875000
2164,46.875000
2165,46.875000
2166,46.875000
2167,46.875000
2168,46.875000
2169,46.875000
2170,46.875000
2171,46.875000
2172,46.875000
2173,46.875000
2174,50.781250
2175,50.781250
2176,50.781250
2177,50.781250
2178,50.781250
2179,50.781250
2180,50.781250
2181,50.781250
2182,50.781250
2183,54.687500
2184,54.687500
2185,54.687500
2186,54.687500
2187,54.687500
2188,54.687500
2189,54.687500
2190,54.687500
2191,54.687500
2192,54.687500
2193,54.687500
2194,54.687500
2195,58.593750
2196,54.687500
2197,58.593750
2198,58.593750
2199,58.593750
2200,58.593750
2201,58.593750
2202,62.500000
2203,58.593750
2204,58.593750
2205,58.593750
2206,62.500000
2207,62.500000
2208,62.500000
2209,62.500000
2210,62.500000
2211,62.500000
2212,62.500000
2213,62.500000
2214,62.500000
2215,62.500000
2216,62.500000
2217,62.500000
2218,66.406250
2219,62.500000
2220,66.406250
2221,66.406250
2222,66.406250
2223,66.406250
2224,66.406250
2225,66.406250
2226,66.406250
2227,66.406250
2228,66.406250
2229,66.406250
2230,66.406250
2231,66.406250
2232,66.406250
2233,66.406250
2234,70.312500
2235,66.406250
2236,70.312500
2237,70.312500
2238,70.312500
2239,70.312500
2240,70.312500
2241,70.312500
2242,70.312500
2243,70.312500
2244,70.312500
2245,70.312500
2246,70.312500
2247,70.312500
2248,70.312500
2249,70.312500
2250,70.312500
2251,70.312500
2252,70.312500
2253,70.312500
2254,74.218750
2255,70.312500
2256,70.312500
2257,74.218750
2258,74.218750
2259,74.218750
2260,74.218750
2261,74.218750
2262,74.218750
2263,74.218750
2264,74.218750
2265,74.218750
2266,74.218750
2267,74.218750
2268,74.218750
2269,74.218750
2270,74.218750
2271,74.218750
2272,74.218750
2273,74.218750
2274,74.218750
2275,74.218750
2276,74.218750
2277,74.218750
2278,74.218750
2279,74.218750
2280,74.218750
2281,74.218750
2282,74.218750
2283,74.218750
2284,74.218750
2285,74.218750
2286,74.218750
2287,74.218750
2288,74.218750
2289,74.218750
2290,74.218750
2291,74.218750
2292,74.218750
2293,78.125000
2294,78.125000
2295,74.218750
2296,74.218750
2297,74.218750
2298,74.218750
2299,74.218750
2300,74.218750
2301,74.218750
2302,74.218750
2303,74.218750
2304,74.218750
2305,74.218750
2306,74.218750
2307,74.218750
2308,74.218750
2309,74.218750
2310,74.218750
2311,74.218750
2312,74.218750
2313,74.218750
2314,74.218750
2315,74.218750
2316,74.218750
2317,74.218750
2318,74.218750
2319,74.218750
2320,74.218750
2321,74.218750
2322,74.218750
2323,74.218750
2324,78.125000
2325,74.218750
2326,74.218750
2327,74.218750
2328,74.218750
2329,74.218750
2330,74.218750
2331,74.218750
2332,74.218750
2333,74.218750
2334,74.218750
2335,74.218750
2336,74.218750
2337,74.218750
2338,74.218750
2339,74.218750
2340,74.218750
2341,74.218750
2342,74.218750
2343,74.218750
2344,74.218750
2345,74.218750
2346,74.218750
2347,74.218750
2348,74.218750
2349,74.218750
2350,74.218750
2351,74.218750
2352,74.218750
2353,74.218750
2354,74.218750
2355,74.218750
2356,74.218750
2357,70.312500
2358,70.312500
2359,70.312500
2360,70.312500
2361,70.312500
2362,70.312500
2363,70.312500
2364,70.312500
2365,70.312500
2366,70.312500
2367,70.312500
2368,70.312500
2369,70.312500
2370,70.312500
2371,70.312500
2372,66.406250
2373,70.312500
2374,70.312500
2375,66.406250
2376,70.312500
2377,66.406250
2378,66.406250
2379,66.406250
2380,66.406250
2381,66.406250
2382,66.406250
2383,66.406250
2384,66.406250
2385,66.406250
2386,66.406250
2387,66.406250
2388,66.406250
2389,66.406250
2390,62.500000
2391,62.500000
2392,62.500000
2393,62.500000
2394,62.500000
2395,62.500000
2396,62.500000
2397,62.500000
2398,62.500000
2399,62.500000
2400,62.500000
2401,62.500000
2402,62.500000
2403,62.500000
2404,62.500000
2405,58.593750
2406,58.593750
2407,58.593750
2408,58.593750
2409,58.593750
2410,58.593750
2411,58.593750
2412,58.593750
2413,58.593750
2414,58.593750
2415,54.687500
2416,58.593750
2417,54.687500
2418,54.687500
2419,54.687500
2420,54.687500
2421,54.687500
2422,54.687500
2423,54.687500
2424,54.687500
2425,54.687500
2426,50.781250
2427,50.781250
2428,50.781250
2429,50.781250
2430,50.781250
2431,50.781250
2432,50.781250
2433,50.781250
2434,50.781250
2435,46.875000
2436,50.781250
2437,46.875000
2438,46.875000
2439,46.875000
2440,46.875000
2441,46.875000
2442,46.875000
2443,46.875000
2444,46.875000
2445,46.875000
2446,42.968750
2447,42.968750
2448,42.968750
2449,42.968750
2450,42.968750
2451,42.968750
2452,42.968750
2453,42.968750
2454,42.968750
2455,42.968750
2456,39.062500
2457,39.062500
2458,39.062500
2459,39.062500
2460,39.062500
2461,39.062500
2462,39.062500
2463,39.062500
2464,39.062500
2465,35.156250
2466,35.156250
2467,35.156250
2468,35.156250
2469,35.156250
2470,35.156250
2471,35.156250
2472,35.156250
2473,31.250000
2474,31.250000
2475,31.250000
2476,31.250000
2477,31.250000
2478,31.250000
2479,31.250000
2480,31.250000
2481,27.343750
2482,27.343750
2483,27.343750
2484,27.343750
2485,27.343750
2486,27.343750
2487,27.343750
2488,27.343750
2489,23.437500
2490,23.437500
2491,23.437500
2492,23.437500
2493,23.437500
2494,23.437500
2495,23.437500
2496,23.437500
2497,19.531250
2498,19.531250
2499,19.531250
2500,19.531250
2501,19.531250
2502,15.625000
2503,15.625000
2504,15.625000
2505,15.625000
2506,15.625000
2507,15.625000
2508,15.625000
2509,15.625000
2510,11.718750
2511,11.718750
2512,11.718750
2513,11.718750
2514,11.718750
2515,11.718750
2516,7.812500
2517,7.812500
2518,7.812500
2519,7.812500
2520,7.812500
2521,7.812500
2522,7.812500
2523,3.906250
2524,3.906250
2525,3.906250
2526,3.906250
2527,3.906250
2528,3.906250
2529,3.906250
2530,3.906250
2531,0.000000
2532,0.000000
2533,0.000000
2534,0.000000
2535,0.000000
2536,-3.906250
2537,-3.906250
2538,-3.906250
2539,-3.906250
2540,-3.906250
2541,-3.906250
2542,-3.906250
2543,-7.812500
2544,-7.812500
2545,-7.812500
2546,-7.812500
2547,-7.812500
2548,-7.812500
2549,-7.812500
2550,-11.718750
2551,-11.718750
2552,-11.718750
2553,-11.718750
2554,-11.718750
2555,-11.718750
2556,-15.625000
2557,-15.625000
2558,-15.625000
2559,-15.625000
2560,-15.625000
2561,-15.625000
2562,-15.625000
2563,-19.531250
2564,-19.531250
2565,-19.531250
2566,-19.531250
2567,-19.531250
2568,-19.531250
2569,-19.531250
2570,-23.437500
2571,-23.437500
2572,-23.437500
2573,-23.437500
2574,-23.437500
2575,-23.437500
2576,-27.343750
2577,-27.343750
2578,-27.343750
2579,-27.343750
2580,-27.343750
2581,-27.343750
2582,-27.343750
2583,-27.343750
2584,-31.250000
2585,-31.250000
2586,-31.250000
2587,-31.250000
2588,-31.250000
2589,-31.250000
2590,-35.156250
2591,-35.156250
2592,-35.156250
2593,-35.156250
2594,-35.156250
2595,-35.156250
2596,-35.156250
2597,-39.062500
2598,-39.062500
2599,-39.062500
2600,-39.062500
2601,-39.062500
2602,-39.062500
2603,-42.968750
2604,-39.062500
2605,-42.968750
2606,-42.968750
2607,-42.968750
2608,-42.968750
2609,-46.875000
2610,-46.875000
2611,-46.875000
2612,-46.875000
2613,-46.875000
2614,-46.875000
2615,-46.875000
2616,-46.875000
2617,-50.781250
2618,-50.781250
2619,-50.781250
2620,-50.781250
2621,-50.781250
2622,-50.781250
2623,-50.781250
2624,-50.781250
2625,-54.687500
2626,-54.687500
2627,-54.687500
2628,-54.687500
2629,-54.687500
2630,-58.593750
2631,-58.593750
2632,-58.593750
2633,-58.593750
2634,-58.593750
2635,-58.593750
2636,-58.593750
2637,-62.500000
2638,-62.500000
2639,-62.500000
2640,-62.500000
2641,-62.500000
2642,-62.500000
2643,-62.500000
2644,-62.500000
2645,-66.406250
2646,-66.406250
2647,-66.406250
2648,-66.406250
2649,-66.406250
2650,-66.406250
2651,-66.406250
2652,-70.312500
2653,-70.312500
2654,-70.312500
2655,-70.312500
2656,-70.312500
2657,-70.312500
2658,-70.312500
2659,-70.312500
2660,-70.312500
2661,-74.218750
2662,-74.218750
2663,-74.218750
2664,-74.218750
2665,-74.218750
2666,-74.218750
2667,-78.125000
2668,-78.125000
2669,-78.125000
2670,-78.125000
2671,-78.125000
2672,-78.125000
2673,-78.125000
2674,-78.125000
2675,-78.125000
2676,-82.031250
2677,-82.031250
2678,-82.031250
2679,-82.031250
2680,-82.031250
2681,-82.031250
2682,-82.031250
2683,-82.031250
2684,-82.031250
2685,-85.937500
2686,-85.937500
2687,-85.937500
2688,-85.937500
2689,-85.937500
2690,-85.937500
2691,-85.937500
2692,-85.937500
2693,-85.937500
2694,-89.843750
2695,-89.843750
2696,-89.843750
2697,-89.843750
2698,-89.843750
2699,-89.843750
2700,-89.843750
2701,-89.843750
2702,-89.843750
2703,-89.843750
2704,-93.750000
2705,-93.750000
2706,-93.750000
2707,-93.750000
2708,-93.750000
2709,-93.750000
2710,-93.750000
2711,-93.750000
2712,-93.750000
2713,-93.750000
2714,-93.750000
2715,-93.750000
2716,-97.656250
2717,-97.656250
2718,-97.656250
2719,-97.656250
2720,-97.656250
2721,-97.656250
2722,-97.656250
2723,-97.656250
2724,-97.656250
2725,-97.656250
2726,-97.656250
2727,-97.656250
2728,-97.656250
2729,-97.656250
2730,-101.562500
2731,-101.562500
2732,-101.562500
2733,-101.562500
2734,-101.562500
2735,-101.562500
2736,-101.562500
2737,-101.562500
2738,-101.562500
2739,-101.562500
2740,-101.562500
2741,-101.562500
2742,-101.562500
2743,-101.562500
2744,-101.562500
2745,-105.468750
2746,-105.468750
2747,-105.468750
2748,-105.468750
2749,-105.468750
2750,-105.468750
2751,-105.468750
2752,-105.468750
2753,-105.468750
2754,-105.468750
2755,-105.468750
2756,-105.468750
2757,-105.468750
2758,-105.468750
2759,-105.468750
2760,-105.468750
2761,-105.468750
2762,-105.468750
2763,-105.468750
2764,-105.468750
2765,-105.468750
2766,-109.375000
2767,-105.468750
2768,-109.375000
2769,-109.375000
2770,-109.375000
2771,-109.375000
2772,-109.375000
2773,-109.375000
2774,-109.375000
2775,-109.375000
2776,-109.375000
2777,-109.375000
2778,-109.375000
2779,-109.375000
2780,-109.375000
2781,-109.375000
2782,-109.375000
2783,-109.375000
2784,-109.375000
2785,-109.375000
2786,-109.375000
2787,-109.375000
2788,-109.375000
2789,-109.375000
2790,-109.375000
2791,-109.375000
2792,-109.375000
2793,-109.375000
2794,-109.375000
2795,-109.375000
2796,-109.375000
2797,-109.375000
2798,-109.375000
2799,-109.375000
2800,-109.375000
2801,-109.375000
2802,-109.375000
2803,-109.375000
2804,-109.375000
2805,-109.375000
2806,-109.375000
2807,-109.375000
2808,-109.375000
2809,-109.375000
2810,-109.375000
2811,-109.375000
2812,-109.375000
2813,-109.375000
2814,-109.375000
2815,-109.375000
2816,-109.375000
2817,-109.375000
2818,-109.375000
2819,-109.375000
2820,-109.375000
2821,-109.375000
2822,-109.375000
2823,-109.375000
2824,-109.375000
2825,-109.375000
2826,-109.375000
2827,-109.375000
2828,-109.375000
2829,-109.375000
2830,-109.375000
2831,-109.375000
2832,-105.468750
2833,-109.375000
2834,-109.375000
2835,-105.468750
2836,-105.468750
2837,-105.468750
2838,-105.468750
2839,-105.468750
2840,-105.468750
2841,-105.468750
2842,-105.468750
2843,-105.468750
2844,-105.468750
2845,-105.468750
2846,-105.468750
2847,-105.468750
2848,-105.468750
2849,-105.468750
2850,-105.468750
2851,-105.468750
2852,-101.562500
2853,-105.468750
2854,-105.468750
2855,-105.468750
2856,-101.562500
2857,-101.562500
2858,-101.562500
2859,-101.562500
2860,-101.562500
2861,-101.562500
2862,-101.562500
2863,-101.562500
2864,-101.562500
2865,-101.562500
2866,-101.562500
2867,-101.562500
2868,-101.562500
2869,-101.562500
2870,-101.562500
2871,-97.656250
2872,-97.656250
2873,-97.656250
2874,-97.656250
2875,-97.656250
2876,-97.656250
2877,-97.656250
2878,-97.656250
2879,-97.656250
2880,-97.656250
2881,-97.656250
2882,-97.656250
2883,-93.750000
2884,-93.750000
2885,-93.750000
2886,-93.750000
2887,-93.750000
2888,-93.750000
2889,-93.750000
2890,-93.750000
2891,-93.750000
2892,-93.750000
2893,-93.750000
2894,-89.843750
2895,-89.843750
2896,-89.843750
2897,-89.843750
2898,-89.843750
2899,-89.843750
2900,-89.843750
2901,-89.843750
2902,-89.843750
2903,-89.843750
2904,-85.937500
2905,-89.843750
2906,-85.937500
2907,-85.937500
2908,-85.937500
2909,-85.937500
2910,-85.937500
2911,-85.937500
2912,-85.937500
2913,-85.937500
2914,-82.031250
2915,-82.031250
2916,-82.031250
2917,-82.031250
2918,-82.031250
2919,-82.031250
2920,-82.031250
2921,-82.031250
2922,-82.031250
2923,-82.031250
2924,-82.031250
2925,-78.125000
2926,-78.125000
2927,-78.125000
2928,-78.125000
2929,-78.125000
2930,-78.125000
2931,-78.125000
2932,-74.218750
2933,-74.218750
2934,-74.218750
2935,-74.218750
2936,-70.312500
2937,-70.312500
2938,-74.218750
2939,-70.312500
2940,-70.312500
2941,-70.312500
2942,-70.312500
2943,-70.312500
2944,-70.312500
2945,-70.312500
2946,-70.312500
2947,-70.312500
2948,-66.406250
2949,-66.406250
2950,-66.406250
2951,-66.406250
2952,-66.406250
2953,-66.406250
2954,-62.500000
2955,-62.500000
2956,-62.500000
2957,-62.500000
2958,-62.500000
2959,-62.500000
2960,-62.500000
2961,-62.500000
2962,-58.593750
2963,-58.593750
2964,-58.593750
2965,-58.593750
2966,-58.593750
2967,-58.593750
2968,-54.687500
2969,-54.687500
2970,-54.687500
2971,-54.687500
2972,-54.687500
2973,-54.687500
2974,-50.781250
2975,-50.781250
2976,-50.781250
2977,-50.781250
2978,-50.781250
2979,-50.781250
2980,-50.781250
2981,-50.781250
2982,-46.875000
2983,-46.875000
2984,-46.875000
2985,-46.875000
2986,-46.875000
2987,-46.875000
2988,-46.875000
2989,-46.875000
2990,-42.968750
2991,-42.968750
2992,-42.968750
2993,-42.968750
2994,-42.968750
2995,-39.062500
2996,-39.062500
2997,-39.062500
2998,-39.062500
2999,-39.062500
3000,-39.062500
3001,-35.156250
3002,-35.156250
3003,-35.156250
3004,-35.156250
3005,-35.156250
3006,-35.156250
3007,-35.156250
3008,-31.250000
3009,-31.250000
3010,-31.250000
3011,-31.250000
3012,-31.250000
3013,-31.250000
3014,-31.250000
3015,-27.343750
3016,-27.343750
3017,-27.343750
3018,-27.343750
3019,-27.343750
3020,-27.343750
3021,-27.343750
3022,-23.437500
3023,-23.437500
3024,-23.437500
3025,-23.437500
3026,-23.437500
3027,-23.437500
3028,-23.437500
3029,-19.531250
3030,-19.531250
3031,-19.531250
3032,-19.531250
3033,-19.531250
3034,-19.531250
3035,-15.625000
3036,-15.625000
3037,-15.625000
3038,-15.625000
3039,-15.625000
3040,-15.625000
3041,-11.718750
3042,-11.718750
3043,-11.718750
3044,-11.718750
3045,-11.718750
3046,-11.718750
3047,-7.812500
3048,-7.812500
3049,-7.812500
3050,-7.812500
3051,-7.812500
3052,-7.812500
3053,-7.812500
3054,-3.906250
3055,-3.906250
3056,-3.906250
3057,-3.906250
3058,-3.906250
3059,-3.906250
3060,-3.906250
3061,0.000000
3062,0.000000
3063,0.000000
3064,0.000000
3065,0.000000
3066,0.000000
3067,3.906250
3068,3.906250
3069,3.906250
3070,3.906250
3071,3.906250
3072,3.906250
3073,3.906250
3074,3.906250
3075,7.812500
3076,7.812500
3077,7.812500
3078,7.812500
3079,7.812500
3080,7.812500
3081,7.812500
3082,11.718750
3083,11.718750
3084,11.718750
3085,11.718750
3086,11.718750
3087,11.718750
3088,15.625000
3089,11.718750
3090,15.625000
3091,15.625000
3092,15.625000
3093,15.625000
3094,15.625000
3095,15.625000
3096,19.531250
3097,19.531250
3098,19.531250
3099,19.531250
3100,19.531250
3101,19.531250
3102,23.437500
3103,19.531250
3104,23.437500
3105,23.437500
3106,23.437500
3107,23.437500
3108,23.437500
3109,27.343750
3110,27.343750
3111,27.343750
3112,27.343750
3113,27.343750
3114,27.343750
3115,27.343750
3116,31.250000
3117,31.250000
3118,31.250000
3119,31.250000
3120,31.250000
3121,31.250000
3122,31.250000
3123,31.250000
3124,31.250000
3125,35.156250
3126,35.156250
3127,35.156250
3128,35.156250
3129,35.156250
3130,35.156250
3131,35.156250
3132,35.156250
3133,35.156250
3134,39.062500
3135,39.062500
3136,39.062500
3137,39.062500
3138,39.062500
3139,39.062500
3140,39.062500
3141,39.062500
3142,42.968750
3143,39.062500
3144,42.968750
3145,42.968750
3146,42.968750
3147,42.968750
3148,42.968750
3149,42.968750
3150,42.968750
3151,42.968750
3152,46.875000
3153,46.875000
3154,46.875000
3155,46.875000
3156,46.875000
3157,46.875000
3158,46.875000
3159,46.875000
3160,46.875000
3161,46.875000
3162,50.781250
3163,50.781250
3164,50.781250
3165,50.781250
3166,50.781250
3167,50.781250
3168,54.687500
3169,50.781250
3170,54.687500
3171,50.781250
3172,54.687500
3173,54.687500
3174,54.687500
3175,54.687500
3176,54.687500
3177,54.687500
3178,54.687500
3179,54.687500
3180,54.687500
3181,54.687500
3182,54.687500
3183,58.593750
3184,58.593750
3185,58.593750
3186,58.593750
3187,58.593750
3188,58.593750
3189,58.593750
3190,58.593750
3191,58.593750
3192,58.593750
3193,62.500000
3194,62.500000
3195,62.500000
3196,62.500000
3197,62.500000
3198,62.500000
3199,62.500000
3200,62.500000
3201,62.500000
3202,62.500000
3203,62.500000
3204,62.500000
3205,66.406250
3206,62.500000
3207,62.500000
3208,62.500000
3209,62.500000
3210,66.406250
3211,66.406250
3212,66.406250
3213,66.406250
3214,66.406250
3215,66.406250
3216,66.406250
3217,66.406250
3218,66.406250
3219,66.406250
3220,66.406250
3221,66.406250
3222,66.406250
3223,70.312500
3224,70.312500
3225,70.312500
3226,70.312500
3227,70.312500
3228,70.312500
3229,70.312500
3230,70.312500
3231,70.312500
3232,70.312500
3233,70.312500
3234,70.312500
3235,70.312500
3236,70.312500
3237,70.312500
3238,70.312500
3239,70.312500
3240,70.312500
3241,70.312500
3242,74.218750
3243,74.218750
3244,70.312500
3245,74.218750
3246,74.218750
3247,74.218750
3248,74.218750
3249,74.218750
3250,74.218750
3251,74.218750
3252,74.218750
3253,74.218750
3254,74.218750
3255,74.218750
3256,74.218750
3257,74.218750
3258,74.218750
3259,74.218750
3260,74.218750
3261,74.218750
3262,74.218750
3263,74.218750
3264,74.218750
3265,74.218750
3266,74.218750
3267,74.218750
3268,74.218750
3269,74.218750
3270,74.218750
3271,74.218750
3272,74.218750
3273,74.218750
3274,78.125000
3275,74.218750
3276,74.218750
3277,74.218750
3278,74.218750
3279,74.218750
3280,78.125000
3281,78.125000
3282,78.125000
3283,78.125000
3284,78.125000
3285,74.218750
3286,78.125000
3287,78.125000
3288,78.125000
3289,78.125000
3290,78.125000
3291,78.125000
3292,78.125000
3293,78.125000
3294,78.125000
3295,74.218750
3296,74.218750
3297,78.125000
3298,78.125000
3299,74.218750
3300,78.125000
3301,78.125000
3302,78.125000
3303,78.125000
3304,78.125000
3305,74.218750
3306,74.218750
3307,74.218750
3308,74.218750
3309,74.218750
3310,74.218750
3311,78.125000
3312,74.218750
3313,74.218750
3314,74.218750
3315,74.218750
3316,74.218750
3317,74.218750
3318,74.218750
3319,74.218750
3320,74.218750
3321,74.218750
3322,74.218750
3323,74.218750
3324,74.218750
3325,74.218750
3326,74.218750
3327,74.218750
3328,74.218750
3329,74.218750
3330,74.218750
3331,74.218750
3332,74.218750
3333,74.218750
3334,74.218750
3335,74.218750
3336,74.218750
3337,74.218750
3338,70.312500
3339,70.312500
3340,74.218750
3341,74.218750
3342,70.312500
3343,70.312500
3344,74.218750
3345,70.312500
3346,70.312500
3347,70.312500
3348,70.312500
3349,70.312500
3350,70.312500
3351,70.312500
3352,70.312500
3353,70.312500
3354,70.312500
3355,70.312500
3356,70.312500
3357,70.312500
3358,70.312500
3359,66.406250
3360,70.312500
3361,70.312500
3362,70.312500
3363,70.312500
3364,66.406250
3365,66.406250
3366,66.406250
3367,66.406250
3368,66.406250
3369,66.406250
3370,66.406250
3371,66.406250
3372,66.406250
3373,66.406250
3374,66.406250
3375,66.406250
3376,70.312500
3377,66.406250
3378,62.500000
3379,62.500000
3380,66.406250
3381,62.500000
3382,62.500000
3383,62.500000
3384,62.500000
3385,62.500000
3386,62.500000
3387,62.500000
3388,62.500000
3389,62.500000
3390,62.500000
3391,62.500000
3392,62.500000
3393,62.500000
3394,58.593750
3395,58.593750
3396,58.593750
3397,58.593750
3398,58.593750
3399,58.593750
3400,58.593750
3401,58.593750
3402,58.593750
3403,58.593750
3404,58.593750
3405,58.593750
3406,58.593750
3407,54.687500
3408,54.687500
3409,54.687500
3410,54.687500
3411,54.687500
3412,54.687500
3413,54.687500
3414,54.687500
3415,54.687500
3416,50.781250
3417,50.781250
3418,50.781250
3419,50.781250
3420,50.781250
3421,50.781250
3422,50.781250
3423,50.781250
3424,50.781250
3425,46.875000
3426,46.875000
3427,46.875000
3428,46.875000
3429,46.875000
3430,46.875000
3431,46.875000
3432,46.875000
3433,46.875000
3434,46.875000
3435,42.968750
3436,42.968750
3437,42.968750
3438,42.968750
3439,42.968750
3440,42.968750
3441,42.968750
3442,42.968750
3443,39.062500
3444,39.062500
3445,39.062500
3446,39.062500
3447,39.062500
3448,39.062500
3449,39.062500
3450,39.062500
3451,39.062500
3452,35.156250
3453,35.156250
3454,35.156250
3455,35.156250
3456,35.156250
3457,35.156250
3458,35.156250
3459,35.156250
3460,31.250000
3461,31.250000
3462,31.250000
3463,31.250000
3464,31.250000
3465,31.250000
3466,27.343750
3467,27.343750
3468,27.343750
3469,27.343750
3470,27.343750
3471,27.343750
3472,27.343750
3473,27.343750
3474,27.343750
3475,23.437500
3476,23.437500
3477,23.437500
3478,23.437500
3479,23.437500
3480,23.437500
3481,23.437500
3482,23.437500
3483,19.531250
3484,19.531250
3485,19.531250
3486,19.531250
3487,19.531250
3488,19.531250
3489,19.531250
3490,19.531250
3491,15.625000
3492,15.625000
3493,15.625000
3494,15.625000
3495,15.625000
3496,15.625000
3497,15.625000
3498,15.625000
3499,11.718750
3500,11.718750
3501,11.718750
3502,11.718750
3503,11.718750
3504,11.718750
3505,7.812500
3506,7.812500
3507,7.812500
3508,7.812500
3509,7.812500
3510,7.812500
3511,7.812500
3512,3.906250
3513,3.906250
3514,3.906250
3515,3.906250
3516,3.906250
3517,3.906250
3518,3.906250
3519,0.000000
3520,0.000000
3521,0.000000
3522,0.000000
3523,0.000000
3524,0.000000
3525,0.000000
3526,-3.906250
3527,-3.906250
3528,-3.906250
3529,-3.906250
3530,-3.906250
3531,-3.906250
3532,-3.906250
3533,-7.812500
3534,-7.812500
3535,-7.812500
3536,-7.812500
3537,-7.812500
3538,-11.718750
3539,-7.812500
3540,-11.718750
3541,-11.718750
3542,-11.718750
3543,-11.718750
3544,-15.625000
3545,-15.625000
3546,-15.625000
3547,-15.625000
3548,-15.625000
3549,-15.625000
3550,-15.625000
3551,-19.531250
3552,-19.531250
3553,-19.531250
3554,-19.531250
3555,-19.531250
3556,-19.531250
3557,-19.531250
3558,-23.437500
3559,-23.437500
3560,-23.437500
3561,-23.437500
3562,-23.437500
3563,-23.437500
3564,-27.343750
3565,-27.343750
3566,-27.343750
3567,-27.343750
3568,-27.343750
3569,-27.343750
3570,-27.343750
3571,-31.250000
3572,-31.250000
3573,-31.250000
3574,-31.250000
3575,-31.250000
3576,-31.250000
3577,-31.250000
3578,-35.156250
3579,-35.156250
3580,-35.156250
3581,-35.156250
3582,-35.156250
3583,-39.062500
3584,-39.062500
3585,-39.062500
3586,-39.062500
3587,-39.062500
3588,-39.062500
3589,-39.062500
3590,-42.968750
3591,-42.968750
3592,-42.968750
3593,-42.968750
3594,-42.968750
3595,-42.968750
3596,-42.968750
3597,-46.875000
3598,-46.875000
3599,-46.875000
3600,-46.875000
3601,-46.875000
3602,-46.875000
3603,-50.781250
3604,-50.781250
3605,-50.781250
3606,-50.781250
3607,-50.781250
3608,-50.781250
3609,-50.781250
3610,-54.687500
3611,-54.687500
3612,-54.687500
3613,-54.687500
3614,-54.687500
3615,-54.687500
3616,-54.687500
3617,-54.687500
3618,-58.593750
3619,-58.593750
3620,-58.593750
3621,-58.593750
3622,-58.593750
3623,-58.593750
3624,-58.593750
3625,-62.500000
3626,-62.500000
3627,-62.500000
3628,-62.500000
3629,-62.500000
3630,-62.500000
3631,-62.500000
3632,-62.500000
3633,-66.406250
3634,-66.406250
3635,-66.406250
3636,-66.406250
3637,-66.406250
3638,-66.406250
3639,-70.312500
3640,-66.406250
3641,-70.312500
3642,-70.312500
3643,-70.312500
3644,-70.312500
3645,-70.312500
3646,-70.312500
3647,-70.312500
3648,-70.312500
3649,-74.218750
3650,-74.218750
3651,-74.218750
3652,-74.218750
3653,-74.218750
3654,-74.218750
3655,-74.218750
3656,-78.125000
3657,-78.125000
3658,-78.125000
3659,-78.125000
3660,-78.125000
3661,-78.125000
3662,-78.125000
3663,-78.125000
3664,-78.125000
3665,-78.125000
3666,-82.031250
3667,-82.031250
3668,-82.031250
3669,-82.031250
3670,-82.031250
3671,-82.031250
3672,-82.031250
3673,-85.937500
3674,-85.937500
3675,-85.937500
3676,-85.937500
3677,-85.937500
3678,-85.937500
3679,-85.937500
3680,-85.937500
3681,-85.937500
3682,-85.937500
3683,-89.843750
3684,-89.843750
3685,-89.843750
3686,-89.843750
3687,-89.843750
3688,-89.843750
3689,-89.843750
3690,-89.843750
3691,-89.843750
3692,-89.843750
3693,-93.750000
3694,-93.750000
3695,-93.750000
3696,-93.750000
3697,-93.750000
3698,-93.750000
3699,-93.750000
3700,-93.750000
3701,-93.750000
3702,-93.750000
3703,-93.750000
3704,-97.656250
3705,-97.656250
3706,-97.656250
3707,-97.656250
3708,-97.656250
3709,-97.656250
3710,-97.656250
3711,-97.656250
3712,-97.656250
3713,-97.656250
3714,-97.656250
3715,-97.656250
3716,-101.562500
3717,-101.562500
3718,-101.562500
3719,-101.562500
3720,-101.562500
3721,-101.562500
3722,-101.562500
3723,-101.562500
3724,-101.562500
3725,-101.562500
3726,-101.562500
3727,-101.562500
3728,-101.562500
3729,-101.562500
3730,-101.562500
3731,-101.562500
3732,-101.562500
3733,-105.468750
3734,-105.468750
3735,-105.468750
3736,-105.468750
3737,-105.468750
3738,-105.468750
3739,-105.468750
3740,-105.468750
3741,-105.468750
3742,-105.468750
3743,-109.375000
3744,-105.468750
3745,-105.468750
3746,-105.468750
3747,-105.468750
3748,-105.468750
3749,-105.468750
3750,-105.468750
3751,-105.468750
3752,-109.375000
3753,-109.375000
3754,-105.468750
3755,-109.375000
3756,-109.375000
3757,-109.375000
3758,-109.375000
3759,-109.375000
3760,-109.375000
3761,-109.375000
3762,-109.375000
3763,-109.375000
3764,-109.375000
3765,-109.375000
3766,-109.375000
3767,-109.375000
3768,-109.375000
3769,-109.375000
3770,-109.375000
3771,-109.375000
3772,-109.375000
3773,-109.375000
3774,-109.375000
3775,-109.375000
3776,-109.375000
3777,-109.375000
3778,-109.375000
3779,-109.375000
3780,-109.375000
3781,-109.375000
3782,-109.375000
3783,-109.375000
3784,-109.375000
3785,-109.375000
3786,-109.375000
3787,-109.375000
3788,-109.375000
3789,-109.375000
3790,-109.375000
3791,-109.375000
3792,-109.375000
3793,-109.375000
3794,-109.375000
3795,-109.375000
3796,-109.375000
3797,-109.375000
3798,-109.375000
3799,-109.375000
3800,-109.375000
3801,-109.375000
3802,-109.375000
3803,-109.375000
3804,-109.375000
3805,-109.375000
3806,-109.375000
3807,-109.375000
3808,-109.375000
3809,-109.375000
3810,-109.375000
3811,-109.375000
3812,-109.375000
3813,-109.375000
3814,-109.375000
3815,-109.375000
3816,-109.375000
3817,-109.375000
3818,-109.375000
3819,-109.375000
3820,-109.375000
3821,-109.375000
3822,-105.468750
3823,-105.468750
3824,-105.468750
3825,-105.468750
3826,-105.468750
3827,-105.468750
3828,-105.468750
3829,-105.468750
3830,-105.468750
3831,-105.468750
3832,-105.468750
3833,-105.468750
3834,-105.468750
3835,-105.468750
3836,-105.468750
3837,-105.468750
3838,-105.468750
3839,-105.468750
3840,-105.468750
3841,-105.468750
3842,-105.468750
3843,-105.468750
3844,-101.562500
3845,-101.562500
3846,-101.562500
3847,-101.562500
3848,-101.562500
3849,-101.562500
3850,-101.562500
3851,-101.562500
3852,-101.562500
3853,-101.562500
3854,-101.562500
3855,-101.562500
3856,-101.562500
3857,-97.656250
3858,-97.656250
3859,-101.562500
3860,-97.656250
3861,-97.656250
3862,-97.656250
3863,-97.656250
3864,-97.656250
3865,-97.656250
3866,-97.656250
3867,-97.656250
3868,-97.656250
3869,-97.656250
3870,-97.656250
3871,-97.656250
3872,-93.750000
3873,-93.750000
3874,-93.750000
3875,-93.750000
3876,-93.750000
3877,-93.750000
3878,-93.750000
3879,-93.750000
3880,-93.750000
3881,-93.750000
3882,-93.750000
3883,-89.843750
3884,-89.843750
3885,-89.843750
3886,-89.843750
3887,-89.843750
3888,-89.843750
3889,-89.843750
3890,-89.843750
3891,-89.843750
3892,-85.937500
3893,-85.937500
3894,-85.937500
3895,-85.937500
3896,-85.937500
3897,-85.937500
3898,-85.937500
3899,-85.937500
3900,-85.937500
3901,-82.031250
3902,-82.031250
3903,-82.031250
3904,-82.031250
3905,-82.031250
3906,-82.031250
3907,-82.031250
3908,-82.031250
3909,-82.031250
3910,-78.125000
3911,-78.125000
3912,-78.125000
3913,-78.125000
3914,-78.125000
3915,-78.125000
3916,-78.125000
3917,-78.125000
3918,-78.125000
3919,-78.125000
3920,-74.218750
3921,-74.218750
3922,-74.218750
3923,-74.218750
3924,-74.218750
3925,-74.218750
3926,-70.312500
3927,-70.312500
3928,-70.312500
3929,-70.312500
3930,-70.312500
3931,-70.312500
3932,-70.312500
3933,-70.312500
3934,-70.312500
3935,-70.312500
3936,-66.406250
3937,-66.406250
3938,-66.406250
3939,-66.406250
3940,-66.406250
3941,-66.406250
3942,-62.500000
3943,-62.500000
3944,-62.500000
3945,-62.500000
3946,-62.500000
3947,-62.500000
3948,-62.500000
3949,-62.500000
3950,-58.593750
3951,-58.593750
3952,-58.593750
3953,-58.593750
3954,-58.593750
3955,-58.593750
3956,-54.687500
3957,-58.593750
3958,-54.687500
3959,-54.687500
3960,-54.687500
3961,-54.687500
3962,-54.687500
3963,-54.687500
3964,-54.687500
3965,-50.781250
3966,-50.781250
3967,-50.781250
3968,-50.781250
3969,-50.781250
3970,-50.781250
3971,-46.875000
3972,-46.875000
3973,-46.875000
3974,-46.875000
3975,-46.875000
3976,-46.875000
3977,-46.875000
3978,-42.968750
3979,-42.968750
3980,-42.968750
3981,-42.968750
3982,-42.968750
3983,-42.968750
3984,-39.062500
3985,-39.062500
3986,-39.062500
3987,-39.062500
3988,-39.062500
3989,-39.062500
3990,-35.156250
3991,-35.156250
3992,-35.156250
3993,-35.156250
3994,-35.156250
3995,-35.156250
3996,-35.156250
3997,-35.156250
3998,-31.250000
3999,-31.250000
4000,-31.250000
4001,-31.250000
4002,-31.250000
4003,-27.343750
4004,-27.343750
4005,-27.343750
4006,-27.343750
4007,-27.343750
4008,-27.343750
4009,-27.343750
4010,-27.343750
4011,-23.437500
4012,-23.437500
4013,-23.437500
4014,-23.437500
4015,-23.437500
4016,-19.531250
4017,-19.531250
4018,-19.531250
4019,-19.531250
4020,-19.531250
4021,-19.531250
4022,-19.531250
4023,-15.625000
4024,-15.625000
4025,-15.625000
4026,-15.625000
4027,-15.625000
4028,-15.625000
4029,-11.718750
4030,-11.718750
4031,-11.718750
4032,-11.718750
4033,-11.718750
4034,-11.718750
4035,-11.718750
4036,-7.812500
4037,-7.812500
4038,-7.812500
4039,-7.812500
4040,-7.812500
4041,-7.812500
4042,-3.906250
4043,-3.906250
4044,-3.906250
4045,-3.906250
4046,-3.906250
4047,-3.906250
4048,-3.906250
4049,-3.906250
4050,0.000000
4051,0.000000
4052,0.000000
4053,0.000000
4054,0.000000
4055,0.000000
4056,3.906250
4057,3.906250
4058,3.906250
4059,3.906250
4060,3.906250
4061,3.906250
4062,7.812500
4063,7.812500
4064,7.812500
4065,7.812500
4066,7.812500
4067,7.812500
4068,7.812500
4069,7.812500
4070,11.718750
4071,11.718750
4072,11.718750
4073,11.718750
4074,11.718750
4075,11.718750
4076,15.625000
4077,15.625000
4078,15.625000
4079,15.625000
4080,15.625000
4081,15.625000
4082,15.625000
4083,15.625000
4084,19.531250
4085,19.531250
4086,19.531250
4087,19.531250
4088,19.531250
4089,19.531250
4090,23.437500
4091,23.437500
4092,23.437500
4093,23.437500
4094,23.437500
4095,23.437500
4096,23.437500
4097,23.437500
4098,27.343750
4099,27.343750
4100,27.343750
4101,27.343750
4102,27.343750
4103,27.343750
4104,27.343750
4105,27.343750
4106,31.250000
4107,31.250000
4108,31.250000
4109,31.250000
4110,31.250000
4111,31.250000
4112,31.250000
4113,31.250000
4114,35.156250
4115,35.156250
4116,35.156250
4117,35.156250
4118,35.156250
4119,35.156250
4120,35.156250
4121,35.156250
4122,39.062500
4123,39.062500
4124,39.062500
4125,39.062500
4126,39.062500
4127,39.062500
4128,39.062500
4129,39.062500
4130,39.062500
4131,42.968750
4132,42.968750
4133,42.968750
4134,42.968750
4135,42.968750
4136,42.968750
4137,42.968750
4138,42.968750
4139,42.968750
4140,46.875000
4141,46.875000
4142,46.875000
4143,46.875000
4144,46.875000
4145,46.875000
4146,46.875000
4147,46.875000
4148,50.781250
4149,50.781250
4150,50.781250
4151,50.781250
4152,50.781250
4153,50.781250
4154,50.781250
4155,50.781250
4156,50.781250
4157,54.687500
4158,54.687500
4159,54.687500
4160,54.687500
4161,54.687500
4162,54.687500
4163,54.687500
4164,54.687500
4165,54.687500
4166,54.687500
4167,54.687500
4168,58.593750
4169,58.593750
4170,58.593750
4171,58.593750
4172,58.593750
4173,58.593750
4174,58.593750
4175,58.593750
4176,58.593750
4177,58.593750
4178,58.593750
4179,58.593750
4180,58.593750
4181,62.500000
4182,62.500000
4183,62.500000
4184,62.500000
4185,62.500000
4186,62.500000
4187,62.500000
4188,62.500000
4189,62.500000
4190,62.500000
4191,62.500000
4192,62.500000
4193,66.406250
4194,66.406250
4195,66.406250
4196,66.406250
4197,66.406250
4198,66.406250
4199,66.406250
4200,66.406250
4201,66.406250
4202,66.406250
4203,66.406250
4204,66.406250
4205,66.406250
4206,66.406250
4207,66.406250
4208,66.406250
4209,66.406250
4210,66.406250
4211,70.312500
4212,70.312500
4213,70.312500
4214,70.312500
4215,70.312500
4216,70.312500
4217,70.312500
4218,70.312500
4219,70.312500
4220,70.312500
4221,70.312500
4222,70.312500
4223,70.312500
4224,70.312500
4225,70.312500
4226,70.312500
4227,70.312500
4228,70.312500
4229,70.312500
4230,70.312500
4231,70.312500
4232,74.218750
4233,74.218750
4234,70.312500
4235,74.218750
4236,70.312500
4237,74.218750
4238,74.218750
4239,74.218750
4240,74.218750
4241,74.218750
4242,74.218750
4243,74.218750
4244,74.218750
4245,74.218750
4246,74.218750
4247,74.218750
4248,74.218750
4249,74.218750
4250,74.218750
4251,74.218750
4252,74.218750
4253,74.218750
4254,74.218750
4255,74.218750
4256,74.218750
4257,74.218750
4258,74.218750
4259,74.218750
4260,74.218750
4261,74.218750
4262,74.218750
4263,74.218750
4264,74.218750
4265,74.218750
4266,78.125000
4267,74.218750
4268,74.218750
4269,74.218750
4270,78.125000
4271,74.218750
4272,74.218750
4273,74.218750
4274,74.218750
4275,78.125000
4276,74.218750
4277,74.218750
4278,74.218750
4279,78.125000
4280,78.125000
4281,74.218750
4282,74.218750
4283,74.218750
4284,78.125000
4285,78.125000
4286,78.125000
4287,74.218750
4288,74.218750
4289,74.218750
4290,74.218750
4291,74.218750
4292,74.218750
4293,74.218750
4294,74.218750
4295,74.218750
4296,74.218750
4297,74.218750
4298,78.125000
4299,74.218750
4300,74.218750
4301,74.218750
4302,74.218750
4303,74.218750
4304,74.218750
4305,74.218750
4306,74.218750
4307,74.218750
4308,74.218750
4309,74.218750
4310,74.218750
4311,74.218750
4312,74.218750
4313,74.218750
4314,74.218750
4315,74.218750
4316,74.218750
4317,74.218750
4318,74.218750
4319,74.218750
4320,74.218750
4321,74.218750
4322,74.218750
4323,74.218750
4324,74.218750
4325,74.218750
4326,74.218750
4327,74.218750
4328,74.218750
4329,70.312500
4330,70.312500
4331,70.312500
4332,70.312500
4333,70.312500
4334,70.312500
4335,70.312500
4336,70.312500
4337,70.312500
4338,70.312500
4339,70.312500
4340,70.312500
4341,70.312500
4342,70.312500
4343,70.312500
4344,70.312500
4345,70.312500
4346,70.312500
4347,66.406250
4348,70.312500
4349,70.312500
4350,66.406250
4351,66.406250
4352,66.406250
4353,66.406250
4354,66.406250
4355,66.406250
4356,66.406250
4357,66.406250
4358,66.406250
4359,66.406250
4360,66.406250
4361,66.406250
4362,66.406250
4363,66.406250
4364,66.406250
4365,62.500000
4366,62.500000
4367,62.500000
4368,62.500000
4369,62.500000
4370,62.500000
4371,62.500000
4372,62.500000
4373,62.500000
4374,62.500000
4375,62.500000
4376,58.593750
4377,62.500000
4378,58.593750
4379,58.593750
4380,58.593750
4381,58.593750
4382,58.593750
4383,58.593750
4384,58.593750
4385,58.593750
4386,58.593750
4387,58.593750
4388,58.593750
4389,58.593750
4390,58.593750
4391,54.687500
4392,54.687500
4393,54.687500
4394,54.687500
4395,54.687500
4396,54.687500
4397,54.687500
4398,54.687500
4399,54.687500
4400,54.687500
4401,54.687500
4402,54.687500
4403,54.687500
4404,50.781250
4405,50.781250
4406,50.781250
4407,50.781250
4408,50.781250
4409,50.781250
4410,50.781250
4411,50.781250
4412,50.781250
4413,50.781250
4414,50.781250
4415,46.875000
4416,46.875000
4417,46.875000
4418,46.875000
4419,46.875000
4420,46.875000
4421,46.875000
4422,46.875000
4423,46.875000
4424,42.968750
4425,42.968750
4426,42.968750
4427,42.968750
4428,42.968750
4429,42.968750
4430,42.968750
4431,42.968750
4432,39.062500
4433,39.062500
4434,39.062500
4435,39.062500
4436,39.062500
4437,39.062500
4438,39.062500
4439,39.062500
4440,35.156250
4441,35.156250
4442,35.156250
4443,35.156250
4444,35.156250
4445,35.156250
4446,35.156250
4447,35.156250
4448,35.156250
4449,31.250000
4450,31.250000
4451,31.250000
4452,31.250000
4453,31.250000
4454,31.250000
4455,31.250000
4456,31.250000
4457,27.343750
4458,27.343750
4459,27.343750
4460,27.343750
4461,27.343750
4462,27.343750
4463,27.343750
4464,23.437500
4465,23.437500
4466,23.437500
4467,23.437500
4468,23.437500
4469,23.437500
4470,23.437500
4471,19.531250
4472,19.531250
4473,19.531250
4474,19.531250
4475,19.531250
4476,19.531250
4477,19.531250
4478,19.531250
4479,15.625000
4480,15.625000
4481,15.625000
4482,15.625000
4483,15.625000
4484,15.625000
4485,15.625000
4486,11.718750
4487,15.625000
4488,11.718750
4489,11.718750
4490,11.718750
4491,11.718750
4492,7.812500
4493,7.812500
4494,7.812500
4495,7.812500
4496,7.812500
4497,7.812500
4498,7.812500
4499,7.812500
4500,7.812500
4501,3.906250
4502,3.906250
4503,3.906250
4504,3.906250
4505,3.906250
4506,0.000000
4507,3.906250
4508,0.000000
4509,0.000000
4510,0.000000
4511,0.000000
4512,0.000000
4513,0.000000
4514,-3.906250
4515,-3.906250
4516,-3.906250
4517,-3.906250
4518,-3.906250
4519,-7.812500
4520,-7.812500
4521,-7.812500
4522,-7.812500
4523,-7.812500
4524,-7.812500
4525,-7.812500
4526,-11.718750
4527,-11.718750
4528,-11.718750
4529,-11.718750
4530,-11.718750
4531,-11.718750
4532,-11.718750
4533,-11.718750
4534,-15.625000
4535,-19.531250
4536,-15.625000
4537,-15.625000
4538,-15.625000
4539,-15.625000
4540,-19.531250
4541,-19.531250
4542,-19.531250
4543,-19.531250
4544,-19.531250
4545,-19.531250
4546,-19.531250
4547,-23.437500
4548,-23.437500
4549,-23.437500
4550,-23.437500
4551,-23.437500
4552,-23.437500
4553,-23.437500
4554,-27.343750
4555,-27.343750
4556,-27.343750
4557,-27.343750
4558,-27.343750
4559,-27.343750
4560,-31.250000
4561,-31.250000
4562,-31.250000
4563,-31.250000
4564,-31.250000
4565,-31.250000
4566,-31.250000
4567,-35.156250
4568,-35.156250
4569,-35.156250
4570,-35.156250
4571,-35.156250
4572,-39.062500
4573,-39.062500
4574,-39.062500
4575,-39.062500
4576,-39.062500
4577,-39.062500
4578,-39.062500
4579,-42.968750
4580,-42.968750
4581,-42.968750
4582,-42.968750
4583,-42.968750
4584,-42.968750
4585,-42.968750
4586,-42.968750
4587,-46.875000
4588,-46.875000
4589,-46.875000
4590,-46.875000
4591,-46.875000
4592,-50.781250
4593,-50.781250
4594,-50.781250
4595,-50.781250
4596,-50.781250
4597,-50.781250
4598,-50.781250
4599,-54.687500
4600,-50.781250
4601,-54.687500
4602,-54.687500
4603,-54.687500
4604,-54.687500
4605,-58.593750
4606,-58.593750
4607,-58.593750
4608,-58.593750
4609,-58.593750
4610,-58.593750
4611,-58.593750
4612,-58.593750
4613,-58.593750
4614,-62.500000
4615,-62.500000
4616,-62.500000
4617,-62.500000
4618,-62.500000
4619,-62.500000
4620,-66.406250
4621,-66.406250
4622,-66.406250
4623,-66.406250
4624,-66.406250
4625,-66.406250
4626,-66.406250
4627,-70.312500
4628,-70.312500
4629,-70.312500
4630,-70.312500
4631,-70.312500
4632,-70.312500
4633,-70.312500
4634,-70.312500
4635,-70.312500
4636,-70.312500
4637,-74.218750
4638,-74.218750
4639,-74.218750
4640,-74.218750
4641,-74.218750
4642,-74.218750
4643,-74.218750
4644,-74.218750
4645,-78.125000
4646,-78.125000
4647,-78.125000
4648,-78.125000
4649,-78.125000
4650,-78.125000
4651,-78.125000
4652,-78.125000
4653,-82.031250
4654,-82.031250
4655,-82.031250
4656,-82.031250
4657,-82.031250
4658,-82.031250
4659,-82.031250
4660,-82.031250
4661,-82.031250
4662,-85.937500
4663,-85.937500
4664,-85.937500
4665,-85.937500
4666,-85.937500
4667,-85.937500
4668,-85.937500
4669,-85.937500
4670,-85.937500
4671,-85.937500
4672,-89.843750
4673,-89.843750
4674,-89.843750
4675,-89.843750
4676,-89.843750
4677,-89.843750
4678,-89.843750
4679,-89.843750
4680,-89.843750
4681,-89.843750
4682,-93.750000
4683,-93.750000
4684,-93.750000
4685,-93.750000
4686,-93.750000
4687,-93.750000
4688,-93.750000
4689,-93.750000
4690,-93.750000
4691,-93.750000
4692,-93.750000
4693,-97.656250
4694,-97.656250
4695,-97.656250
4696,-97.656250
4697,-97.656250
4698,-97.656250
4699,-97.656250
4700,-97.656250
4701,-97.656250
4702,-97.656250
4703,-97.656250
4704,-97.656250
4705,-101.562500
4706,-97.656250
4707,-97.656250
4708,-101.562500
4709,-101.562500
4710,-101.562500
4711,-101.562500
4712,-101.562500
4713,-101.562500
4714,-101.562500
4715,-101.562500
4716,-101.562500
4717,-101.562500
4718,-101.562500
4719,-105.468750
4720,-101.562500
4721,-105.468750
4722,-101.562500
4723,-105.468750
4724,-105.468750
4725,-105.468750
4726,-105.468750
4727,-105.468750
4728,-105.468750
4729,-105.468750
4730,-105.468750
4731,-105.468750
4732,-105.468750
4733,-105.468750
4734,-105.468750
4735,-105.468750
4736,-105.468750
4737,-105.468750
4738,-105.468750
4739,-109.375000
4740,-109.375000
4741,-109.375000
4742,-105.468750
4743,-109.375000
4744,-109.375000
4745,-109.375000
4746,-109.375000
4747,-109.375000
4748,-109.375000
4749,-109.375000
4750,-109.375000
4751,-109.375000
4752,-109.375000
4753,-109.375000
4754,-109.375000
4755,-109.375000
4756,-109.375000
4757,-109.375000
4758,-109.375000
4759,-109.375000
4760,-109.375000
4761,-109.375000
4762,-109.375000
4763,-109.375000
4764,-109.375000
4765,-109.375000
4766,-109.375000
4767,-109.375000
4768,-109.375000
4769,-109.375000
4770,-109.375000
4771,-109.375000
4772,-109.375000
4773,-109.375000
4774,-109.375000
4775,-109.375000
4776,-109.375000
4777,-109.375000
4778,-109.375000
4779,-109.375000
4780,-109.375000
4781,-109.375000
4782,-109.375000
4783,-109.375000
4784,-109.375000
4785,-109.375000
4786,-109.375000
4787,-109.375000
4788,-109.375000
4789,-109.375000
4790,-109.375000
4791,-109.375000
4792,-109.375000
4793,-109.375000
4794,-109.375000
4795,-109.375000
4796,-109.375000
4797,-109.375000
4798,-109.375000
4799,-109.375000
4800,-109.375000
4801,-109.375000
4802,-109.375000
4803,-105.468750
4804,-105.468750
4805,-105.468750
4806,-109.375000
4807,-109.375000
4808,-109.375000
4809,-105.468750
4810,-105.468750
4811,-105.468750
4812,-105.468750
4813,-105.468750
4814,-105.468750
4815,-105.468750
4816,-105.468750
4817,-105.468750
4818,-105.468750
4819,-105.468750
4820,-105.468750
4821,-105.468750
4822,-105.468750
4823,-105.468750
4824,-105.468750
4825,-105.468750
4826,-105.468750
4827,-105.468750
4828,-101.562500
4829,-101.562500
4830,-101.562500
4831,-101.562500
4832,-101.562500
4833,-101.562500
4834,-101.562500
4835,-101.562500
4836,-101.562500
4837,-101.562500
4838,-101.562500
4839,-101.562500
4840,-101.562500
4841,-97.656250
4842,-101.562500
4843,-101.562500
4844,-101.562500
4845,-101.562500
4846,-97.656250
4847,-97.656250
4848,-97.656250
4849,-97.656250
4850,-97.656250
4851,-97.656250
4852,-97.656250
4853,-97.656250
4854,-97.656250
4855,-97.656250
4856,-97.656250
4857,-97.656250
4858,-93.750000
4859,-93.750000
4860,-93.750000
4861,-93.750000
4862,-93.750000
4863,-93.750000
4864,-93.750000
4865,-93.750000
4866,-93.750000
4867,-93.750000
4868,-89.843750
4869,-89.843750
4870,-89.843750
4871,-93.750000
4872,-93.750000
4873,-89.843750
4874,-89.843750
4875,-89.843750
4876,-89.843750
4877,-89.843750
4878,-89.843750
4879,-89.843750
4880,-89.843750
4881,-85.937500
4882,-85.937500
4883,-89.843750
4884,-85.937500
4885,-85.937500
4886,-85.937500
4887,-85.937500
4888,-85.937500
4889,-85.937500
4890,-85.937500
4891,-82.031250
4892,-82.031250
4893,-82.031250
4894,-82.031250
4895,-82.031250
4896,-82.031250
4897,-82.031250
4898,-78.125000
4899,-82.031250
4900,-78.125000
4901,-78.125000
4902,-78.125000
4903,-78.125000
4904,-78.125000
4905,-78.125000
4906,-78.125000
4907,-78.125000
4908,-74.218750
4909,-78.125000
4910,-74.218750
4911,-74.218750
4912,-74.218750
4913,-74.218750
4914,-74.218750
4915,-74.218750
4916,-74.218750
4917,-70.312500
4918,-70.312500
4919,-70.312500
4920,-70.312500
4921,-70.312500
4922,-70.312500
4923,-70.312500
4924,-70.312500
4925,-66.406250
4926,-66.406250
4927,-70.312500
4928,-66.406250
4929,-66.406250
4930,-66.406250
4931,-62.500000
4932,-62.500000
4933,-66.406250
4934,-58.593750
4935,-62.500000
4936,-62.500000
4937,-58.593750
4938,-58.593750
4939,-58.593750
4940,-58.593750
4941,-58.593750
4942,-58.593750
4943,-58.593750
4944,-54.687500
4945,-54.687500
4946,-54.687500
4947,-54.687500
4948,-54.687500
4949,-54.687500
4950,-54.687500
4951,-54.687500
4952,-50.781250
4953,-50.781250
4954,-50.781250
4955,-50.781250
4956,-50.781250
4957,-50.781250
4958,-50.781250
4959,-46.875000
4960,-46.875000
4961,-46.875000
4962,-46.875000
4963,-46.875000
4964,-46.875000
4965,-42.968750
4966,-42.968750
4967,-42.968750
4968,-42.968750
4969,-42.968750
4970,-42.968750
4971,-42.968750
4972,-39.062500
4973,-39.062500
4974,-39.062500
4975,-39.062500
4976,-39.062500
4977,-39.062500
4978,-39.062500
4979,-39.062500
4980,-35.156250
4981,-35.156250
4982,-35.156250
4983,-35.156250
4984,-35.156250
4985,-35.156250
4986,-35.156250
4987,-31.250000
4988,-31.250000
4989,-31.250000
4990,-31.250000
4991,-31.250000
4992,-31.250000
4993,-27.343750
4994,-27.343750
4995,-27.343750
4996,-27.343750
4997,-27.343750
4998,-27.343750
4999,-27.343750
5000,-23.437500
5001,-27.343750
5002,-23.437500
5003,-23.437500
5004,-23.437500
5005,-19.531250
5006,-19.531250
5007,-19.531250
5008,-19.531250
5009,-19.531250
5010,-19.531250
5011,-19.531250
5012,-15.625000
5013,-15.625000
5014,-15.625000
5015,-15.625000
5016,-15.625000
5017,-15.625000
5018,-15.625000
5019,-15.625000
5020,-11.718750
5021,-11.718750
5022,-11.718750
5023,-11.718750
5024,-11.718750
5025,-11.718750
5026,-7.812500
5027,-7.812500
5028,-7.812500
5029,-7.812500
5030,-7.812500
5031,-7.812500
5032,-7.812500
5033,-3.906250
5034,-3.906250
5035,-3.906250
5036,-3.906250
5037,-3.906250
5038,-3.906250
5039,0.000000
5040,0.000000
5041,0.000000
5042,0.000000
5043,0.000000
5044,0.000000
5045,0.000000
5046,3.906250
5047,3.906250
5048,3.906250
5049,3.906250
5050,3.906250
5051,3.906250
5052,7.812500
5053,7.812500
5054,7.812500
5055,7.812500
5056,7.812500
5057,7.812500
5058,7.812500
5059,7.812500
5060,7.812500
5061,11.718750
5062,11.718750
5063,11.718750
5064,15.625000
5065,15.625000
5066,11.718750
5067,15.625000
5068,15.625000
5069,15.625000
5070,15.625000
5071,15.625000
5072,15.625000
5073,15.625000
5074,19.531250
5075,19.531250
5076,19.531250
5077,19.531250
5078,19.531250
5079,19.531250
5080,23.437500
5081,23.437500
5082,23.437500
5083,23.437500
5084,23.437500
5085,23.437500
5086,23.437500
5087,23.437500
5088,27.343750
5089,27.343750
5090,27.343750
5091,27.343750
5092,27.343750
5093,27.343750
5094,27.343750
5095,31.250000
5096,31.250000
5097,31.250000
5098,31.250000
5099,31.250000
5100,31.250000
5101,31.250000
5102,31.250000
5103,35.156250
5104,35.156250
5105,35.156250
5106,35.156250
5107,35.156250
5108,35.156250
5109,35.156250
5110,35.156250
5111,35.156250
5112,39.062500
5113,39.062500
5114,39.062500
5115,39.062500
5116,39.062500
5117,39.062500
5118,39.062500
5119,39.062500
5120,39.062500
5121,42.968750
5122,42.968750
5123,42.968750
5124,42.968750
5125,42.968750
5126,42.968750
5127,42.968750
5128,42.968750
5129,46.875000
5130,46.875000
5131,46.875000
5132,46.875000
5133,46.875000
5134,46.875000
5135,46.875000
5136,46.875000
5137,46.875000
5138,46.875000
5139,50.781250
5140,50.781250
5141,50.781250
5142,50.781250
5143,50.781250
5144,50.781250
5145,50.781250
5146,50.781250
5147,54.687500
5148,54.687500
5149,54.687500
5150,50.781250
5151,54.687500
5152,54.687500
5153,54.687500
5154,54.687500
5155,54.687500
5156,54.687500
5157,54.687500
5158,54.687500
5159,58.593750
5160,58.593750
5161,58.593750
5162,58.593750
5163,58.593750
5164,58.593750
5165,58.593750
5166,58.593750
5167,58.593750
5168,58.593750
5169,58.593750
5170,58.593750
5171,62.500000
5172,62.500000
5173,62.500000
5174,62.500000
5175,62.500000
5176,62.500000
5177,62.500000
5178,62.500000
5179,62.500000
5180,62.500000
5181,62.500000
5182,62.500000
5183,66.406250
5184,62.500000
5185,66.406250
5186,66.406250
5187,66.406250
5188,66.406250
5189,66.406250
5190,66.406250
5191,66.406250
5192,66.406250
5193,66.406250
5194,66.406250
5195,66.406250
5196,66.406250
5197,70.312500
5198,70.312500
5199,70.312500
5200,70.312500
5201,70.312500
5202,70.312500
5203,70.312500
5204,70.312500
5205,70.312500
5206,70.312500
5207,70.312500
5208,70.312500
5209,70.312500
5210,70.312500
5211,70.312500
5212,70.312500
5213,70.312500
5214,70.312500
5215,74.218750
5216,74.218750
5217,70.312500
5218,70.312500
5219,70.312500
5220,74.218750
5221,74.218750
5222,74.218750
5223,70.312500
5224,74.218750
5225,74.218750
5226,74.218750
5227,74.218750
5228,74.218750
5229,74.218750
5230,74.218750
5231,74.218750
5232,74.218750
5233,74.218750
5234,74.218750
5235,74.218750
5236,74.218750
5237,74.218750
5238,74.218750
5239,74.218750
5240,74.218750
5241,74.218750
5242,74.218750
5243,74.218750
5244,78.125000
5245,74.218750
5246,74.218750
5247,74.218750
5248,74.218750
5249,78.125000
5250,74.218750
5251,78.125000
5252,74.218750
5253,74.218750
5254,74.218750
5255,78.125000
5256,78.125000
5257,78.125000
5258,74.218750
5259,74.218750
5260,78.125000
5261,78.125000
5262,78.125000
5263,78.125000
5264,78.125000
5265,74.218750
5266,78.125000
5267,74.218750
5268,74.218750
5269,74.218750
5270,74.218750
5271,74.218750
5272,78.125000
5273,78.125000
5274,74.218750
5275,74.218750
5276,74.218750
5277,74.218750
5278,74.218750
5279,74.218750
5280,74.218750
5281,74.218750
5282,78.125000
5283,78.125000
5284,74.218750
5285,74.218750
5286,74.218750
5287,74.218750
5288,74.218750
5289,74.218750
5290,74.218750
5291,74.218750
5292,74.218750
5293,74.218750
5294,74.218750
5295,74.218750
5296,74.218750
5297,74.218750
5298,74.218750
5299,74.218750
5300,74.218750
5301,74.218750
5302,74.218750
5303,74.218750
5304,74.218750
5305,74.218750
5306,74.218750
5307,74.218750
5308,74.218750
5309,74.218750
5310,74.218750
5311,74.218750
5312,74.218750
5313,74.218750
5314,70.312500
5315,70.312500
5316,74.218750
5317,74.218750
5318,74.218750
5319,70.312500
5320,70.312500
5321,70.312500
5322,70.312500
5323,70.312500
5324,70.312500
5325,70.312500
5326,70.312500
5327,70.312500
5328,70.312500
5329,70.312500
5330,70.312500
5331,70.312500
5332,70.312500
5333,70.312500
5334,70.312500
5335,70.312500
5336,70.312500
5337,66.406250
5338,66.406250
5339,70.312500
5340,66.406250
5341,66.406250
5342,66.406250
5343,66.406250
5344,66.406250
5345,66.406250
5346,66.406250
5347,66.406250
5348,66.406250
5349,66.406250
5350,66.406250
5351,66.406250
5352,66.406250
5353,66.406250
5354,66.406250
5355,66.406250
5356,62.500000
5357,62.500000
5358,62.500000
5359,62.500000
5360,62.500000
5361,62.500000
5362,62.500000
5363,62.500000
5364,62.500000
5365,62.500000
5366,62.500000
5367,58.593750
5368,58.593750
5369,58.593750
5370,58.593750
5371,58.593750
5372,58.593750
5373,58.593750
5374,58.593750
5375,58.593750
5376,58.593750
5377,58.593750
5378,58.593750
5379,54.687500
5380,54.687500
5381,54.687500
5382,54.687500
5383,54.687500
5384,54.687500
5385,54.687500
5386,54.687500
5387,54.687500
5388,54.687500
5389,54.687500
5390,50.781250
5391,54.687500
5392,50.781250
5393,50.781250
5394,50.781250
5395,50.781250
5396,50.781250
5397,50.781250
5398,46.875000
5399,50.781250
5400,46.875000
5401,46.875000
5402,46.875000
5403,46.875000
5404,46.875000
5405,46.875000
5406,46.875000
5407,46.875000
5408,46.875000
5409,42.968750
5410,42.968750
5411,42.968750
5412,42.968750
5413,42.968750
5414,42.968750
5415,42.968750
5416,42.968750
5417,42.968750
5418,42.968750
5419,39.062500
5420,39.062500
5421,39.062500
5422,39.062500
5423,39.062500
5424,39.062500
5425,39.062500
5426,39.062500
5427,35.156250
5428,35.156250
5429,35.156250
5430,35.156250
5431,35.156250
5432,35.156250
5433,35.156250
5434,35.156250
5435,35.156250
5436,35.156250
5437,31.250000
5438,31.250000
5439,31.250000
5440,31.250000
5441,31.250000
5442,31.250000
5443,31.250000
5444,27.343750
5445,27.343750
5446,27.343750
5447,27.343750
5448,27.343750
5449,27.343750
5450,27.343750
5451,27.343750
5452,23.437500
5453,23.437500
5454,23.437500
5455,23.437500
5456,23.437500
5457,23.437500
5458,23.437500
5459,19.531250
5460,19.531250
5461,19.531250
5462,19.531250
5463,19.531250
5464,19.531250
5465,19.531250
5466,19.531250
5467,19.531250
5468,15.625000
5469,15.625000
5470,15.625000
5471,15.625000
5472,11.718750
5473,11.718750
5474,15.625000
5475,11.718750
5476,11.718750
5477,11.718750
5478,11.718750
5479,11.718750
5480,11.718750
5481,7.812500
5482,7.812500
5483,7.812500
5484,7.812500
5485,7.812500
5486,7.812500
5487,7.812500
5488,3.906250
5489,3.906250
5490,3.906250
5491,3.906250
5492,3.906250
5493,3.906250
5494,3.906250
5495,0.000000
5496,0.000000
5497,0.000000
5498,0.000000
5499,0.000000
5500,0.000000
5501,0.000000
5502,-3.906250
5503,-3.906250
5504,-3.906250
5505,-3.906250
5506,-3.906250
5507,-7.812500
5508,-7.812500
5509,-7.812500
5510,-7.812500
5511,-7.812500
5512,-7.812500
5513,-11.718750
5514,-11.718750
5515,-11.718750
5516,-11.718750
5517,-11.718750
5518,-11.718750
5519,-11.718750
5520,-11.718750
5521,-15.625000
5522,-11.718750
5523,-15.625000
5524,-15.625000
5525,-15.625000
5526,-15.625000
5527,-15.625000
5528,-19.531250
5529,-19.531250
5530,-19.531250
5531,-19.531250
5532,-19.531250
5533,-19.531250
5534,-19.531250
5535,-23.437500
5536,-23.437500
5537,-23.437500
5538,-23.437500
5539,-23.437500
5540,-23.437500
5541,-23.437500
5542,-27.343750
5543,-27.343750
5544,-27.343750
5545,-27.343750
5546,-27.343750
5547,-31.250000
5548,-27.343750
5549,-31.250000
5550,-31.250000
5551,-31.250000
5552,-31.250000
5553,-31.250000
5554,-31.250000
5555,-35.156250
5556,-35.156250
5557,-35.156250
5558,-35.156250
5559,-35.156250
5560,-35.156250
5561,-39.062500
5562,-39.062500
5563,-39.062500
5564,-39.062500
5565,-39.062500
5566,-39.062500
5567,-39.062500
5568,-42.968750
5569,-42.968750
5570,-42.968750
5571,-42.968750
5572,-42.968750
5573,-42.968750
5574,-46.875000
5575,-46.875000
5576,-46.875000
5577,-46.875000
5578,-46.875000
5579,-46.875000
5580,-46.875000
5581,-50.781250
5582,-50.781250
5583,-50.781250
5584,-50.781250
5585,-50.781250
5586,-50.781250
5587,-50.781250
5588,-50.781250
5589,-54.687500
5590,-54.687500
5591,-54.687500
5592,-54.687500
5593,-54.687500
5594,-54.687500
5595,-58.593750
5596,-58.593750
5597,-58.593750
5598,-58.593750
5599,-58.593750
5600,-58.593750
5601,-58.593750
5602,-62.500000
5603,-62.500000
5604,-62.500000
5605,-62.500000
5606,-62.500000
5607,-62.500000
5608,-62.500000
5609,-62.500000
5610,-62.500000
5611,-66.406250
5612,-66.406250
5613,-66.406250
5614,-66.406250
5615,-70.312500
5616,-66.406250
5617,-70.312500
5618,-70.312500
5619,-70.312500
5620,-70.312500
5621,-70.312500
5622,-70.312500
5623,-70.312500
5624,-70.312500
5625,-74.218750
5626,-74.218750
5627,-74.218750
5628,-74.218750
5629,-74.218750
5630,-74.218750
5631,-74.218750
5632,-74.218750
5633,-78.125000
5634,-78.125000
5635,-78.125000
5636,-78.125000
5637,-78.125000
5638,-78.125000
5639,-78.125000
5640,-78.125000
5641,-82.031250
5642,-82.031250
5643,-82.031250
5644,-82.031250
5645,-82.031250
5646,-82.031250
5647,-82.031250
5648,-82.031250
5649,-85.937500
5650,-85.937500
5651,-85.937500
5652,-85.937500
5653,-85.937500
5654,-85.937500
5655,-85.937500
5656,-85.937500
5657,-85.937500
5658,-89.843750
5659,-89.843750
5660,-89.843750
5661,-89.843750
5662,-89.843750
5663,-89.843750
5664,-89.843750
5665,-89.843750
5666,-89.843750
5667,-89.843750
5668,-93.750000
5669,-93.750000
5670,-93.750000
5671,-93.750000
5672,-93.750000
5673,-93.750000
5674,-93.750000
5675,-93.750000
5676,-93.750000
5677,-93.750000
5678,-93.750000
5679,-97.656250
5680,-97.656250
5681,-97.656250
5682,-97.656250
5683,-97.656250
5684,-97.656250
5685,-97.656250
5686,-97.656250
5687,-97.656250
5688,-97.656250
5689,-97.656250
5690,-101.562500
5691,-101.562500
5692,-97.656250
5693,-101.562500
5694,-101.562500
5695,-101.562500
5696,-101.562500
5697,-101.562500
5698,-101.562500
5699,-101.562500
5700,-101.562500
5701,-101.562500
5702,-101.562500
5703,-101.562500
5704,-101.562500
5705,-101.562500
5706,-101.562500
5707,-101.562500
5708,-105.468750
5709,-105.468750
5710,-105.468750
5711,-105.468750
5712,-105.468750
5713,-105.468750
5714,-105.468750
5715,-105.468750
5716,-105.468750
5717,-105.468750
5718,-105.468750
5719,-105.468750
5720,-105.468750
5721,-105.468750
5722,-105.468750
5723,-105.468750
5724,-109.375000
5725,-105.468750
5726,-105.468750
5727,-105.468750
5728,-105.468750
5729,-105.468750
5730,-105.468750
5731,-105.468750
5732,-109.375000
5733,-109.375000
5734,-109.375000
5735,-109.375000
5736,-109.375000
5737,-109.375000
5738,-109.375000
5739,-109.375000
5740,-109.375000
5741,-109.375000
5742,-109.375000
5743,-109.375000
5744,-109.375000
5745,-109.375000
5746,-109.375000
5747,-109.375000
5748,-109.375000
5749,-109.375000
5750,-109.375000
5751,-109.375000
5752,-109.375000
5753,-109.375000
5754,-109.375000
5755,-109.375000
5756,-109.375000
5757,-109.375000
5758,-109.375000
5759,-109.375000
5760,-113.281250
5761,-109.375000
5762,-109.375000
5763,-109.375000
5764,-109.375000
5765,-109.375000
5766,-109.375000
5767,-109.375000
5768,-109.375000
5769,-109.375000
5770,-109.375000
5771,-109.375000
5772,-109.375000
5773,-109.375000
5774,-109.375000
5775,-109.375000
5776,-109.375000
5777,-109.375000
5778,-109.375000
5779,-109.375000
5780,-109.375000
5781,-109.375000
5782,-109.375000
5783,-109.375000
5784,-109.375000
5785,-109.375000
5786,-109.375000
5787,-109.375000
5788,-109.375000
5789,-109.375000
5790,-109.375000
5791,-109.375000
5792,-109.375000
5793,-109.375000
5794,-109.375000
5795,-109.375000
5796,-109.375000
5797,-109.375000
5798,-109.375000
5799,-109.375000
5800,-105.468750
5801,-105.468750
5802,-109.375000
5803,-105.468750
5804,-109.375000
5805,-105.468750
5806,-105.468750
5807,-105.468750
5808,-105.468750
5809,-105.468750
5810,-105.468750
5811,-105.468750
5812,-105.468750
5813,-105.468750
5814,-105.468750
5815,-105.468750
5816,-105.468750
5817,-105.468750
5818,-105.468750
5819,-105.468750
5820,-105.468750
5821,-105.468750
5822,-101.562500
5823,-101.562500
5824,-101.562500
5825,-101.562500
5826,-101.562500
5827,-101.562500
5828,-101.562500
5829,-101.562500
5830,-101.562500
5831,-101.562500
5832,-101.562500
5833,-101.562500
5834,-101.562500
5835,-101.562500
5836,-97.656250
5837,-97.656250
5838,-97.656250
5839,-97.656250
5840,-97.656250
5841,-97.656250
5842,-97.656250
5843,-97.656250
5844,-97.656250
5845,-97.656250
5846,-97.656250
5847,-97.656250
5848,-93.750000
5849,-93.750000
5850,-93.750000
5851,-93.750000
5852,-93.750000
5853,-93.750000
5854,-93.750000
5855,-93.750000
5856,-93.750000
5857,-93.750000
5858,-93.750000
5859,-89.843750
5860,-89.843750
5861,-89.843750
5862,-89.843750
5863,-89.843750
5864,-89.843750
5865,-89.843750
5866,-89.843750
5867,-85.937500
5868,-85.937500
5869,-89.843750
5870,-85.937500
5871,-85.937500
5872,-85.937500
5873,-85.937500
5874,-85.937500
5875,-85.937500
5876,-85.937500
5877,-82.031250
5878,-82.031250
5879,-82.031250
5880,-82.031250
5881,-82.031250
5882,-82.031250
5883,-82.031250
5884,-82.031250
5885,-78.125000
5886,-78.125000
5887,-78.125000
5888,-78.125000
5889,-78.125000
5890,-78.125000
5891,-78.125000
5892,-78.125000
5893,-78.125000
5894,-78.125000
5895,-74.218750
5896,-74.218750
5897,-74.218750
5898,-74.218750
5899,-74.218750
5900,-74.218750
5901,-74.218750
5902,-74.218750
5903,-74.218750
5904,-74.218750
5905,-70.312500
5906,-70.312500
5907,-70.312500
5908,-70.312500
5909,-70.312500
5910,-66.406250
5911,-66.406250
5912,-66.406250
5913,-66.406250
5914,-66.406250
5915,-66.406250
5916,-66.406250
5917,-66.406250
5918,-66.406250
5919,-66.406250
5920,-66.406250
5921,-62.500000
5922,-62.500000
5923,-62.500000
5924,-62.500000
5925,-62.500000
5926,-58.593750
5927,-58.593750
5928,-58.593750
5929,-58.593750
5930,-58.593750
5931,-58.593750
5932,-58.593750
5933,-54.687500
5934,-54.687500
5935,-54.687500
5936,-54.687500
5937,-54.687500
5938,-54.687500
5939,-50.781250
5940,-54.687500
5941,-50.781250
5942,-50.781250
5943,-50.781250
5944,-50.781250
5945,-50.781250
5946,-50.781250
5947,-46.875000
5948,-50.781250
5949,-46.875000
5950,-46.875000
5951,-46.875000
5952,-46.875000
5953,-46.875000
5954,-42.968750
5955,-42.968750
5956,-42.968750
5957,-42.968750
5958,-42.968750
5959,-42.968750
5960,-42.968750
5961,-39.062500
5962,-39.062500
5963,-39.062500
5964,-39.062500
5965,-39.062500
5966,-39.062500
5967,-39.062500
5968,-35.156250
5969,-35.156250
5970,-35.156250
5971,-35.156250
5972,-35.156250
5973,-35.156250
5974,-31.250000
5975,-31.250000
5976,-31.250000
5977,-31.250000
5978,-31.250000
5979,-31.250000
5980,-27.343750
5981,-27.343750
5982,-27.343750
5983,-27.343750
5984,-27.343750
5985,-27.343750
5986,-27.343750
5987,-23.437500
5988,-23.437500
5989,-23.437500
5990,-23.437500
5991,-23.437500
5992,-23.437500
5993,-23.437500
5994,-19.531250
5995,-19.531250
5996,-19.531250
5997,-19.531250
5998,-19.531250
5999,-19.531250
6000,-15.625000
6001,-15.625000
6002,-15.625000
6003,-15.625000
6004,-15.625000
6005,-11.718750
6006,-11.718750
6007,-11.718750
6008,-11.718750
6009,-11.718750
6010,-11.718750
6011,-11.718750
6012,-11.718750
6013,-7.812500
6014,-7.812500
6015,-7.812500
6016,-7.812500
6017,-7.812500
6018,-7.812500
6019,-3.906250
6020,-3.906250
6021,-3.906250
6022,-3.906250
6023,-3.906250
6024,-3.906250
6025,-3.906250
6026,0.000000
6027,0.000000
6028,0.000000
6029,0.000000
6030,0.000000
6031,0.000000
6032,0.000000
6033,0.000000
6034,3.906250
6035,3.906250
6036,3.906250
6037,3.906250
6038,3.906250
6039,3.906250
6040,7.812500
6041,7.812500
6042,7.812500
6043,7.812500
6044,7.812500
6045,7.812500
6046,7.812500
6047,7.812500
6048,7.812500
6049,11.718750
6050,11.718750
6051,11.718750
6052,11.718750
6053,11.718750
6054,15.625000
6055,15.625000
6056,15.625000
6057,15.625000
6058,15.625000
6059,15.625000
6060,19.531250
6061,15.625000
6062,19.531250
6063,19.531250
6064,19.531250
6065,19.531250
6066,19.531250
6067,19.531250
6068,19.531250
6069,23.437500
6070,23.437500
6071,23.437500
6072,23.437500
6073,23.437500
6074,23.437500
6075,23.437500
6076,27.343750
6077,27.343750
6078,27.343750
6079,27.343750
6080,27.343750
6081,27.343750
6082,27.343750
6083,27.343750
6084,31.250000
6085,31.250000
6086,31.250000
6087,31.250000
6088,31.250000
6089,31.250000
6090,31.250000
6091,31.250000
6092,35.156250
6093,35.156250
6094,35.156250
6095,35.156250
6096,35.156250
6097,35.156250
6098,39.062500
6099,39.062500
6100,39.062500
6101,39.062500
6102,39.062500
6103,39.062500
6104,39.062500
6105,39.062500
6106,39.062500
6107,42.968750
6108,39.062500
6109,42.968750
6110,42.968750
6111,42.968750
6112,42.968750
6113,42.968750
6114,42.968750
6115,42.968750
6116,46.875000
6117,46.875000
6118,46.875000
6119,46.875000
6120,46.875000
6121,46.875000
6122,46.875000
6123,46.875000
6124,46.875000
6125,46.875000
6126,50.781250
6127,50.781250
6128,50.781250
6129,50.781250
6130,50.781250
6131,50.781250
6132,50.781250
6133,50.781250
6134,50.781250
6135,50.781250
6136,50.781250
6137,50.781250
6138,54.687500
6139,54.687500
6140,54.687500
6141,54.687500
6142,54.687500
6143,54.687500
6144,54.687500
6145,54.687500
6146,58.593750
6147,58.593750
6148,58.593750
6149,58.593750
6150,58.593750
6151,58.593750
6152,58.593750
6153,58.593750
6154,62.500000
6155,58.593750
6156,58.593750
6157,58.593750
6158,58.593750
6159,62.500000
6160,62.500000
6161,62.500000
6162,62.500000
6163,62.500000
6164,62.500000
6165,58.593750
6166,62.500000
6167,62.500000
6168,62.500000
6169,62.500000
6170,62.500000
6171,62.500000
6172,62.500000
6173,62.500000
6174,66.406250
6175,66.406250
6176,66.406250
6177,66.406250
6178,66.406250
6179,66.406250
6180,66.406250
6181,66.406250
6182,66.406250
6183,66.406250
6184,66.406250
6185,66.406250
6186,66.406250
6187,66.406250
6188,66.406250
6189,66.406250
6190,70.312500
6191,70.312500
6192,70.312500
6193,70.312500
6194,66.406250
6195,70.312500
6196,70.312500
6197,70.312500
6198,70.312500
6199,70.312500
6200,70.312500
6201,70.312500
6202,70.312500
6203,70.312500
6204,70.312500
6205,70.312500
6206,70.312500
6207,70.312500
6208,70.312500
6209,74.218750
6210,74.218750
6211,70.312500
6212,70.312500
6213,74.218750
6214,74.218750
6215,74.218750
6216,74.218750
6217,74.218750
6218,74.218750
6219,74.218750
6220,74.218750
6221,74.218750
6222,74.218750
6223,74.218750
6224,74.218750
6225,74.218750
6226,74.218750
6227,74.218750
6228,74.218750
6229,74.218750
6230,74.218750
6231,74.218750
6232,74.218750
6233,74.218750
6234,74.218750
6235,74.218750
6236,74.218750
6237,74.218750
6238,74.218750
6239,74.218750
6240,78.125000
6241,78.125000
6242,74.218750
6243,78.125000
6244,74.218750
6245,78.125000
6246,78.125000
6247,74.218750
6248,74.218750
6249,74.218750
6250,74.218750
6251,74.218750
6252,74.218750
6253,78.125000
6254,78.125000
6255,74.218750
6256,78.125000
6257,78.125000
6258,78.125000
6259,78.125000
6260,78.125000
6261,78.125000
6262,78.125000
6263,74.218750
6264,74.218750
6265,78.125000
6266,74.218750
6267,78.125000
6268,78.125000
6269,78.125000
6270,78.125000
6271,78.125000
6272,74.218750
6273,74.218750
6274,74.218750
6275,74.218750
6276,74.218750
6277,74.218750
6278,78.125000
6279,74.218750
6280,74.218750
6281,74.218750
6282,74.218750
6283,74.218750
6284,74.218750
6285,74.218750
6286,74.218750
6287,74.218750
6288,74.218750
6289,74.218750
6290,74.218750
6291,74.218750
6292,74.218750
6293,74.218750
6294,74.218750
6295,74.218750
6296,74.218750
6297,74.218750
6298,74.218750
6299,74.218750
6300,70.312500
6301,74.218750
6302,74.218750
6303,74.218750
6304,70.312500
6305,70.312500
6306,70.312500
6307,74.218750
6308,70.312500
6309,70.312500
6310,70.312500
6311,70.312500
6312,70.312500
6313,70.312500
6314,70.312500
6315,70.312500
6316,70.312500
6317,70.312500
6318,70.312500
6319,70.312500
6320,70.312500
6321,70.312500
6322,70.312500
6323,66.406250
6324,70.312500
6325,70.312500
6326,66.406250
6327,66.406250
6328,66.406250
6329,66.406250
6330,66.406250
6331,66.406250
6332,66.406250
6333,66.406250
6334,66.406250
6335,66.406250
6336,66.406250
6337,66.406250
6338,66.406250
6339,66.406250
6340,66.406250
6341,62.500000
6342,66.406250
6343,62.500000
6344,66.406250
6345,62.500000
6346,62.500000
6347,62.500000
6348,62.500000
6349,62.500000
6350,62.500000
6351,62.500000
6352,62.500000
6353,62.500000
6354,62.500000
6355,58.593750
6356,62.500000
6357,62.500000
6358,58.593750
6359,58.593750
6360,58.593750
6361,58.593750
6362,58.593750
6363,58.593750
6364,58.593750
6365,58.593750
6366,58.593750
6367,58.593750
6368,58.593750
6369,54.687500
6370,54.687500
6371,54.687500
6372,54.687500
6373,54.687500
6374,54.687500
6375,54.687500
6376,54.687500
6377,54.687500
6378,54.687500
6379,54.687500
6380,50.781250
6381,50.781250
6382,50.781250
6383,50.781250
6384,50.781250
6385,50.781250
6386,50.781250
6387,50.781250
6388,50.781250
6389,50.781250
6390,46.875000
6391,46.875000
6392,46.875000
6393,46.875000
6394,46.875000
6395,46.875000
6396,46.875000
6397,46.875000
6398,46.875000
6399,42.968750
6400,42.968750
6401,42.968750
6402,42.968750
6403,42.968750
6404,42.968750
6405,42.968750
6406,42.968750
6407,39.062500
6408,39.062500
6409,39.062500
6410,39.062500
6411,39.062500
6412,39.062500
6413,39.062500
6414,39.062500
6415,39.062500
6416,39.062500
6417,35.156250
6418,35.156250
6419,35.156250
6420,35.156250
6421,35.156250
6422,35.156250
6423,35.156250
6424,31.250000
6425,31.250000
6426,31.250000
6427,31.250000
6428,31.250000
6429,31.250000
6430,31.250000
6431,27.343750
6432,31.250000
6433,27.343750
6434,27.343750
6435,27.343750
6436,27.343750
6437,27.343750
6438,27.343750
6439,27.343750
6440,23.437500
6441,23.437500
6442,23.437500
6443,23.437500
6444,23.437500
6445,23.437500
6446,19.531250
6447,23.437500
6448,19.531250
6449,19.531250
6450,19.531250
6451,19.531250
6452,19.531250
6453,19.531250
6454,19.531250
6455,19.531250
6456,19.531250
6457,15.625000
6458,15.625000
6459,15.625000
6460,15.625000
6461,15.625000
6462,15.625000
6463,11.718750
6464,11.718750
6465,11.718750
6466,11.718750
6467,11.718750
6468,11.718750
6469,7.812500
6470,7.812500
6471,7.812500
6472,7.812500
6473,7.812500
6474,7.812500
6475,3.906250
6476,7.812500
6477,3.906250
6478,3.906250
6479,3.906250
6480,3.906250
6481,3.906250
6482,0.000000
6483,0.000000
6484,0.000000
6485,0.000000
6486,0.000000
6487,0.000000
6488,0.000000
6489,-3.906250
6490,-3.906250
6491,-3.906250
6492,-3.906250
6493,-3.906250
6494,-3.906250
6495,-3.906250
6496,-7.812500
6497,-3.906250
6498,-7.812500
6499,-7.812500
6500,-7.812500
6501,-7.812500
6502,-7.812500
6503,-7.812500
6504,-7.812500
6505,-11.718750
6506,-11.718750
6507,-11.718750
6508,-11.718750
6509,-11.718750
6510,-15.625000
6511,-11.718750
6512,-15.625000
6513,-15.625000
6514,-15.625000
6515,-15.625000
6516,-15.625000
6517,-15.625000
6518,-19.531250
6519,-19.531250
6520,-19.531250
6521,-19.531250
6522,-19.531250
6523,-19.531250
6524,-23.437500
6525,-23.437500
6526,-23.437500
6527,-23.437500
6528,-23.437500
6529,-23.437500
6530,-23.437500
6531,-27.343750
6532,-27.343750
6533,-27.343750
6534,-27.343750
6535,-27.343750
6536,-27.343750
6537,-31.250000
6538,-31.250000
6539,-31.250000
6540,-31.250000
6541,-31.250000
6542,-31.250000
6543,-35.156250
6544,-35.156250
6545,-35.156250
6546,-35.156250
6547,-35.156250
6548,-35.156250
6549,-39.062500
6550,-39.062500
6551,-39.062500
6552,-39.062500
6553,-39.062500
6554,-39.062500
6555,-39.062500
6556,-42.968750
6557,-42.968750
6558,-42.968750
6559,-42.968750
6560,-42.968750
6561,-42.968750
6562,-42.968750
6563,-46.875000
6564,-46.875000
6565,-46.875000
6566,-46.875000
6567,-46.875000
6568,-46.875000
6569,-46.875000
6570,-46.875000
6571,-50.781250
6572,-50.781250
6573,-50.781250
6574,-54.687500
6575,-50.781250
6576,-50.781250
6577,-54.687500
6578,-54.687500
6579,-54.687500
6580,-54.687500
6581,-54.687500
6582,-54.687500
6583,-58.593750
6584,-58.593750
6585,-58.593750
6586,-58.593750
6587,-58.593750
6588,-58.593750
6589,-58.593750
6590,-58.593750
6591,-62.500000
6592,-62.500000
6593,-62.500000
6594,-62.500000
6595,-62.500000
6596,-62.500000
6597,-62.500000
6598,-62.500000
6599,-66.406250
6600,-66.406250
6601,-66.406250
6602,-66.406250
6603,-66.406250
6604,-66.406250
6605,-66.406250
6606,-70.312500
6607,-70.312500
6608,-70.312500
6609,-70.312500
6610,-70.312500
6611,-70.312500
6612,-70.312500
6613,-74.218750
6614,-74.218750
6615,-74.218750
6616,-74.218750
6617,-74.218750
6618,-74.218750
6619,-74.218750
6620,-74.218750
6621,-78.125000
6622,-74.218750
6623,-78.125000
6624,-78.125000
6625,-78.125000
6626,-78.125000
6627,-78.125000
6628,-78.125000
6629,-78.125000
6630,-78.125000
6631,-82.031250
6632,-82.031250
6633,-82.031250
6634,-82.031250
6635,-82.031250
6636,-82.031250
6637,-82.031250
6638,-82.031250
6639,-82.031250
6640,-85.937500
6641,-85.937500
6642,-85.937500
6643,-85.937500
6644,-85.937500
6645,-85.937500
6646,-85.937500
6647,-85.937500
6648,-85.937500
6649,-89.843750
6650,-89.843750
6651,-89.843750
6652,-89.843750
6653,-89.843750
6654,-89.843750
6655,-89.843750
6656,-89.843750
6657,-89.843750
6658,-89.843750
6659,-93.750000
6660,-93.750000
6661,-93.750000
6662,-93.750000
6663,-93.750000
6664,-93.750000
6665,-93.750000
6666,-93.750000
6667,-93.750000
6668,-93.750000
6669,-97.656250
6670,-97.656250
6671,-97.656250
6672,-97.656250
6673,-97.656250
6674,-97.656250
6675,-97.656250
6676,-97.656250
6677,-97.656250
6678,-97.656250
6679,-97.656250
6680,-97.656250
6681,-97.656250
6682,-101.562500
6683,-97.656250
6684,-101.562500
6685,-101.562500
6686,-101.562500
6687,-101.562500
6688,-101.562500
6689,-101.562500
6690,-101.562500
6691,-101.562500
6692,-101.562500
6693,-101.562500
6694,-101.562500
6695,-101.562500
6696,-101.562500
6697,-101.562500
6698,-105.468750
6699,-105.468750
6700,-105.468750
6701,-105.468750
6702,-105.468750
6703,-105.468750
6704,-105.468750
6705,-105.468750
6706,-105.468750
6707,-105.468750
6708,-105.468750
6709,-105.468750
6710,-105.468750
6711,-105.468750
6712,-109.375000
6713,-105.468750
6714,-105.468750
6715,-105.468750
6716,-105.468750
6717,-105.468750
6718,-109.375000
6719,-109.375000
6720,-105.468750
6721,-109.375000
6722,-109.375000
6723,-109.375000
6724,-109.375000
6725,-105.468750
6726,-109.375000
6727,-109.375000
6728,-109.375000
6729,-109.375000
6730,-109.375000
6731,-109.375000
6732,-109.375000
6733,-109.375000
6734,-109.375000
6735,-109.375000
6736,-109.375000
6737,-109.375000
6738,-109.375000
6739,-109.375000
6740,-109.375000
6741,-109.375000
6742,-109.375000
6743,-109.375000
6744,-109.375000
6745,-109.375000
6746,-109.375000
6747,-109.375000
6748,-109.375000
6749,-109.375000
6750,-109.375000
6751,-109.375000
6752,-109.375000
6753,-109.375000
6754,-109.375000
6755,-109.375000
6756,-109.375000
6757,-109.375000
6758,-109.375000
6759,-109.375000
6760,-109.375000
6761,-109.375000
6762,-109.375000
6763,-109.375000
6764,-109.375000
6765,-109.375000
6766,-109.375000
6767,-109.375000
6768,-109.375000
6769,-109.375000
6770,-109.375000
6771,-109.375000
6772,-109.375000
6773,-109.375000
6774,-109.375000
6775,-109.375000
6776,-109.375000
6777,-105.468750
6778,-109.375000
6779,-109.375000
6780,-109.375000
6781,-105.468750
6782,-105.468750
6783,-109.375000
6784,-105.468750
6785,-105.468750
6786,-105.468750
6787,-105.468750
6788,-105.468750
6789,-109.375000
6790,-105.468750
6791,-105.468750
6792,-105.468750
6793,-105.468750
6794,-105.468750
6795,-105.468750
6796,-105.468750
6797,-105.468750
6798,-105.468750
6799,-105.468750
6800,-105.468750
6801,-105.468750
6802,-105.468750
6803,-105.468750
6804,-105.468750
6805,-101.562500
6806,-105.468750
6807,-105.468750
6808,-101.562500
6809,-101.562500
6810,-101.562500
6811,-101.562500
6812,-101.562500
6813,-101.562500
6814,-101.562500
6815,-101.562500
6816,-101.562500
6817,-101.562500
6818,-101.562500
6819,-101.562500
6820,-101.562500
6821,-101.562500
6822,-101.562500
6823,-101.562500
6824,-97.656250
6825,-97.656250
6826,-97.656250
6827,-97.656250
6828,-97.656250
6829,-97.656250
6830,-97.656250
6831,-97.656250
6832,-97.656250
6833,-97.656250
6834,-97.656250
6835,-97.656250
6836,-97.656250
6837,-93.750000
6838,-93.750000
6839,-93.750000
6840,-93.750000
6841,-93.750000
6842,-93.750000
6843,-93.750000
6844,-93.750000
6845,-93.750000
6846,-93.750000
6847,-93.750000
6848,-89.843750
6849,-89.843750
6850,-89.843750
6851,-89.843750
6852,-89.843750
6853,-89.843750
6854,-89.843750
6855,-89.843750
6856,-89.843750
6857,-85.937500
6858,-85.937500
6859,-85.937500
6860,-85.937500
6861,-85.937500
6862,-85.937500
6863,-85.937500
6864,-85.937500
6865,-85.937500
6866,-85.937500
6867,-82.031250
6868,-82.031250
6869,-82.031250
6870,-82.031250
6871,-82.031250
6872,-82.031250
6873,-82.031250
6874,-82.031250
6875,-78.125000
6876,-78.125000
6877,-78.125000
6878,-78.125000
6879,-78.125000
6880,-78.125000
6881,-78.125000
6882,-78.125000
6883,-78.125000
6884,-78.125000
6885,-74.218750
6886,-74.218750
6887,-74.218750
6888,-74.218750
6889,-74.218750
6890,-74.218750
6891,-74.218750
6892,-70.312500
6893,-70.312500
6894,-70.312500
6895,-70.312500
6896,-70.312500
6897,-70.312500
6898,-66.406250
6899,-66.406250
6900,-66.406250
6901,-66.406250
6902,-66.406250
6903,-66.406250
6904,-66.406250
6905,-66.406250
6906,-66.406250
6907,-62.500000
6908,-62.500000
6909,-62.500000
6910,-62.500000
6911,-62.500000
6912,-62.500000
6913,-62.500000
6914,-62.500000
6915,-58.593750
6916,-58.593750
6917,-58.593750
6918,-58.593750
6919,-62.500000
6920,-58.593750
6921,-54.687500
6922,-54.687500
6923,-54.687500
6924,-54.687500
6925,-54.687500
6926,-54.687500
6927,-54.687500
6928,-50.781250
6929,-50.781250
6930,-50.781250
6931,-50.781250
6932,-50.781250
6933,-50.781250
6934,-50.781250
6935,-46.875000
6936,-46.875000
6937,-46.875000
6938,-46.875000
6939,-46.875000
6940,-46.875000
6941,-46.875000
6942,-42.968750
6943,-42.968750
6944,-42.968750
6945,-42.968750
6946,-42.968750
6947,-42.968750
6948,-39.062500
6949,-39.062500
6950,-39.062500
6951,-39.062500
6952,-39.062500
6953,-39.062500
6954,-39.062500
6955,-35.156250
6956,-35.156250
6957,-35.156250
6958,-35.156250
6959,-35.156250
6960,-35.156250
6961,-35.156250
6962,-31.250000
6963,-35.156250
6964,-31.250000
6965,-31.250000
6966,-31.250000
6967,-31.250000
6968,-27.343750
6969,-27.343750
6970,-27.343750
6971,-27.343750
6972,-27.343750
6973,-27.343750
6974,-27.343750
6975,-27.343750
6976,-23.437500
6977,-23.437500
6978,-23.437500
6979,-23.437500
6980,-23.437500
6981,-23.437500
6982,-23.437500
6983,-19.531250
6984,-19.531250
6985,-19.531250
6986,-19.531250
6987,-15.625000
6988,-15.625000
6989,-15.625000
6990,-15.625000
6991,-15.625000
6992,-15.625000
6993,-15.625000
6994,-15.625000
6995,-11.718750
6996,-11.718750
6997,-11.718750
6998,-11.718750
6999,-11.718750
7000,-11.718750
7001,-7.812500
7002,-7.812500
7003,-7.812500
7004,-7.812500
7005,-7.812500
7006,-7.812500
7007,-7.812500
7008,-3.906250
7009,-3.906250
7010,-3.906250
7011,-3.906250
7012,-3.906250
7013,-3.906250
7014,0.000000
7015,0.000000
7016,0.000000
7017,0.000000
7018,0.000000
7019,0.000000
7020,0.000000
7021,0.000000
7022,3.906250
7023,3.906250
7024,3.906250
7025,3.906250
7026,3.906250
7027,3.906250
7028,3.906250
7029,7.812500
7030,7.812500
7031,7.812500
7032,7.812500
7033,7.812500
7034,7.812500
7035,11.718750
7036,11.718750
7037,11.718750
7038,11.718750
7039,11.718750
7040,11.718750
7041,15.625000
7042,15.625000
7043,15.625000
7044,15.625000
7045,15.625000
7046,15.625000
7047,15.625000
7048,15.625000
7049,19.531250
7050,19.531250
7051,19.531250
7052,19.531250
7053,19.531250
7054,19.531250
7055,23.437500
7056,19.531250
7057,23.437500
7058,23.437500
7059,23.437500
7060,23.437500
7061,23.437500
7062,23.437500
7063,23.437500
7064,23.437500
7065,27.343750
7066,27.343750
7067,27.343750
7068,27.343750
7069,27.343750
7070,27.343750
7071,31.250000
7072,31.250000
7073,31.250000
7074,31.250000
7075,31.250000
7076,31.250000
7077,31.250000
7078,31.250000
7079,35.156250
7080,35.156250
7081,35.156250
7082,35.156250
7083,35.156250
7084,35.156250
7085,35.156250
7086,35.156250
7087,39.062500
7088,39.062500
7089,39.062500
7090,39.062500
7091,39.062500
7092,39.062500
7093,39.062500
7094,39.062500
7095,39.062500
7096,42.968750
7097,42.968750
7098,42.968750
7099,42.968750
7100,42.968750
7101,42.968750
7102,42.968750
7103,42.968750
7104,42.968750
7105,42.968750
7106,46.875000
7107,46.875000
7108,46.875000
7109,46.875000
7110,46.875000
7111,46.875000
7112,46.875000
7113,46.875000
7114,46.875000
7115,46.875000
7116,50.781250
7117,50.781250
7118,50.781250
7119,50.781250
7120,50.781250
7121,50.781250
7122,50.781250
7123,50.781250
7124,50.781250
7125,50.781250
7126,54.687500
7127,54.687500
7128,54.687500
7129,54.687500
7130,54.687500
7131,54.687500
7132,54.687500
7133,54.687500
7134,54.687500
7135,54.687500
7136,58.593750
7137,58.593750
7138,58.593750
7139,58.593750
7140,58.593750
7141,58.593750
7142,58.593750
7143,58.593750
7144,58.593750
7145,58.593750
7146,58.593750
7147,58.593750
7148,58.593750
7149,62.500000
7150,62.500000
7151,62.500000
7152,62.500000
7153,62.500000
7154,62.500000
7155,62.500000
7156,62.500000
7157,62.500000
7158,62.500000
7159,62.500000
7160,62.500000
7161,66.406250
7162,66.406250
7163,66.406250
7164,66.406250
7165,66.406250
7166,66.406250
7167,66.406250
7168,66.406250
7169,66.406250
7170,66.406250
7171,66.406250
7172,66.406250
7173,66.406250
7174,66.406250
7175,66.406250
7176,66.406250
7177,66.406250
7178,70.312500
7179,70.312500
7180,70.312500
7181,70.312500
7182,70.312500
7183,70.312500
7184,70.312500
7185,70.312500
7186,70.312500
7187,70.312500
7188,70.312500
7189,70.312500
7190,70.312500
7191,70.312500
7192,70.312500
7193,70.312500
7194,70.312500
7195,70.312500
7196,70.312500
7197,74.218750
7198,70.312500
7199,70.312500
7200,74.218750
7201,74.218750
7202,74.218750
7203,74.218750
7204,74.218750
7205,74.218750
7206,74.218750
7207,74.218750
7208,74.218750
7209,74.218750
7210,74.218750
7211,74.218750
7212,74.218750
7213,74.218750
7214,74.218750
7215,74.218750
7216,74.218750
7217,74.218750
7218,74.218750
7219,74.218750
7220,74.218750
7221,74.218750
7222,74.218750
7223,74.218750
7224,74.218750
7225,74.218750
7226,74.218750
7227,74.218750
7228,74.218750
7229,74.218750
7230,74.218750
7231,74.218750
7232,74.218750
7233,74.218750
7234,74.218750
7235,74.218750
7236,74.218750
7237,74.218750
7238,74.218750
7239,74.218750
7240,74.218750
7241,74.218750
7242,74.218750
7243,74.218750
7244,78.125000
7245,74.218750
7246,74.218750
7247,74.218750
7248,74.218750
7249,74.218750
7250,74.218750
7251,74.218750
7252,74.218750
7253,74.218750
7254,74.218750
7255,74.218750
7256,78.125000
7257,74.218750
7258,74.218750
7259,74.218750
7260,74.218750
7261,74.218750
7262,74.218750
7263,74.218750
7264,74.218750
7265,74.218750
7266,74.218750
7267,74.218750
7268,74.218750
7269,74.218750
7270,74.218750
7271,74.218750
7272,74.218750
7273,74.218750
7274,74.218750
7275,74.218750
7276,74.218750
7277,74.218750
7278,74.218750
7279,74.218750
7280,74.218750
7281,74.218750
7282,74.218750
7283,74.218750
7284,74.218750
7285,74.218750
7286,74.218750
7287,74.218750
7288,74.218750
7289,74.218750
7290,74.218750
7291,74.218750
7292,74.218750
7293,74.218750
7294,74.218750
7295,74.218750
7296,70.312500
7297,70.312500
7298,70.312500
7299,70.312500
7300,70.312500
7301,70.312500
7302,70.312500
7303,70.312500
7304,70.312500
7305,70.312500
7306,70.312500
7307,70.312500
7308,70.312500
7309,70.312500
7310,70.312500
7311,70.312500
7312,70.312500
7313,70.312500
7314,66.406250
7315,66.406250
7316,66.406250
7317,66.406250
7318,66.406250
7319,66.406250
7320,66.406250
7321,66.406250
7322,66.406250
7323,66.406250
7324,66.406250
7325,66.406250
7326,66.406250
7327,66.406250
7328,66.406250
7329,66.406250
7330,66.406250
7331,62.500000
7332,62.500000
7333,62.500000
7334,62.500000
7335,62.500000
7336,62.500000
7337,62.500000
7338,62.500000
7339,62.500000
7340,62.500000
7341,62.500000
7342,62.500000
7343,62.500000
7344,58.593750
7345,58.593750
7346,58.593750
7347,58.593750
7348,58.593750
7349,58.593750
7350,58.593750
7351,58.593750
7352,58.593750
7353,58.593750
7354,58.593750
7355,58.593750
7356,58.593750
7357,54.687500
7358,54.687500
7359,54.687500
7360,54.687500
7361,54.687500
7362,54.687500
7363,54.687500
7364,54.687500
7365,54.687500
7366,50.781250
7367,50.781250
7368,50.781250
7369,50.781250
7370,50.781250
7371,50.781250
7372,50.781250
7373,50.781250
7374,50.781250
7375,50.781250
7376,50.781250
7377,46.875000
7378,50.781250
7379,46.875000
7380,46.875000
7381,46.875000
7382,46.875000
7383,46.875000
7384,46.875000
7385,46.875000
7386,42.968750
7387,46.875000
7388,46.875000
7389,42.968750
7390,42.968750
7391,42.968750
7392,42.968750
7393,42.968750
7394,42.968750
7395,42.968750
7396,42.968750
7397,39.062500
7398,39.062500
7399,39.062500
7400,39.062500
7401,39.062500
7402,39.062500
7403,39.062500
7404,39.062500
7405,35.156250
7406,39.062500
7407,35.156250
7408,35.156250
7409,35.156250
7410,35.156250
7411,35.156250
7412,35.156250
7413,35.156250
7414,31.250000
7415,31.250000
7416,31.250000
7417,31.250000
7418,31.250000
7419,31.250000
7420,31.250000
7421,27.343750
7422,27.343750
7423,27.343750
7424,27.343750
7425,27.343750
7426,27.343750
7427,27.343750
7428,27.343750
7429,27.343750
7430,23.437500
7431,23.437500
7432,23.437500
7433,23.437500
7434,23.437500
7435,23.437500
7436,23.437500
7437,19.531250
7438,19.531250
7439,19.531250
7440,19.531250
7441,19.531250
7442,19.531250
7443,19.531250
7444,15.625000
7445,15.625000
7446,15.625000
7447,15.625000
7448,15.625000
7449,15.625000
7450,15.625000
7451,11.718750
7452,11.718750
7453,11.718750
7454,11.718750
7455,11.718750
7456,11.718750
7457,11.718750
7458,7.812500
7459,7.812500
7460,7.812500
7461,7.812500
7462,7.812500
7463,7.812500
7464,7.812500
7465,3.906250
7466,3.906250
7467,3.906250
7468,3.906250
7469,3.906250
7470,0.000000
7471,0.000000
7472,0.000000
7473,0.000000
7474,0.000000
7475,0.000000
7476,0.000000
7477,0.000000
7478,-3.906250
7479,-3.906250
7480,-3.906250
7481,-3.906250
7482,-3.906250
7483,-3.906250
7484,-7.812500
7485,-7.812500
7486,-7.812500
7487,-7.812500
7488,-7.812500
7489,-7.812500
7490,-7.812500
7491,-7.812500
7492,-11.718750
7493,-11.718750
7494,-11.718750
7495,-11.718750
7496,-11.718750
7497,-11.718750
7498,-11.718750
7499,-15.625000
7500,-15.625000
7501,-15.625000
7502,-15.625000
7503,-15.625000
7504,-15.625000
7505,-19.531250
7506,-19.531250
7507,-19.531250
7508,-19.531250
7509,-19.531250
7510,-19.531250
7511,-19.531250
7512,-23.437500
7513,-23.437500
7514,-23.437500
7515,-23.437500
7516,-23.437500
7517,-23.437500
7518,-23.437500
7519,-27.343750
7520,-27.343750
7521,-27.343750
7522,-27.343750
7523,-27.343750
7524,-31.250000
7525,-31.250000
7526,-31.250000
7527,-31.250000
7528,-31.250000
7529,-31.250000
7530,-31.250000
7531,-31.250000
7532,-35.156250
7533,-35.156250
7534,-35.156250
7535,-35.156250
7536,-35.156250
7537,-35.156250
7538,-35.156250
7539,-35.156250
7540,-39.062500
7541,-39.062500
7542,-39.062500
7543,-39.062500
7544,-39.062500
7545,-42.968750
7546,-42.968750
7547,-42.968750
7548,-42.968750
7549,-42.968750
7550,-42.968750
7551,-42.968750
7552,-46.875000
7553,-46.875000
7554,-46.875000
7555,-46.875000
7556,-46.875000
7557,-46.875000
7558,-50.781250
7559,-50.781250
7560,-50.781250
7561,-50.781250
7562,-50.781250
7563,-50.781250
7564,-50.781250
7565,-50.781250
7566,-54.687500
7567,-54.687500
7568,-54.687500
7569,-54.687500
7570,-54.687500
7571,-54.687500
7572,-54.687500
7573,-58.593750
7574,-58.593750
7575,-58.593750
7576,-58.593750
7577,-58.593750
7578,-58.593750
7579,-58.593750
7580,-62.500000
7581,-62.500000
7582,-62.500000
7583,-62.500000
7584,-62.500000
7585,-62.500000
7586,-62.500000
7587,-66.406250
7588,-66.406250
7589,-66.406250
7590,-66.406250
7591,-66.406250
7592,-66.406250
7593,-66.406250
7594,-70.312500
7595,-70.312500
7596,-70.312500
7597,-70.312500
7598,-70.312500
7599,-70.312500
7600,-70.312500
7601,-74.218750
7602,-70.312500
7603,-74.218750
7604,-74.218750
7605,-74.218750
7606,-74.218750
7607,-74.218750
7608,-74.218750
7609,-78.125000
7610,-78.125000
7611,-78.125000
7612,-78.125000
7613,-78.125000
7614,-78.125000
7615,-78.125000
7616,-78.125000
7617,-78.125000
7618,-82.031250
7619,-82.031250
7620,-82.031250
7621,-82.031250
7622,-82.031250
7623,-82.031250
7624,-82.031250
7625,-82.031250
7626,-82.031250
7627,-85.937500
7628,-85.937500
7629,-85.937500
7630,-85.937500
7631,-85.937500
7632,-85.937500
7633,-85.937500
7634,-85.937500
7635,-85.937500
7636,-89.843750
7637,-89.843750
7638,-89.843750
7639,-89.843750
7640,-89.843750
7641,-89.843750
7642,-89.843750
7643,-89.843750
7644,-89.843750
7645,-89.843750
7646,-93.750000
7647,-89.843750
7648,-89.843750
7649,-93.750000
7650,-93.750000
7651,-93.750000
7652,-93.750000
7653,-93.750000
7654,-93.750000
7655,-93.750000
7656,-93.750000
7657,-93.750000
7658,-93.750000
7659,-97.656250
7660,-97.656250
7661,-97.656250
7662,-97.656250
7663,-97.656250
7664,-97.656250
7665,-97.656250
7666,-97.656250
7667,-101.562500
7668,-97.656250
7669,-97.656250
7670,-97.656250
7671,-101.562500
7672,-101.562500
7673,-101.562500
7674,-101.562500
7675,-101.562500
7676,-101.562500
7677,-101.562500
7678,-101.562500
7679,-101.562500
7680,-101.562500
7681,-101.562500
7682,-101.562500
7683,-101.562500
7684,-101.562500
7685,-101.562500
7686,-101.562500
7687,-105.468750
7688,-101.562500
7689,-105.468750
7690,-105.468750
7691,-101.562500
7692,-101.562500
7693,-105.468750
7694,-105.468750
7695,-105.468750
7696,-105.468750
7697,-105.468750
7698,-105.468750
7699,-105.468750
7700,-105.468750
7701,-105.468750
7702,-105.468750
7703,-105.468750
7704,-105.468750
7705,-105.468750
7706,-105.468750
7707,-105.468750
7708,-109.375000
7709,-105.468750
7710,-105.468750
7711,-105.468750
7712,-105.468750
7713,-109.375000
7714,-109.375000
7715,-109.375000
7716,-109.375000
7717,-109.375000
7718,-109.375000
7719,-109.375000
7720,-109.375000
7721,-109.375000
7722,-109.375000
7723,-109.375000
7724,-109.375000
7725,-109.375000
7726,-109.375000
7727,-109.375000
7728,-109.375000
7729,-109.375000
7730,-109.375000
7731,-109.375000
7732,-109.375000
7733,-109.375000
7734,-109.375000
7735,-109.375000
7736,-109.375000
7737,-109.375000
7738,-109.375000
7739,-109.375000
7740,-109.375000
7741,-109.375000
7742,-109.375000
7743,-109.375000
7744,-109.375000
7745,-109.375000
7746,-109.375000
7747,-109.375000
7748,-109.375000
7749,-109.375000
7750,-109.375000
7751,-109.375000
7752,-109.375000
7753,-109.375000
7754,-109.375000
7755,-109.375000
7756,-109.375000
7757,-109.375000
7758,-109.375000
7759,-109.375000
7760,-109.375000
7761,-109.375000
7762,-109.375000
7763,-109.375000
7764,-109.375000
7765,-109.375000
7766,-109.375000
7767,-109.375000
7768,-109.375000
7769,-109.375000
7770,-109.375000
7771,-109.375000
7772,-105.468750
7773,-109.375000
7774,-105.468750
7775,-109.375000
7776,-105.468750
7777,-105.468750
7778,-105.468750
7779,-105.468750
7780,-105.468750
7781,-105.468750
7782,-105.468750
7783,-105.468750
7784,-105.468750
7785,-105.468750
7786,-105.468750
7787,-105.468750
7788,-105.468750
7789,-105.468750
7790,-105.468750
7791,-105.468750
7792,-105.468750
7793,-105.468750
7794,-105.468750
7795,-101.562500
7796,-101.562500
7797,-101.562500
7798,-101.562500
7799,-101.562500
7800,-101.562500
7801,-101.562500
7802,-101.562500
7803,-101.562500
7804,-101.562500
7805,-101.562500
7806,-101.562500
7807,-101.562500
7808,-101.562500
7809,-101.562500
7810,-101.562500
7811,-97.656250
7812,-97.656250
7813,-97.656250
7814,-97.656250
7815,-97.656250
7816,-97.656250
7817,-97.656250
7818,-97.656250
7819,-97.656250
7820,-97.656250
7821,-97.656250
7822,-97.656250
7823,-97.656250
7824,-93.750000
7825,-93.750000
7826,-93.750000
7827,-93.750000
7828,-93.750000
7829,-93.750000
7830,-93.750000
7831,-93.750000
7832,-93.750000
7833,-93.750000
7834,-93.750000
7835,-93.750000
7836,-89.843750
7837,-89.843750
7838,-89.843750
7839,-89.843750
7840,-89.843750
7841,-89.843750
7842,-89.843750
7843,-89.843750
7844,-89.843750
7845,-89.843750
7846,-89.843750
7847,-85.937500
7848,-85.937500
7849,-85.937500
7850,-85.937500
7851,-85.937500
7852,-85.937500
7853,-85.937500
7854,-85.937500
7855,-85.937500
7856,-82.031250
7857,-82.031250
7858,-82.031250
7859,-82.031250
7860,-82.031250
7861,-82.031250
7862,-82.031250
7863,-82.031250
7864,-82.031250
7865,-78.125000
7866,-78.125000
7867,-78.125000
7868,-78.125000
7869,-78.125000
7870,-78.125000
7871,-78.125000
7872,-78.125000
7873,-74.218750
7874,-74.218750
7875,-74.218750
7876,-74.218750
7877,-74.218750
7878,-74.218750
7879,-74.218750
7880,-74.218750
7881,-74.218750
7882,-70.312500
7883,-70.312500
7884,-70.312500
7885,-70.312500
7886,-70.312500
7887,-70.312500
7888,-70.312500
7889,-66.406250
7890,-66.406250
7891,-66.406250
7892,-66.406250
7893,-66.406250
7894,-66.406250
7895,-66.406250
7896,-66.406250
7897,-66.406250
7898,-62.500000
7899,-62.500000
7900,-62.500000
7901,-62.500000
7902,-62.500000
7903,-62.500000
7904,-62.500000
7905,-58.593750
7906,-58.593750
7907,-58.593750
7908,-58.593750
7909,-58.593750
7910,-58.593750
7911,-54.687500
7912,-54.687500
7913,-54.687500
7914,-54.687500
7915,-54.687500
7916,-54.687500
7917,-50.781250
7918,-50.781250
7919,-50.781250
7920,-50.781250
7921,-50.781250
7922,-50.781250
7923,-50.781250
7924,-50.781250
7925,-50.781250
7926,-46.875000
7927,-46.875000
7928,-46.875000
7929,-46.875000
7930,-46.875000
7931,-46.875000
7932,-42.968750
7933,-42.968750
7934,-42.968750
7935,-42.968750
7936,-42.968750
7937,-42.968750
7938,-39.062500
7939,-39.062500
7940,-39.062500
7941,-39.062500
7942,-39.062500
7943,-39.062500
7944,-35.156250
7945,-35.156250
7946,-35.156250
7947,-35.156250
7948,-35.156250
7949,-35.156250
7950,-31.250000
7951,-31.250000
7952,-31.250000
7953,-31.250000
7954,-31.250000
7955,-31.250000
7956,-31.250000
7957,-31.250000
7958,-27.343750
7959,-27.343750
7960,-27.343750
7961,-27.343750
7962,-27.343750
7963,-27.343750
7964,-27.343750
7965,-23.437500
7966,-23.437500
7967,-23.437500
7968,-23.437500
7969,-23.437500
7970,-23.437500
7971,-19.531250
7972,-19.531250
7973,-19.531250
7974,-19.531250
7975,-19.531250
7976,-15.625000
7977,-15.625000
7978,-15.625000
7979,-15.625000
7980,-15.625000
7981,-15.625000
7982,-15.625000
7983,-15.625000
7984,-11.718750
7985,-11.718750
7986,-11.718750
7987,-11.718750
7988,-11.718750
7989,-11.718750
7990,-7.812500
7991,-7.812500
7992,-7.812500
7993,-7.812500
7994,-7.812500
7995,-7.812500
7996,-7.812500
7997,-7.812500
7998,-3.906250
7999,-3.906250
8000,-3.906250
8001,-3.906250
8002,-3.906250
8003,0.000000
8004,0.000000
8005,0.000000
8006,0.000000
8007,0.000000
8008,0.000000
8009,0.000000
8010,0.000000
8011,3.906250
8012,3.906250
8013,3.906250
8014,3.906250
8015,3.906250
8016,3.906250
8017,3.906250
8018,3.906250
8019,7.812500
8020,7.812500
8021,7.812500
8022,7.812500
8023,7.812500
8024,7.812500
8025,11.718750
8026,11.718750
8027,11.718750
8028,11.718750
8029,11.718750
8030,11.718750
8031,11.718750
8032,15.625000
8033,15.625000
8034,15.625000
8035,15.625000
8036,15.625000
8037,15.625000
8038,15.625000
8039,19.531250
8040,19.531250
8041,19.531250
8042,19.531250
8043,19.531250
8044,19.531250
8045,19.531250
8046,23.437500
8047,23.437500
8048,23.437500
8049,23.437500
8050,23.437500
8051,23.437500
8052,23.437500
8053,27.343750
8054,27.343750
8055,27.343750
8056,27.343750
8057,27.343750
8058,27.343750
8059,27.343750
8060,31.250000
8061,27.343750
8062,31.250000
8063,35.156250
8064,31.250000
8065,31.250000
8066,31.250000
8067,31.250000
8068,31.250000
8069,35.156250
8070,35.156250
8071,35.156250
8072,35.156250
8073,35.156250
8074,35.156250
8075,39.062500
8076,39.062500
8077,39.062500
8078,39.062500
8079,39.062500
8080,39.062500
8081,39.062500
8082,39.062500
8083,39.062500
8084,39.062500
8085,39.062500
8086,42.968750
8087,42.968750
8088,42.968750
8089,42.968750
8090,42.968750
8091,42.968750
8092,42.968750
8093,42.968750
8094,46.875000
8095,46.875000
8096,46.875000
8097,46.875000
8098,46.875000
8099,46.875000
8100,50.781250
8101,46.875000
8102,46.875000
8103,46.875000
8104,50.781250
8105,50.781250
8106,50.781250
8107,50.781250
8108,50.781250
8109,50.781250
8110,50.781250
8111,50.781250
8112,50.781250
8113,50.781250
8114,50.781250
8115,50.781250
8116,54.687500
8117,54.687500
8118,54.687500
8119,54.687500
8120,54.687500
8121,54.687500
8122,54.687500
8123,54.687500
8124,54.687500
8125,54.687500
8126,58.593750
8127,58.593750
8128,58.593750
8129,58.593750
8130,58.593750
8131,58.593750
8132,58.593750
8133,58.593750
8134,58.593750
8135,58.593750
8136,58.593750
8137,58.593750
8138,58.593750
8139,62.500000
8140,62.500000
8141,62.500000
8142,62.500000
8143,62.500000
8144,62.500000
8145,62.500000
8146,62.500000
8147,62.500000
8148,62.500000
8149,62.500000
8150,62.500000
8151,66.406250
8152,66.406250
8153,66.406250
8154,66.406250
8155,66.406250
8156,66.406250
8157,66.406250
8158,66.406250
8159,66.406250
8160,66.406250
8161,66.406250
8162,66.406250
8163,66.406250
8164,66.406250
8165,66.406250
8166,66.406250
8167,70.312500
8168,70.312500
8169,70.312500
8170,70.312500
8171,70.312500
8172,70.312500
8173,70.312500
8174,70.312500
8175,70.312500
8176,70.312500
8177,70.312500
8178,70.312500
8179,70.312500
8180,70.312500
8181,70.312500
8182,70.312500
8183,70.312500
8184,70.312500
8185,70.312500
8186,74.218750
8187,70.312500
8188,74.218750
8189,74.218750
8190,74.218750
8191,74.218750
8192,74.218750
8193,74.218750
8194,74.218750
8195,74.218750
8196,74.218750
8197,74.218750
8198,74.218750
8199,74.218750
8200,74.218750
8201,74.218750
8202,74.218750
8203,74.218750
8204,74.218750
8205,74.218750
8206,74.218750
8207,74.218750
8208,74.218750
8209,74.218750
8210,74.218750
8211,74.218750
8212,74.218750
8213,74.218750
8214,74.218750
8215,74.218750
8216,74.218750
8217,74.218750
8218,74.218750
8219,74.218750
8220,78.125000
8221,74.218750
8222,74.218750
8223,78.125000
8224,78.125000
8225,78.125000
8226,74.218750
8227,74.218750
8228,74.218750
8229,74.218750
8230,74.218750
8231,74.218750
8232,74.218750
8233,74.218750
8234,74.218750
8235,74.218750
8236,74.218750
8237,74.218750
8238,78.125000
8239,78.125000
8240,74.218750
8241,74.218750
8242,74.218750
8243,74.218750
8244,74.218750
8245,74.218750
8246,74.218750
8247,74.218750
8248,74.218750
8249,74.218750
8250,74.218750
8251,74.218750
8252,74.218750
8253,74.218750
8254,74.218750
8255,74.218750
8256,74.218750
8257,74.218750
8258,74.218750
8259,74.218750
8260,74.218750
8261,74.218750
8262,74.218750
8263,74.218750
8264,74.218750
8265,74.218750
8266,74.218750
8267,74.218750
8268,74.218750
8269,74.218750
8270,74.218750
8271,74.218750
8272,74.218750
8273,70.312500
8274,74.218750
8275,74.218750
8276,74.218750
8277,74.218750
8278,74.218750
8279,70.312500
8280,74.218750
8281,74.218750
8282,74.218750
8283,70.312500
8284,70.312500
8285,70.312500
8286,70.312500
8287,70.312500
8288,70.312500
8289,70.312500
8290,70.312500
8291,70.312500
8292,70.312500
8293,70.312500
8294,70.312500
8295,70.312500
8296,70.312500
8297,70.312500
8298,70.312500
8299,66.406250
8300,70.312500
8301,66.406250
8302,70.312500
8303,70.312500
8304,70.312500
8305,66.406250
8306,66.406250
8307,66.406250
8308,66.406250
8309,66.406250
8310,66.406250
8311,66.406250
8312,66.406250
8313,66.406250
8314,66.406250
8315,66.406250
8316,66.406250
8317,66.406250
8318,66.406250
8319,62.500000
8320,66.406250
8321,62.500000
8322,62.500000
8323,62.500000
8324,62.500000
8325,62.500000
8326,62.500000
8327,62.500000
8328,62.500000
8329,62.500000
8330,62.500000
8331,62.500000
8332,62.500000
8333,62.500000
8334,62.500000
8335,62.500000
8336,58.593750
8337,58.593750
8338,58.593750
8339,58.593750
8340,58.593750
8341,58.593750
8342,58.593750
8343,58.593750
8344,58.593750
8345,58.593750
8346,58.593750
8347,54.687500
8348,54.687500
8349,54.687500
8350,54.687500
8351,54.687500
8352,54.687500
8353,54.687500
8354,54.687500
8355,54.687500
8356,54.687500
8357,50.781250
8358,54.687500
8359,50.781250
8360,50.781250
8361,50.781250
8362,50.781250
8363,50.781250
8364,50.781250
8365,50.781250
8366,50.781250
8367,46.875000
8368,46.875000
8369,50.781250
8370,46.875000
8371,46.875000
8372,46.875000
8373,46.875000
8374,46.875000
8375,46.875000
8376,46.875000
8377,42.968750
8378,42.968750
8379,42.968750
8380,42.968750
8381,42.968750
8382,42.968750
8383,42.968750
8384,42.968750
8385,39.062500
8386,39.062500
8387,39.062500
8388,39.062500
8389,39.062500
8390,39.062500
8391,39.062500
8392,39.062500
8393,35.156250
8394,35.156250
8395,35.156250
8396,35.156250
8397,35.156250
8398,35.156250
8399,35.156250
8400,31.250000
8401,35.156250
8402,35.156250
8403,31.250000
8404,31.250000
8405,31.250000
8406,31.250000
8407,31.250000
8408,31.250000
8409,27.343750
8410,27.343750
8411,27.343750
8412,27.343750
8413,27.343750
8414,27.343750
8415,27.343750
8416,27.343750
8417,23.437500
8418,23.437500
8419,23.437500
8420,23.437500
8421,27.343750
8422,23.437500
8423,23.437500
8424,27.343750
8425,23.437500
8426,19.531250
8427,19.531250
8428,19.531250
8429,19.531250
8430,19.531250
8431,19.531250
8432,15.625000
8433,15.625000
8434,15.625000
8435,15.625000
8436,15.625000
8437,15.625000
8438,15.625000
8439,15.625000
8440,11.718750
8441,11.718750
8442,11.718750
8443,11.718750
8444,11.718750
8445,11.718750
8446,11.718750
8447,7.812500
8448,7.812500
8449,7.812500
8450,7.812500
8451,7.812500
8452,7.812500
8453,7.812500
8454,7.812500
8455,3.906250
8456,3.906250
8457,3.906250
8458,3.906250
8459,3.906250
8460,3.906250
8461,0.000000
8462,3.906250
8463,0.000000
8464,0.000000
8465,0.000000
8466,0.000000
8467,0.000000
8468,-3.906250
8469,-3.906250
8470,-3.906250
8471,-3.906250
8472,-3.906250
8473,-3.906250
8474,-3.906250
8475,-7.812500
8476,-7.812500
8477,-7.812500
8478,-7.812500
8479,-7.812500
8480,-7.812500
8481,-7.812500
8482,-11.718750
8483,-11.718750
8484,-11.718750
8485,-11.718750
8486,-11.718750
8487,-15.625000
8488,-15.625000
8489,-15.625000
8490,-15.625000
8491,-15.625000
8492,-15.625000
8493,-15.625000
8494,-19.531250
8495,-19.531250
8496,-19.531250
8497,-19.531250
8498,-19.531250
8499,-23.437500
8500,-23.437500
8501,-23.437500
8502,-23.437500
8503,-23.437500
8504,-23.437500
8505,-27.343750
8506,-27.343750
8507,-27.343750
8508,-27.343750
8509,-27.343750
8510,-27.343750
8511,-27.343750
8512,-27.343750
8513,-31.250000
8514,-31.250000
8515,-31.250000
8516,-31.250000
8517,-31.250000
8518,-31.250000
8519,-31.250000
8520,-35.156250
8521,-35.156250
8522,-35.156250
8523,-35.156250
8524,-35.156250
8525,-35.156250
8526,-39.062500
8527,-39.062500
8528,-39.062500
8529,-39.062500
8530,-39.062500
8531,-39.062500
8532,-39.062500
8533,-42.968750
8534,-42.968750
8535,-42.968750
8536,-42.968750
8537,-42.968750
8538,-42.968750
8539,-46.875000
8540,-46.875000
8541,-46.875000
8542,-46.875000
8543,-46.875000
8544,-46.875000
8545,-46.875000
8546,-50.781250
8547,-50.781250
8548,-50.781250
8549,-50.781250
8550,-50.781250
8551,-50.781250
8552,-50.781250
8553,-54.687500
8554,-54.687500
8555,-54.687500
8556,-54.687500
8557,-54.687500
8558,-54.687500
8559,-54.687500
8560,-58.593750
8561,-58.593750
8562,-58.593750
8563,-58.593750
8564,-58.593750
8565,-58.593750
8566,-58.593750
8567,-58.593750
8568,-62.500000
8569,-62.500000
8570,-62.500000
8571,-62.500000
8572,-62.500000
8573,-62.500000
8574,-62.500000
8575,-62.500000
8576,-66.406250
8577,-66.406250
8578,-66.406250
8579,-66.406250
8580,-66.406250
8581,-66.406250
8582,-66.406250
8583,-70.312500
8584,-70.312500
8585,-70.312500
8586,-70.312500
8587,-70.312500
8588,-70.312500
8589,-70.312500
8590,-70.312500
8591,-74.218750
8592,-74.218750
8593,-74.218750
8594,-74.218750
8595,-74.218750
8596,-74.218750
8597,-74.218750
8598,-74.218750
8599,-78.125000
8600,-78.125000
8601,-78.125000
8602,-78.125000
8603,-78.125000
8604,-78.125000
8605,-78.125000
8606,-82.031250
8607,-82.031250
8608,-82.031250
8609,-82.031250
8610,-82.031250
8611,-82.031250
8612,-82.031250
8613,-82.031250
8614,-82.031250
8615,-82.031250
8616,-85.937500
8617,-85.937500
8618,-85.937500
8619,-85.937500
8620,-85.937500
8621,-85.937500
8622,-85.937500
8623,-85.937500
8624,-85.937500
8625,-85.937500
8626,-89.843750
8627,-89.843750
8628,-89.843750
8629,-89.843750
8630,-89.843750
8631,-89.843750
8632,-89.843750
8633,-93.750000
8634,-89.843750
8635,-93.750000
8636,-93.750000
8637,-93.750000
8638,-93.750000
8639,-93.750000
8640,-93.750000
8641,-93.750000
8642,-93.750000
8643,-93.750000
8644,-93.750000
8645,-93.750000
8646,-97.656250
8647,-97.656250
8648,-97.656250
8649,-97.656250
8650,-97.656250
8651,-97.656250
8652,-97.656250
8653,-97.656250
8654,-97.656250
8655,-97.656250
8656,-97.656250
8657,-101.562500
8658,-97.656250
8659,-97.656250
8660,-97.656250
8661,-101.562500
8662,-101.562500
8663,-101.562500
8664,-101.562500
8665,-101.562500
8666,-101.562500
8667,-101.562500
8668,-101.562500
8669,-101.562500
8670,-101.562500
8671,-101.562500
8672,-101.562500
8673,-101.562500
8674,-101.562500
8675,-105.468750
8676,-105.468750
8677,-105.468750
8678,-105.468750
8679,-105.468750
8680,-105.468750
8681,-105.468750
8682,-105.468750
8683,-105.468750
8684,-105.468750
8685,-105.468750
8686,-105.468750
8687,-105.468750
8688,-105.468750
8689,-105.468750
8690,-105.468750
8691,-105.468750
8692,-105.468750
8693,-105.468750
8694,-105.468750
8695,-105.468750
8696,-105.468750
8697,-105.468750
8698,-109.375000
8699,-109.375000
8700,-105.468750
8701,-109.375000
8702,-105.468750
8703,-109.375000
8704,-109.375000
8705,-109.375000
8706,-109.375000
8707,-109.375000
8708,-109.375000
8709,-109.375000
8710,-109.375000
8711,-109.375000
8712,-109.375000
8713,-109.375000
8714,-109.375000
8715,-109.375000
8716,-109.375000
8717,-109.375000
8718,-109.375000
8719,-109.375000
8720,-109.375000
8721,-109.375000
8722,-109.375000
8723,-109.375000
8724,-109.375000
8725,-109.375000
8726,-109.375000
8727,-109.375000
8728,-109.375000
8729,-109.375000
8730,-109.375000
8731,-109.375000
8732,-109.375000
8733,-109.375000
8734,-109.375000
8735,-109.375000
8736,-109.375000
8737,-109.375000
8738,-109.375000
8739,-109.375000
8740,-109.375000
8741,-109.375000
8742,-109.375000
8743,-109.375000
8744,-109.375000
8745,-109.375000
8746,-109.375000
8747,-109.375000
8748,-109.375000
8749,-109.375000
8750,-109.375000
8751,-109.375000
8752,-109.375000
8753,-109.375000
8754,-109.375000
8755,-109.375000
8756,-109.375000
8757,-109.375000
8758,-109.375000
8759,-109.375000
8760,-105.468750
8761,-109.375000
8762,-109.375000
8763,-109.375000
8764,-109.375000
8765,-105.468750
8766,-105.468750
8767,-109.375000
8768,-105.468750
8769,-105.468750
8770,-105.468750
8771,-105.468750
8772,-105.468750
8773,-105.468750
8774,-105.468750
8775,-105.468750
8776,-105.468750
8777,-105.468750
8778,-105.468750
8779,-105.468750
8780,-105.468750
8781,-105.468750
8782,-105.468750
8783,-105.468750
8784,-101.562500
8785,-105.468750
8786,-105.468750
8787,-101.562500
8788,-101.562500
8789,-101.562500
8790,-101.562500
8791,-101.562500
8792,-101.562500
8793,-101.562500
8794,-101.562500
8795,-101.562500
8796,-101.562500
8797,-101.562500
8798,-101.562500
8799,-101.562500
8800,-101.562500
8801,-97.656250
8802,-97.656250
8803,-97.656250
8804,-97.656250
8805,-97.656250
8806,-97.656250
8807,-97.656250
8808,-97.656250
8809,-97.656250
8810,-97.656250
8811,-97.656250
8812,-97.656250
8813,-93.750000
8814,-93.750000
8815,-93.750000
8816,-93.750000
8817,-93.750000
8818,-93.750000
8819,-93.750000
8820,-93.750000
8821,-93.750000
8822,-93.750000
8823,-93.750000
8824,-93.750000
8825,-89.843750
8826,-89.843750
8827,-89.843750
8828,-89.843750
8829,-89.843750
8830,-89.843750
8831,-89.843750
8832,-89.843750
8833,-89.843750
8834,-89.843750
8835,-89.843750
8836,-85.937500
8837,-85.937500
8838,-85.937500
8839,-85.937500
8840,-85.937500
8841,-85.937500
8842,-85.937500
8843,-85.937500
8844,-85.937500
8845,-82.031250
8846,-82.031250
8847,-82.031250
8848,-82.031250
8849,-82.031250
8850,-82.031250
8851,-82.031250
8852,-82.031250
8853,-82.031250
8854,-78.125000
8855,-78.125000
8856,-78.125000
8857,-78.125000
8858,-78.125000
8859,-78.125000
8860,-78.125000
8861,-78.125000
8862,-74.218750
8863,-74.218750
8864,-74.218750
8865,-74.218750
8866,-74.218750
8867,-74.218750
8868,-74.218750
8869,-70.312500
8870,-70.312500
8871,-70.312500
8872,-70.312500
8873,-70.312500
8874,-70.312500
8875,-70.312500
8876,-70.312500
8877,-66.406250
8878,-66.406250
8879,-66.406250
8880,-66.406250
8881,-66.406250
8882,-66.406250
8883,-66.406250
8884,-62.500000
8885,-62.500000
8886,-62.500000
8887,-62.500000
8888,-62.500000
8889,-62.500000
8890,-62.500000
8891,-62.500000
8892,-58.593750
8893,-58.593750
8894,-58.593750
8895,-58.593750
8896,-58.593750
8897,-58.593750
8898,-58.593750
8899,-54.687500
8900,-54.687500
8901,-54.687500
8902,-54.687500
8903,-54.687500
8904,-54.687500
8905,-54.687500
8906,-50.781250
8907,-50.781250
8908,-50.781250
8909,-50.781250
8910,-50.781250
8911,-50.781250
8912,-50.781250
8913,-50.781250
8914,-50.781250
8915,-46.875000
8916,-46.875000
8917,-46.875000
8918,-46.875000
8919,-42.968750
8920,-46.875000
8921,-42.968750
8922,-42.968750
8923,-42.968750
8924,-42.968750
8925,-42.968750
8926,-42.968750
8927,-39.062500
8928,-39.062500
8929,-39.062500
8930,-39.062500
8931,-39.062500
8932,-39.062500
8933,-39.062500
8934,-35.156250
8935,-35.156250
8936,-35.156250
8937,-35.156250
8938,-35.156250
8939,-35.156250
8940,-35.156250
8941,-35.156250
8942,-31.250000
8943,-31.250000
8944,-31.250000
8945,-31.250000
8946,-31.250000
8947,-31.250000
8948,-27.343750
8949,-27.343750
8950,-27.343750
8951,-27.343750
8952,-27.343750
8953,-27.343750
8954,-23.437500
8955,-23.437500
8956,-23.437500
8957,-23.437500
8958,-23.437500
8959,-23.437500
8960,-19.531250
8961,-19.531250
8962,-19.531250
8963,-19.531250
8964,-19.531250
8965,-19.531250
8966,-15.625000
8967,-15.625000
8968,-15.625000
8969,-15.625000
8970,-15.625000
8971,-15.625000
8972,-11.718750
8973,-11.718750
8974,-11.718750
8975,-11.718750
8976,-11.718750
8977,-11.718750
8978,-11.718750
8979,-7.812500
8980,-7.812500
8981,-7.812500
8982,-7.812500
8983,-7.812500
8984,-7.812500
8985,-7.812500
8986,-3.906250
8987,-3.906250
8988,-3.906250
8989,-3.906250
8990,-3.906250
8991,-3.906250
8992,-3.906250
8993,0.000000
8994,0.000000
8995,0.000000
8996,0.000000
8997,0.000000
8998,0.000000
8999,3.906250
9000,3.906250
9001,3.906250
9002,3.906250
9003,3.906250
9004,3.906250
9005,3.906250
9006,3.906250
9007,7.812500
9008,7.812500
9009,7.812500
9010,7.812500
9011,7.812500
9012,7.812500
9013,11.718750
9014,11.718750
9015,11.718750
9016,11.718750
9017,11.718750
9018,15.625000
9019,15.625000
9020,15.625000
9021,15.625000
9022,15.625000
9023,15.625000
9024,15.625000
9025,15.625000
9026,15.625000
9027,19.531250
9028,19.531250
9029,19.531250
9030,19.531250
9031,19.531250
9032,19.531250
9033,19.531250
9034,19.531250
9035,23.437500
9036,23.437500
9037,23.437500
9038,23.437500
9039,23.437500
9040,23.437500
9041,27.343750
9042,27.343750
9043,27.343750
9044,27.343750
9045,27.343750
9046,27.343750
9047,27.343750
9048,27.343750
9049,27.343750
9050,31.250000
9051,31.250000
9052,31.250000
9053,31.250000
9054,31.250000
9055,31.250000
9056,31.250000
9057,31.250000
9058,35.156250
9059,35.156250
9060,35.156250
9061,35.156250
9062,35.156250
9063,35.156250
9064,35.156250
9065,35.156250
9066,39.062500
9067,39.062500
9068,39.062500
9069,39.062500
9070,39.062500
9071,39.062500
9072,39.062500
9073,42.968750
9074,39.062500
9075,42.968750
9076,42.968750
9077,42.968750
9078,42.968750
9079,42.968750
9080,42.968750
9081,42.968750
9082,46.875000
9083,46.875000
9084,46.875000
9085,46.875000
9086,46.875000
9087,46.875000
9088,46.875000
9089,46.875000
9090,46.875000
9091,46.875000
9092,50.781250
9093,50.781250
9094,50.781250
9095,50.781250
9096,50.781250
9097,50.781250
9098,50.781250
9099,50.781250
9100,50.781250
9101,54.687500
9102,54.687500
9103,54.687500
9104,54.687500
9105,54.687500
9106,54.687500
9107,54.687500
9108,54.687500
9109,54.687500
9110,54.687500
9111,54.687500
9112,58.593750
9113,58.593750
9114,58.593750
9115,58.593750
9116,58.593750
9117,58.593750
9118,58.593750
9119,58.593750
9120,58.593750
9121,58.593750
9122,58.593750
9123,62.500000
9124,62.500000
9125,62.500000
9126,62.500000
9127,62.500000
9128,62.500000
9129,62.500000
9130,62.500000
9131,62.500000
9132,62.500000
9133,62.500000
9134,62.500000
9135,62.500000
9136,62.500000
9137,62.500000
9138,66.406250
9139,66.406250
9140,66.406250
9141,66.406250
9142,66.406250
9143,66.406250
9144,66.406250
9145,66.406250
9146,66.406250
9147,66.406250
9148,66.406250
9149,66.406250
9150,66.406250
9151,70.312500
9152,70.312500
9153,70.312500
9154,70.312500
9155,70.312500
9156,70.312500
9157,70.312500
9158,70.312500
9159,70.312500
9160,70.312500
9161,70.312500
9162,70.312500
9163,70.312500
9164,70.312500
9165,70.312500
9166,70.312500
9167,70.312500
9168,70.312500
9169,70.312500
9170,70.312500
9171,70.312500
9172,70.312500
9173,70.312500
9174,74.218750
9175,74.218750
9176,74.218750
9177,70.312500
9178,74.218750
9179,74.218750
9180,70.312500
9181,74.218750
9182,74.218750
9183,74.218750
9184,74.218750
9185,74.218750
9186,74.218750
9187,74.218750
9188,74.218750
9189,74.218750
9190,74.218750
9191,78.125000
9192,74.218750
9193,74.218750
9194,74.218750
9195,74.218750
9196,74.218750
9197,74.218750
9198,74.218750
9199,74.218750
9200,74.218750
9201,74.218750
9202,74.218750
9203,74.218750
9204,74.218750
9205,74.218750
9206,74.218750
9207,74.218750
9208,74.218750
9209,74.218750
9210,78.125000
9211,74.218750
9212,74.218750
9213,74.218750
9214,74.218750
9215,74.218750
9216,74.218750
9217,74.218750
9218,74.218750
9219,74.218750
9220,74.218750
9221,78.125000
9222,74.218750
9223,74.218750
9224,74.218750
9225,74.218750
9226,74.218750
9227,78.125000
9228,78.125000
9229,74.218750
9230,74.218750
9231,74.218750
9232,74.218750
9233,74.218750
9234,74.218750
9235,74.218750
9236,74.218750
9237,78.125000
9238,78.125000
9239,74.218750
9240,74.218750
9241,74.218750
9242,74.218750
9243,74.218750
9244,74.218750
9245,74.218750
9246,74.218750
9247,74.218750
9248,74.218750
9249,74.218750
9250,74.218750
9251,74.218750
9252,74.218750
9253,74.218750
9254,74.218750
9255,74.218750
9256,74.218750
9257,74.218750
9258,74.218750
9259,74.218750
9260,74.218750
9261,74.218750
9262,74.218750
9263,74.218750
9264,74.218750
9265,74.218750
9266,74.218750
9267,74.218750
9268,74.218750
9269,70.312500
9270,70.312500
9271,70.312500
9272,70.312500
9273,74.218750
9274,74.218750
9275,70.312500
9276,70.312500
9277,70.312500
9278,70.312500
9279,70.312500
9280,70.312500
9281,70.312500
9282,70.312500
9283,70.312500
9284,70.312500
9285,70.312500
9286,70.312500
9287,70.312500
9288,70.312500
9289,70.312500
9290,70.312500
9291,70.312500
9292,66.406250
9293,66.406250
9294,66.406250
9295,66.406250
9296,66.406250
9297,66.406250
9298,66.406250
9299,66.406250
9300,66.406250
9301,66.406250
9302,66.406250
9303,66.406250
9304,66.406250
9305,62.500000
9306,62.500000
9307,62.500000
9308,66.406250
9309,62.500000
9310,62.500000
9311,62.500000
9312,62.500000
9313,62.500000
9314,62.500000
9315,62.500000
9316,62.500000
9317,62.500000
9318,62.500000
9319,62.500000
9320,58.593750
9321,58.593750
9322,58.593750
9323,58.593750
9324,58.593750
9325,58.593750
9326,58.593750
9327,58.593750
9328,58.593750
9329,58.593750
9330,54.687500
9331,58.593750
9332,58.593750
9333,58.593750
9334,54.687500
9335,54.687500
9336,54.687500
9337,54.687500
9338,54.687500
9339,54.687500
9340,54.687500
9341,54.687500
9342,54.687500
9343,50.781250
9344,54.687500
9345,54.687500
9346,50.781250
9347,50.781250
9348,50.781250
9349,50.781250
9350,50.781250
9351,50.781250
9352,50.781250
9353,50.781250
9354,50.781250
9355,46.875000
9356,50.781250
9357,46.875000
9358,46.875000
9359,46.875000
9360,46.875000
9361,46.875000
9362,46.875000
9363,46.875000
9364,46.875000
9365,42.968750
9366,42.968750
9367,42.968750
9368,42.968750
9369,42.968750
9370,42.968750
9371,42.968750
9372,42.968750
9373,42.968750
9374,42.968750
9375,39.062500
9376,39.062500
9377,39.062500
9378,39.062500
9379,39.062500
9380,39.062500
9381,39.062500
9382,39.062500
9383,35.156250
9384,35.156250
9385,35.156250
9386,35.156250
9387,35.156250
9388,35.156250
9389,35.156250
9390,35.156250
9391,31.250000
9392,31.250000
9393,35.156250
9394,31.250000
9395,31.250000
9396,31.250000
9397,31.250000
9398,31.250000
9399,27.343750
9400,27.343750
9401,27.343750
9402,27.343750
9403,27.343750
9404,27.343750
9405,27.343750
9406,23.437500
9407,23.437500
9408,23.437500
9409,23.437500
9410,23.437500
9411,23.437500
9412,23.437500
9413,23.437500
9414,19.531250
9415,19.531250
9416,19.531250
9417,19.531250
9418,19.531250
9419,19.531250
9420,15.625000
9421,19.531250
9422,15.625000
9423,15.625000
9424,15.625000
9425,15.625000
9426,15.625000
9427,15.625000
9428,15.625000
9429,11.718750
9430,11.718750
9431,11.718750
9432,11.718750
9433,11.718750
9434,11.718750
9435,11.718750
9436,7.812500
9437,7.812500
9438,7.812500
9439,7.812500
9440,7.812500
9441,3.906250
9442,3.906250
9443,3.906250
9444,3.906250
9445,3.906250
9446,3.906250
9447,3.906250
9448,3.906250
9449,0.000000
9450,0.000000
9451,0.000000
9452,0.000000
9453,0.000000
9454,0.000000
9455,0.000000
9456,0.000000
9457,-3.906250
9458,-3.906250
9459,-3.906250
9460,-3.906250
9461,-3.906250
9462,-3.906250
9463,-3.906250
9464,-7.812500
9465,-7.812500
9466,-7.812500
9467,-7.812500
9468,-7.812500
9469,-7.812500
9470,-11.718750
9471,-11.718750
9472,-11.718750
9473,-11.718750
9474,-11.718750
9475,-11.718750
9476,-11.718750
9477,-15.625000
9478,-15.625000
9479,-15.625000
9480,-15.625000
9481,-15.625000
9482,-19.531250
9483,-19.531250
9484,-19.531250
9485,-19.531250
9486,-19.531250
9487,-19.531250
9488,-19.531250
9489,-19.531250
9490,-23.437500
9491,-23.437500
9492,-23.437500
9493,-23.437500
9494,-23.437500
9495,-23.437500
9496,-27.343750
9497,-27.343750
9498,-27.343750
9499,-27.343750
9500,-27.343750
9501,-27.343750
9502,-31.250000
9503,-31.250000
9504,-31.250000
9505,-31.250000
9506,-31.250000
9507,-31.250000
9508,-31.250000
9509,-31.250000
9510,-35.156250
9511,-35.156250
9512,-35.156250
9513,-35.156250
9514,-35.156250
9515,-35.156250
9516,-39.062500
9517,-39.062500
9518,-39.062500
9519,-39.062500
9520,-39.062500
9521,-39.062500
9522,-42.968750
9523,-42.968750
9524,-42.968750
9525,-42.968750
9526,-42.968750
9527,-42.968750
9528,-42.968750
9529,-46.875000
9530,-46.875000
9531,-46.875000
9532,-46.875000
9533,-46.875000
9534,-46.875000
9535,-50.781250
9536,-50.781250
9537,-50.781250
9538,-50.781250
9539,-50.781250
9540,-50.781250
9541,-54.687500
9542,-54.687500
9543,-54.687500
9544,-54.687500
9545,-54.687500
9546,-54.687500
9547,-54.687500
9548,-54.687500
9549,-58.593750
9550,-58.593750
9551,-58.593750
9552,-58.593750
9553,-58.593750
9554,-58.593750
9555,-58.593750
9556,-58.593750
9557,-62.500000
9558,-62.500000
9559,-62.500000
9560,-62.500000
9561,-62.500000
9562,-62.500000
9563,-62.500000
9564,-62.500000
9565,-66.406250
9566,-66.406250
9567,-66.406250
9568,-66.406250
9569,-66.406250
9570,-66.406250
9571,-70.312500
9572,-70.312500
9573,-70.312500
9574,-70.312500
9575,-70.312500
9576,-70.312500
9577,-70.312500
9578,-70.312500
9579,-74.218750
9580,-74.218750
9581,-74.218750
9582,-74.218750
9583,-74.218750
9584,-74.218750
9585,-74.218750
9586,-74.218750
9587,-78.125000
9588,-78.125000
9589,-78.125000
9590,-78.125000
9591,-78.125000
9592,-78.125000
9593,-78.125000
9594,-78.125000
9595,-78.125000
9596,-82.031250
9597,-82.031250
9598,-82.031250
9599,-82.031250
9600,-82.031250
9601,-82.031250
9602,-85.937500
9603,-82.031250
9604,-85.937500
9605,-85.937500
9606,-85.937500
9607,-85.937500
9608,-85.937500
9609,-85.937500
9610,-85.937500
9611,-85.937500
9612,-89.843750
9613,-89.843750
9614,-89.843750
9615,-89.843750
9616,-89.843750
9617,-89.843750
9618,-89.843750
9619,-89.843750
9620,-89.843750
9621,-89.843750
9622,-89.843750
9623,-89.843750
9624,-89.843750
9625,-93.750000
9626,-93.750000
9627,-93.750000
9628,-93.750000
9629,-93.750000
9630,-93.750000
9631,-93.750000
9632,-93.750000
9633,-93.750000
9634,-93.750000
9635,-97.656250
9636,-97.656250
9637,-97.656250
9638,-93.750000
9639,-97.656250
9640,-97.656250
9641,-97.656250
9642,-97.656250
9643,-97.656250
9644,-97.656250
9645,-97.656250
9646,-97.656250
9647,-97.656250
9648,-97.656250
9649,-101.562500
9650,-101.562500
9651,-101.562500
9652,-101.562500
9653,-101.562500
9654,-101.562500
9655,-101.562500
9656,-101.562500
9657,-101.562500
9658,-101.562500
9659,-101.562500
9660,-101.562500
9661,-105.468750
9662,-101.562500
9663,-105.468750
9664,-109.375000
9665,-105.468750
9666,-105.468750
9667,-105.468750
9668,-105.468750
9669,-105.468750
9670,-105.468750
9671,-105.468750
9672,-105.468750
9673,-105.468750
9674,-105.468750
9675,-105.468750
9676,-105.468750
9677,-105.468750
9678,-105.468750
9679,-105.468750
9680,-105.468750
9681,-109.375000
9682,-109.375000
9683,-109.375000
9684,-105.468750
9685,-109.375000
9686,-109.375000
9687,-109.375000
9688,-109.375000
9689,-109.375000
9690,-109.375000
9691,-109.375000
9692,-109.375000
9693,-109.375000
9694,-109.375000
9695,-109.375000
9696,-109.375000
9697,-109.375000
9698,-109.375000
9699,-109.375000
9700,-109.375000
9701,-109.375000
9702,-109.375000
9703,-109.375000
9704,-109.375000
9705,-109.375000
9706,-109.375000
9707,-109.375000
9708,-109.375000
9709,-109.375000
9710,-109.375000
9711,-109.375000
9712,-109.375000
9713,-109.375000
9714,-109.375000
9715,-109.375000
9716,-109.375000
9717,-109.375000
9718,-109.375000
9719,-109.375000
9720,-109.375000
9721,-109.375000
9722,-109.375000
9723,-109.375000
9724,-109.375000
9725,-109.375000
9726,-109.375000
9727,-109.375000
9728,-109.375000
9729,-109.375000
9730,-109.375000
9731,-109.375000
9732,-109.375000
9733,-109.375000
9734,-109.375000
9735,-109.375000
9736,-109.375000
9737,-109.375000
9738,-109.375000
9739,-109.375000
9740,-109.375000
9741,-109.375000
9742,-109.375000
9743,-109.375000
9744,-109.375000
9745,-109.375000
9746,-109.375000
9747,-109.375000
9748,-109.375000
9749,-105.468750
9750,-105.468750
9751,-109.375000
9752,-105.468750
9753,-105.468750
9754,-105.468750
9755,-105.468750
9756,-105.468750
9757,-105.468750
9758,-105.468750
9759,-105.468750
9760,-105.468750
9761,-105.468750
9762,-105.468750
9763,-105.468750
9764,-105.468750
9765,-105.468750
9766,-105.468750
9767,-105.468750
9768,-105.468750
9769,-105.468750
9770,-105.468750
9771,-105.468750
9772,-101.562500
9773,-101.562500
9774,-105.468750
9775,-105.468750
9776,-101.562500
9777,-101.562500
9778,-101.562500
9779,-101.562500
9780,-101.562500
9781,-101.562500
9782,-101.562500
9783,-101.562500
9784,-101.562500
9785,-101.562500
9786,-101.562500
9787,-101.562500
9788,-97.656250
9789,-97.656250
9790,-97.656250
9791,-97.656250
9792,-97.656250
9793,-97.656250
9794,-97.656250
9795,-97.656250
9796,-97.656250
9797,-97.656250
9798,-97.656250
9799,-97.656250
9800,-93.750000
9801,-97.656250
9802,-93.750000
9803,-93.750000
9804,-93.750000
9805,-93.750000
9806,-93.750000
9807,-93.750000
9808,-93.750000
9809,-93.750000
9810,-93.750000
9811,-93.750000
9812,-93.750000
9813,-89.843750
9814,-89.843750
9815,-89.843750
9816,-89.843750
9817,-89.843750
9818,-89.843750
9819,-89.843750
9820,-89.843750
9821,-89.843750
9822,-89.843750
9823,-89.843750
9824,-85.937500
9825,-85.937500
9826,-85.937500
9827,-85.937500
9828,-85.937500
9829,-85.937500
9830,-85.937500
9831,-85.937500
9832,-85.937500
9833,-85.937500
9834,-82.031250
9835,-82.031250
9836,-82.031250
9837,-82.031250
9838,-82.031250
9839,-82.031250
9840,-82.031250
9841,-82.031250
9842,-82.031250
9843,-82.031250
9844,-78.125000
9845,-78.125000
9846,-78.125000
9847,-78.125000
9848,-78.125000
9849,-78.125000
9850,-74.218750
9851,-74.218750
9852,-74.218750
9853,-74.218750
9854,-74.218750
9855,-74.218750
9856,-74.218750
9857,-74.218750
9858,-74.218750
9859,-74.218750
9860,-70.312500
9861,-70.312500
9862,-70.312500
9863,-70.312500
9864,-70.312500
9865,-70.312500
9866,-66.406250
9867,-70.312500
9868,-66.406250
9869,-66.406250
9870,-66.406250
9871,-66.406250
9872,-66.406250
9873,-66.406250
9874,-62.500000
9875,-62.500000
9876,-62.500000
9877,-62.500000
9878,-62.500000
9879,-62.500000
9880,-62.500000
9881,-62.500000
9882,-58.593750
9883,-58.593750
9884,-58.593750
9885,-58.593750
9886,-58.593750
9887,-54.687500
9888,-54.687500
9889,-54.687500
9890,-54.687500
9891,-54.687500
9892,-54.687500
9893,-54.687500
9894,-50.781250
9895,-50.781250
9896,-50.781250
9897,-50.781250
9898,-50.781250
9899,-50.781250
9900,-50.781250
9901,-50.781250
9902,-46.875000
9903,-46.875000
9904,-46.875000
9905,-46.875000
9906,-46.875000
9907,-46.875000
9908,-42.968750
9909,-42.968750
9910,-46.875000
9911,-42.968750
9912,-42.968750
9913,-42.968750
9914,-42.968750
9915,-42.968750
9916,-39.062500
9917,-39.062500
9918,-39.062500
9919,-39.062500
9920,-39.062500
9921,-39.062500
9922,-35.156250
9923,-35.156250
9924,-35.156250
9925,-35.156250
9926,-35.156250
9927,-35.156250
9928,-35.156250
9929,-35.156250
9930,-31.250000
9931,-31.250000
9932,-31.250000
9933,-31.250000
9934,-31.250000
9935,-27.343750
9936,-27.343750
9937,-27.343750
9938,-27.343750
9939,-27.343750
9940,-27.343750
9941,-27.343750
9942,-23.437500
9943,-27.343750
9944,-23.437500
9945,-23.437500
9946,-23.437500
9947,-23.437500
9948,-19.531250
9949,-19.531250
9950,-19.531250
9951,-19.531250
9952,-19.531250
9953,-19.531250
9954,-19.531250
9955,-19.531250
9956,-15.625000
9957,-15.625000
9958,-15.625000
9959,-15.625000
9960,-15.625000
9961,-15.625000
9962,-11.718750
9963,-11.718750
9964,-11.718750
9965,-11.718750
9966,-11.718750
9967,-11.718750
9968,-7.812500
9969,-7.812500
9970,-7.812500
9971,-7.812500
9972,-7.812500
9973,-7.812500
9974,-7.812500
9975,-7.812500
9976,-3.906250
9977,-3.906250
9978,-3.906250
9979,-3.906250
9980,0.000000
9981,-3.906250
9982,0.000000
9983,0.000000
9984,0.000000
9985,0.000000
9986,0.000000
9987,0.000000
9988,3.906250
9989,3.906250
9990,3.906250
9991,3.906250
9992,3.906250
9993,3.906250
9994,3.906250
9995,7.812500
9996,7.812500
9997,7.812500
9998,7.812500
9999,7.812500
10000,7.812500
