Channel              :,CH1
Frequency            :,1.013kHz
Period               :,0.987ms
PK-PK                :,54.69mV
Probe attenuation    :,1X
Voltage per ADC value:,0.244141mV
Time interval        :,1.00000us

index,CH1_Voltage(mV)
1,-31.250000
2,-31.250000
3,-31.250000
4,-31.250000
5,-31.250000
6,-31.250000
7,-31.250000
8,-31.250000
9,-31.250000
10,-27.343750
11,-31.250000
12,-27.343750
13,-31.250000
14,-31.250000
15,-27.343750
16,-27.343750
17,-27.343750
18,-27.343750
19,-27.343750
20,-27.343750
21,-27.343750
22,-27.343750
23,-27.343750
24,-27.343750
25,-27.343750
26,-27.343750
27,-27.343750
28,-27.343750
29,-27.343750
30,-27.343750
31,-27.343750
32,-27.343750
33,-27.343750
34,-27.343750
35,-27.343750
36,-27.343750
37,-23.437500
38,-27.343750
39,-23.437500
40,-23.437500
41,-23.437500
42,-23.437500
43,-23.437500
44,-23.437500
45,-23.437500
46,-23.437500
47,-23.437500
48,-23.437500
49,-23.437500
50,-23.437500
51,-23.437500
52,-23.437500
53,-23.437500
54,-23.437500
55,-23.437500
56,-23.437500
57,-23.437500
58,-23.437500
59,-19.531250
60,-19.531250
61,-19.531250
62,-19.531250
63,-19.531250
64,-19.531250
65,-19.531250
66,-19.531250
67,-19.531250
68,-19.531250
69,-19.531250
70,-19.531250
71,-19.531250
72,-19.531250
73,-19.531250
74,-19.531250
75,-19.531250
76,-19.531250
77,-19.531250
78,-15.625000
79,-15.625000
80,-15.625000
81,-19.531250
82,-15.625000
83,-15.625000
84,-15.625000
85,-15.625000
86,-15.625000
87,-15.625000
88,-15.625000
89,-15.625000
90,-15.625000
91,-15.625000
92,-15.625000
93,-15.625000
94,-15.625000
95,-15.625000
96,-15.625000
97,-15.625000
98,-15.625000
99,-11.718750
100,-15.625000
101,-15.625000
102,-11.718750
103,-11.718750
104,-11.718750
105,-11.718750
106,-11.718750
107,-11.718750
108,-11.718750
109,-11.718750
110,-11.718750
111,-11.718750
112,-11.718750
113,-11.718750
114,-11.718750
115,-11.718750
116,-11.718750
117,-11.718750
118,-11.718750
119,-11.718750
120,-11.718750
121,-11.718750
122,-11.718750
123,-7.812500
124,-7.812500
125,-7.812500
126,-7.812500
127,-7.812500
128,-7.812500
129,-7.812500
130,-7.812500
131,-7.812500
132,-7.812500
133,-7.812500
134,-7.812500
135,-7.812500
136,-7.812500
137,-7.812500
138,-7.812500
139,-7.812500
140,-7.812500
141,-7.812500
142,-7.812500
143,-7.812500
144,-7.812500
145,-7.812500
146,-7.812500
147,-7.812500
148,-3.906250
149,-3.906250
150,-3.906250
151,-3.906250
152,-3.906250
153,-3.906250
154,-3.906250
155,-3.906250
156,-3.906250
157,-3.906250
158,-3.906250
159,-3.906250
160,-3.906250
161,-3.906250
162,-3.906250
163,-3.906250
164,-3.906250
165,-3.906250
166,-3.906250
167,-3.906250
168,-3.906250
169,-3.906250
170,-3.906250
171,-3.906250
172,0.000000
173,0.000000
174,-3.906250
175,0.000000
176,0.000000
177,0.000000
178,0.000000
179,0.000000
180,0.000000
181,0.000000
182,0.000000
183,0.000000
184,0.000000
185,0.000000
186,0.000000
187,0.000000
188,0.000000
189,0.000000
190,0.000000
191,0.000000
192,0.000000
193,0.000000
194,0.000000
195,0.000000
196,0.000000
197,0.000000
198,0.000000
199,3.906250
200,3.906250
201,3.906250
202,3.906250
203,3.906250
204,3.906250
205,3.906250
206,3.906250
207,3.906250
208,3.906250
209,3.906250
210,3.906250
211,3.906250
212,3.906250
213,3.906250
214,3.906250
215,3.906250
216,3.906250
217,3.906250
218,3.906250
219,3.906250
220,3.906250
221,3.906250
222,3.906250
223,3.906250
224,3.906250
225,3.906250
226,7.812500
227,7.812500
228,7.812500
229,7.812500
230,7.812500
231,7.812500
232,3.906250
233,3.906250
234,3.906250
235,7.812500
236,7.812500
237,7.812500
238,7.812500
239,7.812500
240,7.812500
241,7.812500
242,7.812500
243,7.812500
244,7.812500
245,7.812500
246,7.812500
247,7.812500
248,7.812500
249,7.812500
250,7.812500
251,7.812500
252,7.812500
253,7.812500
254,7.812500
255,7.812500
256,7.812500
257,7.812500
258,7.812500
259,7.812500
260,7.812500
261,7.812500
262,7.812500
263,7.812500
264,7.812500
265,7.812500
266,7.812500
267,7.812500
268,7.812500
269,7.812500
270,7.812500
271,7.812500
272,7.812500
273,7.812500
274,7.812500
275,7.812500
276,7.812500
277,11.718750
278,11.718750
279,11.718750
280,11.718750
281,11.718750
282,7.812500
283,7.812500
284,11.718750
285,11.718750
286,11.718750
287,11.718750
288,11.718750
289,11.718750
290,11.718750
291,7.812500
292,7.812500
293,11.718750
294,11.718750
295,11.718750
296,11.718750
297,11.718750
298,11.718750
299,11.718750
300,11.718750
301,11.718750
302,11.718750
303,11.718750
304,11.718750
305,11.718750
306,11.718750
307,11.718750
308,11.718750
309,11.718750
310,11.718750
311,11.718750
312,11.718750
313,11.718750
314,11.718750
315,11.718750
316,11.718750
317,11.718750
318,11.718750
319,11.718750
320,11.718750
321,11.718750
322,11.718750
323,11.718750
324,11.718750
325,11.718750
326,11.718750
327,11.718750
328,11.718750
329,11.718750
330,11.718750
331,11.718750
332,11.718750
333,11.718750
334,11.718750
335,11.718750
336,11.718750
337,11.718750
338,11.718750
339,11.718750
340,11.718750
341,11.718750
342,11.718750
343,11.718750
344,11.718750
345,11.718750
346,11.718750
347,11.718750
348,11.718750
349,11.718750
350,11.718750
351,11.718750
352,11.718750
353,11.718750
354,11.718750
355,11.718750
356,11.718750
357,11.718750
358,11.718750
359,11.718750
360,11.718750
361,11.718750
362,11.718750
363,11.718750
364,11.718750
365,11.718750
366,11.718750
367,11.718750
368,11.718750
369,11.718750
370,11.718750
371,11.718750
372,11.718750
373,11.718750
374,11.718750
375,11.718750
376,11.718750
377,11.718750
378,11.718750
379,11.718750
380,11.718750
381,11.718750
382,11.718750
383,11.718750
384,11.718750
385,11.718750
386,11.718750
387,11.718750
388,11.718750
389,11.718750
390,11.718750
391,11.718750
392,7.812500
393,7.812500
394,11.718750
395,11.718750
396,11.718750
397,11.718750
398,11.718750
399,7.812500
400,7.812500
401,11.718750
402,7.812500
403,7.812500
404,7.812500
405,7.812500
406,7.812500
407,7.812500
408,7.812500
409,7.812500
410,7.812500
411,7.812500
412,7.812500
413,7.812500
414,7.812500
415,7.812500
416,7.812500
417,7.812500
418,7.812500
419,7.812500
420,7.812500
421,7.812500
422,7.812500
423,7.812500
424,7.812500
425,7.812500
426,7.812500
427,7.812500
428,7.812500
429,7.812500
430,7.812500
431,7.812500
432,7.812500
433,7.812500
434,7.812500
435,7.812500
436,7.812500
437,7.812500
438,7.812500
439,7.812500
440,7.812500
441,7.812500
442,3.906250
443,7.812500
444,7.812500
445,7.812500
446,7.812500
447,3.906250
448,7.812500
449,7.812500
450,3.906250
451,3.906250
452,3.906250
453,3.906250
454,3.906250
455,3.906250
456,3.906250
457,3.906250
458,3.906250
459,3.906250
460,3.906250
461,3.906250
462,3.906250
463,3.906250
464,3.906250
465,3.906250
466,3.906250
467,3.906250
468,3.906250
469,3.906250
470,3.906250
471,3.906250
472,3.906250
473,3.906250
474,3.906250
475,3.906250
476,3.906250
477,3.906250
478,3.906250
479,3.906250
480,3.906250
481,3.906250
482,3.906250
483,3.906250
484,3.906250
485,3.906250
486,3.906250
487,3.906250
488,3.906250
489,0.000000
490,0.000000
491,0.000000
492,0.000000
493,0.000000
494,0.000000
495,0.000000
496,0.000000
497,0.000000
498,0.000000
499,0.000000
500,0.000000
501,0.000000
502,0.000000
503,0.000000
504,0.000000
505,0.000000
506,0.000000
507,0.000000
508,0.000000
509,0.000000
510,0.000000
511,0.000000
512,0.000000
513,-3.906250
514,0.000000
515,0.000000
516,0.000000
517,0.000000
518,0.000000
519,0.000000
520,0.000000
521,-3.906250
522,-3.906250
523,-3.906250
524,-3.906250
525,-3.906250
526,-3.906250
527,-3.906250
528,-3.906250
529,-3.906250
530,-3.906250
531,-3.906250
532,-3.906250
533,-3.906250
534,-3.906250
535,-3.906250
536,-3.906250
537,-3.906250
538,-3.906250
539,-3.906250
540,-3.906250
541,-3.906250
542,-3.906250
543,-3.906250
544,-3.906250
545,-3.906250
546,-7.812500
547,-7.812500
548,-7.812500
549,-7.812500
550,-7.812500
551,-7.812500
552,-7.812500
553,-7.812500
554,-7.812500
555,-7.812500
556,-7.812500
557,-7.812500
558,-7.812500
559,-7.812500
560,-7.812500
561,-7.812500
562,-7.812500
563,-7.812500
564,-7.812500
565,-7.812500
566,-7.812500
567,-7.812500
568,-7.812500
569,-11.718750
570,-7.812500
571,-7.812500
572,-11.718750
573,-11.718750
574,-11.718750
575,-7.812500
576,-11.718750
577,-11.718750
578,-11.718750
579,-11.718750
580,-11.718750
581,-11.718750
582,-11.718750
583,-11.718750
584,-11.718750
585,-11.718750
586,-11.718750
587,-11.718750
588,-11.718750
589,-11.718750
590,-11.718750
591,-11.718750
592,-11.718750
593,-11.718750
594,-11.718750
595,-11.718750
596,-11.718750
597,-11.718750
598,-11.718750
599,-11.718750
600,-15.625000
601,-15.625000
602,-15.625000
603,-15.625000
604,-15.625000
605,-15.625000
606,-15.625000
607,-15.625000
608,-15.625000
609,-15.625000
610,-15.625000
611,-15.625000
612,-15.625000
613,-15.625000
614,-15.625000
615,-15.625000
616,-15.625000
617,-15.625000
618,-15.625000
619,-15.625000
620,-15.625000
621,-15.625000
622,-15.625000
623,-19.531250
624,-15.625000
625,-19.531250
626,-15.625000
627,-19.531250
628,-19.531250
629,-19.531250
630,-19.531250
631,-19.531250
632,-19.531250
633,-19.531250
634,-19.531250
635,-19.531250
636,-19.531250
637,-19.531250
638,-19.531250
639,-19.531250
640,-19.531250
641,-19.531250
642,-19.531250
643,-19.531250
644,-19.531250
645,-19.531250
646,-19.531250
647,-19.531250
648,-23.437500
649,-19.531250
650,-23.437500
651,-23.437500
652,-23.437500
653,-23.437500
654,-23.437500
655,-23.437500
656,-23.437500
657,-23.437500
658,-23.437500
659,-23.437500
660,-23.437500
661,-23.437500
662,-23.437500
663,-23.437500
664,-23.437500
665,-23.437500
666,-23.437500
667,-23.437500
668,-23.437500
669,-23.437500
670,-23.437500
671,-27.343750
672,-27.343750
673,-23.437500
674,-27.343750
675,-27.343750
676,-27.343750
677,-23.437500
678,-27.343750
679,-27.343750
680,-27.343750
681,-27.343750
682,-27.343750
683,-27.343750
684,-27.343750
685,-27.343750
686,-27.343750
687,-27.343750
688,-27.343750
689,-27.343750
690,-27.343750
691,-27.343750
692,-27.343750
693,-27.343750
694,-27.343750
695,-27.343750
696,-31.250000
697,-27.343750
698,-27.343750
699,-27.343750
700,-31.250000
701,-27.343750
702,-31.250000
703,-31.250000
704,-31.250000
705,-31.250000
706,-31.250000
707,-31.250000
708,-31.250000
709,-31.250000
710,-31.250000
711,-31.250000
712,-31.250000
713,-31.250000
714,-31.250000
715,-31.250000
716,-31.250000
717,-31.250000
718,-31.250000
719,-31.250000
720,-31.250000
721,-31.250000
722,-31.250000
723,-31.250000
724,-31.250000
725,-31.250000
726,-31.250000
727,-31.250000
728,-35.156250
729,-35.156250
730,-35.156250
731,-35.156250
732,-35.156250
733,-35.156250
734,-35.156250
735,-31.250000
736,-35.156250
737,-35.156250
738,-35.156250
739,-35.156250
740,-35.156250
741,-35.156250
742,-35.156250
743,-35.156250
744,-35.156250
745,-35.156250
746,-35.156250
747,-35.156250
748,-35.156250
749,-35.156250
750,-35.156250
751,-35.156250
752,-35.156250
753,-35.156250
754,-35.156250
755,-35.156250
756,-35.156250
757,-35.156250
758,-35.156250
759,-35.156250
760,-35.156250
761,-35.156250
762,-35.156250
763,-35.156250
764,-35.156250
765,-35.156250
766,-39.062500
767,-35.156250
768,-35.156250
769,-39.062500
770,-39.062500
771,-39.062500
772,-39.062500
773,-39.062500
774,-39.062500
775,-39.062500
776,-39.062500
777,-39.062500
778,-39.062500
779,-39.062500
780,-39.062500
781,-39.062500
782,-39.062500
783,-39.062500
784,-39.062500
785,-39.062500
786,-39.062500
787,-39.062500
788,-39.062500
789,-39.062500
790,-39.062500
791,-39.062500
792,-39.062500
793,-39.062500
794,-39.062500
795,-39.062500
796,-39.062500
797,-39.062500
798,-39.062500
799,-39.062500
800,-39.062500
801,-39.062500
802,-39.062500
803,-39.062500
804,-39.062500
805,-39.062500
806,-39.062500
807,-39.062500
808,-42.968750
809,-39.062500
810,-42.968750
811,-42.968750
812,-39.062500
813,-39.062500
814,-39.062500
815,-39.062500
816,-42.968750
817,-42.968750
818,-39.062500
819,-39.062500
820,-42.968750
821,-42.968750
822,-42.968750
823,-42.968750
824,-39.062500
825,-42.968750
826,-42.968750
827,-42.968750
828,-42.968750
829,-42.968750
830,-42.968750
831,-42.968750
832,-42.968750
833,-42.968750
834,-42.968750
835,-42.968750
836,-42.968750
837,-39.062500
838,-42.968750
839,-42.968750
840,-42.968750
841,-42.968750
842,-42.968750
843,-42.968750
844,-42.968750
845,-42.968750
846,-42.968750
847,-42.968750
848,-42.968750
849,-39.062500
850,-42.968750
851,-42.968750
852,-42.968750
853,-42.968750
854,-39.062500
855,-42.968750
856,-42.968750
857,-42.968750
858,-42.968750
859,-42.968750
860,-42.968750
861,-42.968750
862,-42.968750
863,-42.968750
864,-42.968750
865,-39.062500
866,-42.968750
867,-42.968750
868,-42.968750
869,-42.968750
870,-42.968750
871,-39.062500
872,-42.968750
873,-39.062500
874,-42.968750
875,-39.062500
876,-39.062500
877,-39.062500
878,-42.968750
879,-42.968750
880,-42.968750
881,-42.968750
882,-39.062500
883,-39.062500
884,-42.968750
885,-39.062500
886,-39.062500
887,-39.062500
888,-39.062500
889,-39.062500
890,-42.968750
891,-39.062500
892,-42.968750
893,-39.062500
894,-39.062500
895,-39.062500
896,-39.062500
897,-39.062500
898,-39.062500
899,-39.062500
900,-39.062500
901,-39.062500
902,-39.062500
903,-39.062500
904,-39.062500
905,-39.062500
906,-39.062500
907,-39.062500
908,-39.062500
909,-39.062500
910,-39.062500
911,-39.062500
912,-39.062500
913,-39.062500
914,-39.062500
915,-39.062500
916,-39.062500
917,-39.062500
918,-39.062500
919,-39.062500
920,-39.062500
921,-39.062500
922,-39.062500
923,-39.062500
924,-39.062500
925,-39.062500
926,-39.062500
927,-39.062500
928,-39.062500
929,-39.062500
930,-39.062500
931,-39.062500
932,-39.062500
933,-39.062500
934,-39.062500
935,-39.062500
936,-35.156250
937,-35.156250
938,-35.156250
939,-39.062500
940,-39.062500
941,-39.062500
942,-39.062500
943,-35.156250
944,-39.062500
945,-35.156250
946,-35.156250
947,-35.156250
948,-35.156250
949,-35.156250
950,-35.156250
951,-35.156250
952,-35.156250
953,-35.156250
954,-35.156250
955,-35.156250
956,-35.156250
957,-35.156250
958,-35.156250
959,-35.156250
960,-35.156250
961,-35.156250
962,-35.156250
963,-35.156250
964,-35.156250
965,-35.156250
966,-35.156250
967,-35.156250
968,-35.156250
969,-35.156250
970,-35.156250
971,-35.156250
972,-35.156250
973,-35.156250
974,-31.250000
975,-31.250000
976,-31.250000
977,-31.250000
978,-35.156250
979,-35.156250
980,-31.250000
981,-35.156250
982,-31.250000
983,-31.250000
984,-31.250000
985,-31.250000
986,-31.250000
987,-31.250000
988,-31.250000
989,-31.250000
990,-31.250000
991,-31.250000
992,-31.250000
993,-31.250000
994,-31.250000
995,-31.250000
996,-31.250000
997,-31.250000
998,-31.250000
999,-27.343750
1000,-31.250000
1001,-31.250000
1002,-27.343750
1003,-27.343750
1004,-27.343750
1005,-27.343750
1006,-27.343750
1007,-27.343750
1008,-27.343750
1009,-27.343750
1010,-27.343750
1011,-27.343750
1012,-27.343750
1013,-27.343750
1014,-27.343750
1015,-27.343750
1016,-27.343750
1017,-27.343750
1018,-27.343750
1019,-27.343750
1020,-27.343750
1021,-27.343750
1022,-27.343750
1023,-23.437500
1024,-23.437500
1025,-23.437500
1026,-27.343750
1027,-23.437500
1028,-27.343750
1029,-23.437500
1030,-23.437500
1031,-23.437500
1032,-23.437500
1033,-23.437500
1034,-23.437500
1035,-23.437500
1036,-23.437500
1037,-23.437500
1038,-23.437500
1039,-23.437500
1040,-23.437500
1041,-23.437500
1042,-23.437500
1043,-23.437500
1044,-23.437500
1045,-19.531250
1046,-23.437500
1047,-23.437500
1048,-23.437500
1049,-23.437500
1050,-19.531250
1051,-19.531250
1052,-19.531250
1053,-19.531250
1054,-19.531250
1055,-19.531250
1056,-19.531250
1057,-19.531250
1058,-19.531250
1059,-19.531250
1060,-19.531250
1061,-19.531250
1062,-19.531250
1063,-19.531250
1064,-19.531250
1065,-19.531250
1066,-19.531250
1067,-19.531250
1068,-19.531250
1069,-19.531250
1070,-19.531250
1071,-19.531250
1072,-19.531250
1073,-15.625000
1074,-15.625000
1075,-15.625000
1076,-15.625000
1077,-19.531250
1078,-15.625000
1079,-15.625000
1080,-15.625000
1081,-15.625000
1082,-15.625000
1083,-15.625000
1084,-15.625000
1085,-15.625000
1086,-15.625000
1087,-15.625000
1088,-15.625000
1089,-15.625000
1090,-15.625000
1091,-15.625000
1092,-11.718750
1093,-15.625000
1094,-11.718750
1095,-11.718750
1096,-11.718750
1097,-11.718750
1098,-11.718750
1099,-11.718750
1100,-11.718750
1101,-11.718750
1102,-11.718750
1103,-11.718750
1104,-11.718750
1105,-11.718750
1106,-11.718750
1107,-11.718750
1108,-11.718750
1109,-11.718750
1110,-11.718750
1111,-11.718750
1112,-7.812500
1113,-7.812500
1114,-7.812500
1115,-7.812500
1116,-7.812500
1117,-7.812500
1118,-7.812500
1119,-7.812500
1120,-7.812500
1121,-7.812500
1122,-7.812500
1123,-7.812500
1124,-7.812500
1125,-7.812500
1126,-7.812500
1127,-7.812500
1128,-7.812500
1129,-7.812500
1130,-7.812500
1131,-7.812500
1132,-3.906250
1133,-3.906250
1134,-7.812500
1135,-3.906250
1136,-3.906250
1137,-3.906250
1138,-3.906250
1139,-3.906250
1140,-3.906250
1141,-3.906250
1142,-3.906250
1143,-3.906250
1144,-3.906250
1145,-3.906250
1146,-3.906250
1147,-3.906250
1148,-3.906250
1149,-3.906250
1150,-3.906250
1151,-3.906250
1152,-3.906250
1153,-3.906250
1154,0.000000
1155,-3.906250
1156,-3.906250
1157,-3.906250
1158,-3.906250
1159,0.000000
1160,-3.906250
1161,0.000000
1162,0.000000
1163,0.000000
1164,0.000000
1165,0.000000
1166,0.000000
1167,0.000000
1168,0.000000
1169,0.000000
1170,0.000000
1171,0.000000
1172,0.000000
1173,0.000000
1174,0.000000
1175,0.000000
1176,0.000000
1177,0.000000
1178,0.000000
1179,0.000000
1180,0.000000
1181,0.000000
1182,3.906250
1183,0.000000
1184,0.000000
1185,0.000000
1186,3.906250
1187,3.906250
1188,0.000000
1189,3.906250
1190,3.906250
1191,3.906250
1192,3.906250
1193,3.906250
1194,3.906250
1195,3.906250
1196,3.906250
1197,3.906250
1198,3.906250
1199,3.906250
1200,3.906250
1201,3.906250
1202,3.906250
1203,3.906250
1204,3.906250
1205,3.906250
1206,3.906250
1207,3.906250
1208,3.906250
1209,3.906250
1210,3.906250
1211,3.906250
1212,3.906250
1213,3.906250
1214,3.906250
1215,3.906250
1216,3.906250
1217,7.812500
1218,3.906250
1219,7.812500
1220,7.812500
1221,7.812500
1222,7.812500
1223,7.812500
1224,7.812500
1225,7.812500
1226,7.812500
1227,7.812500
1228,7.812500
1229,7.812500
1230,7.812500
1231,7.812500
1232,7.812500
1233,7.812500
1234,7.812500
1235,7.812500
1236,7.812500
1237,7.812500
1238,7.812500
1239,7.812500
1240,7.812500
1241,7.812500
1242,7.812500
1243,7.812500
1244,7.812500
1245,7.812500
1246,7.812500
1247,7.812500
1248,7.812500
1249,7.812500
1250,7.812500
1251,7.812500
1252,7.812500
1253,7.812500
1254,7.812500
1255,7.812500
1256,7.812500
1257,7.812500
1258,7.812500
1259,7.812500
1260,7.812500
1261,11.718750
1262,11.718750
1263,11.718750
1264,11.718750
1265,11.718750
1266,7.812500
1267,7.812500
1268,11.718750
1269,11.718750
1270,11.718750
1271,11.718750
1272,11.718750
1273,11.718750
1274,11.718750
1275,11.718750
1276,11.718750
1277,11.718750
1278,11.718750
1279,11.718750
1280,11.718750
1281,11.718750
1282,11.718750
1283,11.718750
1284,11.718750
1285,11.718750
1286,11.718750
1287,11.718750
1288,11.718750
1289,11.718750
1290,11.718750
1291,11.718750
1292,11.718750
1293,11.718750
1294,11.718750
1295,11.718750
1296,11.718750
1297,7.812500
1298,11.718750
1299,11.718750
1300,11.718750
1301,11.718750
1302,11.718750
1303,11.718750
1304,11.718750
1305,11.718750
1306,11.718750
1307,11.718750
1308,11.718750
1309,11.718750
1310,11.718750
1311,11.718750
1312,11.718750
1313,11.718750
1314,11.718750
1315,11.718750
1316,11.718750
1317,11.718750
1318,11.718750
1319,11.718750
1320,11.718750
1321,11.718750
1322,11.718750
1323,11.718750
1324,11.718750
1325,7.812500
1326,11.718750
1327,11.718750
1328,11.718750
1329,11.718750
1330,11.718750
1331,11.718750
1332,11.718750
1333,11.718750
1334,11.718750
1335,11.718750
1336,11.718750
1337,11.718750
1338,11.718750
1339,11.718750
1340,11.718750
1341,11.718750
1342,11.718750
1343,11.718750
1344,11.718750
1345,11.718750
1346,11.718750
1347,11.718750
1348,11.718750
1349,11.718750
1350,11.718750
1351,11.718750
1352,11.718750
1353,11.718750
1354,11.718750
1355,11.718750
1356,11.718750
1357,11.718750
1358,11.718750
1359,11.718750
1360,7.812500
1361,11.718750
1362,11.718750
1363,11.718750
1364,11.718750
1365,11.718750
1366,11.718750
1367,11.718750
1368,11.718750
1369,11.718750
1370,11.718750
1371,11.718750
1372,11.718750
1373,11.718750
1374,11.718750
1375,11.718750
1376,11.718750
1377,11.718750
1378,11.718750
1379,7.812500
1380,11.718750
1381,11.718750
1382,11.718750
1383,11.718750
1384,11.718750
1385,7.812500
1386,7.812500
1387,7.812500
1388,7.812500
1389,7.812500
1390,7.812500
1391,11.718750
1392,11.718750
1393,11.718750
1394,11.718750
1395,7.812500
1396,7.812500
1397,7.812500
1398,7.812500
1399,7.812500
1400,7.812500
1401,7.812500
1402,11.718750
1403,7.812500
1404,7.812500
1405,7.812500
1406,7.812500
1407,7.812500
1408,7.812500
1409,7.812500
1410,7.812500
1411,7.812500
1412,7.812500
1413,7.812500
1414,7.812500
1415,7.812500
1416,7.812500
1417,7.812500
1418,7.812500
1419,7.812500
1420,7.812500
1421,7.812500
1422,7.812500
1423,7.812500
1424,7.812500
1425,7.812500
1426,7.812500
1427,7.812500
1428,7.812500
1429,7.812500
1430,7.812500
1431,7.812500
1432,7.812500
1433,7.812500
1434,3.906250
1435,3.906250
1436,7.812500
1437,3.906250
1438,3.906250
1439,3.906250
1440,3.906250
1441,7.812500
1442,7.812500
1443,3.906250
1444,3.906250
1445,3.906250
1446,3.906250
1447,3.906250
1448,3.906250
1449,3.906250
1450,3.906250
1451,3.906250
1452,3.906250
1453,3.906250
1454,3.906250
1455,3.906250
1456,3.906250
1457,3.906250
1458,3.906250
1459,3.906250
1460,3.906250
1461,3.906250
1462,3.906250
1463,3.906250
1464,3.906250
1465,3.906250
1466,3.906250
1467,3.906250
1468,3.906250
1469,3.906250
1470,3.906250
1471,3.906250
1472,3.906250
1473,3.906250
1474,3.906250
1475,0.000000
1476,0.000000
1477,0.000000
1478,0.000000
1479,0.000000
1480,0.000000
1481,0.000000
1482,0.000000
1483,0.000000
1484,0.000000
1485,0.000000
1486,0.000000
1487,0.000000
1488,0.000000
1489,0.000000
1490,0.000000
1491,0.000000
1492,0.000000
1493,0.000000
1494,0.000000
1495,0.000000
1496,0.000000
1497,0.000000
1498,0.000000
1499,0.000000
1500,0.000000
1501,0.000000
1502,0.000000
1503,0.000000
1504,0.000000
1505,0.000000
1506,-3.906250
1507,-3.906250
1508,0.000000
1509,-3.906250
1510,-3.906250
1511,-3.906250
1512,-3.906250
1513,-3.906250
1514,-3.906250
1515,-3.906250
1516,-3.906250
1517,-3.906250
1518,-3.906250
1519,-3.906250
1520,-3.906250
1521,-3.906250
1522,-3.906250
1523,-3.906250
1524,-3.906250
1525,-3.906250
1526,-3.906250
1527,-3.906250
1528,-3.906250
1529,-3.906250
1530,-3.906250
1531,-3.906250
1532,-3.906250
1533,-3.906250
1534,-7.812500
1535,-7.812500
1536,-3.906250
1537,-7.812500
1538,-7.812500
1539,-7.812500
1540,-3.906250
1541,-7.812500
1542,-7.812500
1543,-7.812500
1544,-7.812500
1545,-7.812500
1546,-7.812500
1547,-7.812500
1548,-7.812500
1549,-7.812500
1550,-7.812500
1551,-7.812500
1552,-7.812500
1553,-7.812500
1554,-7.812500
1555,-7.812500
1556,-7.812500
1557,-7.812500
1558,-7.812500
1559,-7.812500
1560,-7.812500
1561,-7.812500
1562,-7.812500
1563,-11.718750
1564,-7.812500
1565,-11.718750
1566,-11.718750
1567,-11.718750
1568,-11.718750
1569,-11.718750
1570,-11.718750
1571,-11.718750
1572,-11.718750
1573,-11.718750
1574,-11.718750
1575,-11.718750
1576,-11.718750
1577,-11.718750
1578,-11.718750
1579,-11.718750
1580,-11.718750
1581,-11.718750
1582,-11.718750
1583,-15.625000
1584,-15.625000
1585,-15.625000
1586,-15.625000
1587,-15.625000
1588,-15.625000
1589,-15.625000
1590,-15.625000
1591,-15.625000
1592,-15.625000
1593,-15.625000
1594,-15.625000
1595,-15.625000
1596,-15.625000
1597,-15.625000
1598,-15.625000
1599,-15.625000
1600,-15.625000
1601,-15.625000
1602,-15.625000
1603,-15.625000
1604,-15.625000
1605,-19.531250
1606,-15.625000
1607,-19.531250
1608,-15.625000
1609,-15.625000
1610,-15.625000
1611,-19.531250
1612,-19.531250
1613,-19.531250
1614,-19.531250
1615,-19.531250
1616,-19.531250
1617,-19.531250
1618,-19.531250
1619,-19.531250
1620,-19.531250
1621,-19.531250
1622,-19.531250
1623,-19.531250
1624,-19.531250
1625,-19.531250
1626,-19.531250
1627,-19.531250
1628,-19.531250
1629,-19.531250
1630,-19.531250
1631,-19.531250
1632,-19.531250
1633,-19.531250
1634,-19.531250
1635,-23.437500
1636,-19.531250
1637,-23.437500
1638,-23.437500
1639,-23.437500
1640,-23.437500
1641,-23.437500
1642,-23.437500
1643,-23.437500
1644,-23.437500
1645,-23.437500
1646,-23.437500
1647,-23.437500
1648,-23.437500
1649,-23.437500
1650,-23.437500
1651,-23.437500
1652,-23.437500
1653,-23.437500
1654,-23.437500
1655,-23.437500
1656,-23.437500
1657,-23.437500
1658,-23.437500
1659,-23.437500
1660,-23.437500
1661,-23.437500
1662,-23.437500
1663,-23.437500
1664,-27.343750
1665,-27.343750
1666,-27.343750
1667,-27.343750
1668,-27.343750
1669,-27.343750
1670,-27.343750
1671,-27.343750
1672,-27.343750
1673,-27.343750
1674,-27.343750
1675,-27.343750
1676,-27.343750
1677,-27.343750
1678,-27.343750
1679,-27.343750
1680,-27.343750
1681,-27.343750
1682,-27.343750
1683,-27.343750
1684,-27.343750
1685,-27.343750
1686,-27.343750
1687,-31.250000
1688,-31.250000
1689,-27.343750
1690,-27.343750
1691,-27.343750
1692,-31.250000
1693,-31.250000
1694,-31.250000
1695,-31.250000
1696,-31.250000
1697,-31.250000
1698,-31.250000
1699,-31.250000
1700,-31.250000
1701,-31.250000
1702,-31.250000
1703,-31.250000
1704,-31.250000
1705,-31.250000
1706,-31.250000
1707,-31.250000
1708,-31.250000
1709,-31.250000
1710,-31.250000
1711,-31.250000
1712,-31.250000
1713,-35.156250
1714,-31.250000
1715,-31.250000
1716,-31.250000
1717,-31.250000
1718,-35.156250
1719,-35.156250
1720,-35.156250
1721,-35.156250
1722,-35.156250
1723,-35.156250
1724,-35.156250
1725,-35.156250
1726,-35.156250
1727,-35.156250
1728,-35.156250
1729,-35.156250
1730,-35.156250
1731,-35.156250
1732,-35.156250
1733,-35.156250
1734,-35.156250
1735,-35.156250
1736,-35.156250
1737,-35.156250
1738,-35.156250
1739,-35.156250
1740,-35.156250
1741,-35.156250
1742,-35.156250
1743,-35.156250
1744,-35.156250
1745,-35.156250
1746,-35.156250
1747,-35.156250
1748,-35.156250
1749,-35.156250
1750,-35.156250
1751,-39.062500
1752,-35.156250
1753,-35.156250
1754,-39.062500
1755,-39.062500
1756,-39.062500
1757,-39.062500
1758,-39.062500
1759,-39.062500
1760,-39.062500
1761,-39.062500
1762,-39.062500
1763,-39.062500
1764,-39.062500
1765,-39.062500
1766,-39.062500
1767,-39.062500
1768,-39.062500
1769,-39.062500
1770,-39.062500
1771,-39.062500
1772,-39.062500
1773,-39.062500
1774,-39.062500
1775,-39.062500
1776,-39.062500
1777,-39.062500
1778,-39.062500
1779,-39.062500
1780,-39.062500
1781,-39.062500
1782,-39.062500
1783,-39.062500
1784,-39.062500
1785,-39.062500
1786,-39.062500
1787,-39.062500
1788,-39.062500
1789,-39.062500
1790,-39.062500
1791,-39.062500
1792,-39.062500
1793,-39.062500
1794,-39.062500
1795,-39.062500
1796,-39.062500
1797,-39.062500
1798,-39.062500
1799,-39.062500
1800,-39.062500
1801,-39.062500
1802,-39.062500
1803,-39.062500
1804,-42.968750
1805,-39.062500
1806,-39.062500
1807,-39.062500
1808,-39.062500
1809,-39.062500
1810,-39.062500
1811,-39.062500
1812,-42.968750
1813,-42.968750
1814,-42.968750
1815,-39.062500
1816,-42.968750
1817,-39.062500
1818,-42.968750
1819,-39.062500
1820,-42.968750
1821,-42.968750
1822,-42.968750
1823,-42.968750
1824,-42.968750
1825,-42.968750
1826,-42.968750
1827,-42.968750
1828,-39.062500
1829,-42.968750
1830,-42.968750
1831,-42.968750
1832,-42.968750
1833,-42.968750
1834,-42.968750
1835,-42.968750
1836,-42.968750
1837,-42.968750
1838,-42.968750
1839,-42.968750
1840,-42.968750
1841,-39.062500
1842,-42.968750
1843,-42.968750
1844,-42.968750
1845,-42.968750
1846,-42.968750
1847,-42.968750
1848,-42.968750
1849,-42.968750
1850,-42.968750
1851,-42.968750
1852,-42.968750
1853,-42.968750
1854,-42.968750
1855,-42.968750
1856,-42.968750
1857,-42.968750
1858,-42.968750
1859,-42.968750
1860,-42.968750
1861,-42.968750
1862,-42.968750
1863,-42.968750
1864,-42.968750
1865,-42.968750
1866,-42.968750
1867,-42.968750
1868,-42.968750
1869,-39.062500
1870,-42.968750
1871,-42.968750
1872,-39.062500
1873,-42.968750
1874,-42.968750
1875,-42.968750
1876,-42.968750
1877,-39.062500
1878,-39.062500
1879,-42.968750
1880,-42.968750
1881,-42.968750
1882,-42.968750
1883,-42.968750
1884,-39.062500
1885,-42.968750
1886,-39.062500
1887,-39.062500
1888,-39.062500
1889,-39.062500
1890,-39.062500
1891,-39.062500
1892,-39.062500
1893,-39.062500
1894,-39.062500
1895,-39.062500
1896,-39.062500
1897,-39.062500
1898,-39.062500
1899,-39.062500
1900,-39.062500
1901,-39.062500
1902,-39.062500
1903,-39.062500
1904,-39.062500
1905,-39.062500
1906,-39.062500
1907,-39.062500
1908,-39.062500
1909,-39.062500
1910,-39.062500
1911,-39.062500
1912,-39.062500
1913,-39.062500
1914,-39.062500
1915,-39.062500
1916,-39.062500
1917,-39.062500
1918,-39.062500
1919,-39.062500
1920,-39.062500
1921,-39.062500
1922,-39.062500
1923,-39.062500
1924,-35.156250
1925,-39.062500
1926,-35.156250
1927,-35.156250
1928,-35.156250
1929,-35.156250
1930,-35.156250
1931,-35.156250
1932,-35.156250
1933,-35.156250
1934,-35.156250
1935,-35.156250
1936,-35.156250
1937,-35.156250
1938,-35.156250
1939,-35.156250
1940,-35.156250
1941,-35.156250
1942,-35.156250
1943,-35.156250
1944,-35.156250
1945,-35.156250
1946,-35.156250
1947,-35.156250
1948,-35.156250
1949,-35.156250
1950,-35.156250
1951,-35.156250
1952,-35.156250
1953,-35.156250
1954,-35.156250
1955,-35.156250
1956,-35.156250
1957,-35.156250
1958,-31.250000
1959,-31.250000
1960,-35.156250
1961,-31.250000
1962,-31.250000
1963,-35.156250
1964,-31.250000
1965,-31.250000
1966,-31.250000
1967,-31.250000
1968,-31.250000
1969,-31.250000
1970,-31.250000
1971,-31.250000
1972,-31.250000
1973,-31.250000
1974,-31.250000
1975,-31.250000
1976,-31.250000
1977,-31.250000
1978,-31.250000
1979,-31.250000
1980,-31.250000
1981,-31.250000
1982,-31.250000
1983,-31.250000
1984,-31.250000
1985,-31.250000
1986,-31.250000
1987,-31.250000
1988,-31.250000
1989,-31.250000
1990,-27.343750
1991,-27.343750
1992,-27.343750
1993,-27.343750
1994,-27.343750
1995,-27.343750
1996,-27.343750
1997,-27.343750
1998,-27.343750
1999,-27.343750
2000,-27.343750
2001,-27.343750
2002,-27.343750
2003,-27.343750
2004,-27.343750
2005,-27.343750
2006,-27.343750
2007,-27.343750
2008,-27.343750
2009,-27.343750
2010,-27.343750
2011,-27.343750
2012,-27.343750
2013,-27.343750
2014,-27.343750
2015,-23.437500
2016,-23.437500
2017,-23.437500
2018,-23.437500
2019,-23.437500
2020,-23.437500
2021,-23.437500
2022,-23.437500
2023,-23.437500
2024,-23.437500
2025,-23.437500
2026,-23.437500
2027,-23.437500
2028,-23.437500
2029,-23.437500
2030,-23.437500
2031,-23.437500
2032,-23.437500
2033,-23.437500
2034,-23.437500
2035,-19.531250
2036,-23.437500
2037,-19.531250
2038,-19.531250
2039,-19.531250
2040,-19.531250
2041,-19.531250
2042,-19.531250
2043,-19.531250
2044,-19.531250
2045,-19.531250
2046,-19.531250
2047,-19.531250
2048,-19.531250
2049,-19.531250
2050,-19.531250
2051,-19.531250
2052,-19.531250
2053,-19.531250
2054,-19.531250
2055,-19.531250
2056,-19.531250
2057,-19.531250
2058,-15.625000
2059,-15.625000
2060,-15.625000
2061,-15.625000
2062,-15.625000
2063,-15.625000
2064,-15.625000
2065,-15.625000
2066,-15.625000
2067,-15.625000
2068,-15.625000
2069,-15.625000
2070,-15.625000
2071,-15.625000
2072,-15.625000
2073,-15.625000
2074,-15.625000
2075,-15.625000
2076,-11.718750
2077,-11.718750
2078,-11.718750
2079,-11.718750
2080,-11.718750
2081,-15.625000
2082,-11.718750
2083,-11.718750
2084,-11.718750
2085,-11.718750
2086,-11.718750
2087,-11.718750
2088,-11.718750
2089,-11.718750
2090,-11.718750
2091,-11.718750
2092,-11.718750
2093,-11.718750
2094,-11.718750
2095,-11.718750
2096,-11.718750
2097,-11.718750
2098,-11.718750
2099,-11.718750
2100,-11.718750
2101,-7.812500
2102,-7.812500
2103,-11.718750
2104,-7.812500
2105,-7.812500
2106,-7.812500
2107,-7.812500
2108,-7.812500
2109,-7.812500
2110,-7.812500
2111,-7.812500
2112,-7.812500
2113,-7.812500
2114,-7.812500
2115,-7.812500
2116,-7.812500
2117,-7.812500
2118,-7.812500
2119,-7.812500
2120,-7.812500
2121,-7.812500
2122,-7.812500
2123,-7.812500
2124,-7.812500
2125,-3.906250
2126,-3.906250
2127,-3.906250
2128,-3.906250
2129,-3.906250
2130,-3.906250
2131,-3.906250
2132,-3.906250
2133,-3.906250
2134,-3.906250
2135,-3.906250
2136,-3.906250
2137,-3.906250
2138,-3.906250
2139,-3.906250
2140,-3.906250
2141,-3.906250
2142,-3.906250
2143,-3.906250
2144,-3.906250
2145,0.000000
2146,-3.906250
2147,-3.906250
2148,-3.906250
2149,0.000000
2150,0.000000
2151,0.000000
2152,0.000000
2153,0.000000
2154,0.000000
2155,0.000000
2156,0.000000
2157,0.000000
2158,0.000000
2159,0.000000
2160,0.000000
2161,0.000000
2162,0.000000
2163,0.000000
2164,0.000000
2165,0.000000
2166,0.000000
2167,0.000000
2168,0.000000
2169,0.000000
2170,0.000000
2171,0.000000
2172,0.000000
2173,0.000000
2174,3.906250
2175,3.906250
2176,3.906250
2177,3.906250
2178,3.906250
2179,3.906250
2180,3.906250
2181,3.906250
2182,3.906250
2183,3.906250
2184,3.906250
2185,3.906250
2186,3.906250
2187,3.906250
2188,3.906250
2189,3.906250
2190,3.906250
2191,3.906250
2192,3.906250
2193,3.906250
2194,3.906250
2195,3.906250
2196,3.906250
2197,3.906250
2198,3.906250
2199,3.906250
2200,3.906250
2201,3.906250
2202,3.906250
2203,3.906250
2204,7.812500
2205,7.812500
2206,7.812500
2207,3.906250
2208,7.812500
2209,7.812500
2210,7.812500
2211,3.906250
2212,7.812500
2213,7.812500
2214,7.812500
2215,7.812500
2216,7.812500
2217,7.812500
2218,7.812500
2219,7.812500
2220,7.812500
2221,7.812500
2222,7.812500
2223,7.812500
2224,7.812500
2225,7.812500
2226,7.812500
2227,7.812500
2228,7.812500
2229,7.812500
2230,7.812500
2231,7.812500
2232,7.812500
2233,7.812500
2234,7.812500
2235,7.812500
2236,7.812500
2237,7.812500
2238,7.812500
2239,7.812500
2240,7.812500
2241,7.812500
2242,7.812500
2243,7.812500
2244,7.812500
2245,7.812500
2246,7.812500
2247,7.812500
2248,7.812500
2249,7.812500
2250,7.812500
2251,7.812500
2252,7.812500
2253,11.718750
2254,7.812500
2255,7.812500
2256,11.718750
2257,7.812500
2258,7.812500
2259,11.718750
2260,7.812500
2261,11.718750
2262,7.812500
2263,11.718750
2264,11.718750
2265,11.718750
2266,11.718750
2267,7.812500
2268,11.718750
2269,11.718750
2270,11.718750
2271,11.718750
2272,11.718750
2273,11.718750
2274,11.718750
2275,11.718750
2276,11.718750
2277,11.718750
2278,11.718750
2279,11.718750
2280,11.718750
2281,11.718750
2282,11.718750
2283,11.718750
2284,11.718750
2285,11.718750
2286,11.718750
2287,11.718750
2288,11.718750
2289,11.718750
2290,11.718750
2291,11.718750
2292,11.718750
2293,11.718750
2294,11.718750
2295,11.718750
2296,11.718750
2297,11.718750
2298,11.718750
2299,11.718750
2300,11.718750
2301,11.718750
2302,11.718750
2303,11.718750
2304,11.718750
2305,11.718750
2306,11.718750
2307,11.718750
2308,11.718750
2309,11.718750
2310,11.718750
2311,11.718750
2312,11.718750
2313,11.718750
2314,11.718750
2315,11.718750
2316,11.718750
2317,11.718750
2318,11.718750
2319,11.718750
2320,11.718750
2321,11.718750
2322,11.718750
2323,11.718750
2324,11.718750
2325,11.718750
2326,11.718750
2327,11.718750
2328,11.718750
2329,11.718750
2330,11.718750
2331,11.718750
2332,11.718750
2333,11.718750
2334,11.718750
2335,11.718750
2336,11.718750
2337,11.718750
2338,11.718750
2339,11.718750
2340,11.718750
2341,11.718750
2342,11.718750
2343,11.718750
2344,11.718750
2345,11.718750
2346,11.718750
2347,11.718750
2348,11.718750
2349,11.718750
2350,11.718750
2351,11.718750
2352,11.718750
2353,11.718750
2354,11.718750
2355,11.718750
2356,11.718750
2357,11.718750
2358,11.718750
2359,11.718750
2360,11.718750
2361,11.718750
2362,11.718750
2363,11.718750
2364,11.718750
2365,11.718750
2366,11.718750
2367,7.812500
2368,7.812500
2369,11.718750
2370,7.812500
2371,7.812500
2372,7.812500
2373,11.718750
2374,11.718750
2375,7.812500
2376,7.812500
2377,7.812500
2378,7.812500
2379,7.812500
2380,7.812500
2381,11.718750
2382,7.812500
2383,7.812500
2384,7.812500
2385,7.812500
2386,7.812500
2387,7.812500
2388,7.812500
2389,7.812500
2390,7.812500
2391,7.812500
2392,7.812500
2393,7.812500
2394,7.812500
2395,7.812500
2396,7.812500
2397,7.812500
2398,7.812500
2399,7.812500
2400,7.812500
2401,7.812500
2402,7.812500
2403,7.812500
2404,7.812500
2405,7.812500
2406,7.812500
2407,7.812500
2408,7.812500
2409,7.812500
2410,7.812500
2411,7.812500
2412,7.812500
2413,7.812500
2414,7.812500
2415,7.812500
2416,7.812500
2417,7.812500
2418,7.812500
2419,7.812500
2420,7.812500
2421,7.812500
2422,7.812500
2423,7.812500
2424,3.906250
2425,7.812500
2426,3.906250
2427,3.906250
2428,3.906250
2429,3.906250
2430,3.906250
2431,3.906250
2432,3.906250
2433,3.906250
2434,3.906250
2435,3.906250
2436,3.906250
2437,3.906250
2438,3.906250
2439,3.906250
2440,3.906250
2441,3.906250
2442,3.906250
2443,3.906250
2444,3.906250
2445,3.906250
2446,3.906250
2447,3.906250
2448,3.906250
2449,3.906250
2450,3.906250
2451,3.906250
2452,3.906250
2453,3.906250
2454,3.906250
2455,3.906250
2456,3.906250
2457,3.906250
2458,3.906250
2459,3.906250
2460,3.906250
2461,3.906250
2462,3.906250
2463,3.906250
2464,3.906250
2465,0.000000
2466,0.000000
2467,0.000000
2468,0.000000
2469,0.000000
2470,0.000000
2471,0.000000
2472,0.000000
2473,0.000000
2474,0.000000
2475,0.000000
2476,0.000000
2477,0.000000
2478,0.000000
2479,0.000000
2480,0.000000
2481,0.000000
2482,0.000000
2483,0.000000
2484,0.000000
2485,0.000000
2486,0.000000
2487,0.000000
2488,0.000000
2489,0.000000
2490,0.000000
2491,0.000000
2492,0.000000
2493,0.000000
2494,0.000000
2495,-3.906250
2496,-3.906250
2497,-3.906250
2498,-3.906250
2499,-3.906250
2500,-3.906250
2501,-3.906250
2502,-3.906250
2503,-3.906250
2504,-3.906250
2505,-3.906250
2506,-3.906250
2507,-3.906250
2508,-3.906250
2509,-3.906250
2510,-3.906250
2511,-3.906250
2512,-3.906250
2513,-3.906250
2514,-3.906250
2515,-3.906250
2516,-3.906250
2517,-3.906250
2518,-3.906250
2519,-3.906250
2520,-3.906250
2521,-3.906250
2522,-7.812500
2523,-7.812500
2524,-7.812500
2525,-7.812500
2526,-7.812500
2527,-7.812500
2528,-7.812500
2529,-7.812500
2530,-7.812500
2531,-7.812500
2532,-7.812500
2533,-7.812500
2534,-7.812500
2535,-7.812500
2536,-7.812500
2537,-7.812500
2538,-7.812500
2539,-7.812500
2540,-7.812500
2541,-7.812500
2542,-7.812500
2543,-7.812500
2544,-7.812500
2545,-7.812500
2546,-7.812500
2547,-7.812500
2548,-11.718750
2549,-7.812500
2550,-7.812500
2551,-7.812500
2552,-11.718750
2553,-11.718750
2554,-11.718750
2555,-11.718750
2556,-11.718750
2557,-11.718750
2558,-11.718750
2559,-11.718750
2560,-11.718750
2561,-11.718750
2562,-11.718750
2563,-11.718750
2564,-11.718750
2565,-11.718750
2566,-11.718750
2567,-11.718750
2568,-11.718750
2569,-11.718750
2570,-11.718750
2571,-11.718750
2572,-11.718750
2573,-11.718750
2574,-11.718750
2575,-11.718750
2576,-11.718750
2577,-15.625000
2578,-11.718750
2579,-15.625000
2580,-15.625000
2581,-15.625000
2582,-15.625000
2583,-15.625000
2584,-15.625000
2585,-15.625000
2586,-15.625000
2587,-15.625000
2588,-15.625000
2589,-15.625000
2590,-15.625000
2591,-15.625000
2592,-15.625000
2593,-15.625000
2594,-15.625000
2595,-15.625000
2596,-15.625000
2597,-15.625000
2598,-15.625000
2599,-19.531250
2600,-15.625000
2601,-15.625000
2602,-15.625000
2603,-19.531250
2604,-19.531250
2605,-19.531250
2606,-19.531250
2607,-19.531250
2608,-19.531250
2609,-19.531250
2610,-19.531250
2611,-19.531250
2612,-19.531250
2613,-19.531250
2614,-19.531250
2615,-19.531250
2616,-19.531250
2617,-19.531250
2618,-19.531250
2619,-19.531250
2620,-19.531250
2621,-19.531250
2622,-19.531250
2623,-19.531250
2624,-19.531250
2625,-23.437500
2626,-19.531250
2627,-23.437500
2628,-23.437500
2629,-23.437500
2630,-23.437500
2631,-23.437500
2632,-23.437500
2633,-23.437500
2634,-23.437500
2635,-23.437500
2636,-23.437500
2637,-23.437500
2638,-23.437500
2639,-23.437500
2640,-23.437500
2641,-23.437500
2642,-23.437500
2643,-23.437500
2644,-23.437500
2645,-23.437500
2646,-23.437500
2647,-23.437500
2648,-23.437500
2649,-23.437500
2650,-27.343750
2651,-27.343750
2652,-27.343750
2653,-23.437500
2654,-27.343750
2655,-27.343750
2656,-27.343750
2657,-27.343750
2658,-27.343750
2659,-27.343750
2660,-27.343750
2661,-27.343750
2662,-27.343750
2663,-27.343750
2664,-27.343750
2665,-27.343750
2666,-27.343750
2667,-27.343750
2668,-27.343750
2669,-27.343750
2670,-27.343750
2671,-27.343750
2672,-27.343750
2673,-27.343750
2674,-27.343750
2675,-27.343750
2676,-27.343750
2677,-31.250000
2678,-31.250000
2679,-27.343750
2680,-31.250000
2681,-31.250000
2682,-27.343750
2683,-31.250000
2684,-31.250000
2685,-27.343750
2686,-31.250000
2687,-31.250000
2688,-31.250000
2689,-31.250000
2690,-31.250000
2691,-31.250000
2692,-31.250000
2693,-31.250000
2694,-31.250000
2695,-31.250000
2696,-31.250000
2697,-31.250000
2698,-31.250000
2699,-31.250000
2700,-31.250000
2701,-31.250000
2702,-31.250000
2703,-31.250000
2704,-31.250000
2705,-35.156250
2706,-31.250000
2707,-31.250000
2708,-31.250000
2709,-35.156250
2710,-31.250000
2711,-31.250000
2712,-31.250000
2713,-35.156250
2714,-35.156250
2715,-35.156250
2716,-35.156250
2717,-35.156250
2718,-35.156250
2719,-31.250000
2720,-35.156250
2721,-35.156250
2722,-35.156250
2723,-35.156250
2724,-35.156250
2725,-35.156250
2726,-35.156250
2727,-35.156250
2728,-35.156250
2729,-35.156250
2730,-35.156250
2731,-35.156250
2732,-35.156250
2733,-35.156250
2734,-35.156250
2735,-35.156250
2736,-35.156250
2737,-35.156250
2738,-35.156250
2739,-35.156250
2740,-35.156250
2741,-35.156250
2742,-35.156250
2743,-35.156250
2744,-35.156250
2745,-39.062500
2746,-39.062500
2747,-39.062500
2748,-39.062500
2749,-39.062500
2750,-35.156250
2751,-39.062500
2752,-39.062500
2753,-39.062500
2754,-39.062500
2755,-39.062500
2756,-39.062500
2757,-39.062500
2758,-39.062500
2759,-39.062500
2760,-39.062500
2761,-39.062500
2762,-39.062500
2763,-39.062500
2764,-39.062500
2765,-39.062500
2766,-39.062500
2767,-39.062500
2768,-39.062500
2769,-39.062500
2770,-39.062500
2771,-39.062500
2772,-39.062500
2773,-39.062500
2774,-39.062500
2775,-39.062500
2776,-39.062500
2777,-39.062500
2778,-39.062500
2779,-39.062500
2780,-39.062500
2781,-39.062500
2782,-39.062500
2783,-39.062500
2784,-39.062500
2785,-39.062500
2786,-39.062500
2787,-39.062500
2788,-39.062500
2789,-39.062500
2790,-39.062500
2791,-39.062500
2792,-39.062500
2793,-39.062500
2794,-39.062500
2795,-39.062500
2796,-39.062500
2797,-42.968750
2798,-39.062500
2799,-39.062500
2800,-39.062500
2801,-39.062500
2802,-42.968750
2803,-39.062500
2804,-39.062500
2805,-39.062500
2806,-42.968750
2807,-39.062500
2808,-39.062500
2809,-39.062500
2810,-39.062500
2811,-42.968750
2812,-39.062500
2813,-42.968750
2814,-39.062500
2815,-42.968750
2816,-42.968750
2817,-39.062500
2818,-42.968750
2819,-39.062500
2820,-39.062500
2821,-39.062500
2822,-39.062500
2823,-42.968750
2824,-42.968750
2825,-42.968750
2826,-39.062500
2827,-39.062500
2828,-42.968750
2829,-42.968750
2830,-39.062500
2831,-42.968750
2832,-42.968750
2833,-42.968750
2834,-42.968750
2835,-42.968750
2836,-42.968750
2837,-39.062500
2838,-42.968750
2839,-39.062500
2840,-42.968750
2841,-42.968750
2842,-42.968750
2843,-42.968750
2844,-42.968750
2845,-42.968750
2846,-39.062500
2847,-42.968750
2848,-39.062500
2849,-39.062500
2850,-42.968750
2851,-42.968750
2852,-42.968750
2853,-39.062500
2854,-39.062500
2855,-42.968750
2856,-42.968750
2857,-39.062500
2858,-39.062500
2859,-39.062500
2860,-42.968750
2861,-39.062500
2862,-39.062500
2863,-39.062500
2864,-39.062500
2865,-42.968750
2866,-39.062500
2867,-42.968750
2868,-42.968750
2869,-39.062500
2870,-39.062500
2871,-39.062500
2872,-39.062500
2873,-39.062500
2874,-39.062500
2875,-42.968750
2876,-39.062500
2877,-39.062500
2878,-39.062500
2879,-39.062500
2880,-39.062500
2881,-39.062500
2882,-39.062500
2883,-39.062500
2884,-39.062500
2885,-39.062500
2886,-39.062500
2887,-39.062500
2888,-39.062500
2889,-39.062500
2890,-39.062500
2891,-39.062500
2892,-39.062500
2893,-39.062500
2894,-39.062500
2895,-39.062500
2896,-39.062500
2897,-39.062500
2898,-39.062500
2899,-39.062500
2900,-39.062500
2901,-39.062500
2902,-39.062500
2903,-39.062500
2904,-39.062500
2905,-39.062500
2906,-39.062500
2907,-39.062500
2908,-39.062500
2909,-39.062500
2910,-39.062500
2911,-39.062500
2912,-39.062500
2913,-39.062500
2914,-39.062500
2915,-39.062500
2916,-39.062500
2917,-39.062500
2918,-35.156250
2919,-35.156250
2920,-39.062500
2921,-39.062500
2922,-39.062500
2923,-35.156250
2924,-35.156250
2925,-35.156250
2926,-35.156250
2927,-35.156250
2928,-35.156250
2929,-35.156250
2930,-35.156250
2931,-35.156250
2932,-35.156250
2933,-35.156250
2934,-35.156250
2935,-35.156250
2936,-35.156250
2937,-35.156250
2938,-35.156250
2939,-35.156250
2940,-35.156250
2941,-35.156250
2942,-35.156250
2943,-35.156250
2944,-35.156250
2945,-35.156250
2946,-35.156250
2947,-35.156250
2948,-35.156250
2949,-31.250000
2950,-31.250000
2951,-31.250000
2952,-35.156250
2953,-31.250000
2954,-31.250000
2955,-31.250000
2956,-31.250000
2957,-31.250000
2958,-31.250000
2959,-31.250000
2960,-31.250000
2961,-31.250000
2962,-31.250000
2963,-31.250000
2964,-31.250000
2965,-31.250000
2966,-31.250000
2967,-31.250000
2968,-31.250000
2969,-31.250000
2970,-31.250000
2971,-31.250000
2972,-31.250000
2973,-31.250000
2974,-31.250000
2975,-31.250000
2976,-31.250000
2977,-31.250000
2978,-27.343750
2979,-27.343750
2980,-27.343750
2981,-27.343750
2982,-27.343750
2983,-27.343750
2984,-27.343750
2985,-27.343750
2986,-27.343750
2987,-27.343750
2988,-27.343750
2989,-27.343750
2990,-27.343750
2991,-27.343750
2992,-27.343750
2993,-27.343750
2994,-27.343750
2995,-27.343750
2996,-27.343750
2997,-27.343750
2998,-27.343750
2999,-27.343750
3000,-27.343750
3001,-27.343750
3002,-27.343750
3003,-23.437500
3004,-23.437500
3005,-27.343750
3006,-27.343750
3007,-23.437500
3008,-23.437500
3009,-23.437500
3010,-23.437500
3011,-23.437500
3012,-23.437500
3013,-23.437500
3014,-23.437500
3015,-23.437500
3016,-23.437500
3017,-23.437500
3018,-23.437500
3019,-23.437500
3020,-23.437500
3021,-23.437500
3022,-23.437500
3023,-23.437500
3024,-23.437500
3025,-19.531250
3026,-23.437500
3027,-19.531250
3028,-19.531250
3029,-19.531250
3030,-19.531250
3031,-19.531250
3032,-19.531250
3033,-19.531250
3034,-19.531250
3035,-19.531250
3036,-19.531250
3037,-19.531250
3038,-19.531250
3039,-19.531250
3040,-19.531250
3041,-19.531250
3042,-19.531250
3043,-19.531250
3044,-19.531250
3045,-19.531250
3046,-19.531250
3047,-19.531250
3048,-15.625000
3049,-15.625000
3050,-15.625000
3051,-15.625000
3052,-15.625000
3053,-15.625000
3054,-15.625000
3055,-15.625000
3056,-15.625000
3057,-15.625000
3058,-15.625000
3059,-15.625000
3060,-15.625000
3061,-11.718750
3062,-15.625000
3063,-15.625000
3064,-15.625000
3065,-15.625000
3066,-15.625000
3067,-11.718750
3068,-15.625000
3069,-11.718750
3070,-11.718750
3071,-11.718750
3072,-11.718750
3073,-11.718750
3074,-11.718750
3075,-11.718750
3076,-11.718750
3077,-11.718750
3078,-11.718750
3079,-11.718750
3080,-11.718750
3081,-11.718750
3082,-11.718750
3083,-11.718750
3084,-11.718750
3085,-11.718750
3086,-11.718750
3087,-7.812500
3088,-11.718750
3089,-11.718750
3090,-7.812500
3091,-7.812500
3092,-7.812500
3093,-7.812500
3094,-7.812500
3095,-7.812500
3096,-7.812500
3097,-7.812500
3098,-7.812500
3099,-7.812500
3100,-7.812500
3101,-7.812500
3102,-7.812500
3103,-7.812500
3104,-7.812500
3105,-7.812500
3106,-7.812500
3107,-7.812500
3108,-7.812500
3109,-7.812500
3110,-3.906250
3111,-7.812500
3112,-7.812500
3113,-7.812500
3114,-3.906250
3115,-3.906250
3116,-3.906250
3117,-3.906250
3118,-3.906250
3119,-3.906250
3120,-3.906250
3121,-3.906250
3122,-3.906250
3123,-3.906250
3124,-3.906250
3125,-3.906250
3126,-3.906250
3127,-3.906250
3128,-3.906250
3129,-3.906250
3130,-3.906250
3131,-3.906250
3132,-3.906250
3133,-3.906250
3134,-3.906250
3135,-3.906250
3136,0.000000
3137,-3.906250
3138,0.000000
3139,0.000000
3140,0.000000
3141,0.000000
3142,0.000000
3143,0.000000
3144,0.000000
3145,0.000000
3146,0.000000
3147,0.000000
3148,0.000000
3149,0.000000
3150,0.000000
3151,0.000000
3152,0.000000
3153,0.000000
3154,0.000000
3155,0.000000
3156,0.000000
3157,0.000000
3158,0.000000
3159,0.000000
3160,0.000000
3161,0.000000
3162,3.906250
3163,3.906250
3164,0.000000
3165,0.000000
3166,0.000000
3167,0.000000
3168,0.000000
3169,3.906250
3170,3.906250
3171,3.906250
3172,3.906250
3173,3.906250
3174,3.906250
3175,3.906250
3176,3.906250
3177,3.906250
3178,3.906250
3179,3.906250
3180,3.906250
3181,3.906250
3182,3.906250
3183,3.906250
3184,3.906250
3185,3.906250
3186,3.906250
3187,3.906250
3188,3.906250
3189,3.906250
3190,3.906250
3191,3.906250
3192,7.812500
3193,3.906250
3194,3.906250
3195,7.812500
3196,7.812500
3197,7.812500
3198,7.812500
3199,7.812500
3200,7.812500
3201,7.812500
3202,7.812500
3203,7.812500
3204,7.812500
3205,7.812500
3206,7.812500
3207,7.812500
3208,7.812500
3209,7.812500
3210,7.812500
3211,7.812500
3212,7.812500
3213,7.812500
3214,7.812500
3215,7.812500
3216,7.812500
3217,7.812500
3218,7.812500
3219,7.812500
3220,7.812500
3221,7.812500
3222,7.812500
3223,7.812500
3224,7.812500
3225,7.812500
3226,11.718750
3227,7.812500
3228,7.812500
3229,7.812500
3230,7.812500
3231,7.812500
3232,7.812500
3233,7.812500
3234,7.812500
3235,7.812500
3236,11.718750
3237,7.812500
3238,7.812500
3239,7.812500
3240,7.812500
3241,11.718750
3242,7.812500
3243,7.812500
3244,7.812500
3245,11.718750
3246,7.812500
3247,7.812500
3248,11.718750
3249,11.718750
3250,11.718750
3251,11.718750
3252,11.718750
3253,11.718750
3254,11.718750
3255,11.718750
3256,11.718750
3257,11.718750
3258,11.718750
3259,7.812500
3260,7.812500
3261,11.718750
3262,11.718750
3263,11.718750
3264,11.718750
3265,11.718750
3266,11.718750
3267,11.718750
3268,11.718750
3269,11.718750
3270,11.718750
3271,11.718750
3272,11.718750
3273,11.718750
3274,11.718750
3275,11.718750
3276,11.718750
3277,11.718750
3278,11.718750
3279,11.718750
3280,11.718750
3281,11.718750
3282,11.718750
3283,11.718750
3284,11.718750
3285,11.718750
3286,11.718750
3287,11.718750
3288,11.718750
3289,11.718750
3290,11.718750
3291,11.718750
3292,11.718750
3293,11.718750
3294,11.718750
3295,11.718750
3296,11.718750
3297,11.718750
3298,11.718750
3299,11.718750
3300,11.718750
3301,11.718750
3302,11.718750
3303,11.718750
3304,11.718750
3305,11.718750
3306,11.718750
3307,11.718750
3308,11.718750
3309,11.718750
3310,11.718750
3311,11.718750
3312,11.718750
3313,11.718750
3314,11.718750
3315,11.718750
3316,11.718750
3317,11.718750
3318,11.718750
3319,11.718750
3320,11.718750
3321,11.718750
3322,11.718750
3323,11.718750
3324,11.718750
3325,11.718750
3326,11.718750
3327,11.718750
3328,11.718750
3329,11.718750
3330,11.718750
3331,11.718750
3332,11.718750
3333,11.718750
3334,11.718750
3335,11.718750
3336,11.718750
3337,11.718750
3338,11.718750
3339,11.718750
3340,11.718750
3341,11.718750
3342,11.718750
3343,11.718750
3344,11.718750
3345,11.718750
3346,11.718750
3347,11.718750
3348,11.718750
3349,11.718750
3350,11.718750
3351,11.718750
3352,11.718750
3353,11.718750
3354,11.718750
3355,11.718750
3356,11.718750
3357,11.718750
3358,11.718750
3359,11.718750
3360,7.812500
3361,7.812500
3362,11.718750
3363,11.718750
3364,11.718750
3365,7.812500
3366,7.812500
3367,11.718750
3368,7.812500
3369,7.812500
3370,7.812500
3371,11.718750
3372,11.718750
3373,7.812500
3374,7.812500
3375,7.812500
3376,7.812500
3377,7.812500
3378,7.812500
3379,7.812500
3380,7.812500
3381,7.812500
3382,7.812500
3383,7.812500
3384,7.812500
3385,7.812500
3386,7.812500
3387,7.812500
3388,7.812500
3389,7.812500
3390,7.812500
3391,7.812500
3392,7.812500
3393,7.812500
3394,7.812500
3395,7.812500
3396,7.812500
3397,7.812500
3398,7.812500
3399,7.812500
3400,7.812500
3401,7.812500
3402,7.812500
3403,7.812500
3404,3.906250
3405,7.812500
3406,7.812500
3407,7.812500
3408,7.812500
3409,7.812500
3410,7.812500
3411,7.812500
3412,7.812500
3413,7.812500
3414,3.906250
3415,3.906250
3416,7.812500
3417,7.812500
3418,3.906250
3419,3.906250
3420,7.812500
3421,3.906250
3422,3.906250
3423,3.906250
3424,3.906250
3425,3.906250
3426,3.906250
3427,3.906250
3428,3.906250
3429,3.906250
3430,3.906250
3431,3.906250
3432,3.906250
3433,3.906250
3434,3.906250
3435,3.906250
3436,3.906250
3437,3.906250
3438,3.906250
3439,3.906250
3440,3.906250
3441,3.906250
3442,3.906250
3443,3.906250
3444,3.906250
3445,3.906250
3446,3.906250
3447,3.906250
3448,3.906250
3449,3.906250
3450,3.906250
3451,3.906250
3452,0.000000
3453,3.906250
3454,0.000000
3455,0.000000
3456,3.906250
3457,3.906250
3458,0.000000
3459,0.000000
3460,3.906250
3461,0.000000
3462,0.000000
3463,0.000000
3464,0.000000
3465,0.000000
3466,0.000000
3467,0.000000
3468,0.000000
3469,0.000000
3470,0.000000
3471,0.000000
3472,0.000000
3473,0.000000
3474,0.000000
3475,0.000000
3476,0.000000
3477,0.000000
3478,0.000000
3479,0.000000
3480,0.000000
3481,0.000000
3482,0.000000
3483,0.000000
3484,0.000000
3485,0.000000
3486,-3.906250
3487,0.000000
3488,-3.906250
3489,-3.906250
3490,-3.906250
3491,-3.906250
3492,0.000000
3493,0.000000
3494,-3.906250
3495,-3.906250
3496,-3.906250
3497,-3.906250
3498,-3.906250
3499,-3.906250
3500,-3.906250
3501,-3.906250
3502,-3.906250
3503,-3.906250
3504,-3.906250
3505,-3.906250
3506,-3.906250
3507,-3.906250
3508,-3.906250
3509,-3.906250
3510,-3.906250
3511,-3.906250
3512,-7.812500
3513,-3.906250
3514,-7.812500
3515,-3.906250
3516,-7.812500
3517,-7.812500
3518,-7.812500
3519,-7.812500
3520,-7.812500
3521,-7.812500
3522,-7.812500
3523,-7.812500
3524,-7.812500
3525,-7.812500
3526,-7.812500
3527,-7.812500
3528,-7.812500
3529,-7.812500
3530,-7.812500
3531,-7.812500
3532,-7.812500
3533,-7.812500
3534,-7.812500
3535,-7.812500
3536,-7.812500
3537,-7.812500
3538,-11.718750
3539,-7.812500
3540,-11.718750
3541,-11.718750
3542,-11.718750
3543,-11.718750
3544,-11.718750
3545,-11.718750
3546,-11.718750
3547,-11.718750
3548,-11.718750
3549,-11.718750
3550,-11.718750
3551,-11.718750
3552,-11.718750
3553,-11.718750
3554,-11.718750
3555,-11.718750
3556,-11.718750
3557,-11.718750
3558,-11.718750
3559,-11.718750
3560,-11.718750
3561,-11.718750
3562,-15.625000
3563,-15.625000
3564,-15.625000
3565,-15.625000
3566,-15.625000
3567,-11.718750
3568,-15.625000
3569,-15.625000
3570,-15.625000
3571,-15.625000
3572,-15.625000
3573,-15.625000
3574,-15.625000
3575,-15.625000
3576,-15.625000
3577,-15.625000
3578,-15.625000
3579,-15.625000
3580,-15.625000
3581,-15.625000
3582,-15.625000
3583,-15.625000
3584,-15.625000
3585,-15.625000
3586,-15.625000
3587,-15.625000
3588,-15.625000
3589,-19.531250
3590,-19.531250
3591,-15.625000
3592,-19.531250
3593,-19.531250
3594,-19.531250
3595,-19.531250
3596,-19.531250
3597,-19.531250
3598,-19.531250
3599,-19.531250
3600,-19.531250
3601,-19.531250
3602,-19.531250
3603,-19.531250
3604,-19.531250
3605,-19.531250
3606,-19.531250
3607,-19.531250
3608,-19.531250
3609,-19.531250
3610,-19.531250
3611,-19.531250
3612,-19.531250
3613,-19.531250
3614,-19.531250
3615,-19.531250
3616,-23.437500
3617,-19.531250
3618,-23.437500
3619,-23.437500
3620,-23.437500
3621,-23.437500
3622,-23.437500
3623,-23.437500
3624,-23.437500
3625,-23.437500
3626,-23.437500
3627,-23.437500
3628,-27.343750
3629,-23.437500
3630,-23.437500
3631,-23.437500
3632,-23.437500
3633,-23.437500
3634,-23.437500
3635,-23.437500
3636,-27.343750
3637,-23.437500
3638,-23.437500
3639,-23.437500
3640,-27.343750
3641,-27.343750
3642,-27.343750
3643,-27.343750
3644,-27.343750
3645,-27.343750
3646,-27.343750
3647,-27.343750
3648,-27.343750
3649,-27.343750
3650,-27.343750
3651,-27.343750
3652,-27.343750
3653,-27.343750
3654,-27.343750
3655,-27.343750
3656,-27.343750
3657,-27.343750
3658,-27.343750
3659,-27.343750
3660,-27.343750
3661,-27.343750
3662,-27.343750
3663,-31.250000
3664,-27.343750
3665,-27.343750
3666,-27.343750
3667,-27.343750
3668,-31.250000
3669,-31.250000
3670,-31.250000
3671,-31.250000
3672,-31.250000
3673,-31.250000
3674,-31.250000
3675,-31.250000
3676,-31.250000
3677,-31.250000
3678,-31.250000
3679,-31.250000
3680,-31.250000
3681,-31.250000
3682,-31.250000
3683,-31.250000
3684,-31.250000
3685,-31.250000
3686,-31.250000
3687,-31.250000
3688,-31.250000
3689,-31.250000
3690,-31.250000
3691,-31.250000
3692,-31.250000
3693,-31.250000
3694,-31.250000
3695,-31.250000
3696,-35.156250
3697,-35.156250
3698,-35.156250
3699,-35.156250
3700,-35.156250
3701,-35.156250
3702,-35.156250
3703,-35.156250
3704,-35.156250
3705,-35.156250
3706,-35.156250
3707,-35.156250
3708,-35.156250
3709,-35.156250
3710,-35.156250
3711,-35.156250
3712,-35.156250
3713,-35.156250
3714,-35.156250
3715,-35.156250
3716,-35.156250
3717,-35.156250
3718,-35.156250
3719,-35.156250
3720,-35.156250
3721,-35.156250
3722,-35.156250
3723,-35.156250
3724,-35.156250
3725,-35.156250
3726,-35.156250
3727,-35.156250
3728,-35.156250
3729,-35.156250
3730,-39.062500
3731,-35.156250
3732,-35.156250
3733,-35.156250
3734,-35.156250
3735,-39.062500
3736,-39.062500
3737,-39.062500
3738,-39.062500
3739,-39.062500
3740,-39.062500
3741,-39.062500
3742,-39.062500
3743,-39.062500
3744,-39.062500
3745,-39.062500
3746,-39.062500
3747,-39.062500
3748,-39.062500
3749,-39.062500
3750,-39.062500
3751,-39.062500
3752,-39.062500
3753,-39.062500
3754,-39.062500
3755,-39.062500
3756,-39.062500
3757,-39.062500
3758,-39.062500
3759,-39.062500
3760,-39.062500
3761,-39.062500
3762,-39.062500
3763,-39.062500
3764,-39.062500
3765,-39.062500
3766,-39.062500
3767,-39.062500
3768,-39.062500
3769,-39.062500
3770,-39.062500
3771,-39.062500
3772,-39.062500
3773,-39.062500
3774,-39.062500
3775,-39.062500
3776,-39.062500
3777,-39.062500
3778,-39.062500
3779,-39.062500
3780,-39.062500
3781,-39.062500
3782,-39.062500
3783,-39.062500
3784,-42.968750
3785,-39.062500
3786,-39.062500
3787,-42.968750
3788,-42.968750
3789,-42.968750
3790,-42.968750
3791,-42.968750
3792,-42.968750
3793,-39.062500
3794,-42.968750
3795,-42.968750
3796,-42.968750
3797,-39.062500
3798,-42.968750
3799,-42.968750
3800,-42.968750
3801,-42.968750
3802,-42.968750
3803,-42.968750
3804,-42.968750
3805,-42.968750
3806,-42.968750
3807,-42.968750
3808,-42.968750
3809,-42.968750
3810,-42.968750
3811,-42.968750
3812,-42.968750
3813,-42.968750
3814,-42.968750
3815,-42.968750
3816,-42.968750
3817,-42.968750
3818,-42.968750
3819,-42.968750
3820,-42.968750
3821,-42.968750
3822,-42.968750
3823,-42.968750
3824,-42.968750
3825,-42.968750
3826,-42.968750
3827,-42.968750
3828,-42.968750
3829,-42.968750
3830,-42.968750
3831,-42.968750
3832,-39.062500
3833,-42.968750
3834,-42.968750
3835,-39.062500
3836,-42.968750
3837,-42.968750
3838,-42.968750
3839,-39.062500
3840,-39.062500
3841,-42.968750
3842,-39.062500
3843,-42.968750
3844,-39.062500
3845,-42.968750
3846,-39.062500
3847,-39.062500
3848,-39.062500
3849,-42.968750
3850,-39.062500
3851,-39.062500
3852,-39.062500
3853,-42.968750
3854,-39.062500
3855,-39.062500
3856,-39.062500
3857,-39.062500
3858,-39.062500
3859,-39.062500
3860,-39.062500
3861,-39.062500
3862,-39.062500
3863,-39.062500
3864,-39.062500
3865,-39.062500
3866,-39.062500
3867,-39.062500
3868,-39.062500
3869,-39.062500
3870,-39.062500
3871,-39.062500
3872,-39.062500
3873,-39.062500
3874,-39.062500
3875,-39.062500
3876,-39.062500
3877,-39.062500
3878,-39.062500
3879,-39.062500
3880,-39.062500
3881,-39.062500
3882,-39.062500
3883,-39.062500
3884,-39.062500
3885,-39.062500
3886,-39.062500
3887,-39.062500
3888,-39.062500
3889,-39.062500
3890,-39.062500
3891,-39.062500
3892,-39.062500
3893,-39.062500
3894,-39.062500
3895,-39.062500
3896,-39.062500
3897,-39.062500
3898,-39.062500
3899,-39.062500
3900,-39.062500
3901,-35.156250
3902,-39.062500
3903,-39.062500
3904,-35.156250
3905,-35.156250
3906,-35.156250
3907,-35.156250
3908,-35.156250
3909,-35.156250
3910,-39.062500
3911,-35.156250
3912,-35.156250
3913,-35.156250
3914,-35.156250
3915,-35.156250
3916,-35.156250
3917,-35.156250
3918,-35.156250
3919,-35.156250
3920,-35.156250
3921,-35.156250
3922,-35.156250
3923,-35.156250
3924,-35.156250
3925,-35.156250
3926,-35.156250
3927,-35.156250
3928,-35.156250
3929,-35.156250
3930,-35.156250
3931,-35.156250
3932,-35.156250
3933,-35.156250
3934,-35.156250
3935,-35.156250
3936,-35.156250
3937,-31.250000
3938,-35.156250
3939,-31.250000
3940,-35.156250
3941,-31.250000
3942,-35.156250
3943,-31.250000
3944,-31.250000
3945,-31.250000
3946,-31.250000
3947,-31.250000
3948,-31.250000
3949,-31.250000
3950,-31.250000
3951,-31.250000
3952,-31.250000
3953,-31.250000
3954,-31.250000
3955,-31.250000
3956,-31.250000
3957,-31.250000
3958,-31.250000
3959,-31.250000
3960,-31.250000
3961,-31.250000
3962,-31.250000
3963,-31.250000
3964,-31.250000
3965,-31.250000
3966,-31.250000
3967,-31.250000
3968,-27.343750
3969,-27.343750
3970,-27.343750
3971,-27.343750
3972,-27.343750
3973,-27.343750
3974,-27.343750
3975,-27.343750
3976,-27.343750
3977,-27.343750
3978,-27.343750
3979,-27.343750
3980,-27.343750
3981,-27.343750
3982,-27.343750
3983,-27.343750
3984,-27.343750
3985,-27.343750
3986,-27.343750
3987,-27.343750
3988,-27.343750
3989,-23.437500
3990,-27.343750
3991,-23.437500
3992,-23.437500
3993,-23.437500
3994,-23.437500
3995,-23.437500
3996,-23.437500
3997,-23.437500
3998,-23.437500
3999,-23.437500
4000,-23.437500
4001,-23.437500
4002,-23.437500
4003,-23.437500
4004,-23.437500
4005,-23.437500
4006,-23.437500
4007,-23.437500
4008,-23.437500
4009,-19.531250
4010,-23.437500
4011,-23.437500
4012,-23.437500
4013,-23.437500
4014,-23.437500
4015,-19.531250
4016,-19.531250
4017,-19.531250
4018,-19.531250
4019,-19.531250
4020,-19.531250
4021,-19.531250
4022,-19.531250
4023,-19.531250
4024,-19.531250
4025,-19.531250
4026,-19.531250
4027,-19.531250
4028,-19.531250
4029,-15.625000
4030,-19.531250
4031,-19.531250
4032,-19.531250
4033,-19.531250
4034,-15.625000
4035,-19.531250
4036,-19.531250
4037,-15.625000
4038,-15.625000
4039,-15.625000
4040,-15.625000
4041,-15.625000
4042,-15.625000
4043,-15.625000
4044,-15.625000
4045,-15.625000
4046,-15.625000
4047,-15.625000
4048,-15.625000
4049,-15.625000
4050,-11.718750
4051,-15.625000
4052,-15.625000
4053,-15.625000
4054,-15.625000
4055,-15.625000
4056,-15.625000
4057,-15.625000
4058,-11.718750
4059,-11.718750
4060,-11.718750
4061,-11.718750
4062,-11.718750
4063,-11.718750
4064,-11.718750
4065,-11.718750
4066,-11.718750
4067,-11.718750
4068,-11.718750
4069,-11.718750
4070,-11.718750
4071,-11.718750
4072,-11.718750
4073,-11.718750
4074,-11.718750
4075,-11.718750
4076,-11.718750
4077,-11.718750
4078,-7.812500
4079,-11.718750
4080,-11.718750
4081,-11.718750
4082,-7.812500
4083,-7.812500
4084,-7.812500
4085,-7.812500
4086,-7.812500
4087,-7.812500
4088,-7.812500
4089,-7.812500
4090,-7.812500
4091,-7.812500
4092,-7.812500
4093,-7.812500
4094,-7.812500
4095,-7.812500
4096,-7.812500
4097,-7.812500
4098,-3.906250
4099,-7.812500
4100,-3.906250
4101,-3.906250
4102,-3.906250
4103,-3.906250
4104,-7.812500
4105,-3.906250
4106,-3.906250
4107,-3.906250
4108,-3.906250
4109,-3.906250
4110,-3.906250
4111,-3.906250
4112,-3.906250
4113,-3.906250
4114,-3.906250
4115,-3.906250
4116,-3.906250
4117,-3.906250
4118,-3.906250
4119,-3.906250
4120,-3.906250
4121,0.000000
4122,-3.906250
4123,0.000000
4124,0.000000
4125,0.000000
4126,0.000000
4127,0.000000
4128,0.000000
4129,0.000000
4130,0.000000
4131,0.000000
4132,0.000000
4133,0.000000
4134,0.000000
4135,0.000000
4136,0.000000
4137,0.000000
4138,0.000000
4139,0.000000
4140,0.000000
4141,0.000000
4142,0.000000
4143,0.000000
4144,0.000000
4145,0.000000
4146,0.000000
4147,0.000000
4148,0.000000
4149,3.906250
4150,3.906250
4151,3.906250
4152,0.000000
4153,3.906250
4154,3.906250
4155,3.906250
4156,3.906250
4157,3.906250
4158,3.906250
4159,3.906250
4160,3.906250
4161,3.906250
4162,3.906250
4163,3.906250
4164,3.906250
4165,3.906250
4166,3.906250
4167,3.906250
4168,3.906250
4169,3.906250
4170,3.906250
4171,3.906250
4172,3.906250
4173,3.906250
4174,3.906250
4175,3.906250
4176,3.906250
4177,3.906250
4178,3.906250
4179,3.906250
4180,3.906250
4181,3.906250
4182,3.906250
4183,3.906250
4184,3.906250
4185,3.906250
4186,7.812500
4187,7.812500
4188,7.812500
4189,7.812500
4190,7.812500
4191,7.812500
4192,3.906250
4193,7.812500
4194,7.812500
4195,7.812500
4196,7.812500
4197,7.812500
4198,7.812500
4199,7.812500
4200,7.812500
4201,7.812500
4202,7.812500
4203,7.812500
4204,7.812500
4205,7.812500
4206,7.812500
4207,7.812500
4208,7.812500
4209,7.812500
4210,7.812500
4211,7.812500
4212,7.812500
4213,7.812500
4214,7.812500
4215,7.812500
4216,7.812500
4217,7.812500
4218,7.812500
4219,7.812500
4220,7.812500
4221,7.812500
4222,7.812500
4223,7.812500
4224,7.812500
4225,7.812500
4226,7.812500
4227,11.718750
4228,7.812500
4229,7.812500
4230,7.812500
4231,7.812500
4232,11.718750
4233,7.812500
4234,7.812500
4235,11.718750
4236,11.718750
4237,11.718750
4238,11.718750
4239,11.718750
4240,11.718750
4241,11.718750
4242,11.718750
4243,11.718750
4244,11.718750
4245,11.718750
4246,11.718750
4247,11.718750
4248,11.718750
4249,11.718750
4250,11.718750
4251,11.718750
4252,11.718750
4253,11.718750
4254,11.718750
4255,11.718750
4256,11.718750
4257,11.718750
4258,11.718750
4259,11.718750
4260,11.718750
4261,11.718750
4262,11.718750
4263,11.718750
4264,11.718750
4265,11.718750
4266,11.718750
4267,11.718750
4268,11.718750
4269,11.718750
4270,11.718750
4271,11.718750
4272,11.718750
4273,11.718750
4274,11.718750
4275,11.718750
4276,11.718750
4277,11.718750
4278,11.718750
4279,11.718750
4280,11.718750
4281,11.718750
4282,11.718750
4283,11.718750
4284,11.718750
4285,11.718750
4286,11.718750
4287,11.718750
4288,11.718750
4289,11.718750
4290,11.718750
4291,11.718750
4292,11.718750
4293,11.718750
4294,11.718750
4295,11.718750
4296,11.718750
4297,11.718750
4298,11.718750
4299,11.718750
4300,11.718750
4301,11.718750
4302,11.718750
4303,11.718750
4304,11.718750
4305,11.718750
4306,11.718750
4307,11.718750
4308,11.718750
4309,11.718750
4310,11.718750
4311,11.718750
4312,11.718750
4313,11.718750
4314,11.718750
4315,11.718750
4316,11.718750
4317,11.718750
4318,11.718750
4319,11.718750
4320,11.718750
4321,11.718750
4322,11.718750
4323,11.718750
4324,11.718750
4325,11.718750
4326,11.718750
4327,11.718750
4328,11.718750
4329,11.718750
4330,11.718750
4331,11.718750
4332,11.718750
4333,11.718750
4334,11.718750
4335,11.718750
4336,11.718750
4337,11.718750
4338,11.718750
4339,11.718750
4340,7.812500
4341,11.718750
4342,11.718750
4343,11.718750
4344,7.812500
4345,7.812500
4346,11.718750
4347,7.812500
4348,7.812500
4349,11.718750
4350,7.812500
4351,11.718750
4352,7.812500
4353,7.812500
4354,7.812500
4355,7.812500
4356,7.812500
4357,7.812500
4358,11.718750
4359,11.718750
4360,7.812500
4361,7.812500
4362,7.812500
4363,7.812500
4364,7.812500
4365,7.812500
4366,7.812500
4367,7.812500
4368,7.812500
4369,7.812500
4370,7.812500
4371,7.812500
4372,7.812500
4373,7.812500
4374,7.812500
4375,7.812500
4376,7.812500
4377,7.812500
4378,7.812500
4379,7.812500
4380,7.812500
4381,7.812500
4382,7.812500
4383,7.812500
4384,7.812500
4385,7.812500
4386,7.812500
4387,7.812500
4388,7.812500
4389,7.812500
4390,7.812500
4391,7.812500
4392,7.812500
4393,7.812500
4394,7.812500
4395,7.812500
4396,7.812500
4397,7.812500
4398,7.812500
4399,7.812500
4400,7.812500
4401,7.812500
4402,7.812500
4403,7.812500
4404,7.812500
4405,7.812500
4406,3.906250
4407,7.812500
4408,7.812500
4409,7.812500
4410,3.906250
4411,3.906250
4412,3.906250
4413,3.906250
4414,3.906250
4415,3.906250
4416,3.906250
4417,3.906250
4418,3.906250
4419,3.906250
4420,3.906250
4421,3.906250
4422,3.906250
4423,3.906250
4424,3.906250
4425,3.906250
4426,3.906250
4427,3.906250
4428,3.906250
4429,3.906250
4430,3.906250
4431,3.906250
4432,3.906250
4433,3.906250
4434,3.906250
4435,3.906250
4436,3.906250
4437,3.906250
4438,3.906250
4439,0.000000
4440,0.000000
4441,3.906250
4442,0.000000
4443,0.000000
4444,0.000000
4445,0.000000
4446,0.000000
4447,0.000000
4448,0.000000
4449,0.000000
4450,0.000000
4451,0.000000
4452,0.000000
4453,0.000000
4454,0.000000
4455,0.000000
4456,0.000000
4457,0.000000
4458,0.000000
4459,0.000000
4460,0.000000
4461,0.000000
4462,0.000000
4463,0.000000
4464,0.000000
4465,0.000000
4466,0.000000
4467,0.000000
4468,0.000000
4469,-3.906250
4470,0.000000
4471,-3.906250
4472,-3.906250
4473,-3.906250
4474,-3.906250
4475,-3.906250
4476,-3.906250
4477,-3.906250
4478,-3.906250
4479,-3.906250
4480,-3.906250
4481,-3.906250
4482,-3.906250
4483,-3.906250
4484,-3.906250
4485,-3.906250
4486,-3.906250
4487,-3.906250
4488,-3.906250
4489,-3.906250
4490,-3.906250
4491,-3.906250
4492,-3.906250
4493,-3.906250
4494,-3.906250
4495,-3.906250
4496,-3.906250
4497,-3.906250
4498,-3.906250
4499,-3.906250
4500,-3.906250
4501,-7.812500
4502,-7.812500
4503,-3.906250
4504,-7.812500
4505,-3.906250
4506,-7.812500
4507,-7.812500
4508,-7.812500
4509,-7.812500
4510,-7.812500
4511,-7.812500
4512,-7.812500
4513,-7.812500
4514,-7.812500
4515,-7.812500
4516,-7.812500
4517,-7.812500
4518,-7.812500
4519,-7.812500
4520,-7.812500
4521,-7.812500
4522,-7.812500
4523,-7.812500
4524,-7.812500
4525,-7.812500
4526,-7.812500
4527,-7.812500
4528,-7.812500
4529,-7.812500
4530,-11.718750
4531,-11.718750
4532,-11.718750
4533,-11.718750
4534,-11.718750
4535,-11.718750
4536,-11.718750
4537,-11.718750
4538,-11.718750
4539,-11.718750
4540,-11.718750
4541,-11.718750
4542,-11.718750
4543,-11.718750
4544,-11.718750
4545,-11.718750
4546,-11.718750
4547,-11.718750
4548,-11.718750
4549,-11.718750
4550,-11.718750
4551,-11.718750
4552,-15.625000
4553,-11.718750
4554,-15.625000
4555,-11.718750
4556,-15.625000
4557,-15.625000
4558,-15.625000
4559,-15.625000
4560,-15.625000
4561,-15.625000
4562,-15.625000
4563,-15.625000
4564,-15.625000
4565,-15.625000
4566,-15.625000
4567,-15.625000
4568,-15.625000
4569,-15.625000
4570,-15.625000
4571,-15.625000
4572,-15.625000
4573,-15.625000
4574,-19.531250
4575,-15.625000
4576,-15.625000
4577,-15.625000
4578,-19.531250
4579,-15.625000
4580,-19.531250
4581,-19.531250
4582,-19.531250
4583,-19.531250
4584,-19.531250
4585,-19.531250
4586,-19.531250
4587,-19.531250
4588,-19.531250
4589,-19.531250
4590,-19.531250
4591,-19.531250
4592,-19.531250
4593,-19.531250
4594,-19.531250
4595,-19.531250
4596,-19.531250
4597,-19.531250
4598,-19.531250
4599,-19.531250
4600,-19.531250
4601,-19.531250
4602,-19.531250
4603,-23.437500
4604,-19.531250
4605,-19.531250
4606,-23.437500
4607,-19.531250
4608,-23.437500
4609,-23.437500
4610,-23.437500
4611,-23.437500
4612,-23.437500
4613,-23.437500
4614,-23.437500
4615,-23.437500
4616,-23.437500
4617,-23.437500
4618,-23.437500
4619,-23.437500
4620,-23.437500
4621,-23.437500
4622,-23.437500
4623,-23.437500
4624,-23.437500
4625,-23.437500
4626,-23.437500
4627,-23.437500
4628,-23.437500
4629,-23.437500
4630,-23.437500
4631,-27.343750
4632,-27.343750
4633,-27.343750
4634,-27.343750
4635,-27.343750
4636,-27.343750
4637,-23.437500
4638,-27.343750
4639,-27.343750
4640,-27.343750
4641,-27.343750
4642,-27.343750
4643,-27.343750
4644,-27.343750
4645,-27.343750
4646,-27.343750
4647,-27.343750
4648,-27.343750
4649,-27.343750
4650,-27.343750
4651,-31.250000
4652,-27.343750
4653,-27.343750
4654,-27.343750
4655,-27.343750
4656,-27.343750
4657,-27.343750
4658,-27.343750
4659,-31.250000
4660,-27.343750
4661,-31.250000
4662,-31.250000
4663,-31.250000
4664,-31.250000
4665,-31.250000
4666,-31.250000
4667,-31.250000
4668,-31.250000
4669,-31.250000
4670,-31.250000
4671,-31.250000
4672,-31.250000
4673,-31.250000
4674,-31.250000
4675,-31.250000
4676,-31.250000
4677,-31.250000
4678,-31.250000
4679,-31.250000
4680,-31.250000
4681,-31.250000
4682,-31.250000
4683,-31.250000
4684,-35.156250
4685,-31.250000
4686,-31.250000
4687,-31.250000
4688,-31.250000
4689,-35.156250
4690,-35.156250
4691,-35.156250
4692,-35.156250
4693,-31.250000
4694,-35.156250
4695,-35.156250
4696,-35.156250
4697,-35.156250
4698,-35.156250
4699,-35.156250
4700,-35.156250
4701,-35.156250
4702,-35.156250
4703,-35.156250
4704,-35.156250
4705,-35.156250
4706,-35.156250
4707,-35.156250
4708,-35.156250
4709,-35.156250
4710,-35.156250
4711,-35.156250
4712,-35.156250
4713,-35.156250
4714,-35.156250
4715,-35.156250
4716,-35.156250
4717,-39.062500
4718,-35.156250
4719,-35.156250
4720,-35.156250
4721,-39.062500
4722,-39.062500
4723,-39.062500
4724,-39.062500
4725,-39.062500
4726,-39.062500
4727,-39.062500
4728,-39.062500
4729,-39.062500
4730,-39.062500
4731,-39.062500
4732,-39.062500
4733,-39.062500
4734,-39.062500
4735,-39.062500
4736,-39.062500
4737,-39.062500
4738,-39.062500
4739,-39.062500
4740,-42.968750
4741,-39.062500
4742,-39.062500
4743,-35.156250
4744,-39.062500
4745,-39.062500
4746,-39.062500
4747,-39.062500
4748,-39.062500
4749,-42.968750
4750,-39.062500
4751,-39.062500
4752,-42.968750
4753,-39.062500
4754,-35.156250
4755,-39.062500
4756,-39.062500
4757,-39.062500
4758,-39.062500
4759,-39.062500
4760,-39.062500
4761,-39.062500
4762,-39.062500
4763,-39.062500
4764,-39.062500
4765,-39.062500
4766,-39.062500
4767,-39.062500
4768,-39.062500
4769,-42.968750
4770,-39.062500
4771,-39.062500
4772,-42.968750
4773,-39.062500
4774,-39.062500
4775,-39.062500
4776,-39.062500
4777,-39.062500
4778,-39.062500
4779,-39.062500
4780,-42.968750
4781,-42.968750
4782,-42.968750
4783,-42.968750
4784,-39.062500
4785,-39.062500
4786,-42.968750
4787,-42.968750
4788,-39.062500
4789,-39.062500
4790,-42.968750
4791,-42.968750
4792,-42.968750
4793,-42.968750
4794,-42.968750
4795,-42.968750
4796,-42.968750
4797,-42.968750
4798,-42.968750
4799,-42.968750
4800,-42.968750
4801,-42.968750
4802,-42.968750
4803,-42.968750
4804,-42.968750
4805,-42.968750
4806,-42.968750
4807,-42.968750
4808,-42.968750
4809,-42.968750
4810,-42.968750
4811,-42.968750
4812,-42.968750
4813,-39.062500
4814,-42.968750
4815,-42.968750
4816,-42.968750
4817,-42.968750
4818,-42.968750
4819,-39.062500
4820,-42.968750
4821,-42.968750
4822,-42.968750
4823,-42.968750
4824,-42.968750
4825,-42.968750
4826,-42.968750
4827,-42.968750
4828,-42.968750
4829,-39.062500
4830,-42.968750
4831,-42.968750
4832,-42.968750
4833,-42.968750
4834,-42.968750
4835,-42.968750
4836,-42.968750
4837,-42.968750
4838,-39.062500
4839,-39.062500
4840,-42.968750
4841,-42.968750
4842,-42.968750
4843,-39.062500
4844,-39.062500
4845,-42.968750
4846,-39.062500
4847,-42.968750
4848,-39.062500
4849,-39.062500
4850,-42.968750
4851,-39.062500
4852,-39.062500
4853,-42.968750
4854,-39.062500
4855,-39.062500
4856,-39.062500
4857,-39.062500
4858,-39.062500
4859,-39.062500
4860,-39.062500
4861,-39.062500
4862,-39.062500
4863,-39.062500
4864,-39.062500
4865,-39.062500
4866,-39.062500
4867,-39.062500
4868,-39.062500
4869,-39.062500
4870,-39.062500
4871,-39.062500
4872,-39.062500
4873,-39.062500
4874,-39.062500
4875,-39.062500
4876,-39.062500
4877,-39.062500
4878,-39.062500
4879,-39.062500
4880,-39.062500
4881,-39.062500
4882,-39.062500
4883,-39.062500
4884,-39.062500
4885,-39.062500
4886,-35.156250
4887,-39.062500
4888,-39.062500
4889,-39.062500
4890,-39.062500
4891,-39.062500
4892,-39.062500
4893,-39.062500
4894,-39.062500
4895,-39.062500
4896,-35.156250
4897,-35.156250
4898,-35.156250
4899,-35.156250
4900,-35.156250
4901,-35.156250
4902,-35.156250
4903,-35.156250
4904,-35.156250
4905,-35.156250
4906,-35.156250
4907,-35.156250
4908,-35.156250
4909,-35.156250
4910,-35.156250
4911,-35.156250
4912,-35.156250
4913,-35.156250
4914,-35.156250
4915,-35.156250
4916,-35.156250
4917,-35.156250
4918,-35.156250
4919,-35.156250
4920,-35.156250
4921,-35.156250
4922,-35.156250
4923,-35.156250
4924,-35.156250
4925,-35.156250
4926,-35.156250
4927,-35.156250
4928,-31.250000
4929,-31.250000
4930,-31.250000
4931,-31.250000
4932,-31.250000
4933,-31.250000
4934,-31.250000
4935,-31.250000
4936,-31.250000
4937,-31.250000
4938,-31.250000
4939,-31.250000
4940,-31.250000
4941,-31.250000
4942,-31.250000
4943,-31.250000
4944,-31.250000
4945,-31.250000
4946,-31.250000
4947,-31.250000
4948,-31.250000
4949,-31.250000
4950,-31.250000
4951,-31.250000
4952,-31.250000
4953,-31.250000
4954,-31.250000
4955,-27.343750
4956,-27.343750
4957,-27.343750
4958,-27.343750
4959,-27.343750
4960,-27.343750
4961,-27.343750
4962,-27.343750
4963,-27.343750
4964,-27.343750
4965,-27.343750
4966,-27.343750
4967,-27.343750
4968,-27.343750
4969,-27.343750
4970,-27.343750
4971,-27.343750
4972,-27.343750
4973,-27.343750
4974,-27.343750
4975,-27.343750
4976,-27.343750
4977,-27.343750
4978,-27.343750
4979,-27.343750
4980,-23.437500
4981,-27.343750
4982,-27.343750
4983,-23.437500
4984,-23.437500
4985,-23.437500
4986,-23.437500
4987,-23.437500
4988,-23.437500
4989,-23.437500
4990,-23.437500
4991,-23.437500
4992,-23.437500
4993,-23.437500
4994,-23.437500
4995,-23.437500
4996,-23.437500
4997,-23.437500
4998,-23.437500
4999,-23.437500
5000,-23.437500
5001,-23.437500
5002,-23.437500
5003,-19.531250
5004,-23.437500
5005,-19.531250
5006,-19.531250
5007,-19.531250
5008,-19.531250
5009,-19.531250
5010,-19.531250
5011,-19.531250
5012,-19.531250
5013,-19.531250
5014,-19.531250
5015,-19.531250
5016,-19.531250
5017,-19.531250
5018,-19.531250
5019,-19.531250
5020,-19.531250
5021,-19.531250
5022,-19.531250
5023,-19.531250
5024,-15.625000
5025,-19.531250
5026,-15.625000
5027,-15.625000
5028,-15.625000
5029,-15.625000
5030,-15.625000
5031,-15.625000
5032,-15.625000
5033,-15.625000
5034,-15.625000
5035,-15.625000
5036,-15.625000
5037,-15.625000
5038,-15.625000
5039,-15.625000
5040,-15.625000
5041,-11.718750
5042,-11.718750
5043,-15.625000
5044,-15.625000
5045,-11.718750
5046,-11.718750
5047,-15.625000
5048,-11.718750
5049,-11.718750
5050,-15.625000
5051,-11.718750
5052,-11.718750
5053,-11.718750
5054,-11.718750
5055,-11.718750
5056,-11.718750
5057,-11.718750
5058,-11.718750
5059,-11.718750
5060,-11.718750
5061,-11.718750
5062,-11.718750
5063,-11.718750
5064,-11.718750
5065,-11.718750
5066,-7.812500
5067,-7.812500
5068,-11.718750
5069,-7.812500
5070,-11.718750
5071,-7.812500
5072,-7.812500
5073,-7.812500
5074,-7.812500
5075,-7.812500
5076,-7.812500
5077,-7.812500
5078,-7.812500
5079,-7.812500
5080,-7.812500
5081,-7.812500
5082,-7.812500
5083,-7.812500
5084,-7.812500
5085,-7.812500
5086,-7.812500
5087,-7.812500
5088,-7.812500
5089,-7.812500
5090,-7.812500
5091,-7.812500
5092,-7.812500
5093,-3.906250
5094,-7.812500
5095,-3.906250
5096,-3.906250
5097,-3.906250
5098,-3.906250
5099,-3.906250
5100,-3.906250
5101,-3.906250
5102,-3.906250
5103,-3.906250
5104,-3.906250
5105,-3.906250
5106,-3.906250
5107,-3.906250
5108,-3.906250
5109,-3.906250
5110,-3.906250
5111,-3.906250
5112,-3.906250
5113,-3.906250
5114,-3.906250
5115,0.000000
5116,-3.906250
5117,0.000000
5118,0.000000
5119,0.000000
5120,0.000000
5121,0.000000
5122,0.000000
5123,0.000000
5124,0.000000
5125,0.000000
5126,0.000000
5127,0.000000
5128,0.000000
5129,0.000000
5130,-3.906250
5131,0.000000
5132,0.000000
5133,0.000000
5134,0.000000
5135,0.000000
5136,0.000000
5137,0.000000
5138,0.000000
5139,3.906250
5140,0.000000
5141,3.906250
5142,0.000000
5143,0.000000
5144,3.906250
5145,3.906250
5146,3.906250
5147,3.906250
5148,3.906250
5149,3.906250
5150,3.906250
5151,3.906250
5152,3.906250
5153,3.906250
5154,3.906250
5155,3.906250
5156,3.906250
5157,3.906250
5158,3.906250
5159,3.906250
5160,3.906250
5161,3.906250
5162,3.906250
5163,3.906250
5164,3.906250
5165,3.906250
5166,3.906250
5167,3.906250
5168,3.906250
5169,3.906250
5170,3.906250
5171,3.906250
5172,3.906250
5173,7.812500
5174,3.906250
5175,7.812500
5176,7.812500
5177,7.812500
5178,7.812500
5179,7.812500
5180,7.812500
5181,7.812500
5182,7.812500
5183,7.812500
5184,7.812500
5185,7.812500
5186,7.812500
5187,7.812500
5188,7.812500
5189,7.812500
5190,7.812500
5191,7.812500
5192,7.812500
5193,7.812500
5194,7.812500
5195,7.812500
5196,7.812500
5197,7.812500
5198,7.812500
5199,7.812500
5200,7.812500
5201,7.812500
5202,7.812500
5203,7.812500
5204,7.812500
5205,7.812500
5206,7.812500
5207,7.812500
5208,7.812500
5209,7.812500
5210,7.812500
5211,7.812500
5212,7.812500
5213,7.812500
5214,7.812500
5215,7.812500
5216,7.812500
5217,7.812500
5218,7.812500
5219,7.812500
5220,7.812500
5221,7.812500
5222,7.812500
5223,7.812500
5224,7.812500
5225,7.812500
5226,7.812500
5227,11.718750
5228,11.718750
5229,11.718750
5230,11.718750
5231,7.812500
5232,11.718750
5233,11.718750
5234,11.718750
5235,11.718750
5236,7.812500
5237,11.718750
5238,11.718750
5239,11.718750
5240,11.718750
5241,11.718750
5242,11.718750
5243,11.718750
5244,11.718750
5245,11.718750
5246,11.718750
5247,11.718750
5248,11.718750
5249,11.718750
5250,11.718750
5251,11.718750
5252,11.718750
5253,11.718750
5254,11.718750
5255,11.718750
5256,11.718750
5257,11.718750
5258,11.718750
5259,11.718750
5260,11.718750
5261,11.718750
5262,11.718750
5263,11.718750
5264,11.718750
5265,11.718750
5266,11.718750
5267,11.718750
5268,11.718750
5269,11.718750
5270,11.718750
5271,11.718750
5272,11.718750
5273,11.718750
5274,11.718750
5275,11.718750
5276,11.718750
5277,11.718750
5278,11.718750
5279,11.718750
5280,11.718750
5281,11.718750
5282,11.718750
5283,11.718750
5284,11.718750
5285,11.718750
5286,11.718750
5287,11.718750
5288,11.718750
5289,11.718750
5290,11.718750
5291,11.718750
5292,11.718750
5293,11.718750
5294,11.718750
5295,11.718750
5296,11.718750
5297,11.718750
5298,11.718750
5299,11.718750
5300,11.718750
5301,11.718750
5302,11.718750
5303,11.718750
5304,11.718750
5305,11.718750
5306,11.718750
5307,11.718750
5308,11.718750
5309,11.718750
5310,11.718750
5311,11.718750
5312,11.718750
5313,11.718750
5314,11.718750
5315,11.718750
5316,11.718750
5317,11.718750
5318,11.718750
5319,11.718750
5320,11.718750
5321,11.718750
5322,11.718750
5323,11.718750
5324,11.718750
5325,11.718750
5326,11.718750
5327,11.718750
5328,11.718750
5329,11.718750
5330,7.812500
5331,7.812500
5332,7.812500
5333,7.812500
5334,7.812500
5335,11.718750
5336,11.718750
5337,11.718750
5338,7.812500
5339,7.812500
5340,7.812500
5341,7.812500
5342,7.812500
5343,7.812500
5344,7.812500
5345,7.812500
5346,7.812500
5347,7.812500
5348,7.812500
5349,7.812500
5350,7.812500
5351,7.812500
5352,7.812500
5353,7.812500
5354,7.812500
5355,7.812500
5356,7.812500
5357,7.812500
5358,7.812500
5359,7.812500
5360,7.812500
5361,7.812500
5362,7.812500
5363,7.812500
5364,7.812500
5365,7.812500
5366,7.812500
5367,7.812500
5368,7.812500
5369,7.812500
5370,7.812500
5371,7.812500
5372,7.812500
5373,7.812500
5374,7.812500
5375,7.812500
5376,7.812500
5377,7.812500
5378,7.812500
5379,7.812500
5380,3.906250
5381,7.812500
5382,7.812500
5383,7.812500
5384,7.812500
5385,7.812500
5386,7.812500
5387,7.812500
5388,3.906250
5389,3.906250
5390,3.906250
5391,7.812500
5392,7.812500
5393,7.812500
5394,3.906250
5395,3.906250
5396,7.812500
5397,3.906250
5398,7.812500
5399,3.906250
5400,3.906250
5401,3.906250
5402,3.906250
5403,3.906250
5404,3.906250
5405,3.906250
5406,3.906250
5407,3.906250
5408,3.906250
5409,3.906250
5410,3.906250
5411,3.906250
5412,3.906250
5413,3.906250
5414,3.906250
5415,3.906250
5416,3.906250
5417,3.906250
5418,3.906250
5419,3.906250
5420,3.906250
5421,3.906250
5422,3.906250
5423,3.906250
5424,3.906250
5425,3.906250
5426,3.906250
5427,3.906250
5428,3.906250
5429,3.906250
5430,3.906250
5431,0.000000
5432,0.000000
5433,0.000000
5434,0.000000
5435,0.000000
5436,0.000000
5437,0.000000
5438,0.000000
5439,0.000000
5440,0.000000
5441,0.000000
5442,0.000000
5443,0.000000
5444,0.000000
5445,0.000000
5446,0.000000
5447,0.000000
5448,0.000000
5449,0.000000
5450,0.000000
5451,0.000000
5452,0.000000
5453,0.000000
5454,0.000000
5455,0.000000
5456,0.000000
5457,0.000000
5458,0.000000
5459,0.000000
5460,0.000000
5461,-3.906250
5462,-3.906250
5463,-3.906250
5464,-3.906250
5465,-3.906250
5466,-3.906250
5467,0.000000
5468,-3.906250
5469,-3.906250
5470,-3.906250
5471,-3.906250
5472,-3.906250
5473,-3.906250
5474,-3.906250
5475,-3.906250
5476,-3.906250
5477,-3.906250
5478,-3.906250
5479,-3.906250
5480,-3.906250
5481,-3.906250
5482,-3.906250
5483,-3.906250
5484,-3.906250
5485,-3.906250
5486,-3.906250
5487,-3.906250
5488,-3.906250
5489,-3.906250
5490,-3.906250
5491,-7.812500
5492,-7.812500
5493,-7.812500
5494,-3.906250
5495,-3.906250
5496,-7.812500
5497,-3.906250
5498,-7.812500
5499,-7.812500
5500,-7.812500
5501,-7.812500
5502,-7.812500
5503,-7.812500
5504,-7.812500
5505,-7.812500
5506,-7.812500
5507,-7.812500
5508,-7.812500
5509,-7.812500
5510,-7.812500
5511,-7.812500
5512,-7.812500
5513,-7.812500
5514,-7.812500
5515,-7.812500
5516,-7.812500
5517,-7.812500
5518,-7.812500
5519,-7.812500
5520,-11.718750
5521,-11.718750
5522,-11.718750
5523,-11.718750
5524,-11.718750
5525,-11.718750
5526,-11.718750
5527,-11.718750
5528,-11.718750
5529,-11.718750
5530,-11.718750
5531,-11.718750
5532,-11.718750
5533,-11.718750
5534,-11.718750
5535,-11.718750
5536,-11.718750
5537,-11.718750
5538,-11.718750
5539,-11.718750
5540,-11.718750
5541,-11.718750
5542,-11.718750
5543,-11.718750
5544,-11.718750
5545,-11.718750
5546,-15.625000
5547,-15.625000
5548,-15.625000
5549,-15.625000
5550,-15.625000
5551,-15.625000
5552,-15.625000
5553,-15.625000
5554,-15.625000
5555,-15.625000
5556,-15.625000
5557,-15.625000
5558,-15.625000
5559,-15.625000
5560,-15.625000
5561,-15.625000
5562,-15.625000
5563,-15.625000
5564,-15.625000
5565,-15.625000
5566,-15.625000
5567,-15.625000
5568,-15.625000
5569,-15.625000
5570,-19.531250
5571,-19.531250
5572,-19.531250
5573,-19.531250
5574,-15.625000
5575,-19.531250
5576,-19.531250
5577,-19.531250
5578,-19.531250
5579,-19.531250
5580,-19.531250
5581,-19.531250
5582,-19.531250
5583,-19.531250
5584,-19.531250
5585,-19.531250
5586,-19.531250
5587,-19.531250
5588,-19.531250
5589,-19.531250
5590,-19.531250
5591,-23.437500
5592,-23.437500
5593,-19.531250
5594,-23.437500
5595,-19.531250
5596,-23.437500
5597,-23.437500
5598,-23.437500
5599,-23.437500
5600,-23.437500
5601,-23.437500
5602,-23.437500
5603,-23.437500
5604,-23.437500
5605,-23.437500
5606,-23.437500
5607,-23.437500
5608,-23.437500
5609,-23.437500
5610,-23.437500
5611,-23.437500
5612,-23.437500
5613,-23.437500
5614,-23.437500
5615,-23.437500
5616,-23.437500
5617,-23.437500
5618,-27.343750
5619,-27.343750
5620,-27.343750
5621,-27.343750
5622,-27.343750
5623,-27.343750
5624,-27.343750
5625,-27.343750
5626,-27.343750
5627,-27.343750
5628,-27.343750
5629,-27.343750
5630,-27.343750
5631,-27.343750
5632,-27.343750
5633,-27.343750
5634,-27.343750
5635,-27.343750
5636,-27.343750
5637,-27.343750
5638,-27.343750
5639,-27.343750
5640,-31.250000
5641,-27.343750
5642,-27.343750
5643,-27.343750
5644,-27.343750
5645,-27.343750
5646,-27.343750
5647,-31.250000
5648,-31.250000
5649,-31.250000
5650,-31.250000
5651,-31.250000
5652,-31.250000
5653,-31.250000
5654,-31.250000
5655,-31.250000
5656,-31.250000
5657,-31.250000
5658,-31.250000
5659,-31.250000
5660,-31.250000
5661,-31.250000
5662,-31.250000
5663,-31.250000
5664,-31.250000
5665,-31.250000
5666,-31.250000
5667,-31.250000
5668,-31.250000
5669,-31.250000
5670,-31.250000
5671,-31.250000
5672,-35.156250
5673,-31.250000
5674,-31.250000
5675,-31.250000
5676,-31.250000
5677,-31.250000
5678,-35.156250
5679,-35.156250
5680,-35.156250
5681,-35.156250
5682,-35.156250
5683,-35.156250
5684,-35.156250
5685,-35.156250
5686,-35.156250
5687,-35.156250
5688,-35.156250
5689,-35.156250
5690,-35.156250
5691,-35.156250
5692,-35.156250
5693,-35.156250
5694,-35.156250
5695,-35.156250
5696,-35.156250
5697,-35.156250
5698,-35.156250
5699,-35.156250
5700,-35.156250
5701,-35.156250
5702,-35.156250
5703,-35.156250
5704,-35.156250
5705,-35.156250
5706,-35.156250
5707,-35.156250
5708,-35.156250
5709,-35.156250
5710,-39.062500
5711,-39.062500
5712,-35.156250
5713,-35.156250
5714,-35.156250
5715,-39.062500
5716,-39.062500
5717,-39.062500
5718,-39.062500
5719,-39.062500
5720,-39.062500
5721,-39.062500
5722,-39.062500
5723,-39.062500
5724,-39.062500
5725,-39.062500
5726,-39.062500
5727,-39.062500
5728,-39.062500
5729,-39.062500
5730,-39.062500
5731,-39.062500
5732,-39.062500
5733,-39.062500
5734,-39.062500
5735,-39.062500
5736,-39.062500
5737,-39.062500
5738,-39.062500
5739,-39.062500
5740,-39.062500
5741,-39.062500
5742,-39.062500
5743,-39.062500
5744,-39.062500
5745,-39.062500
5746,-39.062500
5747,-39.062500
5748,-39.062500
5749,-39.062500
5750,-39.062500
5751,-39.062500
5752,-39.062500
5753,-39.062500
5754,-39.062500
5755,-42.968750
5756,-39.062500
5757,-39.062500
5758,-39.062500
5759,-39.062500
5760,-39.062500
5761,-42.968750
5762,-39.062500
5763,-39.062500
5764,-42.968750
5765,-42.968750
5766,-42.968750
5767,-39.062500
5768,-42.968750
5769,-39.062500
5770,-42.968750
5771,-42.968750
5772,-39.062500
5773,-39.062500
5774,-42.968750
5775,-42.968750
5776,-42.968750
5777,-42.968750
5778,-42.968750
5779,-42.968750
5780,-42.968750
5781,-42.968750
5782,-42.968750
5783,-42.968750
5784,-42.968750
5785,-42.968750
5786,-42.968750
5787,-42.968750
5788,-42.968750
5789,-39.062500
5790,-42.968750
5791,-42.968750
5792,-42.968750
5793,-42.968750
5794,-42.968750
5795,-42.968750
5796,-42.968750
5797,-42.968750
5798,-39.062500
5799,-42.968750
5800,-42.968750
5801,-42.968750
5802,-42.968750
5803,-42.968750
5804,-42.968750
5805,-42.968750
5806,-42.968750
5807,-42.968750
5808,-42.968750
5809,-42.968750
5810,-42.968750
5811,-42.968750
5812,-42.968750
5813,-42.968750
5814,-39.062500
5815,-42.968750
5816,-42.968750
5817,-42.968750
5818,-42.968750
5819,-42.968750
5820,-42.968750
5821,-39.062500
5822,-42.968750
5823,-39.062500
5824,-39.062500
5825,-39.062500
5826,-42.968750
5827,-42.968750
5828,-42.968750
5829,-42.968750
5830,-42.968750
5831,-39.062500
5832,-39.062500
5833,-39.062500
5834,-39.062500
5835,-39.062500
5836,-42.968750
5837,-39.062500
5838,-39.062500
5839,-39.062500
5840,-39.062500
5841,-39.062500
5842,-39.062500
5843,-39.062500
5844,-39.062500
5845,-39.062500
5846,-42.968750
5847,-39.062500
5848,-39.062500
5849,-39.062500
5850,-39.062500
5851,-39.062500
5852,-39.062500
5853,-39.062500
5854,-39.062500
5855,-39.062500
5856,-39.062500
5857,-39.062500
5858,-39.062500
5859,-39.062500
5860,-39.062500
5861,-39.062500
5862,-39.062500
5863,-39.062500
5864,-39.062500
5865,-39.062500
5866,-39.062500
5867,-39.062500
5868,-39.062500
5869,-39.062500
5870,-39.062500
5871,-39.062500
5872,-39.062500
5873,-39.062500
5874,-39.062500
5875,-39.062500
5876,-39.062500
5877,-39.062500
5878,-39.062500
5879,-39.062500
5880,-39.062500
5881,-39.062500
5882,-39.062500
5883,-39.062500
5884,-39.062500
5885,-35.156250
5886,-39.062500
5887,-39.062500
5888,-39.062500
5889,-39.062500
5890,-35.156250
5891,-35.156250
5892,-35.156250
5893,-39.062500
5894,-39.062500
5895,-35.156250
5896,-35.156250
5897,-35.156250
5898,-35.156250
5899,-35.156250
5900,-35.156250
5901,-35.156250
5902,-35.156250
5903,-35.156250
5904,-35.156250
5905,-35.156250
5906,-35.156250
5907,-35.156250
5908,-35.156250
5909,-35.156250
5910,-35.156250
5911,-35.156250
5912,-35.156250
5913,-35.156250
5914,-35.156250
5915,-35.156250
5916,-35.156250
5917,-35.156250
5918,-35.156250
5919,-35.156250
5920,-35.156250
5921,-31.250000
5922,-35.156250
5923,-31.250000
5924,-31.250000
5925,-31.250000
5926,-31.250000
5927,-31.250000
5928,-31.250000
5929,-31.250000
5930,-31.250000
5931,-31.250000
5932,-31.250000
5933,-31.250000
5934,-31.250000
5935,-31.250000
5936,-31.250000
5937,-31.250000
5938,-31.250000
5939,-31.250000
5940,-31.250000
5941,-31.250000
5942,-31.250000
5943,-31.250000
5944,-27.343750
5945,-27.343750
5946,-31.250000
5947,-27.343750
5948,-27.343750
5949,-27.343750
5950,-27.343750
5951,-27.343750
5952,-27.343750
5953,-27.343750
5954,-27.343750
5955,-27.343750
5956,-27.343750
5957,-27.343750
5958,-27.343750
5959,-27.343750
5960,-27.343750
5961,-27.343750
5962,-27.343750
5963,-27.343750
5964,-27.343750
5965,-27.343750
5966,-27.343750
5967,-23.437500
5968,-27.343750
5969,-23.437500
5970,-23.437500
5971,-23.437500
5972,-23.437500
5973,-23.437500
5974,-27.343750
5975,-23.437500
5976,-23.437500
5977,-23.437500
5978,-23.437500
5979,-23.437500
5980,-23.437500
5981,-23.437500
5982,-23.437500
5983,-23.437500
5984,-23.437500
5985,-23.437500
5986,-23.437500
5987,-23.437500
5988,-23.437500
5989,-23.437500
5990,-23.437500
5991,-23.437500
5992,-19.531250
5993,-23.437500
5994,-19.531250
5995,-23.437500
5996,-19.531250
5997,-23.437500
5998,-19.531250
5999,-19.531250
6000,-19.531250
6001,-19.531250
6002,-19.531250
6003,-19.531250
6004,-19.531250
6005,-19.531250
6006,-19.531250
6007,-19.531250
6008,-19.531250
6009,-19.531250
6010,-19.531250
6011,-19.531250
6012,-19.531250
6013,-19.531250
6014,-19.531250
6015,-15.625000
6016,-19.531250
6017,-19.531250
6018,-15.625000
6019,-15.625000
6020,-15.625000
6021,-15.625000
6022,-15.625000
6023,-15.625000
6024,-15.625000
6025,-15.625000
6026,-15.625000
6027,-15.625000
6028,-15.625000
6029,-15.625000
6030,-15.625000
6031,-15.625000
6032,-15.625000
6033,-15.625000
6034,-15.625000
6035,-15.625000
6036,-15.625000
6037,-15.625000
6038,-11.718750
6039,-11.718750
6040,-11.718750
6041,-11.718750
6042,-11.718750
6043,-11.718750
6044,-11.718750
6045,-11.718750
6046,-11.718750
6047,-11.718750
6048,-11.718750
6049,-11.718750
6050,-11.718750
6051,-11.718750
6052,-11.718750
6053,-11.718750
6054,-11.718750
6055,-11.718750
6056,-11.718750
6057,-7.812500
6058,-7.812500
6059,-7.812500
6060,-7.812500
6061,-7.812500
6062,-7.812500
6063,-7.812500
6064,-7.812500
6065,-7.812500
6066,-7.812500
6067,-7.812500
6068,-7.812500
6069,-7.812500
6070,-7.812500
6071,-7.812500
6072,-7.812500
6073,-7.812500
6074,-7.812500
6075,-7.812500
6076,-7.812500
6077,-7.812500
6078,-3.906250
6079,-3.906250
6080,-7.812500
6081,-3.906250
6082,-3.906250
6083,-3.906250
6084,-3.906250
6085,-3.906250
6086,-3.906250
6087,-3.906250
6088,-3.906250
6089,-3.906250
6090,-3.906250
6091,-3.906250
6092,-3.906250
6093,-3.906250
6094,-3.906250
6095,-3.906250
6096,-3.906250
6097,-3.906250
6098,-3.906250
6099,-3.906250
6100,-3.906250
6101,-3.906250
6102,-3.906250
6103,0.000000
6104,0.000000
6105,0.000000
6106,0.000000
6107,-3.906250
6108,0.000000
6109,0.000000
6110,0.000000
6111,0.000000
6112,0.000000
6113,0.000000
6114,0.000000
6115,0.000000
6116,0.000000
6117,0.000000
6118,0.000000
6119,0.000000
6120,0.000000
6121,0.000000
6122,0.000000
6123,0.000000
6124,0.000000
6125,0.000000
6126,0.000000
6127,0.000000
6128,0.000000
6129,0.000000
6130,0.000000
6131,3.906250
6132,3.906250
6133,0.000000
6134,0.000000
6135,3.906250
6136,3.906250
6137,3.906250
6138,3.906250
6139,3.906250
6140,3.906250
6141,3.906250
6142,3.906250
6143,3.906250
6144,3.906250
6145,3.906250
6146,3.906250
6147,3.906250
6148,3.906250
6149,3.906250
6150,3.906250
6151,3.906250
6152,3.906250
6153,3.906250
6154,3.906250
6155,3.906250
6156,3.906250
6157,3.906250
6158,3.906250
6159,3.906250
6160,7.812500
6161,7.812500
6162,7.812500
6163,3.906250
6164,7.812500
6165,3.906250
6166,7.812500
6167,7.812500
6168,7.812500
6169,3.906250
6170,7.812500
6171,7.812500
6172,7.812500
6173,7.812500
6174,7.812500
6175,7.812500
6176,7.812500
6177,7.812500
6178,7.812500
6179,7.812500
6180,7.812500
6181,7.812500
6182,7.812500
6183,7.812500
6184,7.812500
6185,7.812500
6186,7.812500
6187,7.812500
6188,7.812500
6189,7.812500
6190,7.812500
6191,7.812500
6192,7.812500
6193,7.812500
6194,7.812500
6195,7.812500
6196,7.812500
6197,7.812500
6198,7.812500
6199,7.812500
6200,11.718750
6201,7.812500
6202,7.812500
6203,7.812500
6204,7.812500
6205,11.718750
6206,11.718750
6207,11.718750
6208,7.812500
6209,11.718750
6210,7.812500
6211,11.718750
6212,11.718750
6213,11.718750
6214,11.718750
6215,11.718750
6216,11.718750
6217,11.718750
6218,11.718750
6219,11.718750
6220,11.718750
6221,11.718750
6222,11.718750
6223,11.718750
6224,11.718750
6225,11.718750
6226,11.718750
6227,11.718750
6228,11.718750
6229,11.718750
6230,11.718750
6231,11.718750
6232,11.718750
6233,11.718750
6234,11.718750
6235,11.718750
6236,11.718750
6237,11.718750
6238,11.718750
6239,11.718750
6240,11.718750
6241,11.718750
6242,11.718750
6243,11.718750
6244,11.718750
6245,11.718750
6246,11.718750
6247,11.718750
6248,11.718750
6249,11.718750
6250,11.718750
6251,11.718750
6252,11.718750
6253,11.718750
6254,11.718750
6255,11.718750
6256,11.718750
6257,11.718750
6258,11.718750
6259,11.718750
6260,11.718750
6261,11.718750
6262,11.718750
6263,11.718750
6264,11.718750
6265,11.718750
6266,11.718750
6267,7.812500
6268,11.718750
6269,11.718750
6270,11.718750
6271,11.718750
6272,11.718750
6273,11.718750
6274,11.718750
6275,11.718750
6276,11.718750
6277,11.718750
6278,11.718750
6279,11.718750
6280,11.718750
6281,11.718750
6282,11.718750
6283,11.718750
6284,11.718750
6285,11.718750
6286,11.718750
6287,11.718750
6288,11.718750
6289,11.718750
6290,11.718750
6291,11.718750
6292,11.718750
6293,11.718750
6294,11.718750
6295,11.718750
6296,11.718750
6297,11.718750
6298,11.718750
6299,11.718750
6300,11.718750
6301,11.718750
6302,11.718750
6303,11.718750
6304,11.718750
6305,11.718750
6306,11.718750
6307,11.718750
6308,11.718750
6309,11.718750
6310,11.718750
6311,11.718750
6312,11.718750
6313,11.718750
6314,11.718750
6315,11.718750
6316,11.718750
6317,11.718750
6318,11.718750
6319,11.718750
6320,11.718750
6321,11.718750
6322,11.718750
6323,11.718750
6324,11.718750
6325,11.718750
6326,11.718750
6327,11.718750
6328,11.718750
6329,11.718750
6330,7.812500
6331,11.718750
6332,11.718750
6333,11.718750
6334,11.718750
6335,11.718750
6336,11.718750
6337,11.718750
6338,7.812500
6339,7.812500
6340,7.812500
6341,7.812500
6342,7.812500
6343,7.812500
6344,7.812500
6345,7.812500
6346,7.812500
6347,7.812500
6348,7.812500
6349,7.812500
6350,7.812500
6351,7.812500
6352,7.812500
6353,7.812500
6354,7.812500
6355,7.812500
6356,7.812500
6357,7.812500
6358,7.812500
6359,7.812500
6360,7.812500
6361,7.812500
6362,7.812500
6363,7.812500
6364,7.812500
6365,7.812500
6366,7.812500
6367,7.812500
6368,7.812500
6369,7.812500
6370,7.812500
6371,7.812500
6372,7.812500
6373,7.812500
6374,3.906250
6375,7.812500
6376,7.812500
6377,3.906250
6378,3.906250
6379,3.906250
6380,3.906250
6381,3.906250
6382,3.906250
6383,3.906250
6384,3.906250
6385,3.906250
6386,3.906250
6387,3.906250
6388,3.906250
6389,3.906250
6390,3.906250
6391,3.906250
6392,3.906250
6393,3.906250
6394,3.906250
6395,3.906250
6396,3.906250
6397,3.906250
6398,3.906250
6399,3.906250
6400,3.906250
6401,3.906250
6402,3.906250
6403,3.906250
6404,3.906250
6405,3.906250
6406,3.906250
6407,3.906250
6408,3.906250
6409,3.906250
6410,3.906250
6411,3.906250
6412,3.906250
6413,3.906250
6414,3.906250
6415,3.906250
6416,3.906250
6417,3.906250
6418,0.000000
6419,0.000000
6420,0.000000
6421,0.000000
6422,0.000000
6423,3.906250
6424,0.000000
6425,0.000000
6426,0.000000
6427,0.000000
6428,0.000000
6429,0.000000
6430,0.000000
6431,0.000000
6432,0.000000
6433,0.000000
6434,0.000000
6435,0.000000
6436,0.000000
6437,0.000000
6438,0.000000
6439,0.000000
6440,0.000000
6441,0.000000
6442,0.000000
6443,0.000000
6444,0.000000
6445,0.000000
6446,0.000000
6447,0.000000
6448,0.000000
6449,0.000000
6450,0.000000
6451,0.000000
6452,-3.906250
6453,0.000000
6454,-3.906250
6455,0.000000
6456,-3.906250
6457,-3.906250
6458,-3.906250
6459,-3.906250
6460,-3.906250
6461,-3.906250
6462,-3.906250
6463,-3.906250
6464,-3.906250
6465,-3.906250
6466,-3.906250
6467,-3.906250
6468,-3.906250
6469,-3.906250
6470,-3.906250
6471,-3.906250
6472,-3.906250
6473,-3.906250
6474,-3.906250
6475,-3.906250
6476,-3.906250
6477,-7.812500
6478,-3.906250
6479,-3.906250
6480,-3.906250
6481,-3.906250
6482,-3.906250
6483,-3.906250
6484,-7.812500
6485,-3.906250
6486,-7.812500
6487,-7.812500
6488,-7.812500
6489,-7.812500
6490,-7.812500
6491,-7.812500
6492,-7.812500
6493,-7.812500
6494,-7.812500
6495,-7.812500
6496,-7.812500
6497,-7.812500
6498,-7.812500
6499,-7.812500
6500,-7.812500
6501,-7.812500
6502,-7.812500
6503,-7.812500
6504,-11.718750
6505,-7.812500
6506,-7.812500
6507,-11.718750
6508,-11.718750
6509,-7.812500
6510,-11.718750
6511,-7.812500
6512,-11.718750
6513,-11.718750
6514,-11.718750
6515,-11.718750
6516,-11.718750
6517,-11.718750
6518,-11.718750
6519,-11.718750
6520,-11.718750
6521,-11.718750
6522,-11.718750
6523,-11.718750
6524,-11.718750
6525,-15.625000
6526,-11.718750
6527,-11.718750
6528,-11.718750
6529,-11.718750
6530,-11.718750
6531,-11.718750
6532,-15.625000
6533,-11.718750
6534,-15.625000
6535,-15.625000
6536,-15.625000
6537,-15.625000
6538,-15.625000
6539,-15.625000
6540,-15.625000
6541,-15.625000
6542,-15.625000
6543,-15.625000
6544,-15.625000
6545,-15.625000
6546,-15.625000
6547,-15.625000
6548,-15.625000
6549,-15.625000
6550,-15.625000
6551,-15.625000
6552,-15.625000
6553,-15.625000
6554,-15.625000
6555,-15.625000
6556,-15.625000
6557,-15.625000
6558,-15.625000
6559,-15.625000
6560,-19.531250
6561,-19.531250
6562,-19.531250
6563,-19.531250
6564,-19.531250
6565,-19.531250
6566,-19.531250
6567,-19.531250
6568,-19.531250
6569,-19.531250
6570,-19.531250
6571,-19.531250
6572,-19.531250
6573,-19.531250
6574,-19.531250
6575,-19.531250
6576,-19.531250
6577,-19.531250
6578,-19.531250
6579,-19.531250
6580,-19.531250
6581,-19.531250
6582,-19.531250
6583,-19.531250
6584,-19.531250
6585,-19.531250
6586,-23.437500
6587,-23.437500
6588,-23.437500
6589,-19.531250
6590,-23.437500
6591,-23.437500
6592,-23.437500
6593,-23.437500
6594,-23.437500
6595,-23.437500
6596,-23.437500
6597,-23.437500
6598,-23.437500
6599,-23.437500
6600,-23.437500
6601,-23.437500
6602,-23.437500
6603,-23.437500
6604,-23.437500
6605,-23.437500
6606,-23.437500
6607,-23.437500
6608,-27.343750
6609,-27.343750
6610,-23.437500
6611,-27.343750
6612,-27.343750
6613,-27.343750
6614,-27.343750
6615,-27.343750
6616,-27.343750
6617,-27.343750
6618,-27.343750
6619,-27.343750
6620,-27.343750
6621,-27.343750
6622,-27.343750
6623,-27.343750
6624,-27.343750
6625,-27.343750
6626,-27.343750
6627,-27.343750
6628,-27.343750
6629,-27.343750
6630,-27.343750
6631,-27.343750
6632,-27.343750
6633,-27.343750
6634,-31.250000
6635,-31.250000
6636,-31.250000
6637,-31.250000
6638,-31.250000
6639,-31.250000
6640,-31.250000
6641,-31.250000
6642,-31.250000
6643,-31.250000
6644,-31.250000
6645,-31.250000
6646,-31.250000
6647,-31.250000
6648,-31.250000
6649,-31.250000
6650,-31.250000
6651,-31.250000
6652,-31.250000
6653,-31.250000
6654,-31.250000
6655,-31.250000
6656,-31.250000
6657,-31.250000
6658,-27.343750
6659,-31.250000
6660,-31.250000
6661,-27.343750
6662,-31.250000
6663,-35.156250
6664,-31.250000
6665,-35.156250
6666,-35.156250
6667,-31.250000
6668,-35.156250
6669,-35.156250
6670,-31.250000
6671,-35.156250
6672,-35.156250
6673,-35.156250
6674,-35.156250
6675,-35.156250
6676,-35.156250
6677,-35.156250
6678,-35.156250
6679,-35.156250
6680,-35.156250
6681,-35.156250
6682,-35.156250
6683,-35.156250
6684,-35.156250
6685,-35.156250
6686,-35.156250
6687,-35.156250
6688,-35.156250
6689,-35.156250
6690,-35.156250
6691,-35.156250
6692,-35.156250
6693,-35.156250
6694,-35.156250
6695,-35.156250
6696,-39.062500
6697,-35.156250
6698,-35.156250
6699,-35.156250
6700,-35.156250
6701,-35.156250
6702,-35.156250
6703,-35.156250
6704,-35.156250
6705,-35.156250
6706,-39.062500
6707,-39.062500
6708,-39.062500
6709,-35.156250
6710,-35.156250
6711,-39.062500
6712,-39.062500
6713,-39.062500
6714,-39.062500
6715,-39.062500
6716,-39.062500
6717,-39.062500
6718,-39.062500
6719,-39.062500
6720,-39.062500
6721,-39.062500
6722,-39.062500
6723,-35.156250
6724,-39.062500
6725,-39.062500
6726,-39.062500
6727,-39.062500
6728,-39.062500
6729,-39.062500
6730,-39.062500
6731,-39.062500
6732,-39.062500
6733,-39.062500
6734,-39.062500
6735,-39.062500
6736,-39.062500
6737,-39.062500
6738,-39.062500
6739,-39.062500
6740,-39.062500
6741,-39.062500
6742,-39.062500
6743,-39.062500
6744,-39.062500
6745,-39.062500
6746,-39.062500
6747,-39.062500
6748,-39.062500
6749,-39.062500
6750,-39.062500
6751,-39.062500
6752,-39.062500
6753,-39.062500
6754,-39.062500
6755,-39.062500
6756,-39.062500
6757,-39.062500
6758,-42.968750
6759,-39.062500
6760,-42.968750
6761,-42.968750
6762,-39.062500
6763,-39.062500
6764,-42.968750
6765,-42.968750
6766,-42.968750
6767,-42.968750
6768,-42.968750
6769,-42.968750
6770,-42.968750
6771,-42.968750
6772,-42.968750
6773,-42.968750
6774,-42.968750
6775,-42.968750
6776,-42.968750
6777,-42.968750
6778,-42.968750
6779,-42.968750
6780,-42.968750
6781,-42.968750
6782,-42.968750
6783,-42.968750
6784,-42.968750
6785,-42.968750
6786,-42.968750
6787,-42.968750
6788,-42.968750
6789,-42.968750
6790,-42.968750
6791,-42.968750
6792,-42.968750
6793,-42.968750
6794,-42.968750
6795,-42.968750
6796,-42.968750
6797,-42.968750
6798,-42.968750
6799,-42.968750
6800,-42.968750
6801,-42.968750
6802,-42.968750
6803,-42.968750
6804,-42.968750
6805,-42.968750
6806,-42.968750
6807,-42.968750
6808,-42.968750
6809,-42.968750
6810,-42.968750
6811,-42.968750
6812,-39.062500
6813,-42.968750
6814,-42.968750
6815,-42.968750
6816,-42.968750
6817,-42.968750
6818,-42.968750
6819,-42.968750
6820,-42.968750
6821,-42.968750
6822,-39.062500
6823,-39.062500
6824,-39.062500
6825,-39.062500
6826,-39.062500
6827,-42.968750
6828,-39.062500
6829,-42.968750
6830,-39.062500
6831,-39.062500
6832,-39.062500
6833,-39.062500
6834,-39.062500
6835,-39.062500
6836,-39.062500
6837,-39.062500
6838,-39.062500
6839,-39.062500
6840,-39.062500
6841,-39.062500
6842,-39.062500
6843,-39.062500
6844,-39.062500
6845,-39.062500
6846,-39.062500
6847,-39.062500
6848,-39.062500
6849,-39.062500
6850,-39.062500
6851,-39.062500
6852,-39.062500
6853,-39.062500
6854,-39.062500
6855,-39.062500
6856,-39.062500
6857,-39.062500
6858,-39.062500
6859,-39.062500
6860,-39.062500
6861,-39.062500
6862,-39.062500
6863,-39.062500
6864,-39.062500
6865,-39.062500
6866,-39.062500
6867,-39.062500
6868,-39.062500
6869,-39.062500
6870,-39.062500
6871,-39.062500
6872,-35.156250
6873,-35.156250
6874,-35.156250
6875,-35.156250
6876,-39.062500
6877,-39.062500
6878,-35.156250
6879,-35.156250
6880,-35.156250
6881,-35.156250
6882,-35.156250
6883,-35.156250
6884,-35.156250
6885,-35.156250
6886,-35.156250
6887,-35.156250
6888,-35.156250
6889,-35.156250
6890,-35.156250
6891,-35.156250
6892,-35.156250
6893,-35.156250
6894,-35.156250
6895,-35.156250
6896,-35.156250
6897,-35.156250
6898,-35.156250
6899,-35.156250
6900,-35.156250
6901,-35.156250
6902,-35.156250
6903,-35.156250
6904,-35.156250
6905,-35.156250
6906,-35.156250
6907,-31.250000
6908,-35.156250
6909,-35.156250
6910,-31.250000
6911,-31.250000
6912,-31.250000
6913,-35.156250
6914,-31.250000
6915,-31.250000
6916,-31.250000
6917,-31.250000
6918,-31.250000
6919,-31.250000
6920,-31.250000
6921,-31.250000
6922,-31.250000
6923,-31.250000
6924,-31.250000
6925,-31.250000
6926,-31.250000
6927,-31.250000
6928,-31.250000
6929,-31.250000
6930,-31.250000
6931,-31.250000
6932,-27.343750
6933,-27.343750
6934,-31.250000
6935,-27.343750
6936,-27.343750
6937,-31.250000
6938,-27.343750
6939,-27.343750
6940,-27.343750
6941,-27.343750
6942,-27.343750
6943,-27.343750
6944,-27.343750
6945,-27.343750
6946,-27.343750
6947,-27.343750
6948,-27.343750
6949,-27.343750
6950,-27.343750
6951,-27.343750
6952,-27.343750
6953,-27.343750
6954,-27.343750
6955,-23.437500
6956,-27.343750
6957,-27.343750
6958,-27.343750
6959,-27.343750
6960,-23.437500
6961,-23.437500
6962,-23.437500
6963,-23.437500
6964,-23.437500
6965,-23.437500
6966,-23.437500
6967,-23.437500
6968,-23.437500
6969,-23.437500
6970,-23.437500
6971,-23.437500
6972,-23.437500
6973,-23.437500
6974,-23.437500
6975,-23.437500
6976,-23.437500
6977,-23.437500
6978,-23.437500
6979,-23.437500
6980,-19.531250
6981,-19.531250
6982,-19.531250
6983,-19.531250
6984,-19.531250
6985,-19.531250
6986,-19.531250
6987,-19.531250
6988,-19.531250
6989,-19.531250
6990,-19.531250
6991,-19.531250
6992,-19.531250
6993,-19.531250
6994,-19.531250
6995,-19.531250
6996,-19.531250
6997,-19.531250
6998,-19.531250
6999,-19.531250
7000,-19.531250
7001,-19.531250
7002,-19.531250
7003,-15.625000
7004,-19.531250
7005,-15.625000
7006,-15.625000
7007,-15.625000
7008,-15.625000
7009,-15.625000
7010,-15.625000
7011,-15.625000
7012,-15.625000
7013,-15.625000
7014,-15.625000
7015,-15.625000
7016,-15.625000
7017,-15.625000
7018,-15.625000
7019,-15.625000
7020,-15.625000
7021,-15.625000
7022,-15.625000
7023,-11.718750
7024,-15.625000
7025,-11.718750
7026,-11.718750
7027,-11.718750
7028,-11.718750
7029,-11.718750
7030,-11.718750
7031,-11.718750
7032,-11.718750
7033,-11.718750
7034,-11.718750
7035,-11.718750
7036,-11.718750
7037,-11.718750
7038,-11.718750
7039,-11.718750
7040,-11.718750
7041,-11.718750
7042,-11.718750
7043,-11.718750
7044,-11.718750
7045,-11.718750
7046,-7.812500
7047,-7.812500
7048,-7.812500
7049,-7.812500
7050,-7.812500
7051,-7.812500
7052,-7.812500
7053,-7.812500
7054,-7.812500
7055,-7.812500
7056,-7.812500
7057,-7.812500
7058,-7.812500
7059,-7.812500
7060,-7.812500
7061,-7.812500
7062,-7.812500
7063,-7.812500
7064,-7.812500
7065,-7.812500
7066,-7.812500
7067,-7.812500
7068,-7.812500
7069,-3.906250
7070,-7.812500
7071,-7.812500
7072,-3.906250
7073,-3.906250
7074,-3.906250
7075,-3.906250
7076,-3.906250
7077,-3.906250
7078,-3.906250
7079,-3.906250
7080,-3.906250
7081,-3.906250
7082,-3.906250
7083,-3.906250
7084,-3.906250
7085,-3.906250
7086,-3.906250
7087,-3.906250
7088,-3.906250
7089,-3.906250
7090,-3.906250
7091,0.000000
7092,-3.906250
7093,0.000000
7094,0.000000
7095,0.000000
7096,0.000000
7097,0.000000
7098,0.000000
7099,0.000000
7100,0.000000
7101,0.000000
7102,0.000000
7103,0.000000
7104,0.000000
7105,0.000000
7106,0.000000
7107,0.000000
7108,0.000000
7109,0.000000
7110,0.000000
7111,0.000000
7112,0.000000
7113,0.000000
7114,0.000000
7115,0.000000
7116,0.000000
7117,0.000000
7118,0.000000
7119,0.000000
7120,3.906250
7121,3.906250
7122,3.906250
7123,3.906250
7124,3.906250
7125,3.906250
7126,3.906250
7127,3.906250
7128,3.906250
7129,3.906250
7130,3.906250
7131,3.906250
7132,3.906250
7133,3.906250
7134,3.906250
7135,3.906250
7136,3.906250
7137,3.906250
7138,3.906250
7139,3.906250
7140,3.906250
7141,3.906250
7142,3.906250
7143,3.906250
7144,3.906250
7145,3.906250
7146,3.906250
7147,3.906250
7148,3.906250
7149,3.906250
7150,3.906250
7151,7.812500
7152,7.812500
7153,3.906250
7154,3.906250
7155,7.812500
7156,7.812500
7157,7.812500
7158,3.906250
7159,7.812500
7160,7.812500
7161,3.906250
7162,7.812500
7163,7.812500
7164,7.812500
7165,7.812500
7166,7.812500
7167,7.812500
7168,7.812500
7169,7.812500
7170,7.812500
7171,7.812500
7172,7.812500
7173,7.812500
7174,7.812500
7175,7.812500
7176,7.812500
7177,7.812500
7178,7.812500
7179,7.812500
7180,7.812500
7181,7.812500
7182,7.812500
7183,7.812500
7184,7.812500
7185,7.812500
7186,7.812500
7187,7.812500
7188,7.812500
7189,7.812500
7190,7.812500
7191,7.812500
7192,7.812500
7193,7.812500
7194,7.812500
7195,7.812500
7196,7.812500
7197,7.812500
7198,7.812500
7199,7.812500
7200,7.812500
7201,7.812500
7202,7.812500
7203,11.718750
7204,7.812500
7205,11.718750
7206,11.718750
7207,11.718750
7208,11.718750
7209,7.812500
7210,7.812500
7211,11.718750
7212,11.718750
7213,11.718750
7214,11.718750
7215,11.718750
7216,11.718750
7217,11.718750
7218,11.718750
7219,11.718750
7220,11.718750
7221,11.718750
7222,11.718750
7223,11.718750
7224,11.718750
7225,11.718750
7226,11.718750
7227,11.718750
7228,11.718750
7229,11.718750
7230,11.718750
7231,11.718750
7232,11.718750
7233,11.718750
7234,11.718750
7235,11.718750
7236,11.718750
7237,11.718750
7238,11.718750
7239,11.718750
7240,11.718750
7241,11.718750
7242,11.718750
7243,11.718750
7244,11.718750
7245,11.718750
7246,11.718750
7247,11.718750
7248,11.718750
7249,11.718750
7250,11.718750
7251,11.718750
7252,11.718750
7253,11.718750
7254,11.718750
7255,11.718750
7256,11.718750
7257,11.718750
7258,11.718750
7259,11.718750
7260,11.718750
7261,11.718750
7262,11.718750
7263,11.718750
7264,11.718750
7265,11.718750
7266,11.718750
7267,11.718750
7268,11.718750
7269,11.718750
7270,11.718750
7271,11.718750
7272,11.718750
7273,11.718750
7274,11.718750
7275,11.718750
7276,11.718750
7277,11.718750
7278,11.718750
7279,11.718750
7280,11.718750
7281,11.718750
7282,11.718750
7283,11.718750
7284,11.718750
7285,11.718750
7286,11.718750
7287,11.718750
7288,11.718750
7289,11.718750
7290,11.718750
7291,11.718750
7292,11.718750
7293,11.718750
7294,11.718750
7295,11.718750
7296,11.718750
7297,11.718750
7298,11.718750
7299,11.718750
7300,11.718750
7301,11.718750
7302,11.718750
7303,11.718750
7304,11.718750
7305,11.718750
7306,11.718750
7307,11.718750
7308,11.718750
7309,11.718750
7310,7.812500
7311,7.812500
7312,11.718750
7313,11.718750
7314,11.718750
7315,11.718750
7316,7.812500
7317,7.812500
7318,7.812500
7319,11.718750
7320,7.812500
7321,7.812500
7322,7.812500
7323,7.812500
7324,7.812500
7325,7.812500
7326,7.812500
7327,7.812500
7328,7.812500
7329,7.812500
7330,7.812500
7331,7.812500
7332,7.812500
7333,7.812500
7334,7.812500
7335,7.812500
7336,7.812500
7337,7.812500
7338,7.812500
7339,7.812500
7340,7.812500
7341,7.812500
7342,7.812500
7343,7.812500
7344,7.812500
7345,7.812500
7346,7.812500
7347,7.812500
7348,7.812500
7349,7.812500
7350,7.812500
7351,7.812500
7352,7.812500
7353,7.812500
7354,7.812500
7355,7.812500
7356,7.812500
7357,7.812500
7358,7.812500
7359,7.812500
7360,7.812500
7361,7.812500
7362,7.812500
7363,7.812500
7364,7.812500
7365,7.812500
7366,7.812500
7367,7.812500
7368,3.906250
7369,7.812500
7370,7.812500
7371,7.812500
7372,7.812500
7373,7.812500
7374,7.812500
7375,3.906250
7376,7.812500
7377,7.812500
7378,7.812500
7379,7.812500
7380,3.906250
7381,3.906250
7382,3.906250
7383,3.906250
7384,3.906250
7385,3.906250
7386,3.906250
7387,3.906250
7388,3.906250
7389,3.906250
7390,3.906250
7391,3.906250
7392,3.906250
7393,3.906250
7394,3.906250
7395,3.906250
7396,3.906250
7397,3.906250
7398,3.906250
7399,3.906250
7400,3.906250
7401,3.906250
7402,3.906250
7403,3.906250
7404,3.906250
7405,3.906250
7406,3.906250
7407,3.906250
7408,3.906250
7409,3.906250
7410,0.000000
7411,0.000000
7412,3.906250
7413,3.906250
7414,0.000000
7415,0.000000
7416,0.000000
7417,0.000000
7418,0.000000
7419,0.000000
7420,0.000000
7421,0.000000
7422,0.000000
7423,0.000000
7424,0.000000
7425,0.000000
7426,0.000000
7427,0.000000
7428,0.000000
7429,0.000000
7430,0.000000
7431,0.000000
7432,0.000000
7433,0.000000
7434,-3.906250
7435,0.000000
7436,0.000000
7437,0.000000
7438,-3.906250
7439,0.000000
7440,0.000000
7441,-3.906250
7442,0.000000
7443,0.000000
7444,-3.906250
7445,-3.906250
7446,-3.906250
7447,-3.906250
7448,-3.906250
7449,-3.906250
7450,-3.906250
7451,-3.906250
7452,-3.906250
7453,-3.906250
7454,-3.906250
7455,-3.906250
7456,-3.906250
7457,-3.906250
7458,-3.906250
7459,-3.906250
7460,-3.906250
7461,-3.906250
7462,-3.906250
7463,-3.906250
7464,-3.906250
7465,-3.906250
7466,-3.906250
7467,-3.906250
7468,-7.812500
7469,-7.812500
7470,-7.812500
7471,-7.812500
7472,-7.812500
7473,-7.812500
7474,-7.812500
7475,-7.812500
7476,-7.812500
7477,-7.812500
7478,-7.812500
7479,-7.812500
7480,-7.812500
7481,-7.812500
7482,-7.812500
7483,-7.812500
7484,-7.812500
7485,-7.812500
7486,-7.812500
7487,-7.812500
7488,-7.812500
7489,-7.812500
7490,-7.812500
7491,-7.812500
7492,-7.812500
7493,-7.812500
7494,-7.812500
7495,-7.812500
7496,-7.812500
7497,-7.812500
7498,-11.718750
7499,-11.718750
7500,-11.718750
7501,-11.718750
7502,-11.718750
7503,-11.718750
7504,-11.718750
7505,-11.718750
7506,-11.718750
7507,-11.718750
7508,-11.718750
7509,-11.718750
7510,-11.718750
7511,-11.718750
7512,-11.718750
7513,-11.718750
7514,-11.718750
7515,-11.718750
7516,-11.718750
7517,-11.718750
7518,-11.718750
7519,-11.718750
7520,-11.718750
7521,-11.718750
7522,-15.625000
7523,-15.625000
7524,-15.625000
7525,-11.718750
7526,-15.625000
7527,-11.718750
7528,-15.625000
7529,-15.625000
7530,-15.625000
7531,-15.625000
7532,-15.625000
7533,-15.625000
7534,-15.625000
7535,-15.625000
7536,-15.625000
7537,-15.625000
7538,-15.625000
7539,-15.625000
7540,-15.625000
7541,-15.625000
7542,-15.625000
7543,-15.625000
7544,-15.625000
7545,-15.625000
7546,-19.531250
7547,-15.625000
7548,-15.625000
7549,-19.531250
7550,-19.531250
7551,-19.531250
7552,-19.531250
7553,-19.531250
7554,-19.531250
7555,-19.531250
7556,-19.531250
7557,-19.531250
7558,-19.531250
7559,-19.531250
7560,-19.531250
7561,-19.531250
7562,-19.531250
7563,-19.531250
7564,-19.531250
7565,-19.531250
7566,-19.531250
7567,-19.531250
7568,-19.531250
7569,-23.437500
7570,-19.531250
7571,-23.437500
7572,-23.437500
7573,-23.437500
7574,-23.437500
7575,-23.437500
7576,-23.437500
7577,-23.437500
7578,-23.437500
7579,-23.437500
7580,-23.437500
7581,-23.437500
7582,-23.437500
7583,-23.437500
7584,-23.437500
7585,-23.437500
7586,-23.437500
7587,-23.437500
7588,-23.437500
7589,-23.437500
7590,-23.437500
7591,-23.437500
7592,-23.437500
7593,-23.437500
7594,-23.437500
7595,-23.437500
7596,-23.437500
7597,-27.343750
7598,-27.343750
7599,-27.343750
7600,-27.343750
7601,-27.343750
7602,-27.343750
7603,-27.343750
7604,-27.343750
7605,-27.343750
7606,-27.343750
7607,-27.343750
7608,-27.343750
7609,-27.343750
7610,-27.343750
7611,-27.343750
7612,-27.343750
7613,-27.343750
7614,-27.343750
7615,-27.343750
7616,-27.343750
7617,-27.343750
7618,-27.343750
7619,-27.343750
7620,-27.343750
7621,-27.343750
7622,-27.343750
7623,-27.343750
7624,-31.250000
7625,-27.343750
7626,-31.250000
7627,-31.250000
7628,-31.250000
7629,-27.343750
7630,-31.250000
7631,-31.250000
7632,-31.250000
7633,-31.250000
7634,-31.250000
7635,-31.250000
7636,-31.250000
7637,-31.250000
7638,-31.250000
7639,-31.250000
7640,-31.250000
7641,-31.250000
7642,-31.250000
7643,-31.250000
7644,-31.250000
7645,-31.250000
7646,-31.250000
7647,-31.250000
7648,-31.250000
7649,-31.250000
7650,-31.250000
7651,-31.250000
7652,-31.250000
7653,-31.250000
7654,-31.250000
7655,-31.250000
7656,-31.250000
7657,-35.156250
7658,-35.156250
7659,-35.156250
7660,-35.156250
7661,-35.156250
7662,-35.156250
7663,-35.156250
7664,-35.156250
7665,-35.156250
7666,-35.156250
7667,-35.156250
7668,-35.156250
7669,-35.156250
7670,-35.156250
7671,-35.156250
7672,-35.156250
7673,-35.156250
7674,-35.156250
7675,-35.156250
7676,-35.156250
7677,-35.156250
7678,-35.156250
7679,-35.156250
7680,-35.156250
7681,-35.156250
7682,-39.062500
7683,-35.156250
7684,-35.156250
7685,-35.156250
7686,-35.156250
7687,-35.156250
7688,-39.062500
7689,-39.062500
7690,-39.062500
7691,-39.062500
7692,-39.062500
7693,-39.062500
7694,-39.062500
7695,-39.062500
7696,-39.062500
7697,-39.062500
7698,-39.062500
7699,-39.062500
7700,-39.062500
7701,-39.062500
7702,-39.062500
7703,-39.062500
7704,-39.062500
7705,-39.062500
7706,-39.062500
7707,-39.062500
7708,-39.062500
7709,-39.062500
7710,-39.062500
7711,-39.062500
7712,-39.062500
7713,-39.062500
7714,-39.062500
7715,-39.062500
7716,-39.062500
7717,-39.062500
7718,-39.062500
7719,-39.062500
7720,-39.062500
7721,-39.062500
7722,-39.062500
7723,-39.062500
7724,-39.062500
7725,-39.062500
7726,-42.968750
7727,-39.062500
7728,-39.062500
7729,-39.062500
7730,-39.062500
7731,-39.062500
7732,-39.062500
7733,-39.062500
7734,-39.062500
7735,-39.062500
7736,-42.968750
7737,-39.062500
7738,-42.968750
7739,-39.062500
7740,-39.062500
7741,-39.062500
7742,-39.062500
7743,-42.968750
7744,-39.062500
7745,-42.968750
7746,-42.968750
7747,-42.968750
7748,-42.968750
7749,-39.062500
7750,-39.062500
7751,-42.968750
7752,-42.968750
7753,-42.968750
7754,-39.062500
7755,-39.062500
7756,-42.968750
7757,-42.968750
7758,-42.968750
7759,-42.968750
7760,-39.062500
7761,-42.968750
7762,-42.968750
7763,-42.968750
7764,-42.968750
7765,-42.968750
7766,-42.968750
7767,-42.968750
7768,-42.968750
7769,-42.968750
7770,-42.968750
7771,-39.062500
7772,-42.968750
7773,-42.968750
7774,-42.968750
7775,-42.968750
7776,-42.968750
7777,-42.968750
7778,-42.968750
7779,-42.968750
7780,-42.968750
7781,-42.968750
7782,-42.968750
7783,-42.968750
7784,-42.968750
7785,-42.968750
7786,-42.968750
7787,-42.968750
7788,-39.062500
7789,-39.062500
7790,-42.968750
7791,-42.968750
7792,-42.968750
7793,-39.062500
7794,-39.062500
7795,-42.968750
7796,-39.062500
7797,-42.968750
7798,-42.968750
7799,-42.968750
7800,-42.968750
7801,-39.062500
7802,-42.968750
7803,-42.968750
7804,-42.968750
7805,-42.968750
7806,-42.968750
7807,-39.062500
7808,-42.968750
7809,-42.968750
7810,-39.062500
7811,-39.062500
7812,-42.968750
7813,-39.062500
7814,-42.968750
7815,-39.062500
7816,-39.062500
7817,-39.062500
7818,-39.062500
7819,-39.062500
7820,-39.062500
7821,-39.062500
7822,-39.062500
7823,-39.062500
7824,-39.062500
7825,-39.062500
7826,-39.062500
7827,-39.062500
7828,-39.062500
7829,-39.062500
7830,-39.062500
7831,-39.062500
7832,-39.062500
7833,-39.062500
7834,-39.062500
7835,-39.062500
7836,-39.062500
7837,-39.062500
7838,-39.062500
7839,-39.062500
7840,-39.062500
7841,-39.062500
7842,-39.062500
7843,-39.062500
7844,-39.062500
7845,-39.062500
7846,-39.062500
7847,-39.062500
7848,-39.062500
7849,-39.062500
7850,-39.062500
7851,-39.062500
7852,-39.062500
7853,-39.062500
7854,-39.062500
7855,-39.062500
7856,-39.062500
7857,-39.062500
7858,-39.062500
7859,-39.062500
7860,-39.062500
7861,-35.156250
7862,-39.062500
7863,-39.062500
7864,-39.062500
7865,-35.156250
7866,-35.156250
7867,-35.156250
7868,-35.156250
7869,-35.156250
7870,-35.156250
7871,-35.156250
7872,-39.062500
7873,-35.156250
7874,-35.156250
7875,-35.156250
7876,-35.156250
7877,-35.156250
7878,-35.156250
7879,-35.156250
7880,-35.156250
7881,-35.156250
7882,-35.156250
7883,-35.156250
7884,-35.156250
7885,-35.156250
7886,-35.156250
7887,-31.250000
7888,-35.156250
7889,-35.156250
7890,-35.156250
7891,-35.156250
7892,-35.156250
7893,-35.156250
7894,-35.156250
7895,-35.156250
7896,-35.156250
7897,-35.156250
7898,-35.156250
7899,-31.250000
7900,-31.250000
7901,-31.250000
7902,-31.250000
7903,-31.250000
7904,-31.250000
7905,-31.250000
7906,-31.250000
7907,-31.250000
7908,-31.250000
7909,-31.250000
7910,-31.250000
7911,-31.250000
7912,-31.250000
7913,-31.250000
7914,-31.250000
7915,-31.250000
7916,-31.250000
7917,-31.250000
7918,-31.250000
7919,-31.250000
7920,-31.250000
7921,-31.250000
7922,-31.250000
7923,-31.250000
7924,-31.250000
7925,-27.343750
7926,-31.250000
7927,-27.343750
7928,-31.250000
7929,-31.250000
7930,-27.343750
7931,-27.343750
7932,-27.343750
7933,-27.343750
7934,-27.343750
7935,-27.343750
7936,-27.343750
7937,-27.343750
7938,-27.343750
7939,-27.343750
7940,-27.343750
7941,-27.343750
7942,-27.343750
7943,-27.343750
7944,-27.343750
7945,-27.343750
7946,-27.343750
7947,-27.343750
7948,-27.343750
7949,-23.437500
7950,-27.343750
7951,-23.437500
7952,-27.343750
7953,-23.437500
7954,-23.437500
7955,-23.437500
7956,-23.437500
7957,-23.437500
7958,-23.437500
7959,-23.437500
7960,-23.437500
7961,-23.437500
7962,-23.437500
7963,-23.437500
7964,-23.437500
7965,-23.437500
7966,-23.437500
7967,-23.437500
7968,-23.437500
7969,-23.437500
7970,-23.437500
7971,-19.531250
7972,-23.437500
7973,-23.437500
7974,-23.437500
7975,-19.531250
7976,-19.531250
7977,-19.531250
7978,-19.531250
7979,-19.531250
7980,-19.531250
7981,-19.531250
7982,-19.531250
7983,-19.531250
7984,-19.531250
7985,-19.531250
7986,-19.531250
7987,-19.531250
7988,-19.531250
7989,-19.531250
7990,-19.531250
7991,-15.625000
7992,-19.531250
7993,-15.625000
7994,-15.625000
7995,-15.625000
7996,-15.625000
7997,-15.625000
7998,-15.625000
7999,-15.625000
8000,-15.625000
8001,-15.625000
8002,-15.625000
8003,-15.625000
8004,-15.625000
8005,-15.625000
8006,-15.625000
8007,-15.625000
8008,-15.625000
8009,-15.625000
8010,-15.625000
8011,-15.625000
8012,-15.625000
8013,-15.625000
8014,-15.625000
8015,-11.718750
8016,-11.718750
8017,-11.718750
8018,-11.718750
8019,-11.718750
8020,-11.718750
8021,-11.718750
8022,-11.718750
8023,-11.718750
8024,-11.718750
8025,-11.718750
8026,-11.718750
8027,-11.718750
8028,-11.718750
8029,-11.718750
8030,-11.718750
8031,-11.718750
8032,-11.718750
8033,-7.812500
8034,-11.718750
8035,-7.812500
8036,-7.812500
8037,-7.812500
8038,-7.812500
8039,-7.812500
8040,-7.812500
8041,-7.812500
8042,-7.812500
8043,-7.812500
8044,-7.812500
8045,-7.812500
8046,-7.812500
8047,-7.812500
8048,-7.812500
8049,-7.812500
8050,-7.812500
8051,-7.812500
8052,-7.812500
8053,-7.812500
8054,-7.812500
8055,-7.812500
8056,-7.812500
8057,-3.906250
8058,-7.812500
8059,-7.812500
8060,-3.906250
8061,-3.906250
8062,-3.906250
8063,-3.906250
8064,-3.906250
8065,-3.906250
8066,-3.906250
8067,-3.906250
8068,-3.906250
8069,-3.906250
8070,-3.906250
8071,-3.906250
8072,-3.906250
8073,-3.906250
8074,-3.906250
8075,-3.906250
8076,-3.906250
8077,0.000000
8078,-3.906250
8079,-3.906250
8080,-3.906250
8081,-3.906250
8082,-3.906250
8083,-3.906250
8084,0.000000
8085,0.000000
8086,0.000000
8087,0.000000
8088,0.000000
8089,0.000000
8090,0.000000
8091,0.000000
8092,0.000000
8093,0.000000
8094,0.000000
8095,0.000000
8096,0.000000
8097,0.000000
8098,0.000000
8099,0.000000
8100,0.000000
8101,0.000000
8102,0.000000
8103,0.000000
8104,0.000000
8105,0.000000
8106,0.000000
8107,3.906250
8108,3.906250
8109,0.000000
8110,3.906250
8111,3.906250
8112,3.906250
8113,3.906250
8114,3.906250
8115,3.906250
8116,3.906250
8117,3.906250
8118,3.906250
8119,3.906250
8120,3.906250
8121,3.906250
8122,3.906250
8123,3.906250
8124,3.906250
8125,3.906250
8126,3.906250
8127,3.906250
8128,3.906250
8129,3.906250
8130,3.906250
8131,3.906250
8132,3.906250
8133,7.812500
8134,3.906250
8135,7.812500
8136,3.906250
8137,3.906250
8138,3.906250
8139,7.812500
8140,7.812500
8141,3.906250
8142,7.812500
8143,7.812500
8144,7.812500
8145,7.812500
8146,7.812500
8147,7.812500
8148,7.812500
8149,7.812500
8150,7.812500
8151,7.812500
8152,7.812500
8153,7.812500
8154,7.812500
8155,7.812500
8156,7.812500
8157,7.812500
8158,7.812500
8159,7.812500
8160,7.812500
8161,7.812500
8162,7.812500
8163,7.812500
8164,7.812500
8165,7.812500
8166,7.812500
8167,7.812500
8168,7.812500
8169,7.812500
8170,11.718750
8171,7.812500
8172,7.812500
8173,11.718750
8174,7.812500
8175,7.812500
8176,7.812500
8177,7.812500
8178,7.812500
8179,7.812500
8180,7.812500
8181,7.812500
8182,7.812500
8183,7.812500
8184,7.812500
8185,7.812500
8186,7.812500
8187,11.718750
8188,11.718750
8189,11.718750
8190,7.812500
8191,7.812500
8192,11.718750
8193,11.718750
8194,11.718750
8195,11.718750
8196,11.718750
8197,11.718750
8198,11.718750
8199,11.718750
8200,11.718750
8201,11.718750
8202,11.718750
8203,11.718750
8204,11.718750
8205,11.718750
8206,11.718750
8207,7.812500
8208,11.718750
8209,11.718750
8210,11.718750
8211,11.718750
8212,11.718750
8213,11.718750
8214,11.718750
8215,11.718750
8216,11.718750
8217,11.718750
8218,11.718750
8219,11.718750
8220,11.718750
8221,11.718750
8222,11.718750
8223,11.718750
8224,11.718750
8225,11.718750
8226,11.718750
8227,11.718750
8228,11.718750
8229,11.718750
8230,11.718750
8231,11.718750
8232,11.718750
8233,11.718750
8234,11.718750
8235,11.718750
8236,11.718750
8237,11.718750
8238,11.718750
8239,15.625000
8240,11.718750
8241,11.718750
8242,11.718750
8243,11.718750
8244,11.718750
8245,11.718750
8246,11.718750
8247,11.718750
8248,15.625000
8249,11.718750
8250,11.718750
8251,11.718750
8252,11.718750
8253,11.718750
8254,11.718750
8255,11.718750
8256,11.718750
8257,11.718750
8258,11.718750
8259,11.718750
8260,11.718750
8261,11.718750
8262,11.718750
8263,11.718750
8264,11.718750
8265,11.718750
8266,11.718750
8267,11.718750
8268,11.718750
8269,11.718750
8270,11.718750
8271,11.718750
8272,11.718750
8273,11.718750
8274,11.718750
8275,11.718750
8276,11.718750
8277,11.718750
8278,11.718750
8279,11.718750
8280,11.718750
8281,11.718750
8282,11.718750
8283,11.718750
8284,11.718750
8285,11.718750
8286,11.718750
8287,11.718750
8288,11.718750
8289,11.718750
8290,11.718750
8291,11.718750
8292,11.718750
8293,11.718750
8294,11.718750
8295,11.718750
8296,11.718750
8297,11.718750
8298,11.718750
8299,11.718750
8300,11.718750
8301,11.718750
8302,11.718750
8303,7.812500
8304,7.812500
8305,11.718750
8306,11.718750
8307,7.812500
8308,11.718750
8309,11.718750
8310,7.812500
8311,7.812500
8312,7.812500
8313,7.812500
8314,7.812500
8315,7.812500
8316,7.812500
8317,7.812500
8318,7.812500
8319,11.718750
8320,7.812500
8321,7.812500
8322,7.812500
8323,7.812500
8324,7.812500
8325,7.812500
8326,7.812500
8327,7.812500
8328,7.812500
8329,7.812500
8330,7.812500
8331,7.812500
8332,7.812500
8333,7.812500
8334,7.812500
8335,7.812500
8336,7.812500
8337,7.812500
8338,7.812500
8339,7.812500
8340,7.812500
8341,7.812500
8342,7.812500
8343,7.812500
8344,7.812500
8345,7.812500
8346,7.812500
8347,7.812500
8348,7.812500
8349,7.812500
8350,7.812500
8351,7.812500
8352,7.812500
8353,3.906250
8354,3.906250
8355,7.812500
8356,3.906250
8357,7.812500
8358,3.906250
8359,3.906250
8360,3.906250
8361,3.906250
8362,3.906250
8363,3.906250
8364,3.906250
8365,3.906250
8366,3.906250
8367,3.906250
8368,3.906250
8369,3.906250
8370,3.906250
8371,3.906250
8372,3.906250
8373,3.906250
8374,3.906250
8375,3.906250
8376,3.906250
8377,3.906250
8378,3.906250
8379,3.906250
8380,3.906250
8381,3.906250
8382,3.906250
8383,3.906250
8384,3.906250
8385,3.906250
8386,3.906250
8387,3.906250
8388,3.906250
8389,3.906250
8390,3.906250
8391,3.906250
8392,3.906250
8393,3.906250
8394,3.906250
8395,3.906250
8396,3.906250
8397,3.906250
8398,3.906250
8399,0.000000
8400,0.000000
8401,0.000000
8402,0.000000
8403,0.000000
8404,0.000000
8405,0.000000
8406,0.000000
8407,0.000000
8408,0.000000
8409,0.000000
8410,0.000000
8411,0.000000
8412,0.000000
8413,0.000000
8414,0.000000
8415,0.000000
8416,0.000000
8417,0.000000
8418,0.000000
8419,0.000000
8420,0.000000
8421,0.000000
8422,0.000000
8423,0.000000
8424,-3.906250
8425,0.000000
8426,0.000000
8427,0.000000
8428,0.000000
8429,-3.906250
8430,-3.906250
8431,-3.906250
8432,-3.906250
8433,-3.906250
8434,-3.906250
8435,-3.906250
8436,-3.906250
8437,-3.906250
8438,-3.906250
8439,-3.906250
8440,-3.906250
8441,-3.906250
8442,-3.906250
8443,-3.906250
8444,-3.906250
8445,-3.906250
8446,-3.906250
8447,-3.906250
8448,-3.906250
8449,-3.906250
8450,-3.906250
8451,-3.906250
8452,-7.812500
8453,-3.906250
8454,-3.906250
8455,-3.906250
8456,-7.812500
8457,-3.906250
8458,-3.906250
8459,-7.812500
8460,-7.812500
8461,-7.812500
8462,-7.812500
8463,-7.812500
8464,-7.812500
8465,-7.812500
8466,-7.812500
8467,-7.812500
8468,-7.812500
8469,-7.812500
8470,-7.812500
8471,-7.812500
8472,-7.812500
8473,-7.812500
8474,-7.812500
8475,-7.812500
8476,-7.812500
8477,-7.812500
8478,-7.812500
8479,-7.812500
8480,-7.812500
8481,-7.812500
8482,-7.812500
8483,-11.718750
8484,-11.718750
8485,-11.718750
8486,-7.812500
8487,-7.812500
8488,-11.718750
8489,-11.718750
8490,-11.718750
8491,-11.718750
8492,-11.718750
8493,-11.718750
8494,-11.718750
8495,-11.718750
8496,-11.718750
8497,-11.718750
8498,-11.718750
8499,-11.718750
8500,-11.718750
8501,-11.718750
8502,-11.718750
8503,-11.718750
8504,-11.718750
8505,-11.718750
8506,-11.718750
8507,-11.718750
8508,-11.718750
8509,-11.718750
8510,-11.718750
8511,-15.625000
8512,-15.625000
8513,-15.625000
8514,-15.625000
8515,-15.625000
8516,-11.718750
8517,-15.625000
8518,-15.625000
8519,-15.625000
8520,-15.625000
8521,-15.625000
8522,-15.625000
8523,-15.625000
8524,-15.625000
8525,-15.625000
8526,-15.625000
8527,-15.625000
8528,-15.625000
8529,-15.625000
8530,-15.625000
8531,-15.625000
8532,-15.625000
8533,-19.531250
8534,-19.531250
8535,-19.531250
8536,-15.625000
8537,-19.531250
8538,-19.531250
8539,-19.531250
8540,-19.531250
8541,-19.531250
8542,-19.531250
8543,-19.531250
8544,-19.531250
8545,-19.531250
8546,-19.531250
8547,-19.531250
8548,-19.531250
8549,-19.531250
8550,-19.531250
8551,-19.531250
8552,-19.531250
8553,-19.531250
8554,-19.531250
8555,-19.531250
8556,-23.437500
8557,-19.531250
8558,-19.531250
8559,-19.531250
8560,-19.531250
8561,-19.531250
8562,-23.437500
8563,-19.531250
8564,-23.437500
8565,-23.437500
8566,-23.437500
8567,-23.437500
8568,-23.437500
8569,-23.437500
8570,-23.437500
8571,-23.437500
8572,-23.437500
8573,-23.437500
8574,-23.437500
8575,-23.437500
8576,-23.437500
8577,-23.437500
8578,-23.437500
8579,-23.437500
8580,-27.343750
8581,-27.343750
8582,-27.343750
8583,-23.437500
8584,-23.437500
8585,-27.343750
8586,-27.343750
8587,-27.343750
8588,-27.343750
8589,-27.343750
8590,-27.343750
8591,-27.343750
8592,-27.343750
8593,-27.343750
8594,-27.343750
8595,-27.343750
8596,-27.343750
8597,-27.343750
8598,-27.343750
8599,-27.343750
8600,-27.343750
8601,-27.343750
8602,-27.343750
8603,-27.343750
8604,-27.343750
8605,-27.343750
8606,-27.343750
8607,-27.343750
8608,-27.343750
8609,-27.343750
8610,-27.343750
8611,-27.343750
8612,-27.343750
8613,-27.343750
8614,-31.250000
8615,-31.250000
8616,-31.250000
8617,-27.343750
8618,-31.250000
8619,-31.250000
8620,-31.250000
8621,-31.250000
8622,-31.250000
8623,-31.250000
8624,-31.250000
8625,-31.250000
8626,-31.250000
8627,-31.250000
8628,-31.250000
8629,-31.250000
8630,-31.250000
8631,-31.250000
8632,-31.250000
8633,-31.250000
8634,-31.250000
8635,-31.250000
8636,-31.250000
8637,-31.250000
8638,-31.250000
8639,-31.250000
8640,-31.250000
8641,-31.250000
8642,-31.250000
8643,-35.156250
8644,-35.156250
8645,-31.250000
8646,-35.156250
8647,-35.156250
8648,-35.156250
8649,-35.156250
8650,-35.156250
8651,-35.156250
8652,-35.156250
8653,-35.156250
8654,-35.156250
8655,-35.156250
8656,-35.156250
8657,-35.156250
8658,-35.156250
8659,-35.156250
8660,-35.156250
8661,-35.156250
8662,-35.156250
8663,-35.156250
8664,-35.156250
8665,-35.156250
8666,-35.156250
8667,-35.156250
8668,-35.156250
8669,-35.156250
8670,-35.156250
8671,-35.156250
8672,-35.156250
8673,-35.156250
8674,-35.156250
8675,-35.156250
8676,-39.062500
8677,-35.156250
8678,-35.156250
8679,-39.062500
8680,-35.156250
8681,-35.156250
8682,-35.156250
8683,-39.062500
8684,-39.062500
8685,-39.062500
8686,-39.062500
8687,-39.062500
8688,-39.062500
8689,-39.062500
8690,-39.062500
8691,-39.062500
8692,-39.062500
8693,-35.156250
8694,-39.062500
8695,-39.062500
8696,-39.062500
8697,-39.062500
8698,-39.062500
8699,-39.062500
8700,-39.062500
8701,-39.062500
8702,-39.062500
8703,-39.062500
8704,-39.062500
8705,-39.062500
8706,-39.062500
8707,-39.062500
8708,-39.062500
8709,-39.062500
8710,-39.062500
8711,-39.062500
8712,-42.968750
8713,-39.062500
8714,-39.062500
8715,-39.062500
8716,-39.062500
8717,-39.062500
8718,-42.968750
8719,-39.062500
8720,-42.968750
8721,-39.062500
8722,-39.062500
8723,-39.062500
8724,-42.968750
8725,-39.062500
8726,-39.062500
8727,-39.062500
8728,-42.968750
8729,-39.062500
8730,-39.062500
8731,-39.062500
8732,-42.968750
8733,-39.062500
8734,-42.968750
8735,-39.062500
8736,-42.968750
8737,-42.968750
8738,-42.968750
8739,-39.062500
8740,-42.968750
8741,-39.062500
8742,-39.062500
8743,-42.968750
8744,-42.968750
8745,-42.968750
8746,-42.968750
8747,-42.968750
8748,-42.968750
8749,-42.968750
8750,-42.968750
8751,-42.968750
8752,-42.968750
8753,-42.968750
8754,-42.968750
8755,-42.968750
8756,-42.968750
8757,-42.968750
8758,-42.968750
8759,-42.968750
8760,-42.968750
8761,-42.968750
8762,-42.968750
8763,-39.062500
8764,-42.968750
8765,-42.968750
8766,-42.968750
8767,-42.968750
8768,-42.968750
8769,-42.968750
8770,-42.968750
8771,-42.968750
8772,-42.968750
8773,-42.968750
8774,-42.968750
8775,-39.062500
8776,-42.968750
8777,-42.968750
8778,-42.968750
8779,-42.968750
8780,-42.968750
8781,-42.968750
8782,-42.968750
8783,-42.968750
8784,-42.968750
8785,-42.968750
8786,-42.968750
8787,-42.968750
8788,-39.062500
8789,-39.062500
8790,-42.968750
8791,-39.062500
8792,-42.968750
8793,-39.062500
8794,-42.968750
8795,-39.062500
8796,-39.062500
8797,-42.968750
8798,-42.968750
8799,-39.062500
8800,-39.062500
8801,-42.968750
8802,-42.968750
8803,-39.062500
8804,-39.062500
8805,-39.062500
8806,-39.062500
8807,-42.968750
8808,-42.968750
8809,-42.968750
8810,-39.062500
8811,-39.062500
8812,-39.062500
8813,-39.062500
8814,-39.062500
8815,-39.062500
8816,-39.062500
8817,-39.062500
8818,-39.062500
8819,-39.062500
8820,-39.062500
8821,-39.062500
8822,-39.062500
8823,-39.062500
8824,-39.062500
8825,-39.062500
8826,-39.062500
8827,-39.062500
8828,-39.062500
8829,-39.062500
8830,-39.062500
8831,-39.062500
8832,-39.062500
8833,-39.062500
8834,-39.062500
8835,-39.062500
8836,-39.062500
8837,-39.062500
8838,-39.062500
8839,-39.062500
8840,-39.062500
8841,-39.062500
8842,-39.062500
8843,-39.062500
8844,-39.062500
8845,-39.062500
8846,-39.062500
8847,-35.156250
8848,-39.062500
8849,-39.062500
8850,-39.062500
8851,-39.062500
8852,-39.062500
8853,-39.062500
8854,-39.062500
8855,-35.156250
8856,-39.062500
8857,-35.156250
8858,-35.156250
8859,-35.156250
8860,-35.156250
8861,-35.156250
8862,-39.062500
8863,-35.156250
8864,-35.156250
8865,-35.156250
8866,-35.156250
8867,-35.156250
8868,-35.156250
8869,-35.156250
8870,-35.156250
8871,-35.156250
8872,-35.156250
8873,-35.156250
8874,-35.156250
8875,-35.156250
8876,-35.156250
8877,-35.156250
8878,-35.156250
8879,-35.156250
8880,-35.156250
8881,-35.156250
8882,-35.156250
8883,-35.156250
8884,-35.156250
8885,-31.250000
8886,-31.250000
8887,-35.156250
8888,-31.250000
8889,-31.250000
8890,-31.250000
8891,-31.250000
8892,-31.250000
8893,-31.250000
8894,-31.250000
8895,-31.250000
8896,-31.250000
8897,-31.250000
8898,-31.250000
8899,-31.250000
8900,-31.250000
8901,-31.250000
8902,-31.250000
8903,-31.250000
8904,-31.250000
8905,-31.250000
8906,-31.250000
8907,-31.250000
8908,-31.250000
8909,-31.250000
8910,-31.250000
8911,-31.250000
8912,-27.343750
8913,-27.343750
8914,-27.343750
8915,-27.343750
8916,-27.343750
8917,-27.343750
8918,-27.343750
8919,-27.343750
8920,-27.343750
8921,-27.343750
8922,-27.343750
8923,-27.343750
8924,-27.343750
8925,-27.343750
8926,-27.343750
8927,-27.343750
8928,-27.343750
8929,-27.343750
8930,-27.343750
8931,-27.343750
8932,-27.343750
8933,-27.343750
8934,-27.343750
8935,-27.343750
8936,-23.437500
8937,-27.343750
8938,-23.437500
8939,-23.437500
8940,-23.437500
8941,-23.437500
8942,-23.437500
8943,-23.437500
8944,-23.437500
8945,-23.437500
8946,-23.437500
8947,-23.437500
8948,-23.437500
8949,-23.437500
8950,-23.437500
8951,-23.437500
8952,-23.437500
8953,-23.437500
8954,-23.437500
8955,-23.437500
8956,-23.437500
8957,-23.437500
8958,-23.437500
8959,-23.437500
8960,-19.531250
8961,-19.531250
8962,-19.531250
8963,-19.531250
8964,-19.531250
8965,-19.531250
8966,-19.531250
8967,-19.531250
8968,-19.531250
8969,-19.531250
8970,-19.531250
8971,-19.531250
8972,-19.531250
8973,-19.531250
8974,-19.531250
8975,-19.531250
8976,-19.531250
8977,-19.531250
8978,-19.531250
8979,-19.531250
8980,-19.531250
8981,-19.531250
8982,-19.531250
8983,-15.625000
8984,-15.625000
8985,-15.625000
8986,-15.625000
8987,-15.625000
8988,-15.625000
8989,-15.625000
8990,-15.625000
8991,-15.625000
8992,-15.625000
8993,-15.625000
8994,-15.625000
8995,-15.625000
8996,-15.625000
8997,-15.625000
8998,-15.625000
8999,-15.625000
9000,-15.625000
9001,-15.625000
9002,-15.625000
9003,-11.718750
9004,-15.625000
9005,-15.625000
9006,-11.718750
9007,-11.718750
9008,-11.718750
9009,-11.718750
9010,-11.718750
9011,-11.718750
9012,-11.718750
9013,-11.718750
9014,-11.718750
9015,-11.718750
9016,-11.718750
9017,-11.718750
9018,-11.718750
9019,-11.718750
9020,-11.718750
9021,-11.718750
9022,-11.718750
9023,-7.812500
9024,-11.718750
9025,-7.812500
9026,-11.718750
9027,-7.812500
9028,-7.812500
9029,-7.812500
9030,-7.812500
9031,-7.812500
9032,-7.812500
9033,-7.812500
9034,-7.812500
9035,-7.812500
9036,-7.812500
9037,-7.812500
9038,-7.812500
9039,-7.812500
9040,-7.812500
9041,-7.812500
9042,-7.812500
9043,-7.812500
9044,-7.812500
9045,-7.812500
9046,-7.812500
9047,-7.812500
9048,-7.812500
9049,-3.906250
9050,-3.906250
9051,-3.906250
9052,-3.906250
9053,-3.906250
9054,-3.906250
9055,-3.906250
9056,-3.906250
9057,-3.906250
9058,-3.906250
9059,-3.906250
9060,-3.906250
9061,-3.906250
9062,-3.906250
9063,-3.906250
9064,-3.906250
9065,-3.906250
9066,-3.906250
9067,-3.906250
9068,0.000000
9069,0.000000
9070,-3.906250
9071,-3.906250
9072,0.000000
9073,0.000000
9074,0.000000
9075,0.000000
9076,0.000000
9077,0.000000
9078,0.000000
9079,0.000000
9080,0.000000
9081,0.000000
9082,0.000000
9083,0.000000
9084,0.000000
9085,0.000000
9086,0.000000
9087,0.000000
9088,0.000000
9089,0.000000
9090,0.000000
9091,0.000000
9092,0.000000
9093,0.000000
9094,0.000000
9095,0.000000
9096,0.000000
9097,0.000000
9098,0.000000
9099,3.906250
9100,3.906250
9101,3.906250
9102,3.906250
9103,3.906250
9104,3.906250
9105,3.906250
9106,3.906250
9107,3.906250
9108,3.906250
9109,3.906250
9110,3.906250
9111,3.906250
9112,3.906250
9113,3.906250
9114,3.906250
9115,3.906250
9116,3.906250
9117,3.906250
9118,3.906250
9119,3.906250
9120,3.906250
9121,3.906250
9122,3.906250
9123,3.906250
9124,3.906250
9125,7.812500
9126,3.906250
9127,3.906250
9128,3.906250
9129,3.906250
9130,3.906250
9131,3.906250
9132,3.906250
9133,3.906250
9134,3.906250
9135,3.906250
9136,7.812500
9137,7.812500
9138,7.812500
9139,7.812500
9140,7.812500
9141,7.812500
9142,7.812500
9143,7.812500
9144,7.812500
9145,7.812500
9146,7.812500
9147,7.812500
9148,7.812500
9149,7.812500
9150,7.812500
9151,7.812500
9152,7.812500
9153,7.812500
9154,7.812500
9155,7.812500
9156,7.812500
9157,7.812500
9158,7.812500
9159,7.812500
9160,7.812500
9161,7.812500
9162,7.812500
9163,7.812500
9164,7.812500
9165,7.812500
9166,7.812500
9167,7.812500
9168,7.812500
9169,7.812500
9170,7.812500
9171,7.812500
9172,7.812500
9173,7.812500
9174,7.812500
9175,7.812500
9176,7.812500
9177,11.718750
9178,7.812500
9179,11.718750
9180,7.812500
9181,11.718750
9182,11.718750
9183,11.718750
9184,11.718750
9185,11.718750
9186,11.718750
9187,11.718750
9188,11.718750
9189,11.718750
9190,11.718750
9191,11.718750
9192,11.718750
9193,11.718750
9194,11.718750
9195,11.718750
9196,11.718750
9197,11.718750
9198,11.718750
9199,11.718750
9200,11.718750
9201,11.718750
9202,11.718750
9203,11.718750
9204,11.718750
9205,11.718750
9206,11.718750
9207,11.718750
9208,11.718750
9209,11.718750
9210,11.718750
9211,11.718750
9212,11.718750
9213,11.718750
9214,11.718750
9215,11.718750
9216,11.718750
9217,11.718750
9218,11.718750
9219,11.718750
9220,11.718750
9221,11.718750
9222,11.718750
9223,11.718750
9224,11.718750
9225,11.718750
9226,11.718750
9227,11.718750
9228,11.718750
9229,11.718750
9230,11.718750
9231,11.718750
9232,11.718750
9233,11.718750
9234,11.718750
9235,11.718750
9236,11.718750
9237,11.718750
9238,11.718750
9239,11.718750
9240,11.718750
9241,11.718750
9242,11.718750
9243,11.718750
9244,11.718750
9245,11.718750
9246,11.718750
9247,11.718750
9248,11.718750
9249,11.718750
9250,11.718750
9251,11.718750
9252,11.718750
9253,11.718750
9254,11.718750
9255,11.718750
9256,11.718750
9257,11.718750
9258,11.718750
9259,11.718750
9260,11.718750
9261,11.718750
9262,11.718750
9263,11.718750
9264,11.718750
9265,11.718750
9266,11.718750
9267,11.718750
9268,11.718750
9269,11.718750
9270,11.718750
9271,11.718750
9272,11.718750
9273,11.718750
9274,11.718750
9275,11.718750
9276,7.812500
9277,11.718750
9278,11.718750
9279,11.718750
9280,11.718750
9281,11.718750
9282,7.812500
9283,11.718750
9284,11.718750
9285,11.718750
9286,11.718750
9287,11.718750
9288,11.718750
9289,7.812500
9290,11.718750
9291,11.718750
9292,7.812500
9293,7.812500
9294,11.718750
9295,7.812500
9296,7.812500
9297,11.718750
9298,7.812500
9299,11.718750
9300,7.812500
9301,7.812500
9302,7.812500
9303,7.812500
9304,7.812500
9305,7.812500
9306,7.812500
9307,7.812500
9308,7.812500
9309,7.812500
9310,7.812500
9311,7.812500
9312,7.812500
9313,7.812500
9314,7.812500
9315,7.812500
9316,7.812500
9317,7.812500
9318,7.812500
9319,7.812500
9320,7.812500
9321,7.812500
9322,7.812500
9323,7.812500
9324,7.812500
9325,7.812500
9326,7.812500
9327,7.812500
9328,7.812500
9329,7.812500
9330,7.812500
9331,7.812500
9332,7.812500
9333,7.812500
9334,7.812500
9335,7.812500
9336,7.812500
9337,7.812500
9338,7.812500
9339,7.812500
9340,7.812500
9341,7.812500
9342,7.812500
9343,7.812500
9344,3.906250
9345,3.906250
9346,7.812500
9347,7.812500
9348,7.812500
9349,7.812500
9350,3.906250
9351,7.812500
9352,3.906250
9353,3.906250
9354,3.906250
9355,3.906250
9356,3.906250
9357,3.906250
9358,3.906250
9359,3.906250
9360,3.906250
9361,3.906250
9362,3.906250
9363,3.906250
9364,3.906250
9365,3.906250
9366,3.906250
9367,3.906250
9368,3.906250
9369,3.906250
9370,3.906250
9371,3.906250
9372,3.906250
9373,3.906250
9374,3.906250
9375,3.906250
9376,3.906250
9377,3.906250
9378,3.906250
9379,3.906250
9380,3.906250
9381,0.000000
9382,0.000000
9383,0.000000
9384,3.906250
9385,3.906250
9386,0.000000
9387,0.000000
9388,0.000000
9389,0.000000
9390,0.000000
9391,0.000000
9392,0.000000
9393,0.000000
9394,-3.906250
9395,0.000000
9396,0.000000
9397,0.000000
9398,0.000000
9399,0.000000
9400,0.000000
9401,0.000000
9402,0.000000
9403,0.000000
9404,0.000000
9405,0.000000
9406,0.000000
9407,0.000000
9408,0.000000
9409,0.000000
9410,0.000000
9411,0.000000
9412,0.000000
9413,0.000000
9414,0.000000
9415,0.000000
9416,-3.906250
9417,-3.906250
9418,-3.906250
9419,-3.906250
9420,0.000000
9421,-3.906250
9422,-3.906250
9423,-3.906250
9424,-3.906250
9425,-3.906250
9426,-3.906250
9427,-3.906250
9428,-3.906250
9429,-3.906250
9430,-3.906250
9431,-3.906250
9432,-3.906250
9433,-3.906250
9434,-3.906250
9435,-3.906250
9436,-3.906250
9437,-3.906250
9438,-3.906250
9439,-3.906250
9440,-3.906250
9441,-3.906250
9442,-3.906250
9443,-3.906250
9444,-3.906250
9445,-3.906250
9446,-3.906250
9447,-3.906250
9448,-3.906250
9449,-7.812500
9450,-7.812500
9451,-3.906250
9452,-7.812500
9453,-7.812500
9454,-7.812500
9455,-7.812500
9456,-7.812500
9457,-7.812500
9458,-7.812500
9459,-7.812500
9460,-7.812500
9461,-7.812500
9462,-7.812500
9463,-7.812500
9464,-7.812500
9465,-7.812500
9466,-7.812500
9467,-7.812500
9468,-7.812500
9469,-7.812500
9470,-7.812500
9471,-7.812500
9472,-11.718750
9473,-7.812500
9474,-11.718750
9475,-7.812500
9476,-11.718750
9477,-11.718750
9478,-11.718750
9479,-11.718750
9480,-11.718750
9481,-11.718750
9482,-11.718750
9483,-11.718750
9484,-11.718750
9485,-11.718750
9486,-11.718750
9487,-11.718750
9488,-11.718750
9489,-11.718750
9490,-11.718750
9491,-11.718750
9492,-11.718750
9493,-11.718750
9494,-11.718750
9495,-11.718750
9496,-15.625000
9497,-15.625000
9498,-11.718750
9499,-11.718750
9500,-11.718750
9501,-15.625000
9502,-15.625000
9503,-15.625000
9504,-15.625000
9505,-15.625000
9506,-15.625000
9507,-15.625000
9508,-15.625000
9509,-15.625000
9510,-15.625000
9511,-15.625000
9512,-15.625000
9513,-15.625000
9514,-15.625000
9515,-15.625000
9516,-15.625000
9517,-15.625000
9518,-15.625000
9519,-15.625000
9520,-15.625000
9521,-15.625000
9522,-19.531250
9523,-19.531250
9524,-19.531250
9525,-19.531250
9526,-19.531250
9527,-15.625000
9528,-19.531250
9529,-19.531250
9530,-19.531250
9531,-19.531250
9532,-19.531250
9533,-19.531250
9534,-19.531250
9535,-19.531250
9536,-19.531250
9537,-19.531250
9538,-19.531250
9539,-19.531250
9540,-19.531250
9541,-19.531250
9542,-19.531250
9543,-19.531250
9544,-19.531250
9545,-19.531250
9546,-19.531250
9547,-19.531250
9548,-23.437500
9549,-19.531250
9550,-19.531250
9551,-19.531250
9552,-23.437500
9553,-23.437500
9554,-23.437500
9555,-23.437500
9556,-23.437500
9557,-23.437500
9558,-23.437500
9559,-23.437500
9560,-23.437500
9561,-23.437500
9562,-23.437500
9563,-23.437500
9564,-23.437500
9565,-23.437500
9566,-23.437500
9567,-23.437500
9568,-23.437500
9569,-23.437500
9570,-23.437500
9571,-23.437500
9572,-23.437500
9573,-23.437500
9574,-23.437500
9575,-23.437500
9576,-23.437500
9577,-27.343750
9578,-27.343750
9579,-27.343750
9580,-27.343750
9581,-27.343750
9582,-27.343750
9583,-27.343750
9584,-27.343750
9585,-27.343750
9586,-27.343750
9587,-27.343750
9588,-27.343750
9589,-27.343750
9590,-27.343750
9591,-27.343750
9592,-27.343750
9593,-27.343750
9594,-27.343750
9595,-27.343750
9596,-27.343750
9597,-27.343750
9598,-27.343750
9599,-27.343750
9600,-31.250000
9601,-31.250000
9602,-31.250000
9603,-27.343750
9604,-31.250000
9605,-31.250000
9606,-31.250000
9607,-31.250000
9608,-31.250000
9609,-31.250000
9610,-31.250000
9611,-31.250000
9612,-31.250000
9613,-31.250000
9614,-31.250000
9615,-31.250000
9616,-31.250000
9617,-31.250000
9618,-31.250000
9619,-31.250000
9620,-31.250000
9621,-31.250000
9622,-31.250000
9623,-31.250000
9624,-31.250000
9625,-31.250000
9626,-35.156250
9627,-35.156250
9628,-35.156250
9629,-31.250000
9630,-35.156250
9631,-35.156250
9632,-35.156250
9633,-35.156250
9634,-35.156250
9635,-35.156250
9636,-35.156250
9637,-35.156250
9638,-35.156250
9639,-35.156250
9640,-35.156250
9641,-35.156250
9642,-35.156250
9643,-35.156250
9644,-35.156250
9645,-35.156250
9646,-35.156250
9647,-35.156250
9648,-35.156250
9649,-35.156250
9650,-35.156250
9651,-35.156250
9652,-35.156250
9653,-35.156250
9654,-35.156250
9655,-35.156250
9656,-35.156250
9657,-35.156250
9658,-35.156250
9659,-35.156250
9660,-35.156250
9661,-39.062500
9662,-39.062500
9663,-39.062500
9664,-35.156250
9665,-35.156250
9666,-35.156250
9667,-39.062500
9668,-39.062500
9669,-35.156250
9670,-35.156250
9671,-39.062500
9672,-39.062500
9673,-39.062500
9674,-39.062500
9675,-39.062500
9676,-39.062500
9677,-39.062500
9678,-39.062500
9679,-39.062500
9680,-39.062500
9681,-39.062500
9682,-39.062500
9683,-39.062500
9684,-39.062500
9685,-39.062500
9686,-39.062500
9687,-39.062500
9688,-39.062500
9689,-39.062500
9690,-39.062500
9691,-39.062500
9692,-39.062500
9693,-39.062500
9694,-39.062500
9695,-39.062500
9696,-39.062500
9697,-39.062500
9698,-39.062500
9699,-39.062500
9700,-39.062500
9701,-39.062500
9702,-39.062500
9703,-39.062500
9704,-39.062500
9705,-39.062500
9706,-39.062500
9707,-39.062500
9708,-39.062500
9709,-39.062500
9710,-39.062500
9711,-39.062500
9712,-39.062500
9713,-39.062500
9714,-39.062500
9715,-42.968750
9716,-39.062500
9717,-39.062500
9718,-39.062500
9719,-42.968750
9720,-42.968750
9721,-39.062500
9722,-42.968750
9723,-39.062500
9724,-39.062500
9725,-42.968750
9726,-42.968750
9727,-39.062500
9728,-39.062500
9729,-39.062500
9730,-42.968750
9731,-39.062500
9732,-42.968750
9733,-39.062500
9734,-42.968750
9735,-42.968750
9736,-42.968750
9737,-42.968750
9738,-42.968750
9739,-42.968750
9740,-39.062500
9741,-42.968750
9742,-42.968750
9743,-39.062500
9744,-39.062500
9745,-42.968750
9746,-42.968750
9747,-42.968750
9748,-39.062500
9749,-42.968750
9750,-42.968750
9751,-42.968750
9752,-42.968750
9753,-42.968750
9754,-39.062500
9755,-42.968750
9756,-42.968750
9757,-42.968750
9758,-42.968750
9759,-42.968750
9760,-42.968750
9761,-42.968750
9762,-42.968750
9763,-42.968750
9764,-42.968750
9765,-42.968750
9766,-42.968750
9767,-42.968750
9768,-42.968750
9769,-42.968750
9770,-39.062500
9771,-42.968750
9772,-42.968750
9773,-42.968750
9774,-42.968750
9775,-42.968750
9776,-42.968750
9777,-42.968750
9778,-42.968750
9779,-42.968750
9780,-42.968750
9781,-42.968750
9782,-42.968750
9783,-42.968750
9784,-42.968750
9785,-42.968750
9786,-42.968750
9787,-39.062500
9788,-42.968750
9789,-39.062500
9790,-42.968750
9791,-42.968750
9792,-39.062500
9793,-39.062500
9794,-42.968750
9795,-39.062500
9796,-39.062500
9797,-39.062500
9798,-42.968750
9799,-39.062500
9800,-39.062500
9801,-39.062500
9802,-39.062500
9803,-39.062500
9804,-39.062500
9805,-39.062500
9806,-39.062500
9807,-39.062500
9808,-39.062500
9809,-39.062500
9810,-39.062500
9811,-39.062500
9812,-39.062500
9813,-39.062500
9814,-39.062500
9815,-39.062500
9816,-39.062500
9817,-39.062500
9818,-39.062500
9819,-39.062500
9820,-39.062500
9821,-39.062500
9822,-39.062500
9823,-39.062500
9824,-39.062500
9825,-39.062500
9826,-39.062500
9827,-39.062500
9828,-39.062500
9829,-39.062500
9830,-39.062500
9831,-39.062500
9832,-39.062500
9833,-39.062500
9834,-39.062500
9835,-39.062500
9836,-39.062500
9837,-39.062500
9838,-39.062500
9839,-39.062500
9840,-39.062500
9841,-35.156250
9842,-35.156250
9843,-35.156250
9844,-39.062500
9845,-35.156250
9846,-35.156250
9847,-35.156250
9848,-35.156250
9849,-35.156250
9850,-35.156250
9851,-35.156250
9852,-35.156250
9853,-35.156250
9854,-35.156250
9855,-35.156250
9856,-35.156250
9857,-35.156250
9858,-35.156250
9859,-35.156250
9860,-35.156250
9861,-35.156250
9862,-35.156250
9863,-35.156250
9864,-35.156250
9865,-35.156250
9866,-35.156250
9867,-35.156250
9868,-35.156250
9869,-35.156250
9870,-35.156250
9871,-35.156250
9872,-31.250000
9873,-35.156250
9874,-35.156250
9875,-35.156250
9876,-35.156250
9877,-35.156250
9878,-31.250000
9879,-35.156250
9880,-35.156250
9881,-31.250000
9882,-31.250000
9883,-31.250000
9884,-31.250000
9885,-35.156250
9886,-31.250000
9887,-27.343750
9888,-35.156250
9889,-31.250000
9890,-31.250000
9891,-31.250000
9892,-31.250000
9893,-27.343750
9894,-31.250000
9895,-31.250000
9896,-31.250000
9897,-31.250000
9898,-31.250000
9899,-31.250000
9900,-31.250000
9901,-31.250000
9902,-31.250000
9903,-31.250000
9904,-31.250000
9905,-27.343750
9906,-27.343750
9907,-27.343750
9908,-27.343750
9909,-27.343750
9910,-27.343750
9911,-27.343750
9912,-27.343750
9913,-27.343750
9914,-27.343750
9915,-27.343750
9916,-27.343750
9917,-27.343750
9918,-27.343750
9919,-27.343750
9920,-27.343750
9921,-27.343750
9922,-27.343750
9923,-27.343750
9924,-27.343750
9925,-27.343750
9926,-27.343750
9927,-27.343750
9928,-27.343750
9929,-27.343750
9930,-23.437500
9931,-23.437500
9932,-23.437500
9933,-23.437500
9934,-23.437500
9935,-23.437500
9936,-23.437500
9937,-23.437500
9938,-23.437500
9939,-23.437500
9940,-23.437500
9941,-23.437500
9942,-23.437500
9943,-23.437500
9944,-23.437500
9945,-23.437500
9946,-23.437500
9947,-23.437500
9948,-23.437500
9949,-19.531250
9950,-19.531250
9951,-19.531250
9952,-19.531250
9953,-19.531250
9954,-19.531250
9955,-19.531250
9956,-19.531250
9957,-19.531250
9958,-19.531250
9959,-19.531250
9960,-19.531250
9961,-19.531250
9962,-19.531250
9963,-19.531250
9964,-19.531250
9965,-19.531250
9966,-19.531250
9967,-19.531250
9968,-19.531250
9969,-19.531250
9970,-15.625000
9971,-15.625000
9972,-15.625000
9973,-15.625000
9974,-15.625000
9975,-15.625000
9976,-15.625000
9977,-15.625000
9978,-15.625000
9979,-15.625000
9980,-15.625000
9981,-15.625000
9982,-15.625000
9983,-11.718750
9984,-15.625000
9985,-15.625000
9986,-15.625000
9987,-15.625000
9988,-11.718750
9989,-11.718750
9990,-11.718750
9991,-11.718750
9992,-15.625000
9993,-11.718750
9994,-11.718750
9995,-11.718750
9996,-11.718750
9997,-11.718750
9998,-11.718750
9999,-11.718750
10000,-11.718750
