Channel              :,CH1
Frequency            :,1.012kHz
Period               :,0.989ms
PK-PK                :,191.4mV
Probe attenuation    :,1X
Voltage per ADC value:,0.244141mV
Time interval        :,1.00000us

index,CH1_Voltage(mV)
1,-54.687500
2,-54.687500
3,-54.687500
4,-54.687500
5,-54.687500
6,-54.687500
7,-50.781250
8,-50.781250
9,-50.781250
10,-50.781250
11,-50.781250
12,-50.781250
13,-50.781250
14,-50.781250
15,-46.875000
16,-46.875000
17,-46.875000
18,-46.875000
19,-46.875000
20,-42.968750
21,-42.968750
22,-42.968750
23,-42.968750
24,-42.968750
25,-42.968750
26,-42.968750
27,-39.062500
28,-39.062500
29,-39.062500
30,-39.062500
31,-39.062500
32,-39.062500
33,-39.062500
34,-35.156250
35,-35.156250
36,-35.156250
37,-35.156250
38,-35.156250
39,-35.156250
40,-35.156250
41,-31.250000
42,-31.250000
43,-31.250000
44,-31.250000
45,-31.250000
46,-31.250000
47,-31.250000
48,-31.250000
49,-27.343750
50,-27.343750
51,-27.343750
52,-27.343750
53,-27.343750
54,-23.437500
55,-23.437500
56,-23.437500
57,-23.437500
58,-23.437500
59,-23.437500
60,-23.437500
61,-23.437500
62,-19.531250
63,-19.531250
64,-19.531250
65,-19.531250
66,-19.531250
67,-19.531250
68,-15.625000
69,-15.625000
70,-15.625000
71,-15.625000
72,-15.625000
73,-15.625000
74,-15.625000
75,-11.718750
76,-11.718750
77,-11.718750
78,-11.718750
79,-11.718750
80,-11.718750
81,-7.812500
82,-7.812500
83,-7.812500
84,-7.812500
85,-7.812500
86,-3.906250
87,-3.906250
88,-3.906250
89,-3.906250
90,-3.906250
91,-3.906250
92,-3.906250
93,-3.906250
94,0.000000
95,0.000000
96,0.000000
97,0.000000
98,0.000000
99,0.000000
100,0.000000
101,3.906250
102,3.906250
103,3.906250
104,3.906250
105,3.906250
106,7.812500
107,7.812500
108,7.812500
109,7.812500
110,7.812500
111,7.812500
112,7.812500
113,7.812500
114,11.718750
115,11.718750
116,11.718750
117,11.718750
118,11.718750
119,11.718750
120,11.718750
121,15.625000
122,15.625000
123,15.625000
124,15.625000
125,15.625000
126,15.625000
127,19.531250
128,15.625000
129,19.531250
130,19.531250
131,19.531250
132,19.531250
133,19.531250
134,23.437500
135,23.437500
136,23.437500
137,23.437500
138,23.437500
139,23.437500
140,23.437500
141,23.437500
142,27.343750
143,27.343750
144,27.343750
145,27.343750
146,27.343750
147,27.343750
148,27.343750
149,31.250000
150,31.250000
151,31.250000
152,31.250000
153,31.250000
154,31.250000
155,31.250000
156,31.250000
157,35.156250
158,35.156250
159,35.156250
160,35.156250
161,35.156250
162,35.156250
163,35.156250
164,39.062500
165,39.062500
166,39.062500
167,39.062500
168,39.062500
169,39.062500
170,39.062500
171,39.062500
172,39.062500
173,39.062500
174,42.968750
175,42.968750
176,42.968750
177,42.968750
178,42.968750
179,42.968750
180,42.968750
181,42.968750
182,46.875000
183,46.875000
184,46.875000
185,46.875000
186,46.875000
187,46.875000
188,46.875000
189,50.781250
190,46.875000
191,46.875000
192,46.875000
193,50.781250
194,50.781250
195,50.781250
196,50.781250
197,50.781250
198,50.781250
199,50.781250
200,50.781250
201,50.781250
202,50.781250
203,54.687500
204,54.687500
205,54.687500
206,54.687500
207,54.687500
208,54.687500
209,54.687500
210,54.687500
211,54.687500
212,54.687500
213,54.687500
214,58.593750
215,58.593750
216,58.593750
217,58.593750
218,58.593750
219,58.593750
220,58.593750
221,58.593750
222,58.593750
223,58.593750
224,62.500000
225,62.500000
226,62.500000
227,62.500000
228,62.500000
229,62.500000
230,62.500000
231,62.500000
232,62.500000
233,62.500000
234,62.500000
235,62.500000
236,66.406250
237,66.406250
238,66.406250
239,66.406250
240,66.406250
241,66.406250
242,66.406250
243,66.406250
244,66.406250
245,66.406250
246,66.406250
247,66.406250
248,66.406250
249,66.406250
250,66.406250
251,66.406250
252,70.312500
253,70.312500
254,70.312500
255,70.312500
256,70.312500
257,70.312500
258,70.312500
259,70.312500
260,70.312500
261,70.312500
262,70.312500
263,70.312500
264,70.312500
265,70.312500
266,70.312500
267,70.312500
268,70.312500
269,74.218750
270,74.218750
271,74.218750
272,74.218750
273,74.218750
274,74.218750
275,74.218750
276,74.218750
277,74.218750
278,74.218750
279,74.218750
280,74.218750
281,74.218750
282,74.218750
283,74.218750
284,74.218750
285,74.218750
286,74.218750
287,78.125000
288,74.218750
289,74.218750
290,74.218750
291,74.218750
292,74.218750
293,74.218750
294,78.125000
295,78.125000
296,78.125000
297,78.125000
298,74.218750
299,78.125000
300,78.125000
301,78.125000
302,74.218750
303,78.125000
304,78.125000
305,78.125000
306,78.125000
307,78.125000
308,78.125000
309,78.125000
310,78.125000
311,78.125000
312,78.125000
313,78.125000
314,78.125000
315,78.125000
316,78.125000
317,78.125000
318,78.125000
319,78.125000
320,78.125000
321,78.125000
322,78.125000
323,78.125000
324,78.125000
325,78.125000
326,78.125000
327,78.125000
328,78.125000
329,78.125000
330,78.125000
331,78.125000
332,78.125000
333,78.125000
334,78.125000
335,78.125000
336,78.125000
337,78.125000
338,78.125000
339,78.125000
340,78.125000
341,78.125000
342,78.125000
343,78.125000
344,78.125000
345,78.125000
346,78.125000
347,78.125000
348,78.125000
349,78.125000
350,78.125000
351,74.218750
352,78.125000
353,78.125000
354,74.218750
355,74.218750
356,78.125000
357,74.218750
358,78.125000
359,74.218750
360,74.218750
361,74.218750
362,74.218750
363,74.218750
364,74.218750
365,74.218750
366,74.218750
367,74.218750
368,74.218750
369,74.218750
370,74.218750
371,74.218750
372,74.218750
373,74.218750
374,74.218750
375,74.218750
376,74.218750
377,74.218750
378,74.218750
379,74.218750
380,74.218750
381,74.218750
382,74.218750
383,70.312500
384,74.218750
385,74.218750
386,74.218750
387,70.312500
388,70.312500
389,70.312500
390,70.312500
391,70.312500
392,70.312500
393,70.312500
394,70.312500
395,70.312500
396,70.312500
397,70.312500
398,70.312500
399,70.312500
400,70.312500
401,66.406250
402,70.312500
403,66.406250
404,66.406250
405,66.406250
406,66.406250
407,66.406250
408,66.406250
409,66.406250
410,66.406250
411,66.406250
412,66.406250
413,66.406250
414,66.406250
415,66.406250
416,66.406250
417,62.500000
418,66.406250
419,62.500000
420,62.500000
421,62.500000
422,62.500000
423,62.500000
424,62.500000
425,62.500000
426,62.500000
427,62.500000
428,62.500000
429,58.593750
430,58.593750
431,58.593750
432,58.593750
433,58.593750
434,58.593750
435,58.593750
436,58.593750
437,58.593750
438,58.593750
439,58.593750
440,54.687500
441,58.593750
442,54.687500
443,54.687500
444,54.687500
445,54.687500
446,54.687500
447,54.687500
448,54.687500
449,54.687500
450,50.781250
451,50.781250
452,50.781250
453,50.781250
454,50.781250
455,50.781250
456,50.781250
457,50.781250
458,50.781250
459,50.781250
460,50.781250
461,46.875000
462,46.875000
463,46.875000
464,46.875000
465,46.875000
466,46.875000
467,46.875000
468,46.875000
469,46.875000
470,42.968750
471,42.968750
472,42.968750
473,42.968750
474,42.968750
475,42.968750
476,42.968750
477,42.968750
478,42.968750
479,42.968750
480,39.062500
481,39.062500
482,39.062500
483,39.062500
484,39.062500
485,39.062500
486,39.062500
487,39.062500
488,35.156250
489,35.156250
490,39.062500
491,35.156250
492,35.156250
493,35.156250
494,35.156250
495,31.250000
496,31.250000
497,31.250000
498,31.250000
499,31.250000
500,31.250000
501,27.343750
502,31.250000
503,27.343750
504,27.343750
505,31.250000
506,27.343750
507,27.343750
508,27.343750
509,27.343750
510,27.343750
511,23.437500
512,23.437500
513,23.437500
514,23.437500
515,19.531250
516,23.437500
517,23.437500
518,19.531250
519,19.531250
520,19.531250
521,19.531250
522,19.531250
523,19.531250
524,19.531250
525,19.531250
526,19.531250
527,15.625000
528,15.625000
529,15.625000
530,15.625000
531,15.625000
532,15.625000
533,11.718750
534,11.718750
535,11.718750
536,11.718750
537,11.718750
538,11.718750
539,11.718750
540,7.812500
541,7.812500
542,7.812500
543,7.812500
544,7.812500
545,7.812500
546,7.812500
547,3.906250
548,3.906250
549,3.906250
550,3.906250
551,0.000000
552,3.906250
553,0.000000
554,0.000000
555,0.000000
556,0.000000
557,0.000000
558,0.000000
559,-3.906250
560,0.000000
561,-3.906250
562,-3.906250
563,-3.906250
564,-3.906250
565,-7.812500
566,-7.812500
567,-7.812500
568,-7.812500
569,-7.812500
570,-7.812500
571,-7.812500
572,-7.812500
573,-11.718750
574,-11.718750
575,-11.718750
576,-11.718750
577,-11.718750
578,-11.718750
579,-11.718750
580,-11.718750
581,-15.625000
582,-15.625000
583,-15.625000
584,-15.625000
585,-15.625000
586,-15.625000
587,-19.531250
588,-19.531250
589,-19.531250
590,-19.531250
591,-19.531250
592,-23.437500
593,-23.437500
594,-23.437500
595,-23.437500
596,-23.437500
597,-23.437500
598,-23.437500
599,-27.343750
600,-27.343750
601,-27.343750
602,-27.343750
603,-27.343750
604,-27.343750
605,-31.250000
606,-31.250000
607,-31.250000
608,-31.250000
609,-31.250000
610,-31.250000
611,-31.250000
612,-31.250000
613,-35.156250
614,-35.156250
615,-35.156250
616,-35.156250
617,-35.156250
618,-35.156250
619,-39.062500
620,-39.062500
621,-39.062500
622,-39.062500
623,-39.062500
624,-39.062500
625,-39.062500
626,-42.968750
627,-42.968750
628,-42.968750
629,-42.968750
630,-42.968750
631,-42.968750
632,-42.968750
633,-46.875000
634,-46.875000
635,-46.875000
636,-46.875000
637,-46.875000
638,-46.875000
639,-46.875000
640,-50.781250
641,-50.781250
642,-50.781250
643,-50.781250
644,-50.781250
645,-50.781250
646,-54.687500
647,-54.687500
648,-50.781250
649,-54.687500
650,-54.687500
651,-54.687500
652,-54.687500
653,-58.593750
654,-58.593750
655,-58.593750
656,-58.593750
657,-58.593750
658,-58.593750
659,-58.593750
660,-58.593750
661,-58.593750
662,-62.500000
663,-62.500000
664,-62.500000
665,-62.500000
666,-62.500000
667,-62.500000
668,-62.500000
669,-62.500000
670,-66.406250
671,-66.406250
672,-66.406250
673,-66.406250
674,-66.406250
675,-70.312500
676,-70.312500
677,-70.312500
678,-70.312500
679,-70.312500
680,-70.312500
681,-70.312500
682,-70.312500
683,-70.312500
684,-74.218750
685,-74.218750
686,-74.218750
687,-74.218750
688,-74.218750
689,-74.218750
690,-74.218750
691,-74.218750
692,-78.125000
693,-78.125000
694,-78.125000
695,-78.125000
696,-78.125000
697,-78.125000
698,-78.125000
699,-78.125000
700,-78.125000
701,-82.031250
702,-82.031250
703,-82.031250
704,-82.031250
705,-82.031250
706,-82.031250
707,-82.031250
708,-82.031250
709,-85.937500
710,-82.031250
711,-85.937500
712,-85.937500
713,-85.937500
714,-85.937500
715,-85.937500
716,-85.937500
717,-85.937500
718,-85.937500
719,-89.843750
720,-89.843750
721,-89.843750
722,-89.843750
723,-89.843750
724,-89.843750
725,-89.843750
726,-89.843750
727,-89.843750
728,-89.843750
729,-89.843750
730,-93.750000
731,-93.750000
732,-93.750000
733,-93.750000
734,-93.750000
735,-93.750000
736,-93.750000
737,-93.750000
738,-93.750000
739,-93.750000
740,-93.750000
741,-93.750000
742,-97.656250
743,-97.656250
744,-97.656250
745,-97.656250
746,-97.656250
747,-97.656250
748,-97.656250
749,-97.656250
750,-97.656250
751,-97.656250
752,-101.562500
753,-101.562500
754,-101.562500
755,-101.562500
756,-101.562500
757,-101.562500
758,-101.562500
759,-101.562500
760,-101.562500
761,-101.562500
762,-101.562500
763,-101.562500
764,-101.562500
765,-101.562500
766,-101.562500
767,-105.468750
768,-101.562500
769,-101.562500
770,-101.562500
771,-105.468750
772,-105.468750
773,-105.468750
774,-105.468750
775,-105.468750
776,-105.468750
777,-105.468750
778,-105.468750
779,-105.468750
780,-105.468750
781,-105.468750
782,-105.468750
783,-105.468750
784,-105.468750
785,-105.468750
786,-105.468750
787,-105.468750
788,-105.468750
789,-105.468750
790,-105.468750
791,-105.468750
792,-105.468750
793,-105.468750
794,-105.468750
795,-109.375000
796,-105.468750
797,-109.375000
798,-105.468750
799,-105.468750
800,-109.375000
801,-109.375000
802,-109.375000
803,-109.375000
804,-109.375000
805,-109.375000
806,-109.375000
807,-109.375000
808,-105.468750
809,-109.375000
810,-109.375000
811,-109.375000
812,-109.375000
813,-109.375000
814,-109.375000
815,-109.375000
816,-109.375000
817,-109.375000
818,-109.375000
819,-109.375000
820,-109.375000
821,-109.375000
822,-109.375000
823,-109.375000
824,-109.375000
825,-109.375000
826,-109.375000
827,-109.375000
828,-109.375000
829,-109.375000
830,-109.375000
831,-109.375000
832,-109.375000
833,-109.375000
834,-109.375000
835,-109.375000
836,-109.375000
837,-109.375000
838,-109.375000
839,-109.375000
840,-109.375000
841,-109.375000
842,-109.375000
843,-109.375000
844,-109.375000
845,-109.375000
846,-109.375000
847,-105.468750
848,-105.468750
849,-109.375000
850,-109.375000
851,-109.375000
852,-109.375000
853,-109.375000
854,-105.468750
855,-105.468750
856,-105.468750
857,-105.468750
858,-105.468750
859,-105.468750
860,-105.468750
861,-105.468750
862,-105.468750
863,-105.468750
864,-105.468750
865,-105.468750
866,-105.468750
867,-105.468750
868,-105.468750
869,-105.468750
870,-105.468750
871,-105.468750
872,-105.468750
873,-105.468750
874,-105.468750
875,-105.468750
876,-105.468750
877,-105.468750
878,-101.562500
879,-101.562500
880,-101.562500
881,-101.562500
882,-101.562500
883,-101.562500
884,-101.562500
885,-101.562500
886,-101.562500
887,-101.562500
888,-101.562500
889,-101.562500
890,-97.656250
891,-97.656250
892,-97.656250
893,-97.656250
894,-97.656250
895,-97.656250
896,-97.656250
897,-97.656250
898,-97.656250
899,-97.656250
900,-97.656250
901,-97.656250
902,-97.656250
903,-97.656250
904,-97.656250
905,-93.750000
906,-93.750000
907,-93.750000
908,-93.750000
909,-93.750000
910,-93.750000
911,-93.750000
912,-93.750000
913,-93.750000
914,-93.750000
915,-93.750000
916,-89.843750
917,-89.843750
918,-89.843750
919,-89.843750
920,-89.843750
921,-89.843750
922,-89.843750
923,-89.843750
924,-89.843750
925,-89.843750
926,-85.937500
927,-85.937500
928,-85.937500
929,-85.937500
930,-85.937500
931,-85.937500
932,-85.937500
933,-85.937500
934,-85.937500
935,-82.031250
936,-82.031250
937,-82.031250
938,-82.031250
939,-82.031250
940,-82.031250
941,-82.031250
942,-82.031250
943,-78.125000
944,-82.031250
945,-78.125000
946,-78.125000
947,-78.125000
948,-78.125000
949,-78.125000
950,-78.125000
951,-78.125000
952,-78.125000
953,-74.218750
954,-74.218750
955,-74.218750
956,-74.218750
957,-74.218750
958,-74.218750
959,-74.218750
960,-74.218750
961,-74.218750
962,-70.312500
963,-70.312500
964,-70.312500
965,-70.312500
966,-70.312500
967,-66.406250
968,-66.406250
969,-66.406250
970,-66.406250
971,-66.406250
972,-66.406250
973,-66.406250
974,-66.406250
975,-66.406250
976,-66.406250
977,-62.500000
978,-62.500000
979,-62.500000
980,-62.500000
981,-62.500000
982,-62.500000
983,-62.500000
984,-62.500000
985,-58.593750
986,-58.593750
987,-58.593750
988,-58.593750
989,-58.593750
990,-58.593750
991,-54.687500
992,-54.687500
993,-54.687500
994,-54.687500
995,-54.687500
996,-54.687500
997,-54.687500
998,-50.781250
999,-50.781250
1000,-50.781250
1001,-50.781250
1002,-50.781250
1003,-50.781250
1004,-50.781250
1005,-46.875000
1006,-46.875000
1007,-46.875000
1008,-46.875000
1009,-46.875000
1010,-46.875000
1011,-46.875000
1012,-42.968750
1013,-42.968750
1014,-42.968750
1015,-42.968750
1016,-42.968750
1017,-42.968750
1018,-39.062500
1019,-39.062500
1020,-39.062500
1021,-39.062500
1022,-39.062500
1023,-39.062500
1024,-39.062500
1025,-35.156250
1026,-35.156250
1027,-35.156250
1028,-35.156250
1029,-35.156250
1030,-35.156250
1031,-31.250000
1032,-31.250000
1033,-31.250000
1034,-31.250000
1035,-31.250000
1036,-31.250000
1037,-27.343750
1038,-27.343750
1039,-27.343750
1040,-27.343750
1041,-27.343750
1042,-27.343750
1043,-27.343750
1044,-27.343750
1045,-23.437500
1046,-23.437500
1047,-23.437500
1048,-23.437500
1049,-23.437500
1050,-23.437500
1051,-23.437500
1052,-19.531250
1053,-19.531250
1054,-19.531250
1055,-19.531250
1056,-19.531250
1057,-15.625000
1058,-15.625000
1059,-15.625000
1060,-15.625000
1061,-15.625000
1062,-15.625000
1063,-15.625000
1064,-11.718750
1065,-11.718750
1066,-11.718750
1067,-11.718750
1068,-7.812500
1069,-7.812500
1070,-11.718750
1071,-7.812500
1072,-7.812500
1073,-7.812500
1074,-7.812500
1075,-3.906250
1076,-3.906250
1077,-3.906250
1078,-3.906250
1079,-3.906250
1080,-3.906250
1081,-3.906250
1082,-3.906250
1083,-3.906250
1084,0.000000
1085,0.000000
1086,0.000000
1087,0.000000
1088,0.000000
1089,3.906250
1090,3.906250
1091,3.906250
1092,3.906250
1093,3.906250
1094,3.906250
1095,3.906250
1096,3.906250
1097,7.812500
1098,7.812500
1099,7.812500
1100,7.812500
1101,7.812500
1102,7.812500
1103,7.812500
1104,11.718750
1105,11.718750
1106,11.718750
1107,11.718750
1108,11.718750
1109,11.718750
1110,11.718750
1111,15.625000
1112,15.625000
1113,15.625000
1114,15.625000
1115,15.625000
1116,15.625000
1117,15.625000
1118,15.625000
1119,19.531250
1120,19.531250
1121,19.531250
1122,19.531250
1123,19.531250
1124,19.531250
1125,19.531250
1126,23.437500
1127,23.437500
1128,23.437500
1129,23.437500
1130,23.437500
1131,23.437500
1132,27.343750
1133,27.343750
1134,27.343750
1135,27.343750
1136,27.343750
1137,27.343750
1138,27.343750
1139,27.343750
1140,27.343750
1141,31.250000
1142,31.250000
1143,31.250000
1144,31.250000
1145,31.250000
1146,31.250000
1147,35.156250
1148,35.156250
1149,35.156250
1150,35.156250
1151,35.156250
1152,35.156250
1153,35.156250
1154,35.156250
1155,39.062500
1156,39.062500
1157,39.062500
1158,39.062500
1159,39.062500
1160,39.062500
1161,39.062500
1162,39.062500
1163,39.062500
1164,39.062500
1165,42.968750
1166,42.968750
1167,42.968750
1168,42.968750
1169,42.968750
1170,42.968750
1171,42.968750
1172,42.968750
1173,42.968750
1174,46.875000
1175,46.875000
1176,46.875000
1177,46.875000
1178,46.875000
1179,46.875000
1180,46.875000
1181,46.875000
1182,50.781250
1183,50.781250
1184,50.781250
1185,50.781250
1186,50.781250
1187,50.781250
1188,50.781250
1189,50.781250
1190,54.687500
1191,54.687500
1192,54.687500
1193,54.687500
1194,54.687500
1195,54.687500
1196,54.687500
1197,54.687500
1198,54.687500
1199,54.687500
1200,54.687500
1201,54.687500
1202,58.593750
1203,58.593750
1204,58.593750
1205,58.593750
1206,58.593750
1207,58.593750
1208,58.593750
1209,58.593750
1210,58.593750
1211,58.593750
1212,58.593750
1213,62.500000
1214,62.500000
1215,62.500000
1216,62.500000
1217,62.500000
1218,62.500000
1219,62.500000
1220,62.500000
1221,62.500000
1222,62.500000
1223,62.500000
1224,66.406250
1225,62.500000
1226,66.406250
1227,62.500000
1228,66.406250
1229,66.406250
1230,66.406250
1231,66.406250
1232,66.406250
1233,66.406250
1234,66.406250
1235,66.406250
1236,66.406250
1237,66.406250
1238,66.406250
1239,66.406250
1240,70.312500
1241,66.406250
1242,70.312500
1243,70.312500
1244,70.312500
1245,70.312500
1246,70.312500
1247,70.312500
1248,70.312500
1249,70.312500
1250,70.312500
1251,70.312500
1252,70.312500
1253,70.312500
1254,70.312500
1255,70.312500
1256,70.312500
1257,74.218750
1258,70.312500
1259,74.218750
1260,70.312500
1261,70.312500
1262,74.218750
1263,74.218750
1264,74.218750
1265,74.218750
1266,74.218750
1267,74.218750
1268,74.218750
1269,74.218750
1270,74.218750
1271,74.218750
1272,74.218750
1273,74.218750
1274,74.218750
1275,74.218750
1276,74.218750
1277,74.218750
1278,74.218750
1279,74.218750
1280,74.218750
1281,74.218750
1282,74.218750
1283,74.218750
1284,74.218750
1285,78.125000
1286,74.218750
1287,74.218750
1288,74.218750
1289,78.125000
1290,78.125000
1291,74.218750
1292,78.125000
1293,78.125000
1294,78.125000
1295,78.125000
1296,78.125000
1297,74.218750
1298,78.125000
1299,78.125000
1300,78.125000
1301,78.125000
1302,78.125000
1303,78.125000
1304,78.125000
1305,78.125000
1306,78.125000
1307,78.125000
1308,78.125000
1309,78.125000
1310,78.125000
1311,78.125000
1312,78.125000
1313,78.125000
1314,78.125000
1315,78.125000
1316,78.125000
1317,78.125000
1318,78.125000
1319,78.125000
1320,78.125000
1321,78.125000
1322,78.125000
1323,78.125000
1324,78.125000
1325,78.125000
1326,78.125000
1327,78.125000
1328,78.125000
1329,74.218750
1330,78.125000
1331,78.125000
1332,78.125000
1333,78.125000
1334,78.125000
1335,78.125000
1336,78.125000
1337,78.125000
1338,78.125000
1339,74.218750
1340,78.125000
1341,78.125000
1342,78.125000
1343,78.125000
1344,78.125000
1345,74.218750
1346,78.125000
1347,74.218750
1348,74.218750
1349,74.218750
1350,74.218750
1351,74.218750
1352,74.218750
1353,74.218750
1354,74.218750
1355,74.218750
1356,74.218750
1357,74.218750
1358,74.218750
1359,74.218750
1360,74.218750
1361,74.218750
1362,74.218750
1363,74.218750
1364,74.218750
1365,74.218750
1366,74.218750
1367,74.218750
1368,74.218750
1369,74.218750
1370,74.218750
1371,74.218750
1372,70.312500
1373,70.312500
1374,70.312500
1375,70.312500
1376,70.312500
1377,70.312500
1378,70.312500
1379,70.312500
1380,70.312500
1381,70.312500
1382,70.312500
1383,70.312500
1384,70.312500
1385,70.312500
1386,70.312500
1387,70.312500
1388,70.312500
1389,66.406250
1390,70.312500
1391,66.406250
1392,70.312500
1393,66.406250
1394,66.406250
1395,66.406250
1396,66.406250
1397,66.406250
1398,66.406250
1399,66.406250
1400,66.406250
1401,66.406250
1402,66.406250
1403,66.406250
1404,66.406250
1405,62.500000
1406,62.500000
1407,62.500000
1408,62.500000
1409,62.500000
1410,62.500000
1411,62.500000
1412,62.500000
1413,62.500000
1414,62.500000
1415,62.500000
1416,62.500000
1417,62.500000
1418,62.500000
1419,58.593750
1420,62.500000
1421,58.593750
1422,58.593750
1423,58.593750
1424,58.593750
1425,58.593750
1426,58.593750
1427,58.593750
1428,58.593750
1429,58.593750
1430,58.593750
1431,58.593750
1432,54.687500
1433,54.687500
1434,54.687500
1435,54.687500
1436,54.687500
1437,54.687500
1438,54.687500
1439,54.687500
1440,54.687500
1441,54.687500
1442,50.781250
1443,50.781250
1444,50.781250
1445,50.781250
1446,50.781250
1447,50.781250
1448,50.781250
1449,50.781250
1450,50.781250
1451,50.781250
1452,50.781250
1453,46.875000
1454,46.875000
1455,46.875000
1456,46.875000
1457,46.875000
1458,46.875000
1459,46.875000
1460,46.875000
1461,46.875000
1462,42.968750
1463,42.968750
1464,42.968750
1465,42.968750
1466,42.968750
1467,42.968750
1468,39.062500
1469,42.968750
1470,39.062500
1471,39.062500
1472,39.062500
1473,39.062500
1474,39.062500
1475,39.062500
1476,39.062500
1477,39.062500
1478,39.062500
1479,35.156250
1480,35.156250
1481,35.156250
1482,35.156250
1483,35.156250
1484,31.250000
1485,31.250000
1486,31.250000
1487,31.250000
1488,31.250000
1489,31.250000
1490,31.250000
1491,31.250000
1492,27.343750
1493,27.343750
1494,27.343750
1495,27.343750
1496,27.343750
1497,27.343750
1498,27.343750
1499,27.343750
1500,27.343750
1501,27.343750
1502,23.437500
1503,23.437500
1504,23.437500
1505,23.437500
1506,23.437500
1507,23.437500
1508,23.437500
1509,23.437500
1510,19.531250
1511,19.531250
1512,19.531250
1513,19.531250
1514,15.625000
1515,19.531250
1516,15.625000
1517,15.625000
1518,15.625000
1519,15.625000
1520,15.625000
1521,15.625000
1522,15.625000
1523,11.718750
1524,11.718750
1525,11.718750
1526,11.718750
1527,11.718750
1528,11.718750
1529,11.718750
1530,7.812500
1531,7.812500
1532,7.812500
1533,7.812500
1534,7.812500
1535,7.812500
1536,7.812500
1537,7.812500
1538,3.906250
1539,3.906250
1540,3.906250
1541,3.906250
1542,3.906250
1543,0.000000
1544,0.000000
1545,0.000000
1546,0.000000
1547,0.000000
1548,0.000000
1549,0.000000
1550,-3.906250
1551,-3.906250
1552,-3.906250
1553,-3.906250
1554,-3.906250
1555,-3.906250
1556,-7.812500
1557,-7.812500
1558,-7.812500
1559,-7.812500
1560,-7.812500
1561,-7.812500
1562,-7.812500
1563,-11.718750
1564,-11.718750
1565,-11.718750
1566,-11.718750
1567,-11.718750
1568,-11.718750
1569,-11.718750
1570,-15.625000
1571,-15.625000
1572,-15.625000
1573,-15.625000
1574,-15.625000
1575,-15.625000
1576,-19.531250
1577,-19.531250
1578,-19.531250
1579,-19.531250
1580,-19.531250
1581,-19.531250
1582,-19.531250
1583,-23.437500
1584,-23.437500
1585,-23.437500
1586,-23.437500
1587,-23.437500
1588,-23.437500
1589,-23.437500
1590,-23.437500
1591,-27.343750
1592,-27.343750
1593,-27.343750
1594,-27.343750
1595,-31.250000
1596,-27.343750
1597,-31.250000
1598,-31.250000
1599,-31.250000
1600,-31.250000
1601,-31.250000
1602,-31.250000
1603,-35.156250
1604,-35.156250
1605,-35.156250
1606,-35.156250
1607,-35.156250
1608,-35.156250
1609,-39.062500
1610,-39.062500
1611,-39.062500
1612,-39.062500
1613,-39.062500
1614,-39.062500
1615,-39.062500
1616,-42.968750
1617,-42.968750
1618,-42.968750
1619,-42.968750
1620,-42.968750
1621,-46.875000
1622,-46.875000
1623,-46.875000
1624,-46.875000
1625,-46.875000
1626,-46.875000
1627,-46.875000
1628,-46.875000
1629,-50.781250
1630,-50.781250
1631,-50.781250
1632,-50.781250
1633,-50.781250
1634,-50.781250
1635,-54.687500
1636,-50.781250
1637,-54.687500
1638,-54.687500
1639,-54.687500
1640,-54.687500
1641,-58.593750
1642,-54.687500
1643,-58.593750
1644,-58.593750
1645,-58.593750
1646,-58.593750
1647,-58.593750
1648,-58.593750
1649,-58.593750
1650,-62.500000
1651,-62.500000
1652,-62.500000
1653,-62.500000
1654,-62.500000
1655,-62.500000
1656,-62.500000
1657,-62.500000
1658,-62.500000
1659,-66.406250
1660,-66.406250
1661,-66.406250
1662,-66.406250
1663,-66.406250
1664,-66.406250
1665,-66.406250
1666,-66.406250
1667,-70.312500
1668,-70.312500
1669,-70.312500
1670,-70.312500
1671,-70.312500
1672,-74.218750
1673,-74.218750
1674,-74.218750
1675,-74.218750
1676,-74.218750
1677,-74.218750
1678,-74.218750
1679,-74.218750
1680,-74.218750
1681,-78.125000
1682,-78.125000
1683,-78.125000
1684,-78.125000
1685,-78.125000
1686,-78.125000
1687,-78.125000
1688,-78.125000
1689,-82.031250
1690,-82.031250
1691,-82.031250
1692,-82.031250
1693,-82.031250
1694,-82.031250
1695,-82.031250
1696,-82.031250
1697,-82.031250
1698,-82.031250
1699,-85.937500
1700,-85.937500
1701,-85.937500
1702,-85.937500
1703,-85.937500
1704,-85.937500
1705,-85.937500
1706,-85.937500
1707,-85.937500
1708,-89.843750
1709,-89.843750
1710,-89.843750
1711,-89.843750
1712,-89.843750
1713,-89.843750
1714,-89.843750
1715,-89.843750
1716,-89.843750
1717,-89.843750
1718,-89.843750
1719,-89.843750
1720,-89.843750
1721,-93.750000
1722,-93.750000
1723,-93.750000
1724,-93.750000
1725,-93.750000
1726,-93.750000
1727,-93.750000
1728,-93.750000
1729,-93.750000
1730,-93.750000
1731,-97.656250
1732,-97.656250
1733,-97.656250
1734,-97.656250
1735,-97.656250
1736,-97.656250
1737,-97.656250
1738,-97.656250
1739,-97.656250
1740,-97.656250
1741,-101.562500
1742,-97.656250
1743,-101.562500
1744,-97.656250
1745,-97.656250
1746,-101.562500
1747,-101.562500
1748,-101.562500
1749,-101.562500
1750,-101.562500
1751,-101.562500
1752,-101.562500
1753,-101.562500
1754,-101.562500
1755,-101.562500
1756,-101.562500
1757,-105.468750
1758,-105.468750
1759,-105.468750
1760,-105.468750
1761,-105.468750
1762,-105.468750
1763,-105.468750
1764,-105.468750
1765,-105.468750
1766,-105.468750
1767,-105.468750
1768,-105.468750
1769,-105.468750
1770,-105.468750
1771,-105.468750
1772,-105.468750
1773,-105.468750
1774,-105.468750
1775,-105.468750
1776,-105.468750
1777,-105.468750
1778,-105.468750
1779,-105.468750
1780,-109.375000
1781,-109.375000
1782,-109.375000
1783,-109.375000
1784,-105.468750
1785,-109.375000
1786,-109.375000
1787,-109.375000
1788,-109.375000
1789,-109.375000
1790,-109.375000
1791,-109.375000
1792,-109.375000
1793,-109.375000
1794,-109.375000
1795,-109.375000
1796,-109.375000
1797,-109.375000
1798,-109.375000
1799,-109.375000
1800,-109.375000
1801,-109.375000
1802,-109.375000
1803,-109.375000
1804,-109.375000
1805,-109.375000
1806,-109.375000
1807,-109.375000
1808,-109.375000
1809,-109.375000
1810,-109.375000
1811,-109.375000
1812,-109.375000
1813,-109.375000
1814,-109.375000
1815,-109.375000
1816,-109.375000
1817,-109.375000
1818,-109.375000
1819,-109.375000
1820,-109.375000
1821,-109.375000
1822,-109.375000
1823,-109.375000
1824,-109.375000
1825,-109.375000
1826,-109.375000
1827,-109.375000
1828,-109.375000
1829,-109.375000
1830,-109.375000
1831,-109.375000
1832,-109.375000
1833,-105.468750
1834,-105.468750
1835,-105.468750
1836,-105.468750
1837,-105.468750
1838,-105.468750
1839,-105.468750
1840,-105.468750
1841,-105.468750
1842,-105.468750
1843,-105.468750
1844,-105.468750
1845,-105.468750
1846,-105.468750
1847,-105.468750
1848,-105.468750
1849,-105.468750
1850,-105.468750
1851,-105.468750
1852,-105.468750
1853,-105.468750
1854,-105.468750
1855,-105.468750
1856,-105.468750
1857,-105.468750
1858,-105.468750
1859,-105.468750
1860,-105.468750
1861,-105.468750
1862,-105.468750
1863,-101.562500
1864,-101.562500
1865,-101.562500
1866,-101.562500
1867,-101.562500
1868,-101.562500
1869,-101.562500
1870,-101.562500
1871,-101.562500
1872,-101.562500
1873,-101.562500
1874,-101.562500
1875,-101.562500
1876,-101.562500
1877,-97.656250
1878,-101.562500
1879,-101.562500
1880,-101.562500
1881,-97.656250
1882,-97.656250
1883,-97.656250
1884,-97.656250
1885,-97.656250
1886,-97.656250
1887,-97.656250
1888,-97.656250
1889,-97.656250
1890,-97.656250
1891,-97.656250
1892,-97.656250
1893,-93.750000
1894,-93.750000
1895,-93.750000
1896,-93.750000
1897,-93.750000
1898,-93.750000
1899,-93.750000
1900,-93.750000
1901,-93.750000
1902,-93.750000
1903,-89.843750
1904,-89.843750
1905,-89.843750
1906,-89.843750
1907,-89.843750
1908,-89.843750
1909,-89.843750
1910,-89.843750
1911,-89.843750
1912,-89.843750
1913,-89.843750
1914,-85.937500
1915,-85.937500
1916,-85.937500
1917,-85.937500
1918,-85.937500
1919,-85.937500
1920,-85.937500
1921,-85.937500
1922,-82.031250
1923,-85.937500
1924,-82.031250
1925,-82.031250
1926,-82.031250
1927,-82.031250
1928,-82.031250
1929,-82.031250
1930,-82.031250
1931,-82.031250
1932,-82.031250
1933,-78.125000
1934,-78.125000
1935,-78.125000
1936,-78.125000
1937,-78.125000
1938,-78.125000
1939,-78.125000
1940,-78.125000
1941,-78.125000
1942,-74.218750
1943,-74.218750
1944,-74.218750
1945,-74.218750
1946,-74.218750
1947,-74.218750
1948,-74.218750
1949,-74.218750
1950,-70.312500
1951,-70.312500
1952,-70.312500
1953,-70.312500
1954,-70.312500
1955,-70.312500
1956,-70.312500
1957,-66.406250
1958,-66.406250
1959,-66.406250
1960,-66.406250
1961,-66.406250
1962,-66.406250
1963,-66.406250
1964,-66.406250
1965,-62.500000
1966,-62.500000
1967,-62.500000
1968,-62.500000
1969,-62.500000
1970,-62.500000
1971,-62.500000
1972,-58.593750
1973,-58.593750
1974,-58.593750
1975,-58.593750
1976,-58.593750
1977,-58.593750
1978,-58.593750
1979,-58.593750
1980,-54.687500
1981,-54.687500
1982,-54.687500
1983,-54.687500
1984,-50.781250
1985,-54.687500
1986,-50.781250
1987,-50.781250
1988,-50.781250
1989,-50.781250
1990,-50.781250
1991,-50.781250
1992,-50.781250
1993,-46.875000
1994,-46.875000
1995,-46.875000
1996,-46.875000
1997,-46.875000
1998,-46.875000
1999,-46.875000
2000,-46.875000
2001,-42.968750
2002,-42.968750
2003,-42.968750
2004,-42.968750
2005,-42.968750
2006,-42.968750
2007,-39.062500
2008,-39.062500
2009,-39.062500
2010,-39.062500
2011,-39.062500
2012,-39.062500
2013,-35.156250
2014,-35.156250
2015,-35.156250
2016,-35.156250
2017,-35.156250
2018,-35.156250
2019,-35.156250
2020,-31.250000
2021,-31.250000
2022,-31.250000
2023,-31.250000
2024,-31.250000
2025,-31.250000
2026,-31.250000
2027,-27.343750
2028,-27.343750
2029,-27.343750
2030,-27.343750
2031,-27.343750
2032,-23.437500
2033,-23.437500
2034,-23.437500
2035,-23.437500
2036,-23.437500
2037,-23.437500
2038,-23.437500
2039,-23.437500
2040,-19.531250
2041,-19.531250
2042,-19.531250
2043,-19.531250
2044,-19.531250
2045,-19.531250
2046,-15.625000
2047,-15.625000
2048,-15.625000
2049,-15.625000
2050,-15.625000
2051,-15.625000
2052,-11.718750
2053,-11.718750
2054,-11.718750
2055,-11.718750
2056,-11.718750
2057,-11.718750
2058,-11.718750
2059,-7.812500
2060,-7.812500
2061,-7.812500
2062,-7.812500
2063,-7.812500
2064,-7.812500
2065,-7.812500
2066,-3.906250
2067,-3.906250
2068,-3.906250
2069,-3.906250
2070,-3.906250
2071,-3.906250
2072,0.000000
2073,0.000000
2074,0.000000
2075,0.000000
2076,0.000000
2077,0.000000
2078,3.906250
2079,3.906250
2080,3.906250
2081,3.906250
2082,3.906250
2083,3.906250
2084,3.906250
2085,7.812500
2086,7.812500
2087,7.812500
2088,7.812500
2089,7.812500
2090,7.812500
2091,7.812500
2092,11.718750
2093,11.718750
2094,11.718750
2095,11.718750
2096,11.718750
2097,11.718750
2098,11.718750
2099,15.625000
2100,15.625000
2101,15.625000
2102,15.625000
2103,15.625000
2104,15.625000
2105,15.625000
2106,19.531250
2107,19.531250
2108,19.531250
2109,19.531250
2110,19.531250
2111,19.531250
2112,19.531250
2113,23.437500
2114,23.437500
2115,23.437500
2116,23.437500
2117,23.437500
2118,23.437500
2119,23.437500
2120,27.343750
2121,23.437500
2122,27.343750
2123,27.343750
2124,27.343750
2125,27.343750
2126,27.343750
2127,27.343750
2128,31.250000
2129,31.250000
2130,31.250000
2131,31.250000
2132,31.250000
2133,31.250000
2134,31.250000
2135,35.156250
2136,35.156250
2137,35.156250
2138,35.156250
2139,35.156250
2140,35.156250
2141,35.156250
2142,35.156250
2143,35.156250
2144,39.062500
2145,39.062500
2146,39.062500
2147,39.062500
2148,39.062500
2149,39.062500
2150,39.062500
2151,39.062500
2152,39.062500
2153,42.968750
2154,42.968750
2155,42.968750
2156,42.968750
2157,42.968750
2158,42.968750
2159,42.968750
2160,42.968750
2161,46.875000
2162,46.875000
2163,46.875000
2164,46.875000
2165,46.875000
2166,46.875000
2167,46.875000
2168,46.875000
2169,46.875000
2170,50.781250
2171,50.781250
2172,50.781250
2173,50.781250
2174,50.781250
2175,50.781250
2176,50.781250
2177,50.781250
2178,54.687500
2179,54.687500
2180,54.687500
2181,54.687500
2182,54.687500
2183,54.687500
2184,54.687500
2185,54.687500
2186,54.687500
2187,54.687500
2188,54.687500
2189,54.687500
2190,58.593750
2191,58.593750
2192,58.593750
2193,58.593750
2194,58.593750
2195,58.593750
2196,58.593750
2197,58.593750
2198,58.593750
2199,58.593750
2200,62.500000
2201,62.500000
2202,62.500000
2203,62.500000
2204,62.500000
2205,62.500000
2206,62.500000
2207,62.500000
2208,62.500000
2209,62.500000
2210,62.500000
2211,62.500000
2212,62.500000
2213,62.500000
2214,66.406250
2215,66.406250
2216,66.406250
2217,66.406250
2218,66.406250
2219,66.406250
2220,66.406250
2221,66.406250
2222,66.406250
2223,66.406250
2224,66.406250
2225,66.406250
2226,70.312500
2227,70.312500
2228,70.312500
2229,70.312500
2230,70.312500
2231,70.312500
2232,70.312500
2233,70.312500
2234,70.312500
2235,70.312500
2236,70.312500
2237,70.312500
2238,70.312500
2239,70.312500
2240,70.312500
2241,70.312500
2242,70.312500
2243,70.312500
2244,74.218750
2245,70.312500
2246,74.218750
2247,74.218750
2248,74.218750
2249,74.218750
2250,74.218750
2251,74.218750
2252,74.218750
2253,74.218750
2254,74.218750
2255,74.218750
2256,74.218750
2257,74.218750
2258,74.218750
2259,74.218750
2260,74.218750
2261,74.218750
2262,74.218750
2263,74.218750
2264,74.218750
2265,74.218750
2266,74.218750
2267,74.218750
2268,74.218750
2269,74.218750
2270,74.218750
2271,74.218750
2272,78.125000
2273,74.218750
2274,78.125000
2275,78.125000
2276,78.125000
2277,78.125000
2278,78.125000
2279,78.125000
2280,78.125000
2281,78.125000
2282,78.125000
2283,78.125000
2284,78.125000
2285,78.125000
2286,78.125000
2287,78.125000
2288,78.125000
2289,78.125000
2290,78.125000
2291,78.125000
2292,78.125000
2293,78.125000
2294,78.125000
2295,78.125000
2296,78.125000
2297,78.125000
2298,78.125000
2299,78.125000
2300,78.125000
2301,78.125000
2302,78.125000
2303,78.125000
2304,78.125000
2305,78.125000
2306,78.125000
2307,78.125000
2308,78.125000
2309,78.125000
2310,78.125000
2311,78.125000
2312,78.125000
2313,78.125000
2314,78.125000
2315,78.125000
2316,78.125000
2317,78.125000
2318,78.125000
2319,78.125000
2320,78.125000
2321,78.125000
2322,78.125000
2323,78.125000
2324,78.125000
2325,78.125000
2326,78.125000
2327,78.125000
2328,78.125000
2329,78.125000
2330,78.125000
2331,78.125000
2332,78.125000
2333,78.125000
2334,78.125000
2335,78.125000
2336,78.125000
2337,78.125000
2338,78.125000
2339,78.125000
2340,78.125000
2341,74.218750
2342,74.218750
2343,74.218750
2344,78.125000
2345,74.218750
2346,74.218750
2347,74.218750
2348,74.218750
2349,74.218750
2350,74.218750
2351,74.218750
2352,74.218750
2353,74.218750
2354,74.218750
2355,74.218750
2356,74.218750
2357,74.218750
2358,74.218750
2359,74.218750
2360,74.218750
2361,74.218750
2362,74.218750
2363,70.312500
2364,70.312500
2365,70.312500
2366,70.312500
2367,70.312500
2368,70.312500
2369,70.312500
2370,70.312500
2371,70.312500
2372,70.312500
2373,70.312500
2374,70.312500
2375,70.312500
2376,70.312500
2377,70.312500
2378,70.312500
2379,70.312500
2380,70.312500
2381,70.312500
2382,66.406250
2383,66.406250
2384,66.406250
2385,66.406250
2386,66.406250
2387,66.406250
2388,66.406250
2389,66.406250
2390,66.406250
2391,66.406250
2392,66.406250
2393,66.406250
2394,66.406250
2395,66.406250
2396,62.500000
2397,62.500000
2398,62.500000
2399,62.500000
2400,62.500000
2401,62.500000
2402,62.500000
2403,62.500000
2404,62.500000
2405,62.500000
2406,62.500000
2407,62.500000
2408,62.500000
2409,62.500000
2410,58.593750
2411,58.593750
2412,58.593750
2413,58.593750
2414,58.593750
2415,58.593750
2416,58.593750
2417,58.593750
2418,58.593750
2419,54.687500
2420,58.593750
2421,54.687500
2422,54.687500
2423,54.687500
2424,54.687500
2425,54.687500
2426,54.687500
2427,54.687500
2428,54.687500
2429,54.687500
2430,50.781250
2431,50.781250
2432,50.781250
2433,50.781250
2434,50.781250
2435,50.781250
2436,50.781250
2437,50.781250
2438,50.781250
2439,50.781250
2440,46.875000
2441,46.875000
2442,46.875000
2443,46.875000
2444,46.875000
2445,46.875000
2446,46.875000
2447,46.875000
2448,46.875000
2449,46.875000
2450,42.968750
2451,42.968750
2452,42.968750
2453,42.968750
2454,42.968750
2455,42.968750
2456,42.968750
2457,39.062500
2458,42.968750
2459,39.062500
2460,39.062500
2461,39.062500
2462,39.062500
2463,39.062500
2464,39.062500
2465,35.156250
2466,39.062500
2467,35.156250
2468,35.156250
2469,35.156250
2470,35.156250
2471,35.156250
2472,35.156250
2473,35.156250
2474,31.250000
2475,31.250000
2476,31.250000
2477,31.250000
2478,31.250000
2479,31.250000
2480,31.250000
2481,31.250000
2482,31.250000
2483,27.343750
2484,27.343750
2485,27.343750
2486,27.343750
2487,27.343750
2488,27.343750
2489,27.343750
2490,23.437500
2491,23.437500
2492,23.437500
2493,23.437500
2494,23.437500
2495,23.437500
2496,23.437500
2497,19.531250
2498,19.531250
2499,19.531250
2500,19.531250
2501,19.531250
2502,19.531250
2503,19.531250
2504,15.625000
2505,15.625000
2506,15.625000
2507,15.625000
2508,15.625000
2509,15.625000
2510,15.625000
2511,15.625000
2512,11.718750
2513,11.718750
2514,11.718750
2515,11.718750
2516,11.718750
2517,11.718750
2518,11.718750
2519,7.812500
2520,7.812500
2521,7.812500
2522,7.812500
2523,7.812500
2524,7.812500
2525,3.906250
2526,3.906250
2527,3.906250
2528,3.906250
2529,3.906250
2530,3.906250
2531,0.000000
2532,0.000000
2533,0.000000
2534,0.000000
2535,0.000000
2536,0.000000
2537,0.000000
2538,-3.906250
2539,-3.906250
2540,-3.906250
2541,-3.906250
2542,-3.906250
2543,-3.906250
2544,-7.812500
2545,-7.812500
2546,-7.812500
2547,-7.812500
2548,-7.812500
2549,-7.812500
2550,-7.812500
2551,-11.718750
2552,-11.718750
2553,-11.718750
2554,-11.718750
2555,-11.718750
2556,-11.718750
2557,-11.718750
2558,-15.625000
2559,-15.625000
2560,-15.625000
2561,-15.625000
2562,-15.625000
2563,-15.625000
2564,-15.625000
2565,-19.531250
2566,-19.531250
2567,-19.531250
2568,-19.531250
2569,-19.531250
2570,-23.437500
2571,-23.437500
2572,-23.437500
2573,-23.437500
2574,-23.437500
2575,-23.437500
2576,-23.437500
2577,-23.437500
2578,-23.437500
2579,-27.343750
2580,-27.343750
2581,-27.343750
2582,-27.343750
2583,-27.343750
2584,-27.343750
2585,-31.250000
2586,-31.250000
2587,-31.250000
2588,-31.250000
2589,-31.250000
2590,-31.250000
2591,-31.250000
2592,-35.156250
2593,-35.156250
2594,-35.156250
2595,-35.156250
2596,-35.156250
2597,-35.156250
2598,-35.156250
2599,-39.062500
2600,-39.062500
2601,-39.062500
2602,-39.062500
2603,-39.062500
2604,-42.968750
2605,-42.968750
2606,-42.968750
2607,-42.968750
2608,-42.968750
2609,-42.968750
2610,-42.968750
2611,-42.968750
2612,-46.875000
2613,-46.875000
2614,-46.875000
2615,-46.875000
2616,-46.875000
2617,-46.875000
2618,-46.875000
2619,-50.781250
2620,-50.781250
2621,-50.781250
2622,-50.781250
2623,-50.781250
2624,-50.781250
2625,-50.781250
2626,-54.687500
2627,-54.687500
2628,-54.687500
2629,-54.687500
2630,-54.687500
2631,-54.687500
2632,-54.687500
2633,-58.593750
2634,-58.593750
2635,-58.593750
2636,-58.593750
2637,-58.593750
2638,-58.593750
2639,-58.593750
2640,-62.500000
2641,-62.500000
2642,-62.500000
2643,-62.500000
2644,-62.500000
2645,-62.500000
2646,-62.500000
2647,-66.406250
2648,-66.406250
2649,-66.406250
2650,-66.406250
2651,-66.406250
2652,-66.406250
2653,-66.406250
2654,-70.312500
2655,-70.312500
2656,-70.312500
2657,-70.312500
2658,-70.312500
2659,-70.312500
2660,-70.312500
2661,-74.218750
2662,-74.218750
2663,-74.218750
2664,-74.218750
2665,-74.218750
2666,-74.218750
2667,-74.218750
2668,-74.218750
2669,-74.218750
2670,-78.125000
2671,-78.125000
2672,-78.125000
2673,-78.125000
2674,-78.125000
2675,-78.125000
2676,-78.125000
2677,-78.125000
2678,-82.031250
2679,-78.125000
2680,-82.031250
2681,-82.031250
2682,-82.031250
2683,-82.031250
2684,-82.031250
2685,-82.031250
2686,-82.031250
2687,-85.937500
2688,-85.937500
2689,-85.937500
2690,-85.937500
2691,-85.937500
2692,-85.937500
2693,-85.937500
2694,-85.937500
2695,-85.937500
2696,-89.843750
2697,-89.843750
2698,-89.843750
2699,-89.843750
2700,-89.843750
2701,-89.843750
2702,-89.843750
2703,-93.750000
2704,-89.843750
2705,-89.843750
2706,-93.750000
2707,-93.750000
2708,-93.750000
2709,-93.750000
2710,-93.750000
2711,-93.750000
2712,-93.750000
2713,-93.750000
2714,-93.750000
2715,-93.750000
2716,-93.750000
2717,-93.750000
2718,-93.750000
2719,-97.656250
2720,-97.656250
2721,-97.656250
2722,-97.656250
2723,-97.656250
2724,-97.656250
2725,-97.656250
2726,-97.656250
2727,-97.656250
2728,-97.656250
2729,-97.656250
2730,-97.656250
2731,-97.656250
2732,-101.562500
2733,-97.656250
2734,-101.562500
2735,-101.562500
2736,-101.562500
2737,-101.562500
2738,-97.656250
2739,-97.656250
2740,-101.562500
2741,-101.562500
2742,-101.562500
2743,-101.562500
2744,-101.562500
2745,-101.562500
2746,-101.562500
2747,-101.562500
2748,-101.562500
2749,-101.562500
2750,-105.468750
2751,-105.468750
2752,-105.468750
2753,-105.468750
2754,-105.468750
2755,-105.468750
2756,-105.468750
2757,-105.468750
2758,-105.468750
2759,-105.468750
2760,-105.468750
2761,-105.468750
2762,-105.468750
2763,-109.375000
2764,-105.468750
2765,-105.468750
2766,-105.468750
2767,-105.468750
2768,-105.468750
2769,-105.468750
2770,-105.468750
2771,-105.468750
2772,-109.375000
2773,-109.375000
2774,-109.375000
2775,-109.375000
2776,-109.375000
2777,-109.375000
2778,-109.375000
2779,-109.375000
2780,-109.375000
2781,-109.375000
2782,-109.375000
2783,-109.375000
2784,-109.375000
2785,-109.375000
2786,-109.375000
2787,-109.375000
2788,-109.375000
2789,-109.375000
2790,-109.375000
2791,-109.375000
2792,-109.375000
2793,-109.375000
2794,-109.375000
2795,-109.375000
2796,-109.375000
2797,-109.375000
2798,-109.375000
2799,-109.375000
2800,-109.375000
2801,-109.375000
2802,-109.375000
2803,-109.375000
2804,-109.375000
2805,-109.375000
2806,-109.375000
2807,-109.375000
2808,-109.375000
2809,-109.375000
2810,-109.375000
2811,-109.375000
2812,-109.375000
2813,-109.375000
2814,-109.375000
2815,-109.375000
2816,-109.375000
2817,-109.375000
2818,-109.375000
2819,-109.375000
2820,-109.375000
2821,-109.375000
2822,-109.375000
2823,-109.375000
2824,-105.468750
2825,-109.375000
2826,-109.375000
2827,-109.375000
2828,-109.375000
2829,-109.375000
2830,-109.375000
2831,-109.375000
2832,-109.375000
2833,-109.375000
2834,-109.375000
2835,-109.375000
2836,-105.468750
2837,-105.468750
2838,-105.468750
2839,-105.468750
2840,-105.468750
2841,-105.468750
2842,-105.468750
2843,-105.468750
2844,-105.468750
2845,-105.468750
2846,-105.468750
2847,-105.468750
2848,-105.468750
2849,-105.468750
2850,-105.468750
2851,-105.468750
2852,-105.468750
2853,-105.468750
2854,-101.562500
2855,-101.562500
2856,-101.562500
2857,-101.562500
2858,-101.562500
2859,-101.562500
2860,-101.562500
2861,-101.562500
2862,-101.562500
2863,-101.562500
2864,-101.562500
2865,-101.562500
2866,-101.562500
2867,-101.562500
2868,-97.656250
2869,-97.656250
2870,-97.656250
2871,-97.656250
2872,-97.656250
2873,-97.656250
2874,-97.656250
2875,-97.656250
2876,-97.656250
2877,-97.656250
2878,-97.656250
2879,-97.656250
2880,-97.656250
2881,-97.656250
2882,-97.656250
2883,-93.750000
2884,-93.750000
2885,-93.750000
2886,-93.750000
2887,-93.750000
2888,-93.750000
2889,-93.750000
2890,-93.750000
2891,-93.750000
2892,-93.750000
2893,-93.750000
2894,-89.843750
2895,-89.843750
2896,-89.843750
2897,-89.843750
2898,-89.843750
2899,-89.843750
2900,-89.843750
2901,-89.843750
2902,-89.843750
2903,-89.843750
2904,-89.843750
2905,-85.937500
2906,-85.937500
2907,-85.937500
2908,-85.937500
2909,-85.937500
2910,-85.937500
2911,-85.937500
2912,-85.937500
2913,-85.937500
2914,-82.031250
2915,-82.031250
2916,-82.031250
2917,-82.031250
2918,-82.031250
2919,-82.031250
2920,-82.031250
2921,-82.031250
2922,-82.031250
2923,-78.125000
2924,-78.125000
2925,-78.125000
2926,-78.125000
2927,-78.125000
2928,-78.125000
2929,-78.125000
2930,-78.125000
2931,-78.125000
2932,-74.218750
2933,-74.218750
2934,-74.218750
2935,-74.218750
2936,-74.218750
2937,-74.218750
2938,-70.312500
2939,-74.218750
2940,-70.312500
2941,-70.312500
2942,-70.312500
2943,-70.312500
2944,-70.312500
2945,-70.312500
2946,-66.406250
2947,-66.406250
2948,-66.406250
2949,-66.406250
2950,-66.406250
2951,-66.406250
2952,-66.406250
2953,-66.406250
2954,-66.406250
2955,-62.500000
2956,-62.500000
2957,-62.500000
2958,-62.500000
2959,-62.500000
2960,-62.500000
2961,-58.593750
2962,-58.593750
2963,-58.593750
2964,-58.593750
2965,-58.593750
2966,-58.593750
2967,-58.593750
2968,-58.593750
2969,-58.593750
2970,-54.687500
2971,-54.687500
2972,-54.687500
2973,-54.687500
2974,-54.687500
2975,-54.687500
2976,-50.781250
2977,-50.781250
2978,-50.781250
2979,-50.781250
2980,-50.781250
2981,-50.781250
2982,-46.875000
2983,-46.875000
2984,-46.875000
2985,-46.875000
2986,-46.875000
2987,-46.875000
2988,-46.875000
2989,-42.968750
2990,-42.968750
2991,-42.968750
2992,-42.968750
2993,-42.968750
2994,-42.968750
2995,-42.968750
2996,-39.062500
2997,-39.062500
2998,-39.062500
2999,-39.062500
3000,-39.062500
3001,-39.062500
3002,-39.062500
3003,-35.156250
3004,-35.156250
3005,-35.156250
3006,-35.156250
3007,-35.156250
3008,-35.156250
3009,-35.156250
3010,-31.250000
3011,-31.250000
3012,-31.250000
3013,-31.250000
3014,-27.343750
3015,-27.343750
3016,-27.343750
3017,-27.343750
3018,-27.343750
3019,-27.343750
3020,-27.343750
3021,-27.343750
3022,-23.437500
3023,-23.437500
3024,-23.437500
3025,-23.437500
3026,-23.437500
3027,-23.437500
3028,-19.531250
3029,-19.531250
3030,-19.531250
3031,-19.531250
3032,-19.531250
3033,-19.531250
3034,-15.625000
3035,-15.625000
3036,-15.625000
3037,-15.625000
3038,-15.625000
3039,-15.625000
3040,-15.625000
3041,-15.625000
3042,-11.718750
3043,-11.718750
3044,-11.718750
3045,-11.718750
3046,-11.718750
3047,-11.718750
3048,-7.812500
3049,-7.812500
3050,-7.812500
3051,-7.812500
3052,-7.812500
3053,-7.812500
3054,-3.906250
3055,-3.906250
3056,-3.906250
3057,-3.906250
3058,-3.906250
3059,-3.906250
3060,-3.906250
3061,-3.906250
3062,0.000000
3063,0.000000
3064,0.000000
3065,0.000000
3066,0.000000
3067,0.000000
3068,0.000000
3069,3.906250
3070,3.906250
3071,3.906250
3072,3.906250
3073,3.906250
3074,7.812500
3075,7.812500
3076,7.812500
3077,7.812500
3078,7.812500
3079,7.812500
3080,7.812500
3081,7.812500
3082,11.718750
3083,11.718750
3084,11.718750
3085,11.718750
3086,11.718750
3087,11.718750
3088,15.625000
3089,15.625000
3090,15.625000
3091,15.625000
3092,15.625000
3093,15.625000
3094,15.625000
3095,19.531250
3096,19.531250
3097,19.531250
3098,19.531250
3099,19.531250
3100,19.531250
3101,19.531250
3102,23.437500
3103,23.437500
3104,23.437500
3105,23.437500
3106,23.437500
3107,23.437500
3108,27.343750
3109,27.343750
3110,27.343750
3111,27.343750
3112,27.343750
3113,27.343750
3114,27.343750
3115,27.343750
3116,27.343750
3117,31.250000
3118,31.250000
3119,31.250000
3120,31.250000
3121,31.250000
3122,31.250000
3123,35.156250
3124,35.156250
3125,35.156250
3126,35.156250
3127,35.156250
3128,35.156250
3129,35.156250
3130,35.156250
3131,39.062500
3132,39.062500
3133,39.062500
3134,39.062500
3135,39.062500
3136,39.062500
3137,39.062500
3138,39.062500
3139,39.062500
3140,42.968750
3141,42.968750
3142,42.968750
3143,42.968750
3144,42.968750
3145,42.968750
3146,42.968750
3147,42.968750
3148,46.875000
3149,46.875000
3150,46.875000
3151,46.875000
3152,46.875000
3153,46.875000
3154,46.875000
3155,46.875000
3156,46.875000
3157,50.781250
3158,50.781250
3159,46.875000
3160,50.781250
3161,50.781250
3162,50.781250
3163,50.781250
3164,50.781250
3165,50.781250
3166,50.781250
3167,54.687500
3168,50.781250
3169,54.687500
3170,54.687500
3171,54.687500
3172,54.687500
3173,54.687500
3174,54.687500
3175,54.687500
3176,54.687500
3177,54.687500
3178,54.687500
3179,58.593750
3180,58.593750
3181,58.593750
3182,58.593750
3183,58.593750
3184,58.593750
3185,58.593750
3186,58.593750
3187,58.593750
3188,58.593750
3189,58.593750
3190,58.593750
3191,62.500000
3192,62.500000
3193,62.500000
3194,62.500000
3195,62.500000
3196,62.500000
3197,62.500000
3198,62.500000
3199,62.500000
3200,62.500000
3201,62.500000
3202,62.500000
3203,62.500000
3204,66.406250
3205,66.406250
3206,66.406250
3207,66.406250
3208,66.406250
3209,66.406250
3210,66.406250
3211,66.406250
3212,66.406250
3213,66.406250
3214,66.406250
3215,66.406250
3216,70.312500
3217,66.406250
3218,70.312500
3219,70.312500
3220,70.312500
3221,70.312500
3222,70.312500
3223,70.312500
3224,70.312500
3225,70.312500
3226,70.312500
3227,70.312500
3228,70.312500
3229,70.312500
3230,70.312500
3231,70.312500
3232,70.312500
3233,70.312500
3234,74.218750
3235,74.218750
3236,74.218750
3237,74.218750
3238,74.218750
3239,74.218750
3240,74.218750
3241,74.218750
3242,74.218750
3243,74.218750
3244,74.218750
3245,74.218750
3246,74.218750
3247,74.218750
3248,74.218750
3249,74.218750
3250,74.218750
3251,74.218750
3252,74.218750
3253,74.218750
3254,74.218750
3255,78.125000
3256,74.218750
3257,74.218750
3258,78.125000
3259,78.125000
3260,78.125000
3261,78.125000
3262,74.218750
3263,78.125000
3264,78.125000
3265,78.125000
3266,78.125000
3267,78.125000
3268,78.125000
3269,78.125000
3270,78.125000
3271,78.125000
3272,78.125000
3273,78.125000
3274,78.125000
3275,78.125000
3276,78.125000
3277,78.125000
3278,78.125000
3279,78.125000
3280,78.125000
3281,78.125000
3282,78.125000
3283,78.125000
3284,78.125000
3285,78.125000
3286,78.125000
3287,78.125000
3288,78.125000
3289,78.125000
3290,78.125000
3291,78.125000
3292,78.125000
3293,78.125000
3294,78.125000
3295,78.125000
3296,78.125000
3297,78.125000
3298,78.125000
3299,78.125000
3300,78.125000
3301,78.125000
3302,78.125000
3303,78.125000
3304,78.125000
3305,78.125000
3306,78.125000
3307,78.125000
3308,78.125000
3309,78.125000
3310,78.125000
3311,78.125000
3312,78.125000
3313,78.125000
3314,78.125000
3315,78.125000
3316,78.125000
3317,78.125000
3318,78.125000
3319,78.125000
3320,78.125000
3321,78.125000
3322,78.125000
3323,74.218750
3324,78.125000
3325,74.218750
3326,74.218750
3327,74.218750
3328,74.218750
3329,74.218750
3330,74.218750
3331,74.218750
3332,74.218750
3333,74.218750
3334,74.218750
3335,74.218750
3336,74.218750
3337,74.218750
3338,74.218750
3339,74.218750
3340,74.218750
3341,74.218750
3342,74.218750
3343,74.218750
3344,74.218750
3345,74.218750
3346,74.218750
3347,70.312500
3348,74.218750
3349,74.218750
3350,74.218750
3351,70.312500
3352,70.312500
3353,70.312500
3354,70.312500
3355,70.312500
3356,70.312500
3357,70.312500
3358,70.312500
3359,70.312500
3360,70.312500
3361,70.312500
3362,70.312500
3363,70.312500
3364,70.312500
3365,70.312500
3366,70.312500
3367,70.312500
3368,70.312500
3369,70.312500
3370,70.312500
3371,66.406250
3372,70.312500
3373,70.312500
3374,66.406250
3375,66.406250
3376,66.406250
3377,66.406250
3378,66.406250
3379,66.406250
3380,66.406250
3381,66.406250
3382,66.406250
3383,66.406250
3384,66.406250
3385,62.500000
3386,62.500000
3387,62.500000
3388,62.500000
3389,62.500000
3390,62.500000
3391,62.500000
3392,62.500000
3393,62.500000
3394,62.500000
3395,62.500000
3396,62.500000
3397,62.500000
3398,58.593750
3399,58.593750
3400,58.593750
3401,58.593750
3402,58.593750
3403,58.593750
3404,58.593750
3405,58.593750
3406,58.593750
3407,58.593750
3408,58.593750
3409,54.687500
3410,54.687500
3411,54.687500
3412,54.687500
3413,54.687500
3414,54.687500
3415,54.687500
3416,54.687500
3417,54.687500
3418,54.687500
3419,50.781250
3420,50.781250
3421,50.781250
3422,50.781250
3423,50.781250
3424,50.781250
3425,50.781250
3426,50.781250
3427,50.781250
3428,50.781250
3429,46.875000
3430,46.875000
3431,46.875000
3432,46.875000
3433,46.875000
3434,46.875000
3435,46.875000
3436,46.875000
3437,46.875000
3438,42.968750
3439,42.968750
3440,42.968750
3441,42.968750
3442,42.968750
3443,42.968750
3444,42.968750
3445,42.968750
3446,42.968750
3447,39.062500
3448,39.062500
3449,39.062500
3450,39.062500
3451,39.062500
3452,39.062500
3453,39.062500
3454,35.156250
3455,39.062500
3456,35.156250
3457,35.156250
3458,35.156250
3459,35.156250
3460,35.156250
3461,35.156250
3462,35.156250
3463,31.250000
3464,31.250000
3465,31.250000
3466,31.250000
3467,31.250000
3468,31.250000
3469,31.250000
3470,27.343750
3471,27.343750
3472,27.343750
3473,27.343750
3474,27.343750
3475,27.343750
3476,27.343750
3477,23.437500
3478,23.437500
3479,23.437500
3480,23.437500
3481,23.437500
3482,23.437500
3483,23.437500
3484,23.437500
3485,23.437500
3486,19.531250
3487,19.531250
3488,19.531250
3489,19.531250
3490,19.531250
3491,19.531250
3492,19.531250
3493,15.625000
3494,15.625000
3495,15.625000
3496,15.625000
3497,15.625000
3498,15.625000
3499,11.718750
3500,11.718750
3501,11.718750
3502,11.718750
3503,11.718750
3504,11.718750
3505,11.718750
3506,11.718750
3507,7.812500
3508,7.812500
3509,7.812500
3510,7.812500
3511,7.812500
3512,7.812500
3513,7.812500
3514,7.812500
3515,3.906250
3516,3.906250
3517,3.906250
3518,3.906250
3519,3.906250
3520,3.906250
3521,3.906250
3522,3.906250
3523,0.000000
3524,0.000000
3525,0.000000
3526,0.000000
3527,0.000000
3528,-3.906250
3529,-3.906250
3530,-3.906250
3531,-3.906250
3532,-3.906250
3533,-3.906250
3534,-3.906250
3535,-7.812500
3536,-7.812500
3537,-7.812500
3538,-7.812500
3539,-7.812500
3540,-7.812500
3541,-7.812500
3542,-11.718750
3543,-11.718750
3544,-11.718750
3545,-11.718750
3546,-11.718750
3547,-15.625000
3548,-15.625000
3549,-15.625000
3550,-15.625000
3551,-15.625000
3552,-15.625000
3553,-19.531250
3554,-15.625000
3555,-19.531250
3556,-19.531250
3557,-19.531250
3558,-19.531250
3559,-19.531250
3560,-19.531250
3561,-23.437500
3562,-23.437500
3563,-23.437500
3564,-23.437500
3565,-23.437500
3566,-23.437500
3567,-27.343750
3568,-27.343750
3569,-27.343750
3570,-27.343750
3571,-27.343750
3572,-27.343750
3573,-27.343750
3574,-31.250000
3575,-31.250000
3576,-31.250000
3577,-31.250000
3578,-31.250000
3579,-35.156250
3580,-35.156250
3581,-35.156250
3582,-35.156250
3583,-35.156250
3584,-35.156250
3585,-35.156250
3586,-39.062500
3587,-39.062500
3588,-39.062500
3589,-39.062500
3590,-39.062500
3591,-39.062500
3592,-39.062500
3593,-42.968750
3594,-42.968750
3595,-42.968750
3596,-42.968750
3597,-42.968750
3598,-46.875000
3599,-42.968750
3600,-42.968750
3601,-46.875000
3602,-46.875000
3603,-46.875000
3604,-46.875000
3605,-46.875000
3606,-50.781250
3607,-50.781250
3608,-50.781250
3609,-50.781250
3610,-50.781250
3611,-50.781250
3612,-50.781250
3613,-50.781250
3614,-54.687500
3615,-54.687500
3616,-54.687500
3617,-54.687500
3618,-54.687500
3619,-54.687500
3620,-58.593750
3621,-58.593750
3622,-58.593750
3623,-58.593750
3624,-58.593750
3625,-58.593750
3626,-58.593750
3627,-62.500000
3628,-62.500000
3629,-62.500000
3630,-62.500000
3631,-62.500000
3632,-62.500000
3633,-62.500000
3634,-62.500000
3635,-66.406250
3636,-66.406250
3637,-66.406250
3638,-66.406250
3639,-66.406250
3640,-66.406250
3641,-66.406250
3642,-66.406250
3643,-66.406250
3644,-70.312500
3645,-70.312500
3646,-70.312500
3647,-70.312500
3648,-70.312500
3649,-70.312500
3650,-74.218750
3651,-74.218750
3652,-74.218750
3653,-74.218750
3654,-74.218750
3655,-74.218750
3656,-74.218750
3657,-74.218750
3658,-78.125000
3659,-78.125000
3660,-78.125000
3661,-78.125000
3662,-78.125000
3663,-78.125000
3664,-78.125000
3665,-82.031250
3666,-82.031250
3667,-82.031250
3668,-82.031250
3669,-82.031250
3670,-82.031250
3671,-82.031250
3672,-82.031250
3673,-82.031250
3674,-82.031250
3675,-82.031250
3676,-85.937500
3677,-85.937500
3678,-85.937500
3679,-85.937500
3680,-85.937500
3681,-85.937500
3682,-85.937500
3683,-85.937500
3684,-85.937500
3685,-89.843750
3686,-85.937500
3687,-89.843750
3688,-89.843750
3689,-89.843750
3690,-89.843750
3691,-89.843750
3692,-89.843750
3693,-89.843750
3694,-89.843750
3695,-93.750000
3696,-89.843750
3697,-89.843750
3698,-93.750000
3699,-93.750000
3700,-93.750000
3701,-93.750000
3702,-93.750000
3703,-93.750000
3704,-93.750000
3705,-97.656250
3706,-97.656250
3707,-97.656250
3708,-97.656250
3709,-97.656250
3710,-97.656250
3711,-97.656250
3712,-97.656250
3713,-97.656250
3714,-97.656250
3715,-97.656250
3716,-97.656250
3717,-101.562500
3718,-97.656250
3719,-101.562500
3720,-97.656250
3721,-101.562500
3722,-101.562500
3723,-101.562500
3724,-101.562500
3725,-101.562500
3726,-101.562500
3727,-101.562500
3728,-101.562500
3729,-101.562500
3730,-101.562500
3731,-101.562500
3732,-101.562500
3733,-101.562500
3734,-101.562500
3735,-105.468750
3736,-101.562500
3737,-105.468750
3738,-105.468750
3739,-105.468750
3740,-105.468750
3741,-105.468750
3742,-105.468750
3743,-105.468750
3744,-105.468750
3745,-105.468750
3746,-105.468750
3747,-105.468750
3748,-105.468750
3749,-105.468750
3750,-105.468750
3751,-105.468750
3752,-105.468750
3753,-105.468750
3754,-105.468750
3755,-109.375000
3756,-109.375000
3757,-109.375000
3758,-109.375000
3759,-109.375000
3760,-109.375000
3761,-109.375000
3762,-105.468750
3763,-109.375000
3764,-109.375000
3765,-109.375000
3766,-109.375000
3767,-109.375000
3768,-109.375000
3769,-109.375000
3770,-109.375000
3771,-109.375000
3772,-109.375000
3773,-109.375000
3774,-109.375000
3775,-109.375000
3776,-109.375000
3777,-109.375000
3778,-109.375000
3779,-109.375000
3780,-109.375000
3781,-109.375000
3782,-109.375000
3783,-109.375000
3784,-109.375000
3785,-109.375000
3786,-109.375000
3787,-109.375000
3788,-109.375000
3789,-109.375000
3790,-109.375000
3791,-109.375000
3792,-109.375000
3793,-109.375000
3794,-109.375000
3795,-109.375000
3796,-109.375000
3797,-109.375000
3798,-109.375000
3799,-109.375000
3800,-109.375000
3801,-109.375000
3802,-109.375000
3803,-109.375000
3804,-109.375000
3805,-109.375000
3806,-109.375000
3807,-109.375000
3808,-109.375000
3809,-109.375000
3810,-109.375000
3811,-109.375000
3812,-109.375000
3813,-109.375000
3814,-109.375000
3815,-109.375000
3816,-105.468750
3817,-109.375000
3818,-109.375000
3819,-109.375000
3820,-105.468750
3821,-105.468750
3822,-105.468750
3823,-105.468750
3824,-105.468750
3825,-105.468750
3826,-105.468750
3827,-105.468750
3828,-105.468750
3829,-105.468750
3830,-105.468750
3831,-105.468750
3832,-105.468750
3833,-105.468750
3834,-105.468750
3835,-105.468750
3836,-105.468750
3837,-105.468750
3838,-105.468750
3839,-105.468750
3840,-105.468750
3841,-105.468750
3842,-101.562500
3843,-101.562500
3844,-101.562500
3845,-101.562500
3846,-101.562500
3847,-101.562500
3848,-101.562500
3849,-101.562500
3850,-101.562500
3851,-101.562500
3852,-101.562500
3853,-101.562500
3854,-101.562500
3855,-101.562500
3856,-101.562500
3857,-101.562500
3858,-97.656250
3859,-97.656250
3860,-97.656250
3861,-97.656250
3862,-97.656250
3863,-97.656250
3864,-97.656250
3865,-97.656250
3866,-97.656250
3867,-97.656250
3868,-97.656250
3869,-97.656250
3870,-93.750000
3871,-93.750000
3872,-93.750000
3873,-93.750000
3874,-93.750000
3875,-93.750000
3876,-93.750000
3877,-93.750000
3878,-93.750000
3879,-93.750000
3880,-93.750000
3881,-89.843750
3882,-89.843750
3883,-89.843750
3884,-89.843750
3885,-89.843750
3886,-89.843750
3887,-89.843750
3888,-89.843750
3889,-89.843750
3890,-85.937500
3891,-89.843750
3892,-85.937500
3893,-85.937500
3894,-85.937500
3895,-85.937500
3896,-85.937500
3897,-85.937500
3898,-85.937500
3899,-85.937500
3900,-85.937500
3901,-85.937500
3902,-82.031250
3903,-82.031250
3904,-82.031250
3905,-82.031250
3906,-82.031250
3907,-82.031250
3908,-82.031250
3909,-78.125000
3910,-82.031250
3911,-78.125000
3912,-78.125000
3913,-78.125000
3914,-78.125000
3915,-78.125000
3916,-78.125000
3917,-78.125000
3918,-78.125000
3919,-74.218750
3920,-74.218750
3921,-74.218750
3922,-74.218750
3923,-74.218750
3924,-74.218750
3925,-74.218750
3926,-74.218750
3927,-70.312500
3928,-70.312500
3929,-70.312500
3930,-70.312500
3931,-70.312500
3932,-70.312500
3933,-70.312500
3934,-66.406250
3935,-66.406250
3936,-66.406250
3937,-66.406250
3938,-66.406250
3939,-66.406250
3940,-66.406250
3941,-66.406250
3942,-66.406250
3943,-62.500000
3944,-62.500000
3945,-62.500000
3946,-62.500000
3947,-62.500000
3948,-62.500000
3949,-62.500000
3950,-58.593750
3951,-58.593750
3952,-58.593750
3953,-58.593750
3954,-58.593750
3955,-58.593750
3956,-58.593750
3957,-58.593750
3958,-54.687500
3959,-54.687500
3960,-54.687500
3961,-54.687500
3962,-54.687500
3963,-54.687500
3964,-50.781250
3965,-50.781250
3966,-50.781250
3967,-50.781250
3968,-50.781250
3969,-50.781250
3970,-50.781250
3971,-46.875000
3972,-46.875000
3973,-46.875000
3974,-46.875000
3975,-46.875000
3976,-46.875000
3977,-46.875000
3978,-42.968750
3979,-42.968750
3980,-42.968750
3981,-42.968750
3982,-42.968750
3983,-39.062500
3984,-42.968750
3985,-39.062500
3986,-39.062500
3987,-39.062500
3988,-39.062500
3989,-39.062500
3990,-39.062500
3991,-35.156250
3992,-35.156250
3993,-35.156250
3994,-35.156250
3995,-35.156250
3996,-35.156250
3997,-31.250000
3998,-31.250000
3999,-31.250000
4000,-31.250000
4001,-31.250000
4002,-31.250000
4003,-27.343750
4004,-27.343750
4005,-27.343750
4006,-27.343750
4007,-27.343750
4008,-27.343750
4009,-27.343750
4010,-23.437500
4011,-23.437500
4012,-23.437500
4013,-23.437500
4014,-23.437500
4015,-23.437500
4016,-23.437500
4017,-19.531250
4018,-19.531250
4019,-19.531250
4020,-19.531250
4021,-19.531250
4022,-19.531250
4023,-15.625000
4024,-15.625000
4025,-15.625000
4026,-15.625000
4027,-15.625000
4028,-15.625000
4029,-15.625000
4030,-11.718750
4031,-11.718750
4032,-11.718750
4033,-7.812500
4034,-11.718750
4035,-11.718750
4036,-11.718750
4037,-7.812500
4038,-7.812500
4039,-7.812500
4040,-7.812500
4041,-7.812500
4042,-3.906250
4043,-3.906250
4044,-3.906250
4045,-3.906250
4046,-3.906250
4047,-3.906250
4048,-3.906250
4049,-3.906250
4050,0.000000
4051,0.000000
4052,0.000000
4053,0.000000
4054,0.000000
4055,3.906250
4056,3.906250
4057,3.906250
4058,3.906250
4059,3.906250
4060,3.906250
4061,3.906250
4062,3.906250
4063,7.812500
4064,7.812500
4065,7.812500
4066,7.812500
4067,7.812500
4068,7.812500
4069,11.718750
4070,11.718750
4071,11.718750
4072,11.718750
4073,11.718750
4074,11.718750
4075,11.718750
4076,15.625000
4077,15.625000
4078,15.625000
4079,15.625000
4080,15.625000
4081,15.625000
4082,15.625000
4083,15.625000
4084,19.531250
4085,19.531250
4086,19.531250
4087,19.531250
4088,19.531250
4089,19.531250
4090,19.531250
4091,23.437500
4092,23.437500
4093,23.437500
4094,23.437500
4095,23.437500
4096,23.437500
4097,23.437500
4098,27.343750
4099,27.343750
4100,27.343750
4101,27.343750
4102,27.343750
4103,27.343750
4104,27.343750
4105,27.343750
4106,31.250000
4107,31.250000
4108,31.250000
4109,31.250000
4110,31.250000
4111,31.250000
4112,31.250000
4113,31.250000
4114,35.156250
4115,35.156250
4116,35.156250
4117,35.156250
4118,35.156250
4119,35.156250
4120,35.156250
4121,39.062500
4122,39.062500
4123,39.062500
4124,39.062500
4125,39.062500
4126,39.062500
4127,39.062500
4128,39.062500
4129,39.062500
4130,42.968750
4131,42.968750
4132,42.968750
4133,42.968750
4134,42.968750
4135,42.968750
4136,42.968750
4137,42.968750
4138,46.875000
4139,46.875000
4140,46.875000
4141,46.875000
4142,46.875000
4143,46.875000
4144,46.875000
4145,46.875000
4146,46.875000
4147,50.781250
4148,50.781250
4149,50.781250
4150,50.781250
4151,50.781250
4152,50.781250
4153,50.781250
4154,50.781250
4155,50.781250
4156,50.781250
4157,50.781250
4158,54.687500
4159,54.687500
4160,54.687500
4161,54.687500
4162,54.687500
4163,54.687500
4164,54.687500
4165,54.687500
4166,54.687500
4167,54.687500
4168,58.593750
4169,58.593750
4170,58.593750
4171,58.593750
4172,58.593750
4173,58.593750
4174,58.593750
4175,58.593750
4176,58.593750
4177,58.593750
4178,62.500000
4179,62.500000
4180,62.500000
4181,62.500000
4182,62.500000
4183,62.500000
4184,62.500000
4185,62.500000
4186,62.500000
4187,62.500000
4188,62.500000
4189,62.500000
4190,62.500000
4191,62.500000
4192,66.406250
4193,66.406250
4194,62.500000
4195,66.406250
4196,66.406250
4197,66.406250
4198,66.406250
4199,66.406250
4200,66.406250
4201,70.312500
4202,66.406250
4203,66.406250
4204,66.406250
4205,66.406250
4206,70.312500
4207,66.406250
4208,70.312500
4209,70.312500
4210,70.312500
4211,70.312500
4212,70.312500
4213,70.312500
4214,70.312500
4215,70.312500
4216,70.312500
4217,70.312500
4218,70.312500
4219,70.312500
4220,70.312500
4221,70.312500
4222,70.312500
4223,70.312500
4224,74.218750
4225,74.218750
4226,70.312500
4227,74.218750
4228,74.218750
4229,74.218750
4230,74.218750
4231,74.218750
4232,74.218750
4233,74.218750
4234,74.218750
4235,74.218750
4236,74.218750
4237,74.218750
4238,74.218750
4239,74.218750
4240,74.218750
4241,74.218750
4242,74.218750
4243,74.218750
4244,74.218750
4245,74.218750
4246,74.218750
4247,74.218750
4248,74.218750
4249,74.218750
4250,74.218750
4251,74.218750
4252,78.125000
4253,78.125000
4254,78.125000
4255,78.125000
4256,78.125000
4257,78.125000
4258,78.125000
4259,78.125000
4260,78.125000
4261,78.125000
4262,78.125000
4263,78.125000
4264,78.125000
4265,78.125000
4266,78.125000
4267,78.125000
4268,78.125000
4269,78.125000
4270,78.125000
4271,78.125000
4272,78.125000
4273,78.125000
4274,78.125000
4275,78.125000
4276,78.125000
4277,78.125000
4278,78.125000
4279,78.125000
4280,78.125000
4281,78.125000
4282,78.125000
4283,78.125000
4284,78.125000
4285,78.125000
4286,78.125000
4287,78.125000
4288,78.125000
4289,78.125000
4290,78.125000
4291,78.125000
4292,78.125000
4293,78.125000
4294,78.125000
4295,78.125000
4296,78.125000
4297,78.125000
4298,78.125000
4299,78.125000
4300,78.125000
4301,78.125000
4302,78.125000
4303,78.125000
4304,78.125000
4305,78.125000
4306,78.125000
4307,78.125000
4308,78.125000
4309,78.125000
4310,78.125000
4311,78.125000
4312,78.125000
4313,78.125000
4314,74.218750
4315,74.218750
4316,74.218750
4317,74.218750
4318,78.125000
4319,74.218750
4320,78.125000
4321,78.125000
4322,74.218750
4323,74.218750
4324,74.218750
4325,74.218750
4326,74.218750
4327,74.218750
4328,74.218750
4329,74.218750
4330,74.218750
4331,74.218750
4332,74.218750
4333,74.218750
4334,74.218750
4335,74.218750
4336,74.218750
4337,70.312500
4338,74.218750
4339,74.218750
4340,74.218750
4341,70.312500
4342,70.312500
4343,70.312500
4344,70.312500
4345,70.312500
4346,70.312500
4347,70.312500
4348,70.312500
4349,70.312500
4350,70.312500
4351,70.312500
4352,70.312500
4353,70.312500
4354,70.312500
4355,70.312500
4356,70.312500
4357,70.312500
4358,70.312500
4359,66.406250
4360,66.406250
4361,66.406250
4362,66.406250
4363,66.406250
4364,66.406250
4365,66.406250
4366,66.406250
4367,66.406250
4368,66.406250
4369,66.406250
4370,66.406250
4371,66.406250
4372,62.500000
4373,62.500000
4374,62.500000
4375,62.500000
4376,62.500000
4377,62.500000
4378,62.500000
4379,62.500000
4380,62.500000
4381,62.500000
4382,62.500000
4383,62.500000
4384,62.500000
4385,58.593750
4386,62.500000
4387,62.500000
4388,58.593750
4389,58.593750
4390,58.593750
4391,58.593750
4392,58.593750
4393,58.593750
4394,58.593750
4395,58.593750
4396,58.593750
4397,58.593750
4398,58.593750
4399,58.593750
4400,54.687500
4401,54.687500
4402,54.687500
4403,54.687500
4404,54.687500
4405,54.687500
4406,54.687500
4407,54.687500
4408,54.687500
4409,50.781250
4410,50.781250
4411,50.781250
4412,50.781250
4413,50.781250
4414,50.781250
4415,50.781250
4416,50.781250
4417,50.781250
4418,50.781250
4419,46.875000
4420,46.875000
4421,46.875000
4422,46.875000
4423,42.968750
4424,46.875000
4425,46.875000
4426,46.875000
4427,46.875000
4428,42.968750
4429,42.968750
4430,42.968750
4431,42.968750
4432,42.968750
4433,39.062500
4434,39.062500
4435,42.968750
4436,39.062500
4437,39.062500
4438,39.062500
4439,39.062500
4440,39.062500
4441,39.062500
4442,39.062500
4443,35.156250
4444,35.156250
4445,35.156250
4446,35.156250
4447,35.156250
4448,35.156250
4449,35.156250
4450,35.156250
4451,31.250000
4452,31.250000
4453,31.250000
4454,31.250000
4455,31.250000
4456,31.250000
4457,31.250000
4458,31.250000
4459,31.250000
4460,31.250000
4461,27.343750
4462,27.343750
4463,27.343750
4464,27.343750
4465,27.343750
4466,27.343750
4467,27.343750
4468,23.437500
4469,23.437500
4470,23.437500
4471,23.437500
4472,23.437500
4473,23.437500
4474,19.531250
4475,19.531250
4476,19.531250
4477,19.531250
4478,19.531250
4479,19.531250
4480,19.531250
4481,19.531250
4482,15.625000
4483,15.625000
4484,15.625000
4485,15.625000
4486,15.625000
4487,15.625000
4488,11.718750
4489,11.718750
4490,11.718750
4491,11.718750
4492,11.718750
4493,11.718750
4494,11.718750
4495,11.718750
4496,7.812500
4497,7.812500
4498,7.812500
4499,7.812500
4500,7.812500
4501,3.906250
4502,3.906250
4503,3.906250
4504,3.906250
4505,3.906250
4506,3.906250
4507,3.906250
4508,3.906250
4509,0.000000
4510,0.000000
4511,0.000000
4512,0.000000
4513,0.000000
4514,0.000000
4515,0.000000
4516,0.000000
4517,-3.906250
4518,-3.906250
4519,-3.906250
4520,-3.906250
4521,-3.906250
4522,-3.906250
4523,-7.812500
4524,-7.812500
4525,-7.812500
4526,-7.812500
4527,-7.812500
4528,-7.812500
4529,-11.718750
4530,-11.718750
4531,-11.718750
4532,-11.718750
4533,-11.718750
4534,-11.718750
4535,-11.718750
4536,-11.718750
4537,-15.625000
4538,-15.625000
4539,-15.625000
4540,-15.625000
4541,-15.625000
4542,-19.531250
4543,-19.531250
4544,-19.531250
4545,-19.531250
4546,-19.531250
4547,-19.531250
4548,-19.531250
4549,-23.437500
4550,-23.437500
4551,-23.437500
4552,-23.437500
4553,-23.437500
4554,-23.437500
4555,-23.437500
4556,-27.343750
4557,-27.343750
4558,-27.343750
4559,-27.343750
4560,-27.343750
4561,-27.343750
4562,-31.250000
4563,-31.250000
4564,-31.250000
4565,-31.250000
4566,-31.250000
4567,-31.250000
4568,-31.250000
4569,-31.250000
4570,-35.156250
4571,-35.156250
4572,-35.156250
4573,-35.156250
4574,-35.156250
4575,-35.156250
4576,-35.156250
4577,-39.062500
4578,-39.062500
4579,-39.062500
4580,-39.062500
4581,-42.968750
4582,-42.968750
4583,-42.968750
4584,-42.968750
4585,-42.968750
4586,-42.968750
4587,-42.968750
4588,-42.968750
4589,-46.875000
4590,-46.875000
4591,-46.875000
4592,-46.875000
4593,-46.875000
4594,-46.875000
4595,-46.875000
4596,-50.781250
4597,-50.781250
4598,-50.781250
4599,-50.781250
4600,-50.781250
4601,-50.781250
4602,-50.781250
4603,-54.687500
4604,-54.687500
4605,-54.687500
4606,-54.687500
4607,-54.687500
4608,-58.593750
4609,-58.593750
4610,-58.593750
4611,-58.593750
4612,-58.593750
4613,-58.593750
4614,-58.593750
4615,-58.593750
4616,-58.593750
4617,-62.500000
4618,-62.500000
4619,-62.500000
4620,-62.500000
4621,-62.500000
4622,-62.500000
4623,-62.500000
4624,-62.500000
4625,-66.406250
4626,-66.406250
4627,-66.406250
4628,-66.406250
4629,-66.406250
4630,-66.406250
4631,-66.406250
4632,-70.312500
4633,-70.312500
4634,-70.312500
4635,-70.312500
4636,-70.312500
4637,-70.312500
4638,-70.312500
4639,-70.312500
4640,-74.218750
4641,-74.218750
4642,-74.218750
4643,-74.218750
4644,-74.218750
4645,-74.218750
4646,-74.218750
4647,-74.218750
4648,-78.125000
4649,-78.125000
4650,-78.125000
4651,-78.125000
4652,-78.125000
4653,-78.125000
4654,-78.125000
4655,-78.125000
4656,-82.031250
4657,-82.031250
4658,-82.031250
4659,-82.031250
4660,-82.031250
4661,-82.031250
4662,-82.031250
4663,-82.031250
4664,-82.031250
4665,-82.031250
4666,-85.937500
4667,-85.937500
4668,-85.937500
4669,-85.937500
4670,-85.937500
4671,-85.937500
4672,-85.937500
4673,-85.937500
4674,-85.937500
4675,-85.937500
4676,-89.843750
4677,-89.843750
4678,-89.843750
4679,-89.843750
4680,-89.843750
4681,-89.843750
4682,-89.843750
4683,-89.843750
4684,-89.843750
4685,-89.843750
4686,-89.843750
4687,-93.750000
4688,-93.750000
4689,-93.750000
4690,-93.750000
4691,-93.750000
4692,-93.750000
4693,-93.750000
4694,-93.750000
4695,-93.750000
4696,-93.750000
4697,-97.656250
4698,-97.656250
4699,-97.656250
4700,-97.656250
4701,-97.656250
4702,-97.656250
4703,-97.656250
4704,-97.656250
4705,-97.656250
4706,-97.656250
4707,-97.656250
4708,-97.656250
4709,-97.656250
4710,-97.656250
4711,-101.562500
4712,-101.562500
4713,-101.562500
4714,-101.562500
4715,-101.562500
4716,-101.562500
4717,-101.562500
4718,-101.562500
4719,-101.562500
4720,-101.562500
4721,-101.562500
4722,-101.562500
4723,-101.562500
4724,-101.562500
4725,-101.562500
4726,-101.562500
4727,-105.468750
4728,-105.468750
4729,-105.468750
4730,-105.468750
4731,-105.468750
4732,-105.468750
4733,-105.468750
4734,-105.468750
4735,-105.468750
4736,-105.468750
4737,-105.468750
4738,-105.468750
4739,-105.468750
4740,-105.468750
4741,-105.468750
4742,-105.468750
4743,-105.468750
4744,-105.468750
4745,-105.468750
4746,-109.375000
4747,-105.468750
4748,-105.468750
4749,-109.375000
4750,-105.468750
4751,-109.375000
4752,-109.375000
4753,-109.375000
4754,-109.375000
4755,-109.375000
4756,-109.375000
4757,-109.375000
4758,-109.375000
4759,-109.375000
4760,-109.375000
4761,-109.375000
4762,-109.375000
4763,-109.375000
4764,-109.375000
4765,-109.375000
4766,-109.375000
4767,-109.375000
4768,-109.375000
4769,-109.375000
4770,-109.375000
4771,-113.281250
4772,-109.375000
4773,-109.375000
4774,-109.375000
4775,-109.375000
4776,-109.375000
4777,-109.375000
4778,-109.375000
4779,-109.375000
4780,-109.375000
4781,-109.375000
4782,-109.375000
4783,-109.375000
4784,-109.375000
4785,-109.375000
4786,-109.375000
4787,-109.375000
4788,-109.375000
4789,-109.375000
4790,-109.375000
4791,-109.375000
4792,-109.375000
4793,-109.375000
4794,-109.375000
4795,-109.375000
4796,-109.375000
4797,-109.375000
4798,-109.375000
4799,-105.468750
4800,-109.375000
4801,-109.375000
4802,-109.375000
4803,-109.375000
4804,-105.468750
4805,-109.375000
4806,-105.468750
4807,-109.375000
4808,-105.468750
4809,-105.468750
4810,-105.468750
4811,-105.468750
4812,-105.468750
4813,-105.468750
4814,-105.468750
4815,-105.468750
4816,-105.468750
4817,-105.468750
4818,-105.468750
4819,-105.468750
4820,-105.468750
4821,-105.468750
4822,-105.468750
4823,-101.562500
4824,-105.468750
4825,-105.468750
4826,-105.468750
4827,-105.468750
4828,-101.562500
4829,-101.562500
4830,-101.562500
4831,-101.562500
4832,-101.562500
4833,-101.562500
4834,-101.562500
4835,-101.562500
4836,-101.562500
4837,-101.562500
4838,-101.562500
4839,-101.562500
4840,-101.562500
4841,-101.562500
4842,-101.562500
4843,-101.562500
4844,-97.656250
4845,-97.656250
4846,-97.656250
4847,-97.656250
4848,-97.656250
4849,-97.656250
4850,-97.656250
4851,-97.656250
4852,-97.656250
4853,-97.656250
4854,-97.656250
4855,-97.656250
4856,-97.656250
4857,-97.656250
4858,-97.656250
4859,-97.656250
4860,-93.750000
4861,-93.750000
4862,-93.750000
4863,-93.750000
4864,-93.750000
4865,-93.750000
4866,-93.750000
4867,-93.750000
4868,-93.750000
4869,-93.750000
4870,-89.843750
4871,-89.843750
4872,-93.750000
4873,-89.843750
4874,-89.843750
4875,-85.937500
4876,-89.843750
4877,-89.843750
4878,-89.843750
4879,-89.843750
4880,-89.843750
4881,-89.843750
4882,-85.937500
4883,-85.937500
4884,-85.937500
4885,-85.937500
4886,-85.937500
4887,-85.937500
4888,-85.937500
4889,-85.937500
4890,-82.031250
4891,-82.031250
4892,-82.031250
4893,-82.031250
4894,-82.031250
4895,-82.031250
4896,-82.031250
4897,-82.031250
4898,-82.031250
4899,-78.125000
4900,-78.125000
4901,-78.125000
4902,-78.125000
4903,-78.125000
4904,-78.125000
4905,-78.125000
4906,-78.125000
4907,-74.218750
4908,-78.125000
4909,-74.218750
4910,-74.218750
4911,-74.218750
4912,-74.218750
4913,-74.218750
4914,-74.218750
4915,-74.218750
4916,-70.312500
4917,-70.312500
4918,-70.312500
4919,-70.312500
4920,-70.312500
4921,-70.312500
4922,-70.312500
4923,-70.312500
4924,-66.406250
4925,-66.406250
4926,-66.406250
4927,-66.406250
4928,-66.406250
4929,-66.406250
4930,-66.406250
4931,-62.500000
4932,-62.500000
4933,-62.500000
4934,-62.500000
4935,-62.500000
4936,-62.500000
4937,-62.500000
4938,-62.500000
4939,-58.593750
4940,-58.593750
4941,-58.593750
4942,-58.593750
4943,-58.593750
4944,-58.593750
4945,-54.687500
4946,-54.687500
4947,-54.687500
4948,-54.687500
4949,-54.687500
4950,-54.687500
4951,-54.687500
4952,-50.781250
4953,-50.781250
4954,-50.781250
4955,-50.781250
4956,-50.781250
4957,-50.781250
4958,-46.875000
4959,-46.875000
4960,-46.875000
4961,-46.875000
4962,-46.875000
4963,-46.875000
4964,-46.875000
4965,-46.875000
4966,-42.968750
4967,-42.968750
4968,-42.968750
4969,-42.968750
4970,-42.968750
4971,-42.968750
4972,-42.968750
4973,-39.062500
4974,-39.062500
4975,-39.062500
4976,-39.062500
4977,-39.062500
4978,-39.062500
4979,-39.062500
4980,-35.156250
4981,-35.156250
4982,-35.156250
4983,-35.156250
4984,-35.156250
4985,-35.156250
4986,-31.250000
4987,-31.250000
4988,-31.250000
4989,-31.250000
4990,-31.250000
4991,-31.250000
4992,-27.343750
4993,-27.343750
4994,-27.343750
4995,-27.343750
4996,-27.343750
4997,-27.343750
4998,-27.343750
4999,-27.343750
5000,-23.437500
5001,-23.437500
5002,-23.437500
5003,-23.437500
5004,-23.437500
5005,-23.437500
5006,-23.437500
5007,-19.531250
5008,-19.531250
5009,-19.531250
5010,-19.531250
5011,-19.531250
5012,-15.625000
5013,-15.625000
5014,-15.625000
5015,-15.625000
5016,-15.625000
5017,-15.625000
5018,-11.718750
5019,-11.718750
5020,-11.718750
5021,-11.718750
5022,-11.718750
5023,-11.718750
5024,-11.718750
5025,-11.718750
5026,-11.718750
5027,-7.812500
5028,-7.812500
5029,-7.812500
5030,-7.812500
5031,-7.812500
5032,-3.906250
5033,-3.906250
5034,-3.906250
5035,-3.906250
5036,-3.906250
5037,-3.906250
5038,-3.906250
5039,-3.906250
5040,0.000000
5041,0.000000
5042,0.000000
5043,0.000000
5044,0.000000
5045,0.000000
5046,3.906250
5047,3.906250
5048,3.906250
5049,3.906250
5050,7.812500
5051,7.812500
5052,7.812500
5053,7.812500
5054,7.812500
5055,7.812500
5056,7.812500
5057,7.812500
5058,11.718750
5059,11.718750
5060,11.718750
5061,11.718750
5062,11.718750
5063,11.718750
5064,11.718750
5065,11.718750
5066,15.625000
5067,15.625000
5068,15.625000
5069,15.625000
5070,15.625000
5071,19.531250
5072,19.531250
5073,19.531250
5074,19.531250
5075,19.531250
5076,19.531250
5077,19.531250
5078,19.531250
5079,23.437500
5080,23.437500
5081,23.437500
5082,23.437500
5083,23.437500
5084,23.437500
5085,23.437500
5086,23.437500
5087,27.343750
5088,27.343750
5089,27.343750
5090,27.343750
5091,27.343750
5092,27.343750
5093,27.343750
5094,31.250000
5095,31.250000
5096,31.250000
5097,31.250000
5098,31.250000
5099,31.250000
5100,31.250000
5101,35.156250
5102,35.156250
5103,35.156250
5104,35.156250
5105,35.156250
5106,35.156250
5107,35.156250
5108,35.156250
5109,35.156250
5110,39.062500
5111,39.062500
5112,39.062500
5113,39.062500
5114,39.062500
5115,39.062500
5116,39.062500
5117,39.062500
5118,42.968750
5119,42.968750
5120,42.968750
5121,42.968750
5122,42.968750
5123,42.968750
5124,42.968750
5125,42.968750
5126,42.968750
5127,42.968750
5128,46.875000
5129,46.875000
5130,46.875000
5131,46.875000
5132,46.875000
5133,46.875000
5134,46.875000
5135,46.875000
5136,46.875000
5137,46.875000
5138,50.781250
5139,50.781250
5140,50.781250
5141,50.781250
5142,50.781250
5143,50.781250
5144,54.687500
5145,50.781250
5146,50.781250
5147,54.687500
5148,54.687500
5149,54.687500
5150,54.687500
5151,54.687500
5152,54.687500
5153,54.687500
5154,54.687500
5155,54.687500
5156,54.687500
5157,54.687500
5158,58.593750
5159,58.593750
5160,58.593750
5161,58.593750
5162,58.593750
5163,58.593750
5164,58.593750
5165,58.593750
5166,58.593750
5167,58.593750
5168,62.500000
5169,62.500000
5170,62.500000
5171,62.500000
5172,62.500000
5173,62.500000
5174,62.500000
5175,62.500000
5176,66.406250
5177,62.500000
5178,62.500000
5179,62.500000
5180,66.406250
5181,66.406250
5182,66.406250
5183,66.406250
5184,66.406250
5185,66.406250
5186,66.406250
5187,66.406250
5188,62.500000
5189,66.406250
5190,66.406250
5191,66.406250
5192,70.312500
5193,66.406250
5194,66.406250
5195,70.312500
5196,70.312500
5197,70.312500
5198,70.312500
5199,70.312500
5200,70.312500
5201,70.312500
5202,70.312500
5203,70.312500
5204,70.312500
5205,70.312500
5206,70.312500
5207,70.312500
5208,70.312500
5209,70.312500
5210,70.312500
5211,74.218750
5212,74.218750
5213,74.218750
5214,70.312500
5215,74.218750
5216,74.218750
5217,74.218750
5218,74.218750
5219,74.218750
5220,74.218750
5221,74.218750
5222,74.218750
5223,74.218750
5224,74.218750
5225,74.218750
5226,74.218750
5227,74.218750
5228,74.218750
5229,74.218750
5230,74.218750
5231,74.218750
5232,74.218750
5233,74.218750
5234,74.218750
5235,74.218750
5236,74.218750
5237,74.218750
5238,78.125000
5239,74.218750
5240,78.125000
5241,78.125000
5242,78.125000
5243,78.125000
5244,78.125000
5245,78.125000
5246,78.125000
5247,78.125000
5248,78.125000
5249,78.125000
5250,78.125000
5251,78.125000
5252,78.125000
5253,78.125000
5254,78.125000
5255,78.125000
5256,78.125000
5257,78.125000
5258,78.125000
5259,78.125000
5260,78.125000
5261,78.125000
5262,78.125000
5263,78.125000
5264,78.125000
5265,78.125000
5266,78.125000
5267,78.125000
5268,78.125000
5269,78.125000
5270,78.125000
5271,78.125000
5272,78.125000
5273,78.125000
5274,78.125000
5275,78.125000
5276,78.125000
5277,78.125000
5278,78.125000
5279,78.125000
5280,78.125000
5281,78.125000
5282,78.125000
5283,78.125000
5284,78.125000
5285,78.125000
5286,78.125000
5287,78.125000
5288,78.125000
5289,74.218750
5290,78.125000
5291,78.125000
5292,78.125000
5293,78.125000
5294,74.218750
5295,78.125000
5296,78.125000
5297,78.125000
5298,78.125000
5299,74.218750
5300,74.218750
5301,78.125000
5302,78.125000
5303,74.218750
5304,74.218750
5305,74.218750
5306,78.125000
5307,74.218750
5308,74.218750
5309,74.218750
5310,74.218750
5311,74.218750
5312,74.218750
5313,74.218750
5314,74.218750
5315,74.218750
5316,74.218750
5317,74.218750
5318,74.218750
5319,74.218750
5320,74.218750
5321,74.218750
5322,74.218750
5323,74.218750
5324,74.218750
5325,74.218750
5326,74.218750
5327,74.218750
5328,70.312500
5329,74.218750
5330,74.218750
5331,74.218750
5332,74.218750
5333,70.312500
5334,70.312500
5335,70.312500
5336,70.312500
5337,70.312500
5338,70.312500
5339,70.312500
5340,70.312500
5341,70.312500
5342,70.312500
5343,70.312500
5344,70.312500
5345,70.312500
5346,70.312500
5347,70.312500
5348,66.406250
5349,66.406250
5350,66.406250
5351,66.406250
5352,66.406250
5353,66.406250
5354,66.406250
5355,66.406250
5356,66.406250
5357,66.406250
5358,66.406250
5359,66.406250
5360,66.406250
5361,66.406250
5362,66.406250
5363,62.500000
5364,66.406250
5365,62.500000
5366,62.500000
5367,62.500000
5368,62.500000
5369,62.500000
5370,62.500000
5371,62.500000
5372,62.500000
5373,62.500000
5374,62.500000
5375,58.593750
5376,62.500000
5377,58.593750
5378,58.593750
5379,58.593750
5380,58.593750
5381,58.593750
5382,58.593750
5383,58.593750
5384,58.593750
5385,58.593750
5386,54.687500
5387,54.687500
5388,54.687500
5389,54.687500
5390,54.687500
5391,54.687500
5392,54.687500
5393,54.687500
5394,54.687500
5395,54.687500
5396,50.781250
5397,50.781250
5398,50.781250
5399,50.781250
5400,50.781250
5401,50.781250
5402,50.781250
5403,50.781250
5404,50.781250
5405,50.781250
5406,50.781250
5407,46.875000
5408,46.875000
5409,46.875000
5410,46.875000
5411,46.875000
5412,46.875000
5413,46.875000
5414,42.968750
5415,46.875000
5416,46.875000
5417,42.968750
5418,42.968750
5419,42.968750
5420,42.968750
5421,42.968750
5422,42.968750
5423,42.968750
5424,42.968750
5425,39.062500
5426,39.062500
5427,39.062500
5428,39.062500
5429,39.062500
5430,39.062500
5431,39.062500
5432,39.062500
5433,39.062500
5434,35.156250
5435,35.156250
5436,35.156250
5437,35.156250
5438,35.156250
5439,35.156250
5440,31.250000
5441,31.250000
5442,31.250000
5443,31.250000
5444,31.250000
5445,31.250000
5446,31.250000
5447,31.250000
5448,27.343750
5449,27.343750
5450,27.343750
5451,27.343750
5452,27.343750
5453,27.343750
5454,27.343750
5455,27.343750
5456,23.437500
5457,23.437500
5458,23.437500
5459,23.437500
5460,23.437500
5461,23.437500
5462,23.437500
5463,23.437500
5464,19.531250
5465,19.531250
5466,19.531250
5467,19.531250
5468,19.531250
5469,19.531250
5470,19.531250
5471,19.531250
5472,15.625000
5473,15.625000
5474,15.625000
5475,15.625000
5476,15.625000
5477,15.625000
5478,15.625000
5479,15.625000
5480,11.718750
5481,11.718750
5482,11.718750
5483,11.718750
5484,11.718750
5485,11.718750
5486,7.812500
5487,7.812500
5488,7.812500
5489,7.812500
5490,7.812500
5491,7.812500
5492,7.812500
5493,3.906250
5494,3.906250
5495,3.906250
5496,3.906250
5497,3.906250
5498,3.906250
5499,0.000000
5500,0.000000
5501,0.000000
5502,0.000000
5503,0.000000
5504,0.000000
5505,0.000000
5506,-3.906250
5507,-3.906250
5508,-3.906250
5509,-3.906250
5510,-3.906250
5511,-3.906250
5512,-3.906250
5513,-7.812500
5514,-7.812500
5515,-7.812500
5516,-7.812500
5517,-7.812500
5518,-11.718750
5519,-11.718750
5520,-11.718750
5521,-11.718750
5522,-11.718750
5523,-11.718750
5524,-11.718750
5525,-15.625000
5526,-15.625000
5527,-15.625000
5528,-15.625000
5529,-15.625000
5530,-15.625000
5531,-19.531250
5532,-19.531250
5533,-19.531250
5534,-19.531250
5535,-19.531250
5536,-19.531250
5537,-23.437500
5538,-23.437500
5539,-23.437500
5540,-23.437500
5541,-23.437500
5542,-23.437500
5543,-23.437500
5544,-23.437500
5545,-27.343750
5546,-27.343750
5547,-27.343750
5548,-27.343750
5549,-27.343750
5550,-27.343750
5551,-31.250000
5552,-31.250000
5553,-31.250000
5554,-31.250000
5555,-31.250000
5556,-31.250000
5557,-31.250000
5558,-31.250000
5559,-35.156250
5560,-35.156250
5561,-35.156250
5562,-35.156250
5563,-35.156250
5564,-35.156250
5565,-35.156250
5566,-39.062500
5567,-39.062500
5568,-39.062500
5569,-39.062500
5570,-39.062500
5571,-42.968750
5572,-42.968750
5573,-42.968750
5574,-42.968750
5575,-42.968750
5576,-42.968750
5577,-42.968750
5578,-42.968750
5579,-46.875000
5580,-46.875000
5581,-46.875000
5582,-46.875000
5583,-46.875000
5584,-46.875000
5585,-46.875000
5586,-46.875000
5587,-50.781250
5588,-50.781250
5589,-50.781250
5590,-50.781250
5591,-50.781250
5592,-54.687500
5593,-54.687500
5594,-54.687500
5595,-54.687500
5596,-54.687500
5597,-54.687500
5598,-54.687500
5599,-54.687500
5600,-58.593750
5601,-58.593750
5602,-58.593750
5603,-58.593750
5604,-58.593750
5605,-58.593750
5606,-58.593750
5607,-58.593750
5608,-62.500000
5609,-62.500000
5610,-62.500000
5611,-62.500000
5612,-62.500000
5613,-66.406250
5614,-66.406250
5615,-66.406250
5616,-66.406250
5617,-66.406250
5618,-66.406250
5619,-66.406250
5620,-66.406250
5621,-70.312500
5622,-70.312500
5623,-70.312500
5624,-70.312500
5625,-70.312500
5626,-70.312500
5627,-70.312500
5628,-70.312500
5629,-70.312500
5630,-74.218750
5631,-74.218750
5632,-74.218750
5633,-74.218750
5634,-74.218750
5635,-74.218750
5636,-74.218750
5637,-74.218750
5638,-78.125000
5639,-78.125000
5640,-78.125000
5641,-78.125000
5642,-78.125000
5643,-78.125000
5644,-82.031250
5645,-78.125000
5646,-82.031250
5647,-82.031250
5648,-82.031250
5649,-82.031250
5650,-82.031250
5651,-82.031250
5652,-82.031250
5653,-85.937500
5654,-82.031250
5655,-85.937500
5656,-85.937500
5657,-85.937500
5658,-85.937500
5659,-85.937500
5660,-85.937500
5661,-85.937500
5662,-85.937500
5663,-89.843750
5664,-89.843750
5665,-89.843750
5666,-89.843750
5667,-89.843750
5668,-89.843750
5669,-89.843750
5670,-89.843750
5671,-89.843750
5672,-93.750000
5673,-93.750000
5674,-93.750000
5675,-93.750000
5676,-93.750000
5677,-93.750000
5678,-93.750000
5679,-93.750000
5680,-93.750000
5681,-93.750000
5682,-93.750000
5683,-93.750000
5684,-93.750000
5685,-93.750000
5686,-97.656250
5687,-97.656250
5688,-97.656250
5689,-97.656250
5690,-97.656250
5691,-97.656250
5692,-97.656250
5693,-97.656250
5694,-97.656250
5695,-97.656250
5696,-97.656250
5697,-97.656250
5698,-97.656250
5699,-101.562500
5700,-101.562500
5701,-101.562500
5702,-101.562500
5703,-101.562500
5704,-101.562500
5705,-101.562500
5706,-101.562500
5707,-101.562500
5708,-101.562500
5709,-101.562500
5710,-101.562500
5711,-101.562500
5712,-101.562500
5713,-105.468750
5714,-105.468750
5715,-105.468750
5716,-105.468750
5717,-101.562500
5718,-101.562500
5719,-105.468750
5720,-105.468750
5721,-105.468750
5722,-105.468750
5723,-105.468750
5724,-105.468750
5725,-105.468750
5726,-105.468750
5727,-105.468750
5728,-105.468750
5729,-105.468750
5730,-105.468750
5731,-105.468750
5732,-105.468750
5733,-105.468750
5734,-105.468750
5735,-105.468750
5736,-105.468750
5737,-105.468750
5738,-105.468750
5739,-105.468750
5740,-105.468750
5741,-109.375000
5742,-109.375000
5743,-109.375000
5744,-109.375000
5745,-109.375000
5746,-109.375000
5747,-109.375000
5748,-105.468750
5749,-109.375000
5750,-109.375000
5751,-109.375000
5752,-109.375000
5753,-109.375000
5754,-109.375000
5755,-109.375000
5756,-109.375000
5757,-109.375000
5758,-109.375000
5759,-109.375000
5760,-109.375000
5761,-109.375000
5762,-109.375000
5763,-109.375000
5764,-109.375000
5765,-109.375000
5766,-109.375000
5767,-109.375000
5768,-109.375000
5769,-109.375000
5770,-109.375000
5771,-109.375000
5772,-109.375000
5773,-109.375000
5774,-109.375000
5775,-109.375000
5776,-109.375000
5777,-109.375000
5778,-109.375000
5779,-109.375000
5780,-109.375000
5781,-109.375000
5782,-109.375000
5783,-109.375000
5784,-109.375000
5785,-109.375000
5786,-109.375000
5787,-109.375000
5788,-109.375000
5789,-109.375000
5790,-105.468750
5791,-109.375000
5792,-109.375000
5793,-109.375000
5794,-109.375000
5795,-109.375000
5796,-105.468750
5797,-105.468750
5798,-105.468750
5799,-105.468750
5800,-105.468750
5801,-105.468750
5802,-105.468750
5803,-105.468750
5804,-105.468750
5805,-105.468750
5806,-105.468750
5807,-105.468750
5808,-105.468750
5809,-105.468750
5810,-105.468750
5811,-105.468750
5812,-105.468750
5813,-105.468750
5814,-105.468750
5815,-105.468750
5816,-105.468750
5817,-101.562500
5818,-101.562500
5819,-101.562500
5820,-101.562500
5821,-101.562500
5822,-101.562500
5823,-101.562500
5824,-101.562500
5825,-101.562500
5826,-101.562500
5827,-101.562500
5828,-101.562500
5829,-101.562500
5830,-101.562500
5831,-101.562500
5832,-101.562500
5833,-101.562500
5834,-101.562500
5835,-101.562500
5836,-97.656250
5837,-97.656250
5838,-97.656250
5839,-97.656250
5840,-97.656250
5841,-97.656250
5842,-97.656250
5843,-97.656250
5844,-97.656250
5845,-97.656250
5846,-97.656250
5847,-93.750000
5848,-97.656250
5849,-93.750000
5850,-93.750000
5851,-93.750000
5852,-93.750000
5853,-93.750000
5854,-93.750000
5855,-93.750000
5856,-93.750000
5857,-93.750000
5858,-89.843750
5859,-89.843750
5860,-89.843750
5861,-89.843750
5862,-93.750000
5863,-89.843750
5864,-89.843750
5865,-89.843750
5866,-89.843750
5867,-89.843750
5868,-85.937500
5869,-89.843750
5870,-85.937500
5871,-85.937500
5872,-85.937500
5873,-85.937500
5874,-85.937500
5875,-85.937500
5876,-85.937500
5877,-85.937500
5878,-85.937500
5879,-85.937500
5880,-82.031250
5881,-82.031250
5882,-82.031250
5883,-82.031250
5884,-82.031250
5885,-82.031250
5886,-82.031250
5887,-82.031250
5888,-78.125000
5889,-78.125000
5890,-78.125000
5891,-78.125000
5892,-78.125000
5893,-78.125000
5894,-78.125000
5895,-78.125000
5896,-74.218750
5897,-74.218750
5898,-74.218750
5899,-74.218750
5900,-74.218750
5901,-74.218750
5902,-74.218750
5903,-74.218750
5904,-74.218750
5905,-74.218750
5906,-70.312500
5907,-70.312500
5908,-70.312500
5909,-70.312500
5910,-70.312500
5911,-70.312500
5912,-70.312500
5913,-70.312500
5914,-66.406250
5915,-66.406250
5916,-66.406250
5917,-66.406250
5918,-66.406250
5919,-66.406250
5920,-62.500000
5921,-66.406250
5922,-62.500000
5923,-62.500000
5924,-62.500000
5925,-62.500000
5926,-62.500000
5927,-62.500000
5928,-58.593750
5929,-58.593750
5930,-58.593750
5931,-58.593750
5932,-58.593750
5933,-62.500000
5934,-58.593750
5935,-58.593750
5936,-54.687500
5937,-54.687500
5938,-54.687500
5939,-58.593750
5940,-54.687500
5941,-54.687500
5942,-54.687500
5943,-50.781250
5944,-50.781250
5945,-50.781250
5946,-50.781250
5947,-50.781250
5948,-50.781250
5949,-46.875000
5950,-46.875000
5951,-46.875000
5952,-46.875000
5953,-46.875000
5954,-46.875000
5955,-42.968750
5956,-42.968750
5957,-42.968750
5958,-42.968750
5959,-42.968750
5960,-42.968750
5961,-42.968750
5962,-42.968750
5963,-42.968750
5964,-39.062500
5965,-39.062500
5966,-39.062500
5967,-39.062500
5968,-39.062500
5969,-39.062500
5970,-35.156250
5971,-35.156250
5972,-35.156250
5973,-35.156250
5974,-35.156250
5975,-31.250000
5976,-31.250000
5977,-31.250000
5978,-31.250000
5979,-31.250000
5980,-31.250000
5981,-31.250000
5982,-31.250000
5983,-31.250000
5984,-27.343750
5985,-27.343750
5986,-27.343750
5987,-27.343750
5988,-23.437500
5989,-23.437500
5990,-23.437500
5991,-23.437500
5992,-23.437500
5993,-23.437500
5994,-23.437500
5995,-23.437500
5996,-19.531250
5997,-19.531250
5998,-19.531250
5999,-19.531250
6000,-19.531250
6001,-19.531250
6002,-15.625000
6003,-15.625000
6004,-15.625000
6005,-15.625000
6006,-15.625000
6007,-15.625000
6008,-11.718750
6009,-11.718750
6010,-11.718750
6011,-11.718750
6012,-11.718750
6013,-11.718750
6014,-7.812500
6015,-11.718750
6016,-7.812500
6017,-7.812500
6018,-7.812500
6019,-7.812500
6020,-7.812500
6021,-7.812500
6022,-3.906250
6023,-3.906250
6024,-3.906250
6025,-3.906250
6026,-3.906250
6027,-3.906250
6028,-3.906250
6029,0.000000
6030,0.000000
6031,0.000000
6032,0.000000
6033,0.000000
6034,0.000000
6035,0.000000
6036,3.906250
6037,0.000000
6038,3.906250
6039,3.906250
6040,3.906250
6041,3.906250
6042,7.812500
6043,7.812500
6044,7.812500
6045,7.812500
6046,7.812500
6047,7.812500
6048,11.718750
6049,7.812500
6050,11.718750
6051,11.718750
6052,11.718750
6053,11.718750
6054,11.718750
6055,11.718750
6056,15.625000
6057,15.625000
6058,15.625000
6059,15.625000
6060,15.625000
6061,15.625000
6062,15.625000
6063,19.531250
6064,19.531250
6065,19.531250
6066,23.437500
6067,19.531250
6068,19.531250
6069,19.531250
6070,19.531250
6071,23.437500
6072,23.437500
6073,23.437500
6074,23.437500
6075,23.437500
6076,23.437500
6077,27.343750
6078,27.343750
6079,27.343750
6080,27.343750
6081,27.343750
6082,27.343750
6083,27.343750
6084,27.343750
6085,31.250000
6086,31.250000
6087,31.250000
6088,31.250000
6089,31.250000
6090,31.250000
6091,31.250000
6092,35.156250
6093,35.156250
6094,35.156250
6095,35.156250
6096,35.156250
6097,35.156250
6098,35.156250
6099,35.156250
6100,39.062500
6101,39.062500
6102,39.062500
6103,39.062500
6104,39.062500
6105,39.062500
6106,42.968750
6107,39.062500
6108,42.968750
6109,42.968750
6110,42.968750
6111,42.968750
6112,42.968750
6113,42.968750
6114,42.968750
6115,42.968750
6116,46.875000
6117,46.875000
6118,46.875000
6119,46.875000
6120,46.875000
6121,46.875000
6122,46.875000
6123,46.875000
6124,46.875000
6125,46.875000
6126,50.781250
6127,50.781250
6128,50.781250
6129,50.781250
6130,50.781250
6131,50.781250
6132,50.781250
6133,50.781250
6134,50.781250
6135,54.687500
6136,54.687500
6137,54.687500
6138,54.687500
6139,54.687500
6140,54.687500
6141,54.687500
6142,54.687500
6143,54.687500
6144,54.687500
6145,58.593750
6146,58.593750
6147,58.593750
6148,58.593750
6149,58.593750
6150,58.593750
6151,58.593750
6152,58.593750
6153,58.593750
6154,58.593750
6155,58.593750
6156,62.500000
6157,62.500000
6158,62.500000
6159,62.500000
6160,62.500000
6161,62.500000
6162,62.500000
6163,62.500000
6164,62.500000
6165,62.500000
6166,62.500000
6167,62.500000
6168,62.500000
6169,62.500000
6170,66.406250
6171,62.500000
6172,66.406250
6173,66.406250
6174,66.406250
6175,66.406250
6176,66.406250
6177,66.406250
6178,66.406250
6179,66.406250
6180,66.406250
6181,66.406250
6182,66.406250
6183,66.406250
6184,70.312500
6185,70.312500
6186,70.312500
6187,70.312500
6188,70.312500
6189,70.312500
6190,70.312500
6191,70.312500
6192,70.312500
6193,70.312500
6194,70.312500
6195,70.312500
6196,70.312500
6197,70.312500
6198,74.218750
6199,70.312500
6200,70.312500
6201,70.312500
6202,70.312500
6203,74.218750
6204,74.218750
6205,74.218750
6206,74.218750
6207,74.218750
6208,74.218750
6209,74.218750
6210,74.218750
6211,74.218750
6212,74.218750
6213,74.218750
6214,74.218750
6215,74.218750
6216,74.218750
6217,74.218750
6218,74.218750
6219,74.218750
6220,74.218750
6221,74.218750
6222,74.218750
6223,74.218750
6224,78.125000
6225,74.218750
6226,78.125000
6227,78.125000
6228,78.125000
6229,74.218750
6230,78.125000
6231,78.125000
6232,78.125000
6233,78.125000
6234,78.125000
6235,78.125000
6236,78.125000
6237,78.125000
6238,78.125000
6239,78.125000
6240,78.125000
6241,78.125000
6242,78.125000
6243,78.125000
6244,78.125000
6245,78.125000
6246,78.125000
6247,78.125000
6248,78.125000
6249,78.125000
6250,78.125000
6251,78.125000
6252,78.125000
6253,78.125000
6254,78.125000
6255,78.125000
6256,78.125000
6257,78.125000
6258,78.125000
6259,78.125000
6260,78.125000
6261,78.125000
6262,78.125000
6263,78.125000
6264,78.125000
6265,78.125000
6266,78.125000
6267,78.125000
6268,78.125000
6269,78.125000
6270,78.125000
6271,78.125000
6272,78.125000
6273,78.125000
6274,78.125000
6275,78.125000
6276,78.125000
6277,78.125000
6278,78.125000
6279,78.125000
6280,78.125000
6281,78.125000
6282,78.125000
6283,78.125000
6284,78.125000
6285,78.125000
6286,78.125000
6287,78.125000
6288,78.125000
6289,78.125000
6290,78.125000
6291,74.218750
6292,78.125000
6293,78.125000
6294,74.218750
6295,78.125000
6296,78.125000
6297,74.218750
6298,78.125000
6299,74.218750
6300,74.218750
6301,74.218750
6302,74.218750
6303,74.218750
6304,74.218750
6305,74.218750
6306,74.218750
6307,74.218750
6308,74.218750
6309,74.218750
6310,74.218750
6311,74.218750
6312,74.218750
6313,74.218750
6314,74.218750
6315,74.218750
6316,74.218750
6317,70.312500
6318,74.218750
6319,70.312500
6320,70.312500
6321,70.312500
6322,70.312500
6323,70.312500
6324,70.312500
6325,70.312500
6326,70.312500
6327,70.312500
6328,70.312500
6329,70.312500
6330,70.312500
6331,70.312500
6332,70.312500
6333,70.312500
6334,70.312500
6335,70.312500
6336,70.312500
6337,70.312500
6338,66.406250
6339,66.406250
6340,66.406250
6341,66.406250
6342,66.406250
6343,66.406250
6344,66.406250
6345,66.406250
6346,66.406250
6347,66.406250
6348,66.406250
6349,66.406250
6350,66.406250
6351,66.406250
6352,66.406250
6353,62.500000
6354,62.500000
6355,62.500000
6356,62.500000
6357,62.500000
6358,62.500000
6359,62.500000
6360,62.500000
6361,62.500000
6362,62.500000
6363,62.500000
6364,62.500000
6365,58.593750
6366,62.500000
6367,58.593750
6368,58.593750
6369,58.593750
6370,58.593750
6371,58.593750
6372,58.593750
6373,58.593750
6374,58.593750
6375,54.687500
6376,54.687500
6377,54.687500
6378,54.687500
6379,54.687500
6380,54.687500
6381,54.687500
6382,54.687500
6383,54.687500
6384,54.687500
6385,54.687500
6386,54.687500
6387,50.781250
6388,50.781250
6389,50.781250
6390,50.781250
6391,50.781250
6392,50.781250
6393,50.781250
6394,50.781250
6395,50.781250
6396,46.875000
6397,46.875000
6398,46.875000
6399,46.875000
6400,46.875000
6401,46.875000
6402,46.875000
6403,46.875000
6404,46.875000
6405,46.875000
6406,46.875000
6407,42.968750
6408,42.968750
6409,46.875000
6410,42.968750
6411,42.968750
6412,42.968750
6413,42.968750
6414,42.968750
6415,42.968750
6416,39.062500
6417,39.062500
6418,39.062500
6419,39.062500
6420,39.062500
6421,39.062500
6422,39.062500
6423,35.156250
6424,35.156250
6425,35.156250
6426,35.156250
6427,35.156250
6428,35.156250
6429,35.156250
6430,35.156250
6431,31.250000
6432,31.250000
6433,31.250000
6434,31.250000
6435,31.250000
6436,31.250000
6437,27.343750
6438,31.250000
6439,27.343750
6440,27.343750
6441,27.343750
6442,27.343750
6443,27.343750
6444,27.343750
6445,27.343750
6446,23.437500
6447,23.437500
6448,23.437500
6449,23.437500
6450,23.437500
6451,23.437500
6452,23.437500
6453,19.531250
6454,19.531250
6455,19.531250
6456,19.531250
6457,19.531250
6458,19.531250
6459,19.531250
6460,19.531250
6461,15.625000
6462,15.625000
6463,15.625000
6464,15.625000
6465,15.625000
6466,15.625000
6467,11.718750
6468,11.718750
6469,11.718750
6470,11.718750
6471,11.718750
6472,11.718750
6473,11.718750
6474,7.812500
6475,7.812500
6476,7.812500
6477,7.812500
6478,7.812500
6479,7.812500
6480,7.812500
6481,7.812500
6482,3.906250
6483,3.906250
6484,3.906250
6485,3.906250
6486,3.906250
6487,3.906250
6488,0.000000
6489,0.000000
6490,0.000000
6491,0.000000
6492,0.000000
6493,-3.906250
6494,0.000000
6495,-3.906250
6496,-3.906250
6497,-3.906250
6498,-3.906250
6499,-3.906250
6500,-3.906250
6501,-3.906250
6502,-3.906250
6503,-7.812500
6504,-7.812500
6505,-7.812500
6506,-7.812500
6507,-7.812500
6508,-7.812500
6509,-11.718750
6510,-11.718750
6511,-11.718750
6512,-11.718750
6513,-11.718750
6514,-11.718750
6515,-15.625000
6516,-15.625000
6517,-15.625000
6518,-15.625000
6519,-15.625000
6520,-15.625000
6521,-15.625000
6522,-19.531250
6523,-19.531250
6524,-19.531250
6525,-19.531250
6526,-19.531250
6527,-19.531250
6528,-19.531250
6529,-23.437500
6530,-23.437500
6531,-23.437500
6532,-23.437500
6533,-23.437500
6534,-23.437500
6535,-27.343750
6536,-27.343750
6537,-27.343750
6538,-27.343750
6539,-27.343750
6540,-27.343750
6541,-31.250000
6542,-31.250000
6543,-31.250000
6544,-31.250000
6545,-31.250000
6546,-31.250000
6547,-31.250000
6548,-35.156250
6549,-35.156250
6550,-35.156250
6551,-35.156250
6552,-35.156250
6553,-35.156250
6554,-39.062500
6555,-39.062500
6556,-39.062500
6557,-39.062500
6558,-39.062500
6559,-39.062500
6560,-39.062500
6561,-39.062500
6562,-42.968750
6563,-42.968750
6564,-42.968750
6565,-42.968750
6566,-42.968750
6567,-42.968750
6568,-42.968750
6569,-46.875000
6570,-46.875000
6571,-46.875000
6572,-46.875000
6573,-46.875000
6574,-50.781250
6575,-50.781250
6576,-50.781250
6577,-50.781250
6578,-50.781250
6579,-50.781250
6580,-50.781250
6581,-50.781250
6582,-54.687500
6583,-54.687500
6584,-54.687500
6585,-54.687500
6586,-54.687500
6587,-54.687500
6588,-54.687500
6589,-58.593750
6590,-58.593750
6591,-58.593750
6592,-58.593750
6593,-58.593750
6594,-58.593750
6595,-58.593750
6596,-62.500000
6597,-62.500000
6598,-62.500000
6599,-62.500000
6600,-62.500000
6601,-62.500000
6602,-62.500000
6603,-66.406250
6604,-66.406250
6605,-66.406250
6606,-66.406250
6607,-66.406250
6608,-66.406250
6609,-66.406250
6610,-66.406250
6611,-66.406250
6612,-70.312500
6613,-70.312500
6614,-70.312500
6615,-70.312500
6616,-70.312500
6617,-70.312500
6618,-70.312500
6619,-74.218750
6620,-74.218750
6621,-74.218750
6622,-74.218750
6623,-74.218750
6624,-74.218750
6625,-74.218750
6626,-74.218750
6627,-74.218750
6628,-74.218750
6629,-78.125000
6630,-78.125000
6631,-78.125000
6632,-78.125000
6633,-78.125000
6634,-78.125000
6635,-78.125000
6636,-78.125000
6637,-78.125000
6638,-78.125000
6639,-82.031250
6640,-82.031250
6641,-82.031250
6642,-82.031250
6643,-82.031250
6644,-82.031250
6645,-82.031250
6646,-85.937500
6647,-85.937500
6648,-85.937500
6649,-85.937500
6650,-85.937500
6651,-85.937500
6652,-85.937500
6653,-85.937500
6654,-89.843750
6655,-89.843750
6656,-89.843750
6657,-85.937500
6658,-89.843750
6659,-89.843750
6660,-89.843750
6661,-89.843750
6662,-89.843750
6663,-89.843750
6664,-93.750000
6665,-93.750000
6666,-93.750000
6667,-89.843750
6668,-93.750000
6669,-93.750000
6670,-93.750000
6671,-93.750000
6672,-93.750000
6673,-93.750000
6674,-93.750000
6675,-93.750000
6676,-93.750000
6677,-93.750000
6678,-97.656250
6679,-97.656250
6680,-97.656250
6681,-97.656250
6682,-97.656250
6683,-97.656250
6684,-97.656250
6685,-97.656250
6686,-97.656250
6687,-97.656250
6688,-97.656250
6689,-97.656250
6690,-101.562500
6691,-101.562500
6692,-101.562500
6693,-101.562500
6694,-101.562500
6695,-101.562500
6696,-101.562500
6697,-101.562500
6698,-101.562500
6699,-101.562500
6700,-101.562500
6701,-101.562500
6702,-101.562500
6703,-105.468750
6704,-105.468750
6705,-101.562500
6706,-101.562500
6707,-101.562500
6708,-105.468750
6709,-101.562500
6710,-105.468750
6711,-105.468750
6712,-105.468750
6713,-105.468750
6714,-105.468750
6715,-105.468750
6716,-105.468750
6717,-105.468750
6718,-105.468750
6719,-105.468750
6720,-105.468750
6721,-105.468750
6722,-105.468750
6723,-105.468750
6724,-105.468750
6725,-105.468750
6726,-105.468750
6727,-105.468750
6728,-105.468750
6729,-105.468750
6730,-105.468750
6731,-109.375000
6732,-109.375000
6733,-109.375000
6734,-109.375000
6735,-109.375000
6736,-109.375000
6737,-109.375000
6738,-109.375000
6739,-109.375000
6740,-109.375000
6741,-109.375000
6742,-109.375000
6743,-109.375000
6744,-109.375000
6745,-109.375000
6746,-109.375000
6747,-109.375000
6748,-109.375000
6749,-109.375000
6750,-109.375000
6751,-109.375000
6752,-109.375000
6753,-109.375000
6754,-109.375000
6755,-109.375000
6756,-109.375000
6757,-109.375000
6758,-109.375000
6759,-109.375000
6760,-109.375000
6761,-109.375000
6762,-109.375000
6763,-109.375000
6764,-109.375000
6765,-109.375000
6766,-109.375000
6767,-109.375000
6768,-109.375000
6769,-109.375000
6770,-109.375000
6771,-109.375000
6772,-109.375000
6773,-109.375000
6774,-109.375000
6775,-109.375000
6776,-109.375000
6777,-109.375000
6778,-105.468750
6779,-109.375000
6780,-109.375000
6781,-109.375000
6782,-105.468750
6783,-105.468750
6784,-105.468750
6785,-109.375000
6786,-105.468750
6787,-105.468750
6788,-105.468750
6789,-105.468750
6790,-105.468750
6791,-105.468750
6792,-105.468750
6793,-105.468750
6794,-105.468750
6795,-105.468750
6796,-105.468750
6797,-105.468750
6798,-105.468750
6799,-105.468750
6800,-105.468750
6801,-105.468750
6802,-105.468750
6803,-105.468750
6804,-105.468750
6805,-105.468750
6806,-101.562500
6807,-105.468750
6808,-101.562500
6809,-101.562500
6810,-101.562500
6811,-105.468750
6812,-101.562500
6813,-101.562500
6814,-101.562500
6815,-101.562500
6816,-101.562500
6817,-101.562500
6818,-101.562500
6819,-101.562500
6820,-101.562500
6821,-101.562500
6822,-101.562500
6823,-97.656250
6824,-101.562500
6825,-97.656250
6826,-101.562500
6827,-97.656250
6828,-97.656250
6829,-97.656250
6830,-97.656250
6831,-97.656250
6832,-97.656250
6833,-97.656250
6834,-97.656250
6835,-97.656250
6836,-97.656250
6837,-93.750000
6838,-93.750000
6839,-93.750000
6840,-93.750000
6841,-93.750000
6842,-93.750000
6843,-93.750000
6844,-93.750000
6845,-93.750000
6846,-93.750000
6847,-93.750000
6848,-89.843750
6849,-89.843750
6850,-89.843750
6851,-89.843750
6852,-89.843750
6853,-89.843750
6854,-89.843750
6855,-89.843750
6856,-89.843750
6857,-89.843750
6858,-85.937500
6859,-85.937500
6860,-85.937500
6861,-89.843750
6862,-85.937500
6863,-85.937500
6864,-85.937500
6865,-85.937500
6866,-85.937500
6867,-85.937500
6868,-82.031250
6869,-82.031250
6870,-82.031250
6871,-82.031250
6872,-82.031250
6873,-82.031250
6874,-82.031250
6875,-82.031250
6876,-78.125000
6877,-78.125000
6878,-78.125000
6879,-78.125000
6880,-78.125000
6881,-78.125000
6882,-78.125000
6883,-78.125000
6884,-78.125000
6885,-78.125000
6886,-74.218750
6887,-74.218750
6888,-74.218750
6889,-74.218750
6890,-74.218750
6891,-74.218750
6892,-74.218750
6893,-74.218750
6894,-70.312500
6895,-70.312500
6896,-70.312500
6897,-70.312500
6898,-70.312500
6899,-70.312500
6900,-70.312500
6901,-70.312500
6902,-66.406250
6903,-66.406250
6904,-66.406250
6905,-66.406250
6906,-66.406250
6907,-66.406250
6908,-66.406250
6909,-62.500000
6910,-62.500000
6911,-62.500000
6912,-62.500000
6913,-62.500000
6914,-62.500000
6915,-62.500000
6916,-58.593750
6917,-58.593750
6918,-58.593750
6919,-58.593750
6920,-58.593750
6921,-58.593750
6922,-58.593750
6923,-58.593750
6924,-54.687500
6925,-54.687500
6926,-54.687500
6927,-54.687500
6928,-54.687500
6929,-54.687500
6930,-50.781250
6931,-50.781250
6932,-50.781250
6933,-50.781250
6934,-50.781250
6935,-50.781250
6936,-50.781250
6937,-50.781250
6938,-46.875000
6939,-46.875000
6940,-46.875000
6941,-46.875000
6942,-46.875000
6943,-46.875000
6944,-42.968750
6945,-46.875000
6946,-42.968750
6947,-42.968750
6948,-42.968750
6949,-42.968750
6950,-42.968750
6951,-42.968750
6952,-39.062500
6953,-39.062500
6954,-39.062500
6955,-39.062500
6956,-39.062500
6957,-39.062500
6958,-35.156250
6959,-35.156250
6960,-35.156250
6961,-35.156250
6962,-35.156250
6963,-35.156250
6964,-35.156250
6965,-31.250000
6966,-31.250000
6967,-31.250000
6968,-31.250000
6969,-31.250000
6970,-31.250000
6971,-31.250000
6972,-27.343750
6973,-27.343750
6974,-27.343750
6975,-27.343750
6976,-27.343750
6977,-27.343750
6978,-23.437500
6979,-23.437500
6980,-23.437500
6981,-23.437500
6982,-23.437500
6983,-23.437500
6984,-19.531250
6985,-23.437500
6986,-19.531250
6987,-19.531250
6988,-19.531250
6989,-19.531250
6990,-15.625000
6991,-15.625000
6992,-15.625000
6993,-15.625000
6994,-15.625000
6995,-15.625000
6996,-15.625000
6997,-11.718750
6998,-11.718750
6999,-11.718750
7000,-11.718750
7001,-11.718750
7002,-11.718750
7003,-11.718750
7004,-7.812500
7005,-7.812500
7006,-7.812500
7007,-7.812500
7008,-7.812500
7009,-7.812500
7010,-3.906250
7011,-3.906250
7012,-3.906250
7013,-3.906250
7014,-3.906250
7015,-3.906250
7016,-3.906250
7017,0.000000
7018,0.000000
7019,0.000000
7020,0.000000
7021,0.000000
7022,0.000000
7023,3.906250
7024,3.906250
7025,3.906250
7026,3.906250
7027,3.906250
7028,3.906250
7029,3.906250
7030,7.812500
7031,7.812500
7032,7.812500
7033,7.812500
7034,7.812500
7035,7.812500
7036,7.812500
7037,11.718750
7038,11.718750
7039,11.718750
7040,11.718750
7041,11.718750
7042,11.718750
7043,11.718750
7044,15.625000
7045,15.625000
7046,15.625000
7047,15.625000
7048,15.625000
7049,15.625000
7050,19.531250
7051,19.531250
7052,19.531250
7053,19.531250
7054,19.531250
7055,19.531250
7056,19.531250
7057,19.531250
7058,23.437500
7059,23.437500
7060,23.437500
7061,23.437500
7062,23.437500
7063,23.437500
7064,23.437500
7065,23.437500
7066,27.343750
7067,27.343750
7068,27.343750
7069,27.343750
7070,27.343750
7071,27.343750
7072,27.343750
7073,31.250000
7074,31.250000
7075,31.250000
7076,31.250000
7077,31.250000
7078,31.250000
7079,31.250000
7080,31.250000
7081,35.156250
7082,35.156250
7083,35.156250
7084,35.156250
7085,35.156250
7086,35.156250
7087,35.156250
7088,35.156250
7089,39.062500
7090,39.062500
7091,39.062500
7092,39.062500
7093,39.062500
7094,39.062500
7095,39.062500
7096,39.062500
7097,39.062500
7098,42.968750
7099,42.968750
7100,42.968750
7101,42.968750
7102,42.968750
7103,42.968750
7104,42.968750
7105,42.968750
7106,46.875000
7107,46.875000
7108,46.875000
7109,46.875000
7110,46.875000
7111,46.875000
7112,46.875000
7113,46.875000
7114,46.875000
7115,46.875000
7116,50.781250
7117,50.781250
7118,50.781250
7119,50.781250
7120,50.781250
7121,50.781250
7122,50.781250
7123,50.781250
7124,50.781250
7125,54.687500
7126,54.687500
7127,54.687500
7128,54.687500
7129,54.687500
7130,54.687500
7131,54.687500
7132,54.687500
7133,54.687500
7134,54.687500
7135,58.593750
7136,58.593750
7137,58.593750
7138,58.593750
7139,58.593750
7140,58.593750
7141,58.593750
7142,58.593750
7143,58.593750
7144,58.593750
7145,58.593750
7146,58.593750
7147,58.593750
7148,62.500000
7149,62.500000
7150,62.500000
7151,62.500000
7152,62.500000
7153,62.500000
7154,62.500000
7155,62.500000
7156,62.500000
7157,62.500000
7158,66.406250
7159,66.406250
7160,62.500000
7161,66.406250
7162,66.406250
7163,66.406250
7164,66.406250
7165,66.406250
7166,66.406250
7167,66.406250
7168,66.406250
7169,66.406250
7170,66.406250
7171,70.312500
7172,70.312500
7173,66.406250
7174,66.406250
7175,70.312500
7176,70.312500
7177,70.312500
7178,70.312500
7179,70.312500
7180,70.312500
7181,70.312500
7182,70.312500
7183,70.312500
7184,70.312500
7185,70.312500
7186,70.312500
7187,70.312500
7188,70.312500
7189,70.312500
7190,70.312500
7191,70.312500
7192,74.218750
7193,74.218750
7194,70.312500
7195,74.218750
7196,74.218750
7197,74.218750
7198,74.218750
7199,74.218750
7200,74.218750
7201,74.218750
7202,74.218750
7203,74.218750
7204,74.218750
7205,74.218750
7206,74.218750
7207,74.218750
7208,74.218750
7209,74.218750
7210,74.218750
7211,74.218750
7212,74.218750
7213,74.218750
7214,74.218750
7215,74.218750
7216,78.125000
7217,78.125000
7218,78.125000
7219,78.125000
7220,78.125000
7221,78.125000
7222,74.218750
7223,74.218750
7224,74.218750
7225,78.125000
7226,78.125000
7227,78.125000
7228,78.125000
7229,78.125000
7230,78.125000
7231,78.125000
7232,78.125000
7233,78.125000
7234,78.125000
7235,78.125000
7236,78.125000
7237,78.125000
7238,78.125000
7239,78.125000
7240,78.125000
7241,78.125000
7242,78.125000
7243,78.125000
7244,78.125000
7245,78.125000
7246,78.125000
7247,78.125000
7248,78.125000
7249,78.125000
7250,78.125000
7251,78.125000
7252,78.125000
7253,78.125000
7254,78.125000
7255,78.125000
7256,78.125000
7257,78.125000
7258,78.125000
7259,78.125000
7260,78.125000
7261,78.125000
7262,78.125000
7263,78.125000
7264,78.125000
7265,78.125000
7266,78.125000
7267,78.125000
7268,78.125000
7269,78.125000
7270,78.125000
7271,78.125000
7272,78.125000
7273,78.125000
7274,78.125000
7275,78.125000
7276,78.125000
7277,78.125000
7278,78.125000
7279,78.125000
7280,78.125000
7281,78.125000
7282,78.125000
7283,78.125000
7284,74.218750
7285,74.218750
7286,74.218750
7287,74.218750
7288,74.218750
7289,74.218750
7290,74.218750
7291,74.218750
7292,74.218750
7293,74.218750
7294,74.218750
7295,74.218750
7296,74.218750
7297,74.218750
7298,74.218750
7299,74.218750
7300,74.218750
7301,74.218750
7302,74.218750
7303,74.218750
7304,74.218750
7305,70.312500
7306,70.312500
7307,74.218750
7308,74.218750
7309,70.312500
7310,70.312500
7311,70.312500
7312,70.312500
7313,70.312500
7314,70.312500
7315,70.312500
7316,70.312500
7317,70.312500
7318,70.312500
7319,70.312500
7320,70.312500
7321,70.312500
7322,70.312500
7323,70.312500
7324,70.312500
7325,66.406250
7326,66.406250
7327,66.406250
7328,66.406250
7329,66.406250
7330,66.406250
7331,66.406250
7332,66.406250
7333,66.406250
7334,66.406250
7335,66.406250
7336,66.406250
7337,62.500000
7338,66.406250
7339,66.406250
7340,66.406250
7341,62.500000
7342,62.500000
7343,62.500000
7344,62.500000
7345,62.500000
7346,62.500000
7347,62.500000
7348,62.500000
7349,62.500000
7350,62.500000
7351,62.500000
7352,62.500000
7353,58.593750
7354,58.593750
7355,58.593750
7356,58.593750
7357,58.593750
7358,58.593750
7359,58.593750
7360,58.593750
7361,58.593750
7362,58.593750
7363,54.687500
7364,54.687500
7365,54.687500
7366,54.687500
7367,54.687500
7368,54.687500
7369,54.687500
7370,54.687500
7371,54.687500
7372,54.687500
7373,54.687500
7374,50.781250
7375,50.781250
7376,50.781250
7377,50.781250
7378,50.781250
7379,50.781250
7380,50.781250
7381,50.781250
7382,50.781250
7383,50.781250
7384,46.875000
7385,46.875000
7386,46.875000
7387,46.875000
7388,46.875000
7389,46.875000
7390,46.875000
7391,46.875000
7392,46.875000
7393,42.968750
7394,42.968750
7395,46.875000
7396,42.968750
7397,42.968750
7398,42.968750
7399,42.968750
7400,42.968750
7401,42.968750
7402,42.968750
7403,39.062500
7404,39.062500
7405,39.062500
7406,39.062500
7407,39.062500
7408,39.062500
7409,39.062500
7410,39.062500
7411,39.062500
7412,35.156250
7413,35.156250
7414,35.156250
7415,35.156250
7416,35.156250
7417,35.156250
7418,35.156250
7419,35.156250
7420,35.156250
7421,31.250000
7422,31.250000
7423,31.250000
7424,31.250000
7425,31.250000
7426,31.250000
7427,31.250000
7428,27.343750
7429,27.343750
7430,27.343750
7431,27.343750
7432,27.343750
7433,27.343750
7434,27.343750
7435,23.437500
7436,23.437500
7437,23.437500
7438,23.437500
7439,23.437500
7440,23.437500
7441,19.531250
7442,19.531250
7443,19.531250
7444,19.531250
7445,19.531250
7446,19.531250
7447,19.531250
7448,19.531250
7449,19.531250
7450,15.625000
7451,15.625000
7452,15.625000
7453,15.625000
7454,15.625000
7455,11.718750
7456,11.718750
7457,11.718750
7458,11.718750
7459,11.718750
7460,11.718750
7461,11.718750
7462,11.718750
7463,7.812500
7464,7.812500
7465,7.812500
7466,7.812500
7467,7.812500
7468,7.812500
7469,7.812500
7470,3.906250
7471,3.906250
7472,3.906250
7473,3.906250
7474,3.906250
7475,3.906250
7476,3.906250
7477,0.000000
7478,0.000000
7479,0.000000
7480,0.000000
7481,0.000000
7482,-3.906250
7483,-3.906250
7484,-3.906250
7485,-3.906250
7486,-3.906250
7487,-3.906250
7488,-3.906250
7489,-3.906250
7490,-3.906250
7491,-7.812500
7492,-7.812500
7493,-7.812500
7494,-7.812500
7495,-7.812500
7496,-7.812500
7497,-11.718750
7498,-11.718750
7499,-11.718750
7500,-11.718750
7501,-11.718750
7502,-11.718750
7503,-15.625000
7504,-15.625000
7505,-15.625000
7506,-15.625000
7507,-15.625000
7508,-15.625000
7509,-15.625000
7510,-15.625000
7511,-19.531250
7512,-15.625000
7513,-19.531250
7514,-19.531250
7515,-19.531250
7516,-19.531250
7517,-23.437500
7518,-19.531250
7519,-23.437500
7520,-27.343750
7521,-23.437500
7522,-27.343750
7523,-31.250000
7524,-23.437500
7525,-27.343750
7526,-27.343750
7527,-31.250000
7528,-27.343750
7529,-27.343750
7530,-31.250000
7531,-31.250000
7532,-31.250000
7533,-31.250000
7534,-31.250000
7535,-31.250000
7536,-35.156250
7537,-35.156250
7538,-35.156250
7539,-35.156250
7540,-35.156250
7541,-35.156250
7542,-39.062500
7543,-39.062500
7544,-39.062500
7545,-39.062500
7546,-39.062500
7547,-39.062500
7548,-39.062500
7549,-39.062500
7550,-39.062500
7551,-42.968750
7552,-42.968750
7553,-42.968750
7554,-42.968750
7555,-42.968750
7556,-42.968750
7557,-46.875000
7558,-46.875000
7559,-46.875000
7560,-46.875000
7561,-46.875000
7562,-46.875000
7563,-50.781250
7564,-50.781250
7565,-50.781250
7566,-50.781250
7567,-50.781250
7568,-50.781250
7569,-50.781250
7570,-54.687500
7571,-54.687500
7572,-54.687500
7573,-54.687500
7574,-54.687500
7575,-58.593750
7576,-54.687500
7577,-54.687500
7578,-58.593750
7579,-58.593750
7580,-62.500000
7581,-58.593750
7582,-58.593750
7583,-62.500000
7584,-62.500000
7585,-62.500000
7586,-66.406250
7587,-62.500000
7588,-62.500000
7589,-66.406250
7590,-62.500000
7591,-66.406250
7592,-66.406250
7593,-66.406250
7594,-66.406250
7595,-66.406250
7596,-66.406250
7597,-66.406250
7598,-66.406250
7599,-70.312500
7600,-70.312500
7601,-70.312500
7602,-70.312500
7603,-70.312500
7604,-70.312500
7605,-70.312500
7606,-70.312500
7607,-74.218750
7608,-74.218750
7609,-74.218750
7610,-74.218750
7611,-74.218750
7612,-74.218750
7613,-74.218750
7614,-74.218750
7615,-78.125000
7616,-78.125000
7617,-78.125000
7618,-78.125000
7619,-78.125000
7620,-78.125000
7621,-78.125000
7622,-78.125000
7623,-82.031250
7624,-82.031250
7625,-82.031250
7626,-82.031250
7627,-82.031250
7628,-82.031250
7629,-82.031250
7630,-82.031250
7631,-85.937500
7632,-82.031250
7633,-85.937500
7634,-85.937500
7635,-85.937500
7636,-85.937500
7637,-85.937500
7638,-85.937500
7639,-85.937500
7640,-85.937500
7641,-85.937500
7642,-89.843750
7643,-89.843750
7644,-89.843750
7645,-89.843750
7646,-89.843750
7647,-89.843750
7648,-89.843750
7649,-89.843750
7650,-89.843750
7651,-89.843750
7652,-93.750000
7653,-93.750000
7654,-93.750000
7655,-93.750000
7656,-93.750000
7657,-93.750000
7658,-93.750000
7659,-93.750000
7660,-93.750000
7661,-93.750000
7662,-93.750000
7663,-93.750000
7664,-93.750000
7665,-93.750000
7666,-97.656250
7667,-97.656250
7668,-97.656250
7669,-97.656250
7670,-97.656250
7671,-97.656250
7672,-97.656250
7673,-97.656250
7674,-97.656250
7675,-97.656250
7676,-97.656250
7677,-97.656250
7678,-97.656250
7679,-101.562500
7680,-101.562500
7681,-101.562500
7682,-101.562500
7683,-101.562500
7684,-101.562500
7685,-101.562500
7686,-101.562500
7687,-101.562500
7688,-101.562500
7689,-101.562500
7690,-105.468750
7691,-101.562500
7692,-101.562500
7693,-101.562500
7694,-105.468750
7695,-105.468750
7696,-105.468750
7697,-105.468750
7698,-105.468750
7699,-105.468750
7700,-105.468750
7701,-105.468750
7702,-105.468750
7703,-105.468750
7704,-105.468750
7705,-105.468750
7706,-105.468750
7707,-105.468750
7708,-105.468750
7709,-105.468750
7710,-105.468750
7711,-109.375000
7712,-105.468750
7713,-105.468750
7714,-105.468750
7715,-105.468750
7716,-109.375000
7717,-109.375000
7718,-109.375000
7719,-109.375000
7720,-109.375000
7721,-109.375000
7722,-109.375000
7723,-109.375000
7724,-109.375000
7725,-109.375000
7726,-109.375000
7727,-109.375000
7728,-109.375000
7729,-109.375000
7730,-109.375000
7731,-109.375000
7732,-109.375000
7733,-109.375000
7734,-109.375000
7735,-109.375000
7736,-109.375000
7737,-109.375000
7738,-109.375000
7739,-109.375000
7740,-109.375000
7741,-109.375000
7742,-109.375000
7743,-109.375000
7744,-109.375000
7745,-109.375000
7746,-109.375000
7747,-109.375000
7748,-109.375000
7749,-109.375000
7750,-109.375000
7751,-109.375000
7752,-109.375000
7753,-109.375000
7754,-109.375000
7755,-109.375000
7756,-109.375000
7757,-109.375000
7758,-109.375000
7759,-109.375000
7760,-109.375000
7761,-109.375000
7762,-109.375000
7763,-109.375000
7764,-109.375000
7765,-109.375000
7766,-109.375000
7767,-109.375000
7768,-109.375000
7769,-109.375000
7770,-109.375000
7771,-109.375000
7772,-109.375000
7773,-105.468750
7774,-105.468750
7775,-105.468750
7776,-105.468750
7777,-105.468750
7778,-105.468750
7779,-105.468750
7780,-105.468750
7781,-105.468750
7782,-105.468750
7783,-105.468750
7784,-105.468750
7785,-105.468750
7786,-105.468750
7787,-105.468750
7788,-105.468750
7789,-105.468750
7790,-105.468750
7791,-105.468750
7792,-105.468750
7793,-101.562500
7794,-105.468750
7795,-105.468750
7796,-105.468750
7797,-101.562500
7798,-101.562500
7799,-101.562500
7800,-101.562500
7801,-101.562500
7802,-101.562500
7803,-101.562500
7804,-101.562500
7805,-101.562500
7806,-101.562500
7807,-101.562500
7808,-101.562500
7809,-101.562500
7810,-101.562500
7811,-101.562500
7812,-101.562500
7813,-97.656250
7814,-97.656250
7815,-97.656250
7816,-97.656250
7817,-97.656250
7818,-97.656250
7819,-97.656250
7820,-97.656250
7821,-97.656250
7822,-97.656250
7823,-97.656250
7824,-97.656250
7825,-97.656250
7826,-97.656250
7827,-97.656250
7828,-97.656250
7829,-93.750000
7830,-93.750000
7831,-93.750000
7832,-93.750000
7833,-93.750000
7834,-93.750000
7835,-93.750000
7836,-93.750000
7837,-93.750000
7838,-93.750000
7839,-93.750000
7840,-93.750000
7841,-89.843750
7842,-89.843750
7843,-89.843750
7844,-89.843750
7845,-89.843750
7846,-89.843750
7847,-89.843750
7848,-89.843750
7849,-89.843750
7850,-85.937500
7851,-85.937500
7852,-85.937500
7853,-85.937500
7854,-85.937500
7855,-85.937500
7856,-85.937500
7857,-85.937500
7858,-85.937500
7859,-82.031250
7860,-82.031250
7861,-82.031250
7862,-82.031250
7863,-82.031250
7864,-82.031250
7865,-82.031250
7866,-82.031250
7867,-82.031250
7868,-82.031250
7869,-78.125000
7870,-78.125000
7871,-78.125000
7872,-78.125000
7873,-78.125000
7874,-78.125000
7875,-78.125000
7876,-78.125000
7877,-74.218750
7878,-74.218750
7879,-74.218750
7880,-74.218750
7881,-74.218750
7882,-74.218750
7883,-74.218750
7884,-74.218750
7885,-70.312500
7886,-70.312500
7887,-70.312500
7888,-70.312500
7889,-70.312500
7890,-70.312500
7891,-70.312500
7892,-66.406250
7893,-66.406250
7894,-66.406250
7895,-66.406250
7896,-66.406250
7897,-66.406250
7898,-66.406250
7899,-66.406250
7900,-62.500000
7901,-62.500000
7902,-62.500000
7903,-62.500000
7904,-62.500000
7905,-62.500000
7906,-62.500000
7907,-58.593750
7908,-58.593750
7909,-58.593750
7910,-58.593750
7911,-58.593750
7912,-58.593750
7913,-54.687500
7914,-54.687500
7915,-54.687500
7916,-54.687500
7917,-54.687500
7918,-54.687500
7919,-54.687500
7920,-50.781250
7921,-50.781250
7922,-54.687500
7923,-50.781250
7924,-50.781250
7925,-50.781250
7926,-50.781250
7927,-50.781250
7928,-46.875000
7929,-46.875000
7930,-46.875000
7931,-46.875000
7932,-46.875000
7933,-42.968750
7934,-42.968750
7935,-42.968750
7936,-42.968750
7937,-42.968750
7938,-42.968750
7939,-42.968750
7940,-42.968750
7941,-39.062500
7942,-39.062500
7943,-39.062500
7944,-39.062500
7945,-39.062500
7946,-39.062500
7947,-35.156250
7948,-35.156250
7949,-35.156250
7950,-35.156250
7951,-35.156250
7952,-35.156250
7953,-35.156250
7954,-31.250000
7955,-31.250000
7956,-31.250000
7957,-31.250000
7958,-31.250000
7959,-31.250000
7960,-27.343750
7961,-27.343750
7962,-27.343750
7963,-27.343750
7964,-27.343750
7965,-27.343750
7966,-27.343750
7967,-27.343750
7968,-23.437500
7969,-23.437500
7970,-23.437500
7971,-23.437500
7972,-23.437500
7973,-23.437500
7974,-19.531250
7975,-19.531250
7976,-19.531250
7977,-19.531250
7978,-19.531250
7979,-19.531250
7980,-15.625000
7981,-15.625000
7982,-15.625000
7983,-15.625000
7984,-15.625000
7985,-15.625000
7986,-15.625000
7987,-11.718750
7988,-11.718750
7989,-11.718750
7990,-11.718750
7991,-11.718750
7992,-11.718750
7993,-7.812500
7994,-7.812500
7995,-7.812500
7996,-7.812500
7997,-7.812500
7998,-7.812500
7999,-7.812500
8000,-3.906250
8001,-3.906250
8002,-3.906250
8003,-3.906250
8004,-3.906250
8005,-3.906250
8006,-3.906250
8007,0.000000
8008,0.000000
8009,0.000000
8010,0.000000
8011,0.000000
8012,0.000000
8013,0.000000
8014,3.906250
8015,3.906250
8016,3.906250
8017,3.906250
8018,3.906250
8019,3.906250
8020,7.812500
8021,7.812500
8022,7.812500
8023,7.812500
8024,7.812500
8025,7.812500
8026,7.812500
8027,7.812500
8028,11.718750
8029,11.718750
8030,11.718750
8031,11.718750
8032,15.625000
8033,15.625000
8034,15.625000
8035,15.625000
8036,15.625000
8037,15.625000
8038,15.625000
8039,15.625000
8040,19.531250
8041,19.531250
8042,19.531250
8043,19.531250
8044,19.531250
8045,19.531250
8046,19.531250
8047,19.531250
8048,19.531250
8049,23.437500
8050,23.437500
8051,23.437500
8052,23.437500
8053,23.437500
8054,23.437500
8055,27.343750
8056,27.343750
8057,27.343750
8058,27.343750
8059,27.343750
8060,27.343750
8061,27.343750
8062,31.250000
8063,31.250000
8064,31.250000
8065,31.250000
8066,31.250000
8067,31.250000
8068,31.250000
8069,31.250000
8070,35.156250
8071,35.156250
8072,35.156250
8073,35.156250
8074,35.156250
8075,35.156250
8076,35.156250
8077,35.156250
8078,39.062500
8079,39.062500
8080,39.062500
8081,39.062500
8082,39.062500
8083,39.062500
8084,39.062500
8085,39.062500
8086,39.062500
8087,42.968750
8088,42.968750
8089,42.968750
8090,42.968750
8091,42.968750
8092,42.968750
8093,42.968750
8094,42.968750
8095,42.968750
8096,42.968750
8097,46.875000
8098,46.875000
8099,46.875000
8100,46.875000
8101,46.875000
8102,46.875000
8103,46.875000
8104,46.875000
8105,46.875000
8106,50.781250
8107,50.781250
8108,50.781250
8109,50.781250
8110,50.781250
8111,50.781250
8112,50.781250
8113,50.781250
8114,50.781250
8115,50.781250
8116,54.687500
8117,54.687500
8118,54.687500
8119,54.687500
8120,54.687500
8121,54.687500
8122,54.687500
8123,54.687500
8124,54.687500
8125,54.687500
8126,54.687500
8127,58.593750
8128,58.593750
8129,58.593750
8130,58.593750
8131,58.593750
8132,58.593750
8133,58.593750
8134,58.593750
8135,58.593750
8136,62.500000
8137,58.593750
8138,62.500000
8139,62.500000
8140,62.500000
8141,62.500000
8142,62.500000
8143,62.500000
8144,62.500000
8145,62.500000
8146,62.500000
8147,62.500000
8148,66.406250
8149,66.406250
8150,66.406250
8151,66.406250
8152,66.406250
8153,66.406250
8154,66.406250
8155,66.406250
8156,66.406250
8157,66.406250
8158,66.406250
8159,66.406250
8160,66.406250
8161,66.406250
8162,66.406250
8163,66.406250
8164,70.312500
8165,70.312500
8166,70.312500
8167,70.312500
8168,70.312500
8169,70.312500
8170,70.312500
8171,70.312500
8172,70.312500
8173,70.312500
8174,70.312500
8175,70.312500
8176,70.312500
8177,70.312500
8178,74.218750
8179,70.312500
8180,74.218750
8181,70.312500
8182,74.218750
8183,70.312500
8184,70.312500
8185,74.218750
8186,74.218750
8187,74.218750
8188,74.218750
8189,74.218750
8190,74.218750
8191,74.218750
8192,74.218750
8193,74.218750
8194,74.218750
8195,74.218750
8196,74.218750
8197,74.218750
8198,74.218750
8199,74.218750
8200,74.218750
8201,78.125000
8202,74.218750
8203,74.218750
8204,74.218750
8205,78.125000
8206,78.125000
8207,74.218750
8208,78.125000
8209,78.125000
8210,78.125000
8211,78.125000
8212,74.218750
8213,78.125000
8214,78.125000
8215,78.125000
8216,78.125000
8217,78.125000
8218,78.125000
8219,78.125000
8220,78.125000
8221,78.125000
8222,78.125000
8223,78.125000
8224,78.125000
8225,78.125000
8226,78.125000
8227,78.125000
8228,78.125000
8229,78.125000
8230,78.125000
8231,78.125000
8232,78.125000
8233,78.125000
8234,78.125000
8235,78.125000
8236,78.125000
8237,78.125000
8238,78.125000
8239,78.125000
8240,78.125000
8241,78.125000
8242,78.125000
8243,78.125000
8244,78.125000
8245,78.125000
8246,78.125000
8247,78.125000
8248,78.125000
8249,78.125000
8250,78.125000
8251,78.125000
8252,78.125000
8253,78.125000
8254,78.125000
8255,78.125000
8256,78.125000
8257,78.125000
8258,78.125000
8259,78.125000
8260,78.125000
8261,78.125000
8262,78.125000
8263,78.125000
8264,74.218750
8265,78.125000
8266,78.125000
8267,78.125000
8268,78.125000
8269,78.125000
8270,74.218750
8271,74.218750
8272,78.125000
8273,74.218750
8274,74.218750
8275,74.218750
8276,74.218750
8277,74.218750
8278,74.218750
8279,74.218750
8280,74.218750
8281,74.218750
8282,74.218750
8283,74.218750
8284,74.218750
8285,74.218750
8286,74.218750
8287,74.218750
8288,74.218750
8289,74.218750
8290,74.218750
8291,74.218750
8292,74.218750
8293,74.218750
8294,74.218750
8295,70.312500
8296,74.218750
8297,74.218750
8298,70.312500
8299,74.218750
8300,70.312500
8301,70.312500
8302,70.312500
8303,70.312500
8304,70.312500
8305,70.312500
8306,70.312500
8307,70.312500
8308,70.312500
8309,70.312500
8310,70.312500
8311,70.312500
8312,70.312500
8313,70.312500
8314,70.312500
8315,66.406250
8316,70.312500
8317,66.406250
8318,66.406250
8319,66.406250
8320,66.406250
8321,66.406250
8322,66.406250
8323,66.406250
8324,66.406250
8325,66.406250
8326,66.406250
8327,66.406250
8328,66.406250
8329,66.406250
8330,62.500000
8331,62.500000
8332,62.500000
8333,62.500000
8334,62.500000
8335,62.500000
8336,62.500000
8337,62.500000
8338,62.500000
8339,62.500000
8340,62.500000
8341,62.500000
8342,62.500000
8343,58.593750
8344,58.593750
8345,58.593750
8346,58.593750
8347,58.593750
8348,58.593750
8349,58.593750
8350,58.593750
8351,58.593750
8352,58.593750
8353,54.687500
8354,54.687500
8355,54.687500
8356,54.687500
8357,54.687500
8358,54.687500
8359,54.687500
8360,54.687500
8361,54.687500
8362,54.687500
8363,54.687500
8364,50.781250
8365,50.781250
8366,50.781250
8367,50.781250
8368,50.781250
8369,50.781250
8370,50.781250
8371,50.781250
8372,50.781250
8373,46.875000
8374,46.875000
8375,46.875000
8376,46.875000
8377,46.875000
8378,46.875000
8379,46.875000
8380,46.875000
8381,46.875000
8382,42.968750
8383,42.968750
8384,42.968750
8385,42.968750
8386,42.968750
8387,42.968750
8388,42.968750
8389,42.968750
8390,42.968750
8391,42.968750
8392,39.062500
8393,39.062500
8394,39.062500
8395,39.062500
8396,39.062500
8397,39.062500
8398,39.062500
8399,39.062500
8400,39.062500
8401,35.156250
8402,35.156250
8403,35.156250
8404,35.156250
8405,35.156250
8406,35.156250
8407,35.156250
8408,31.250000
8409,31.250000
8410,31.250000
8411,31.250000
8412,31.250000
8413,31.250000
8414,31.250000
8415,31.250000
8416,27.343750
8417,27.343750
8418,27.343750
8419,27.343750
8420,27.343750
8421,27.343750
8422,27.343750
8423,27.343750
8424,23.437500
8425,23.437500
8426,23.437500
8427,23.437500
8428,23.437500
8429,23.437500
8430,23.437500
8431,19.531250
8432,23.437500
8433,19.531250
8434,19.531250
8435,19.531250
8436,19.531250
8437,19.531250
8438,19.531250
8439,15.625000
8440,15.625000
8441,15.625000
8442,15.625000
8443,15.625000
8444,15.625000
8445,15.625000
8446,15.625000
8447,11.718750
8448,11.718750
8449,11.718750
8450,11.718750
8451,11.718750
8452,11.718750
8453,7.812500
8454,7.812500
8455,7.812500
8456,7.812500
8457,7.812500
8458,7.812500
8459,7.812500
8460,3.906250
8461,3.906250
8462,3.906250
8463,3.906250
8464,3.906250
8465,3.906250
8466,0.000000
8467,0.000000
8468,0.000000
8469,0.000000
8470,0.000000
8471,0.000000
8472,0.000000
8473,-3.906250
8474,-3.906250
8475,-3.906250
8476,-3.906250
8477,-3.906250
8478,-3.906250
8479,-3.906250
8480,-3.906250
8481,-7.812500
8482,-7.812500
8483,-7.812500
8484,-7.812500
8485,-7.812500
8486,-11.718750
8487,-11.718750
8488,-11.718750
8489,-11.718750
8490,-11.718750
8491,-11.718750
8492,-11.718750
8493,-15.625000
8494,-15.625000
8495,-15.625000
8496,-15.625000
8497,-15.625000
8498,-15.625000
8499,-15.625000
8500,-19.531250
8501,-19.531250
8502,-19.531250
8503,-19.531250
8504,-19.531250
8505,-19.531250
8506,-23.437500
8507,-23.437500
8508,-23.437500
8509,-23.437500
8510,-23.437500
8511,-23.437500
8512,-23.437500
8513,-27.343750
8514,-27.343750
8515,-27.343750
8516,-27.343750
8517,-31.250000
8518,-31.250000
8519,-27.343750
8520,-31.250000
8521,-31.250000
8522,-31.250000
8523,-31.250000
8524,-31.250000
8525,-35.156250
8526,-35.156250
8527,-35.156250
8528,-35.156250
8529,-35.156250
8530,-35.156250
8531,-35.156250
8532,-39.062500
8533,-39.062500
8534,-39.062500
8535,-39.062500
8536,-39.062500
8537,-39.062500
8538,-39.062500
8539,-42.968750
8540,-42.968750
8541,-42.968750
8542,-42.968750
8543,-42.968750
8544,-42.968750
8545,-46.875000
8546,-46.875000
8547,-46.875000
8548,-46.875000
8549,-46.875000
8550,-46.875000
8551,-46.875000
8552,-50.781250
8553,-50.781250
8554,-50.781250
8555,-50.781250
8556,-50.781250
8557,-50.781250
8558,-50.781250
8559,-50.781250
8560,-50.781250
8561,-54.687500
8562,-54.687500
8563,-54.687500
8564,-54.687500
8565,-54.687500
8566,-58.593750
8567,-58.593750
8568,-58.593750
8569,-58.593750
8570,-58.593750
8571,-58.593750
8572,-58.593750
8573,-62.500000
8574,-62.500000
8575,-62.500000
8576,-62.500000
8577,-62.500000
8578,-62.500000
8579,-62.500000
8580,-62.500000
8581,-66.406250
8582,-66.406250
8583,-66.406250
8584,-66.406250
8585,-66.406250
8586,-66.406250
8587,-66.406250
8588,-66.406250
8589,-70.312500
8590,-70.312500
8591,-70.312500
8592,-70.312500
8593,-70.312500
8594,-70.312500
8595,-70.312500
8596,-70.312500
8597,-74.218750
8598,-74.218750
8599,-74.218750
8600,-74.218750
8601,-74.218750
8602,-74.218750
8603,-74.218750
8604,-74.218750
8605,-78.125000
8606,-78.125000
8607,-78.125000
8608,-78.125000
8609,-78.125000
8610,-78.125000
8611,-78.125000
8612,-78.125000
8613,-78.125000
8614,-82.031250
8615,-82.031250
8616,-82.031250
8617,-82.031250
8618,-82.031250
8619,-82.031250
8620,-82.031250
8621,-82.031250
8622,-82.031250
8623,-85.937500
8624,-85.937500
8625,-85.937500
8626,-85.937500
8627,-85.937500
8628,-85.937500
8629,-85.937500
8630,-85.937500
8631,-85.937500
8632,-89.843750
8633,-89.843750
8634,-89.843750
8635,-89.843750
8636,-89.843750
8637,-89.843750
8638,-89.843750
8639,-89.843750
8640,-89.843750
8641,-89.843750
8642,-93.750000
8643,-93.750000
8644,-93.750000
8645,-93.750000
8646,-93.750000
8647,-93.750000
8648,-93.750000
8649,-93.750000
8650,-93.750000
8651,-93.750000
8652,-93.750000
8653,-93.750000
8654,-97.656250
8655,-97.656250
8656,-97.656250
8657,-97.656250
8658,-97.656250
8659,-97.656250
8660,-97.656250
8661,-97.656250
8662,-97.656250
8663,-97.656250
8664,-97.656250
8665,-101.562500
8666,-101.562500
8667,-97.656250
8668,-101.562500
8669,-101.562500
8670,-101.562500
8671,-101.562500
8672,-101.562500
8673,-101.562500
8674,-101.562500
8675,-101.562500
8676,-101.562500
8677,-101.562500
8678,-101.562500
8679,-101.562500
8680,-101.562500
8681,-101.562500
8682,-101.562500
8683,-105.468750
8684,-101.562500
8685,-105.468750
8686,-105.468750
8687,-105.468750
8688,-105.468750
8689,-105.468750
8690,-105.468750
8691,-105.468750
8692,-105.468750
8693,-105.468750
8694,-105.468750
8695,-105.468750
8696,-105.468750
8697,-105.468750
8698,-105.468750
8699,-105.468750
8700,-105.468750
8701,-105.468750
8702,-105.468750
8703,-105.468750
8704,-105.468750
8705,-105.468750
8706,-105.468750
8707,-105.468750
8708,-105.468750
8709,-105.468750
8710,-105.468750
8711,-105.468750
8712,-105.468750
8713,-109.375000
8714,-105.468750
8715,-105.468750
8716,-109.375000
8717,-109.375000
8718,-109.375000
8719,-109.375000
8720,-109.375000
8721,-109.375000
8722,-109.375000
8723,-109.375000
8724,-109.375000
8725,-109.375000
8726,-109.375000
8727,-109.375000
8728,-109.375000
8729,-109.375000
8730,-109.375000
8731,-109.375000
8732,-109.375000
8733,-109.375000
8734,-109.375000
8735,-109.375000
8736,-109.375000
8737,-109.375000
8738,-109.375000
8739,-109.375000
8740,-105.468750
8741,-109.375000
8742,-109.375000
8743,-109.375000
8744,-109.375000
8745,-109.375000
8746,-109.375000
8747,-109.375000
8748,-109.375000
8749,-109.375000
8750,-109.375000
8751,-109.375000
8752,-109.375000
8753,-109.375000
8754,-109.375000
8755,-109.375000
8756,-109.375000
8757,-109.375000
8758,-105.468750
8759,-109.375000
8760,-105.468750
8761,-105.468750
8762,-105.468750
8763,-105.468750
8764,-105.468750
8765,-105.468750
8766,-105.468750
8767,-105.468750
8768,-105.468750
8769,-105.468750
8770,-105.468750
8771,-105.468750
8772,-105.468750
8773,-105.468750
8774,-105.468750
8775,-105.468750
8776,-105.468750
8777,-105.468750
8778,-105.468750
8779,-105.468750
8780,-105.468750
8781,-105.468750
8782,-105.468750
8783,-105.468750
8784,-105.468750
8785,-101.562500
8786,-101.562500
8787,-105.468750
8788,-101.562500
8789,-101.562500
8790,-101.562500
8791,-101.562500
8792,-101.562500
8793,-101.562500
8794,-101.562500
8795,-101.562500
8796,-101.562500
8797,-101.562500
8798,-101.562500
8799,-101.562500
8800,-101.562500
8801,-97.656250
8802,-97.656250
8803,-97.656250
8804,-97.656250
8805,-97.656250
8806,-97.656250
8807,-97.656250
8808,-97.656250
8809,-97.656250
8810,-97.656250
8811,-97.656250
8812,-97.656250
8813,-93.750000
8814,-93.750000
8815,-93.750000
8816,-97.656250
8817,-93.750000
8818,-93.750000
8819,-93.750000
8820,-93.750000
8821,-93.750000
8822,-93.750000
8823,-93.750000
8824,-89.843750
8825,-93.750000
8826,-89.843750
8827,-93.750000
8828,-89.843750
8829,-89.843750
8830,-89.843750
8831,-89.843750
8832,-89.843750
8833,-89.843750
8834,-89.843750
8835,-89.843750
8836,-85.937500
8837,-89.843750
8838,-89.843750
8839,-85.937500
8840,-85.937500
8841,-85.937500
8842,-85.937500
8843,-85.937500
8844,-82.031250
8845,-85.937500
8846,-85.937500
8847,-82.031250
8848,-82.031250
8849,-82.031250
8850,-82.031250
8851,-82.031250
8852,-82.031250
8853,-82.031250
8854,-82.031250
8855,-78.125000
8856,-78.125000
8857,-78.125000
8858,-78.125000
8859,-78.125000
8860,-78.125000
8861,-78.125000
8862,-78.125000
8863,-78.125000
8864,-74.218750
8865,-74.218750
8866,-74.218750
8867,-74.218750
8868,-74.218750
8869,-74.218750
8870,-74.218750
8871,-74.218750
8872,-70.312500
8873,-70.312500
8874,-70.312500
8875,-70.312500
8876,-70.312500
8877,-70.312500
8878,-70.312500
8879,-70.312500
8880,-70.312500
8881,-66.406250
8882,-66.406250
8883,-66.406250
8884,-66.406250
8885,-66.406250
8886,-66.406250
8887,-66.406250
8888,-62.500000
8889,-62.500000
8890,-62.500000
8891,-62.500000
8892,-62.500000
8893,-62.500000
8894,-62.500000
8895,-62.500000
8896,-58.593750
8897,-58.593750
8898,-58.593750
8899,-58.593750
8900,-58.593750
8901,-58.593750
8902,-58.593750
8903,-54.687500
8904,-54.687500
8905,-54.687500
8906,-54.687500
8907,-54.687500
8908,-54.687500
8909,-54.687500
8910,-54.687500
8911,-50.781250
8912,-50.781250
8913,-50.781250
8914,-50.781250
8915,-50.781250
8916,-50.781250
8917,-50.781250
8918,-46.875000
8919,-46.875000
8920,-46.875000
8921,-46.875000
8922,-46.875000
8923,-46.875000
8924,-42.968750
8925,-42.968750
8926,-42.968750
8927,-42.968750
8928,-42.968750
8929,-42.968750
8930,-39.062500
8931,-39.062500
8932,-39.062500
8933,-39.062500
8934,-39.062500
8935,-39.062500
8936,-35.156250
8937,-35.156250
8938,-35.156250
8939,-35.156250
8940,-35.156250
8941,-35.156250
8942,-35.156250
8943,-31.250000
8944,-31.250000
8945,-31.250000
8946,-31.250000
8947,-31.250000
8948,-31.250000
8949,-31.250000
8950,-27.343750
8951,-27.343750
8952,-27.343750
8953,-27.343750
8954,-27.343750
8955,-27.343750
8956,-23.437500
8957,-23.437500
8958,-23.437500
8959,-23.437500
8960,-23.437500
8961,-23.437500
8962,-23.437500
8963,-19.531250
8964,-19.531250
8965,-19.531250
8966,-19.531250
8967,-19.531250
8968,-19.531250
8969,-15.625000
8970,-15.625000
8971,-15.625000
8972,-15.625000
8973,-15.625000
8974,-11.718750
8975,-11.718750
8976,-11.718750
8977,-11.718750
8978,-11.718750
8979,-11.718750
8980,-11.718750
8981,-7.812500
8982,-7.812500
8983,-7.812500
8984,-7.812500
8985,-7.812500
8986,-7.812500
8987,-7.812500
8988,-3.906250
8989,-3.906250
8990,-3.906250
8991,-3.906250
8992,-3.906250
8993,-3.906250
8994,0.000000
8995,-3.906250
8996,0.000000
8997,0.000000
8998,0.000000
8999,0.000000
9000,0.000000
9001,0.000000
9002,3.906250
9003,3.906250
9004,3.906250
9005,3.906250
9006,3.906250
9007,3.906250
9008,7.812500
9009,7.812500
9010,7.812500
9011,7.812500
9012,7.812500
9013,7.812500
9014,7.812500
9015,11.718750
9016,11.718750
9017,11.718750
9018,11.718750
9019,11.718750
9020,11.718750
9021,11.718750
9022,11.718750
9023,15.625000
9024,15.625000
9025,15.625000
9026,15.625000
9027,15.625000
9028,15.625000
9029,15.625000
9030,15.625000
9031,19.531250
9032,19.531250
9033,19.531250
9034,19.531250
9035,19.531250
9036,19.531250
9037,19.531250
9038,19.531250
9039,23.437500
9040,19.531250
9041,27.343750
9042,23.437500
9043,23.437500
9044,23.437500
9045,27.343750
9046,27.343750
9047,27.343750
9048,27.343750
9049,27.343750
9050,27.343750
9051,27.343750
9052,27.343750
9053,31.250000
9054,31.250000
9055,31.250000
9056,31.250000
9057,31.250000
9058,31.250000
9059,31.250000
9060,31.250000
9061,35.156250
9062,35.156250
9063,35.156250
9064,35.156250
9065,35.156250
9066,35.156250
9067,39.062500
9068,39.062500
9069,39.062500
9070,39.062500
9071,39.062500
9072,39.062500
9073,39.062500
9074,39.062500
9075,39.062500
9076,42.968750
9077,42.968750
9078,42.968750
9079,42.968750
9080,42.968750
9081,42.968750
9082,42.968750
9083,42.968750
9084,46.875000
9085,46.875000
9086,46.875000
9087,46.875000
9088,46.875000
9089,46.875000
9090,46.875000
9091,46.875000
9092,46.875000
9093,50.781250
9094,50.781250
9095,50.781250
9096,50.781250
9097,50.781250
9098,50.781250
9099,50.781250
9100,50.781250
9101,50.781250
9102,54.687500
9103,54.687500
9104,54.687500
9105,54.687500
9106,54.687500
9107,54.687500
9108,54.687500
9109,54.687500
9110,54.687500
9111,54.687500
9112,54.687500
9113,54.687500
9114,58.593750
9115,58.593750
9116,58.593750
9117,58.593750
9118,58.593750
9119,58.593750
9120,58.593750
9121,58.593750
9122,58.593750
9123,58.593750
9124,62.500000
9125,62.500000
9126,62.500000
9127,62.500000
9128,62.500000
9129,62.500000
9130,62.500000
9131,62.500000
9132,62.500000
9133,62.500000
9134,62.500000
9135,62.500000
9136,62.500000
9137,62.500000
9138,62.500000
9139,66.406250
9140,66.406250
9141,62.500000
9142,66.406250
9143,66.406250
9144,66.406250
9145,66.406250
9146,70.312500
9147,66.406250
9148,66.406250
9149,66.406250
9150,66.406250
9151,66.406250
9152,70.312500
9153,66.406250
9154,66.406250
9155,66.406250
9156,70.312500
9157,66.406250
9158,74.218750
9159,70.312500
9160,70.312500
9161,70.312500
9162,70.312500
9163,70.312500
9164,70.312500
9165,70.312500
9166,70.312500
9167,70.312500
9168,70.312500
9169,70.312500
9170,70.312500
9171,70.312500
9172,74.218750
9173,74.218750
9174,74.218750
9175,74.218750
9176,74.218750
9177,74.218750
9178,74.218750
9179,74.218750
9180,74.218750
9181,74.218750
9182,74.218750
9183,74.218750
9184,74.218750
9185,74.218750
9186,74.218750
9187,74.218750
9188,74.218750
9189,74.218750
9190,74.218750
9191,74.218750
9192,74.218750
9193,74.218750
9194,74.218750
9195,74.218750
9196,74.218750
9197,74.218750
9198,78.125000
9199,74.218750
9200,74.218750
9201,78.125000
9202,78.125000
9203,78.125000
9204,78.125000
9205,78.125000
9206,78.125000
9207,78.125000
9208,78.125000
9209,78.125000
9210,78.125000
9211,78.125000
9212,78.125000
9213,78.125000
9214,78.125000
9215,78.125000
9216,78.125000
9217,78.125000
9218,78.125000
9219,78.125000
9220,78.125000
9221,78.125000
9222,78.125000
9223,78.125000
9224,78.125000
9225,78.125000
9226,78.125000
9227,78.125000
9228,78.125000
9229,78.125000
9230,78.125000
9231,78.125000
9232,78.125000
9233,78.125000
9234,78.125000
9235,78.125000
9236,78.125000
9237,78.125000
9238,78.125000
9239,78.125000
9240,78.125000
9241,78.125000
9242,78.125000
9243,78.125000
9244,78.125000
9245,78.125000
9246,78.125000
9247,78.125000
9248,78.125000
9249,78.125000
9250,78.125000
9251,78.125000
9252,78.125000
9253,78.125000
9254,78.125000
9255,78.125000
9256,78.125000
9257,78.125000
9258,78.125000
9259,74.218750
9260,74.218750
9261,74.218750
9262,74.218750
9263,74.218750
9264,74.218750
9265,74.218750
9266,74.218750
9267,74.218750
9268,74.218750
9269,74.218750
9270,74.218750
9271,74.218750
9272,74.218750
9273,74.218750
9274,74.218750
9275,74.218750
9276,74.218750
9277,74.218750
9278,74.218750
9279,74.218750
9280,74.218750
9281,74.218750
9282,74.218750
9283,70.312500
9284,74.218750
9285,70.312500
9286,70.312500
9287,70.312500
9288,70.312500
9289,70.312500
9290,70.312500
9291,70.312500
9292,70.312500
9293,70.312500
9294,70.312500
9295,70.312500
9296,70.312500
9297,70.312500
9298,70.312500
9299,70.312500
9300,70.312500
9301,70.312500
9302,66.406250
9303,66.406250
9304,66.406250
9305,66.406250
9306,66.406250
9307,66.406250
9308,66.406250
9309,66.406250
9310,66.406250
9311,66.406250
9312,66.406250
9313,66.406250
9314,66.406250
9315,66.406250
9316,66.406250
9317,62.500000
9318,62.500000
9319,66.406250
9320,62.500000
9321,62.500000
9322,62.500000
9323,62.500000
9324,62.500000
9325,62.500000
9326,62.500000
9327,62.500000
9328,62.500000
9329,62.500000
9330,62.500000
9331,58.593750
9332,62.500000
9333,58.593750
9334,58.593750
9335,58.593750
9336,58.593750
9337,58.593750
9338,58.593750
9339,58.593750
9340,58.593750
9341,58.593750
9342,58.593750
9343,54.687500
9344,54.687500
9345,54.687500
9346,54.687500
9347,54.687500
9348,54.687500
9349,54.687500
9350,54.687500
9351,54.687500
9352,54.687500
9353,54.687500
9354,50.781250
9355,50.781250
9356,50.781250
9357,50.781250
9358,50.781250
9359,50.781250
9360,50.781250
9361,50.781250
9362,46.875000
9363,46.875000
9364,50.781250
9365,46.875000
9366,46.875000
9367,46.875000
9368,46.875000
9369,46.875000
9370,46.875000
9371,42.968750
9372,46.875000
9373,42.968750
9374,42.968750
9375,42.968750
9376,42.968750
9377,42.968750
9378,42.968750
9379,42.968750
9380,42.968750
9381,39.062500
9382,39.062500
9383,39.062500
9384,39.062500
9385,39.062500
9386,39.062500
9387,39.062500
9388,39.062500
9389,39.062500
9390,35.156250
9391,35.156250
9392,35.156250
9393,35.156250
9394,35.156250
9395,35.156250
9396,35.156250
9397,35.156250
9398,31.250000
9399,31.250000
9400,31.250000
9401,31.250000
9402,31.250000
9403,31.250000
9404,31.250000
9405,31.250000
9406,31.250000
9407,27.343750
9408,27.343750
9409,27.343750
9410,27.343750
9411,27.343750
9412,27.343750
9413,27.343750
9414,23.437500
9415,23.437500
9416,23.437500
9417,23.437500
9418,23.437500
9419,23.437500
9420,19.531250
9421,19.531250
9422,19.531250
9423,19.531250
9424,19.531250
9425,19.531250
9426,19.531250
9427,19.531250
9428,15.625000
9429,15.625000
9430,15.625000
9431,15.625000
9432,11.718750
9433,11.718750
9434,15.625000
9435,11.718750
9436,11.718750
9437,11.718750
9438,7.812500
9439,11.718750
9440,11.718750
9441,11.718750
9442,7.812500
9443,7.812500
9444,7.812500
9445,7.812500
9446,7.812500
9447,3.906250
9448,7.812500
9449,3.906250
9450,3.906250
9451,3.906250
9452,3.906250
9453,3.906250
9454,3.906250
9455,3.906250
9456,0.000000
9457,0.000000
9458,0.000000
9459,0.000000
9460,0.000000
9461,0.000000
9462,-3.906250
9463,-3.906250
9464,-3.906250
9465,-3.906250
9466,-3.906250
9467,-3.906250
9468,-3.906250
9469,-7.812500
9470,-7.812500
9471,-7.812500
9472,-7.812500
9473,-7.812500
9474,-7.812500
9475,-7.812500
9476,-11.718750
9477,-11.718750
9478,-11.718750
9479,-11.718750
9480,-11.718750
9481,-11.718750
9482,-11.718750
9483,-15.625000
9484,-15.625000
9485,-15.625000
9486,-15.625000
9487,-15.625000
9488,-19.531250
9489,-19.531250
9490,-19.531250
9491,-19.531250
9492,-19.531250
9493,-19.531250
9494,-19.531250
9495,-19.531250
9496,-23.437500
9497,-23.437500
9498,-23.437500
9499,-23.437500
9500,-23.437500
9501,-23.437500
9502,-23.437500
9503,-27.343750
9504,-27.343750
9505,-27.343750
9506,-27.343750
9507,-27.343750
9508,-31.250000
9509,-31.250000
9510,-31.250000
9511,-31.250000
9512,-31.250000
9513,-31.250000
9514,-35.156250
9515,-35.156250
9516,-35.156250
9517,-35.156250
9518,-35.156250
9519,-35.156250
9520,-35.156250
9521,-39.062500
9522,-39.062500
9523,-39.062500
9524,-39.062500
9525,-39.062500
9526,-39.062500
9527,-39.062500
9528,-42.968750
9529,-42.968750
9530,-42.968750
9531,-42.968750
9532,-42.968750
9533,-42.968750
9534,-42.968750
9535,-46.875000
9536,-46.875000
9537,-46.875000
9538,-46.875000
9539,-46.875000
9540,-46.875000
9541,-50.781250
9542,-50.781250
9543,-50.781250
9544,-50.781250
9545,-50.781250
9546,-50.781250
9547,-50.781250
9548,-50.781250
9549,-54.687500
9550,-54.687500
9551,-54.687500
9552,-54.687500
9553,-54.687500
9554,-58.593750
9555,-58.593750
9556,-58.593750
9557,-58.593750
9558,-58.593750
9559,-58.593750
9560,-58.593750
9561,-62.500000
9562,-58.593750
9563,-62.500000
9564,-62.500000
9565,-62.500000
9566,-62.500000
9567,-62.500000
9568,-62.500000
9569,-66.406250
9570,-62.500000
9571,-66.406250
9572,-66.406250
9573,-66.406250
9574,-66.406250
9575,-66.406250
9576,-66.406250
9577,-66.406250
9578,-70.312500
9579,-70.312500
9580,-70.312500
9581,-70.312500
9582,-70.312500
9583,-70.312500
9584,-70.312500
9585,-70.312500
9586,-74.218750
9587,-74.218750
9588,-74.218750
9589,-74.218750
9590,-74.218750
9591,-74.218750
9592,-74.218750
9593,-78.125000
9594,-74.218750
9595,-78.125000
9596,-78.125000
9597,-78.125000
9598,-78.125000
9599,-78.125000
9600,-78.125000
9601,-78.125000
9602,-78.125000
9603,-82.031250
9604,-82.031250
9605,-82.031250
9606,-82.031250
9607,-82.031250
9608,-82.031250
9609,-82.031250
9610,-82.031250
9611,-82.031250
9612,-85.937500
9613,-85.937500
9614,-85.937500
9615,-85.937500
9616,-85.937500
9617,-85.937500
9618,-85.937500
9619,-85.937500
9620,-85.937500
9621,-85.937500
9622,-89.843750
9623,-89.843750
9624,-89.843750
9625,-89.843750
9626,-89.843750
9627,-89.843750
9628,-89.843750
9629,-89.843750
9630,-89.843750
9631,-89.843750
9632,-89.843750
9633,-93.750000
9634,-93.750000
9635,-93.750000
9636,-93.750000
9637,-93.750000
9638,-93.750000
9639,-93.750000
9640,-93.750000
9641,-93.750000
9642,-93.750000
9643,-93.750000
9644,-97.656250
9645,-97.656250
9646,-97.656250
9647,-97.656250
9648,-97.656250
9649,-97.656250
9650,-97.656250
9651,-97.656250
9652,-97.656250
9653,-97.656250
9654,-97.656250
9655,-97.656250
9656,-97.656250
9657,-101.562500
9658,-101.562500
9659,-101.562500
9660,-101.562500
9661,-101.562500
9662,-101.562500
9663,-101.562500
9664,-101.562500
9665,-101.562500
9666,-101.562500
9667,-101.562500
9668,-101.562500
9669,-101.562500
9670,-101.562500
9671,-101.562500
9672,-101.562500
9673,-101.562500
9674,-101.562500
9675,-101.562500
9676,-105.468750
9677,-105.468750
9678,-105.468750
9679,-105.468750
9680,-105.468750
9681,-105.468750
9682,-105.468750
9683,-105.468750
9684,-105.468750
9685,-105.468750
9686,-105.468750
9687,-105.468750
9688,-105.468750
9689,-105.468750
9690,-105.468750
9691,-105.468750
9692,-105.468750
9693,-105.468750
9694,-105.468750
9695,-105.468750
9696,-105.468750
9697,-105.468750
9698,-109.375000
9699,-105.468750
9700,-105.468750
9701,-109.375000
9702,-109.375000
9703,-109.375000
9704,-109.375000
9705,-109.375000
9706,-109.375000
9707,-109.375000
9708,-109.375000
9709,-109.375000
9710,-109.375000
9711,-109.375000
9712,-109.375000
9713,-109.375000
9714,-109.375000
9715,-109.375000
9716,-109.375000
9717,-109.375000
9718,-109.375000
9719,-109.375000
9720,-109.375000
9721,-109.375000
9722,-109.375000
9723,-109.375000
9724,-109.375000
9725,-109.375000
9726,-109.375000
9727,-109.375000
9728,-109.375000
9729,-109.375000
9730,-109.375000
9731,-109.375000
9732,-109.375000
9733,-109.375000
9734,-109.375000
9735,-109.375000
9736,-109.375000
9737,-109.375000
9738,-109.375000
9739,-109.375000
9740,-105.468750
9741,-109.375000
9742,-109.375000
9743,-109.375000
9744,-109.375000
9745,-109.375000
9746,-105.468750
9747,-105.468750
9748,-105.468750
9749,-105.468750
9750,-105.468750
9751,-105.468750
9752,-105.468750
9753,-105.468750
9754,-105.468750
9755,-105.468750
9756,-105.468750
9757,-105.468750
9758,-105.468750
9759,-105.468750
9760,-105.468750
9761,-105.468750
9762,-105.468750
9763,-105.468750
9764,-105.468750
9765,-105.468750
9766,-105.468750
9767,-105.468750
9768,-105.468750
9769,-105.468750
9770,-101.562500
9771,-105.468750
9772,-105.468750
9773,-101.562500
9774,-101.562500
9775,-101.562500
9776,-101.562500
9777,-101.562500
9778,-101.562500
9779,-101.562500
9780,-101.562500
9781,-101.562500
9782,-101.562500
9783,-101.562500
9784,-101.562500
9785,-101.562500
9786,-101.562500
9787,-101.562500
9788,-97.656250
9789,-97.656250
9790,-101.562500
9791,-97.656250
9792,-97.656250
9793,-97.656250
9794,-97.656250
9795,-97.656250
9796,-97.656250
9797,-97.656250
9798,-97.656250
9799,-97.656250
9800,-97.656250
9801,-97.656250
9802,-97.656250
9803,-97.656250
9804,-97.656250
9805,-93.750000
9806,-93.750000
9807,-93.750000
9808,-93.750000
9809,-93.750000
9810,-93.750000
9811,-93.750000
9812,-93.750000
9813,-93.750000
9814,-93.750000
9815,-89.843750
9816,-89.843750
9817,-89.843750
9818,-89.843750
9819,-89.843750
9820,-89.843750
9821,-89.843750
9822,-89.843750
9823,-89.843750
9824,-89.843750
9825,-89.843750
9826,-85.937500
9827,-85.937500
9828,-85.937500
9829,-85.937500
9830,-85.937500
9831,-85.937500
9832,-85.937500
9833,-85.937500
9834,-85.937500
9835,-85.937500
9836,-82.031250
9837,-82.031250
9838,-82.031250
9839,-82.031250
9840,-82.031250
9841,-82.031250
9842,-82.031250
9843,-82.031250
9844,-78.125000
9845,-78.125000
9846,-78.125000
9847,-78.125000
9848,-78.125000
9849,-78.125000
9850,-78.125000
9851,-78.125000
9852,-74.218750
9853,-74.218750
9854,-74.218750
9855,-74.218750
9856,-74.218750
9857,-74.218750
9858,-74.218750
9859,-74.218750
9860,-74.218750
9861,-74.218750
9862,-70.312500
9863,-70.312500
9864,-70.312500
9865,-70.312500
9866,-70.312500
9867,-70.312500
9868,-70.312500
9869,-66.406250
9870,-66.406250
9871,-66.406250
9872,-66.406250
9873,-66.406250
9874,-66.406250
9875,-66.406250
9876,-66.406250
9877,-62.500000
9878,-62.500000
9879,-62.500000
9880,-62.500000
9881,-62.500000
9882,-62.500000
9883,-62.500000
9884,-62.500000
9885,-58.593750
9886,-58.593750
9887,-58.593750
9888,-58.593750
9889,-58.593750
9890,-58.593750
9891,-58.593750
9892,-54.687500
9893,-54.687500
9894,-54.687500
9895,-54.687500
9896,-54.687500
9897,-54.687500
9898,-50.781250
9899,-50.781250
9900,-50.781250
9901,-50.781250
9902,-50.781250
9903,-50.781250
9904,-50.781250
9905,-50.781250
9906,-46.875000
9907,-46.875000
9908,-46.875000
9909,-46.875000
9910,-46.875000
9911,-46.875000
9912,-46.875000
9913,-46.875000
9914,-42.968750
9915,-42.968750
9916,-42.968750
9917,-42.968750
9918,-42.968750
9919,-39.062500
9920,-39.062500
9921,-39.062500
9922,-39.062500
9923,-39.062500
9924,-39.062500
9925,-39.062500
9926,-35.156250
9927,-35.156250
9928,-35.156250
9929,-35.156250
9930,-35.156250
9931,-35.156250
9932,-35.156250
9933,-31.250000
9934,-31.250000
9935,-31.250000
9936,-31.250000
9937,-31.250000
9938,-31.250000
9939,-27.343750
9940,-27.343750
9941,-27.343750
9942,-27.343750
9943,-27.343750
9944,-27.343750
9945,-27.343750
9946,-23.437500
9947,-23.437500
9948,-23.437500
9949,-23.437500
9950,-23.437500
9951,-23.437500
9952,-19.531250
9953,-19.531250
9954,-19.531250
9955,-19.531250
9956,-19.531250
9957,-19.531250
9958,-19.531250
9959,-15.625000
9960,-15.625000
9961,-15.625000
9962,-15.625000
9963,-15.625000
9964,-15.625000
9965,-11.718750
9966,-11.718750
9967,-11.718750
9968,-11.718750
9969,-11.718750
9970,-11.718750
9971,-11.718750
9972,-7.812500
9973,-7.812500
9974,-7.812500
9975,-7.812500
9976,-7.812500
9977,-7.812500
9978,-3.906250
9979,-3.906250
9980,-3.906250
9981,-3.906250
9982,-3.906250
9983,-3.906250
9984,0.000000
9985,0.000000
9986,0.000000
9987,0.000000
9988,0.000000
9989,0.000000
9990,0.000000
9991,0.000000
9992,3.906250
9993,3.906250
9994,3.906250
9995,3.906250
9996,3.906250
9997,3.906250
9998,7.812500
9999,7.812500
10000,7.812500
