Channel              :,CH1
Frequency            :,1.010kHz
Period               :,0.990ms
PK-PK                :,42.97mV
Probe attenuation    :,1X
Voltage per ADC value:,0.244141mV
Time interval        :,1.00000us

index,CH1_Voltage(mV)
1,-23.437500
2,-23.437500
3,-23.437500
4,-23.437500
5,-23.437500
6,-23.437500
7,-23.437500
8,-23.437500
9,-23.437500
10,-23.437500
11,-23.437500
12,-23.437500
13,-23.437500
14,-23.437500
15,-23.437500
16,-23.437500
17,-23.437500
18,-23.437500
19,-19.531250
20,-23.437500
21,-23.437500
22,-23.437500
23,-19.531250
24,-23.437500
25,-19.531250
26,-19.531250
27,-19.531250
28,-23.437500
29,-19.531250
30,-19.531250
31,-19.531250
32,-19.531250
33,-19.531250
34,-19.531250
35,-19.531250
36,-19.531250
37,-19.531250
38,-19.531250
39,-19.531250
40,-19.531250
41,-19.531250
42,-19.531250
43,-19.531250
44,-19.531250
45,-19.531250
46,-19.531250
47,-19.531250
48,-19.531250
49,-19.531250
50,-19.531250
51,-19.531250
52,-19.531250
53,-19.531250
54,-19.531250
55,-19.531250
56,-19.531250
57,-19.531250
58,-15.625000
59,-19.531250
60,-15.625000
61,-19.531250
62,-15.625000
63,-19.531250
64,-19.531250
65,-15.625000
66,-15.625000
67,-15.625000
68,-15.625000
69,-15.625000
70,-15.625000
71,-15.625000
72,-15.625000
73,-15.625000
74,-15.625000
75,-15.625000
76,-15.625000
77,-15.625000
78,-15.625000
79,-15.625000
80,-15.625000
81,-15.625000
82,-15.625000
83,-15.625000
84,-15.625000
85,-15.625000
86,-15.625000
87,-15.625000
88,-15.625000
89,-15.625000
90,-15.625000
91,-15.625000
92,-15.625000
93,-15.625000
94,-15.625000
95,-11.718750
96,-15.625000
97,-11.718750
98,-11.718750
99,-11.718750
100,-11.718750
101,-11.718750
102,-11.718750
103,-11.718750
104,-11.718750
105,-11.718750
106,-11.718750
107,-11.718750
108,-11.718750
109,-11.718750
110,-11.718750
111,-11.718750
112,-11.718750
113,-11.718750
114,-11.718750
115,-11.718750
116,-11.718750
117,-11.718750
118,-11.718750
119,-11.718750
120,-11.718750
121,-11.718750
122,-11.718750
123,-11.718750
124,-11.718750
125,-15.625000
126,-7.812500
127,-7.812500
128,-15.625000
129,-7.812500
130,-7.812500
131,-7.812500
132,-7.812500
133,-3.906250
134,-7.812500
135,-7.812500
136,-7.812500
137,-7.812500
138,-7.812500
139,-7.812500
140,-7.812500
141,-7.812500
142,-7.812500
143,-7.812500
144,-7.812500
145,-7.812500
146,-7.812500
147,-7.812500
148,-7.812500
149,-7.812500
150,-7.812500
151,-7.812500
152,-7.812500
153,-7.812500
154,-7.812500
155,-7.812500
156,-7.812500
157,-7.812500
158,-11.718750
159,-11.718750
160,-7.812500
161,-7.812500
162,-3.906250
163,-3.906250
164,-3.906250
165,-7.812500
166,-7.812500
167,-3.906250
168,-3.906250
169,-3.906250
170,-3.906250
171,-3.906250
172,-3.906250
173,-3.906250
174,-3.906250
175,-3.906250
176,-3.906250
177,-3.906250
178,-3.906250
179,-3.906250
180,-3.906250
181,-3.906250
182,-3.906250
183,-3.906250
184,-3.906250
185,-3.906250
186,-3.906250
187,-3.906250
188,-3.906250
189,-3.906250
190,-3.906250
191,0.000000
192,-3.906250
193,0.000000
194,0.000000
195,0.000000
196,0.000000
197,0.000000
198,0.000000
199,0.000000
200,3.906250
201,0.000000
202,0.000000
203,0.000000
204,0.000000
205,0.000000
206,0.000000
207,0.000000
208,0.000000
209,0.000000
210,0.000000
211,0.000000
212,0.000000
213,0.000000
214,0.000000
215,0.000000
216,0.000000
217,0.000000
218,0.000000
219,0.000000
220,0.000000
221,0.000000
222,0.000000
223,0.000000
224,0.000000
225,0.000000
226,0.000000
227,0.000000
228,0.000000
229,0.000000
230,0.000000
231,0.000000
232,3.906250
233,0.000000
234,0.000000
235,0.000000
236,0.000000
237,0.000000
238,0.000000
239,0.000000
240,0.000000
241,3.906250
242,0.000000
243,0.000000
244,0.000000
245,3.906250
246,3.906250
247,0.000000
248,3.906250
249,0.000000
250,3.906250
251,3.906250
252,3.906250
253,3.906250
254,3.906250
255,3.906250
256,3.906250
257,3.906250
258,3.906250
259,3.906250
260,3.906250
261,3.906250
262,3.906250
263,3.906250
264,3.906250
265,3.906250
266,3.906250
267,3.906250
268,3.906250
269,3.906250
270,3.906250
271,3.906250
272,3.906250
273,3.906250
274,3.906250
275,3.906250
276,3.906250
277,3.906250
278,3.906250
279,3.906250
280,3.906250
281,3.906250
282,3.906250
283,3.906250
284,3.906250
285,3.906250
286,3.906250
287,3.906250
288,3.906250
289,3.906250
290,3.906250
291,3.906250
292,3.906250
293,3.906250
294,3.906250
295,3.906250
296,3.906250
297,3.906250
298,3.906250
299,3.906250
300,3.906250
301,3.906250
302,3.906250
303,3.906250
304,3.906250
305,3.906250
306,3.906250
307,3.906250
308,3.906250
309,3.906250
310,3.906250
311,3.906250
312,3.906250
313,3.906250
314,3.906250
315,3.906250
316,3.906250
317,3.906250
318,3.906250
319,3.906250
320,3.906250
321,3.906250
322,3.906250
323,3.906250
324,3.906250
325,3.906250
326,3.906250
327,3.906250
328,7.812500
329,3.906250
330,3.906250
331,3.906250
332,3.906250
333,3.906250
334,3.906250
335,3.906250
336,3.906250
337,3.906250
338,3.906250
339,3.906250
340,3.906250
341,3.906250
342,3.906250
343,3.906250
344,3.906250
345,3.906250
346,3.906250
347,3.906250
348,3.906250
349,3.906250
350,3.906250
351,3.906250
352,3.906250
353,3.906250
354,3.906250
355,3.906250
356,3.906250
357,3.906250
358,3.906250
359,3.906250
360,3.906250
361,3.906250
362,3.906250
363,3.906250
364,3.906250
365,3.906250
366,3.906250
367,3.906250
368,3.906250
369,3.906250
370,3.906250
371,3.906250
372,3.906250
373,3.906250
374,3.906250
375,3.906250
376,3.906250
377,3.906250
378,3.906250
379,3.906250
380,3.906250
381,3.906250
382,3.906250
383,3.906250
384,3.906250
385,3.906250
386,3.906250
387,3.906250
388,3.906250
389,3.906250
390,3.906250
391,3.906250
392,3.906250
393,3.906250
394,3.906250
395,3.906250
396,3.906250
397,3.906250
398,3.906250
399,3.906250
400,3.906250
401,3.906250
402,3.906250
403,3.906250
404,3.906250
405,3.906250
406,3.906250
407,3.906250
408,3.906250
409,3.906250
410,3.906250
411,3.906250
412,0.000000
413,0.000000
414,0.000000
415,0.000000
416,0.000000
417,0.000000
418,3.906250
419,0.000000
420,0.000000
421,0.000000
422,0.000000
423,0.000000
424,0.000000
425,0.000000
426,0.000000
427,0.000000
428,0.000000
429,0.000000
430,3.906250
431,0.000000
432,0.000000
433,0.000000
434,0.000000
435,0.000000
436,0.000000
437,0.000000
438,0.000000
439,0.000000
440,0.000000
441,0.000000
442,0.000000
443,0.000000
444,0.000000
445,0.000000
446,0.000000
447,0.000000
448,0.000000
449,0.000000
450,0.000000
451,0.000000
452,0.000000
453,0.000000
454,-3.906250
455,0.000000
456,0.000000
457,0.000000
458,0.000000
459,0.000000
460,-3.906250
461,0.000000
462,-3.906250
463,-3.906250
464,-3.906250
465,-3.906250
466,-3.906250
467,-3.906250
468,0.000000
469,-3.906250
470,-3.906250
471,-3.906250
472,-3.906250
473,-3.906250
474,-3.906250
475,-3.906250
476,-3.906250
477,-3.906250
478,-3.906250
479,-3.906250
480,-3.906250
481,-3.906250
482,-3.906250
483,-3.906250
484,-3.906250
485,-3.906250
486,-3.906250
487,-3.906250
488,-3.906250
489,-3.906250
490,-3.906250
491,-3.906250
492,-3.906250
493,-3.906250
494,-7.812500
495,-7.812500
496,-3.906250
497,-7.812500
498,-7.812500
499,-7.812500
500,-7.812500
501,-7.812500
502,-7.812500
503,-7.812500
504,-7.812500
505,-7.812500
506,-7.812500
507,-7.812500
508,-7.812500
509,-7.812500
510,-7.812500
511,-7.812500
512,-7.812500
513,-7.812500
514,-7.812500
515,-7.812500
516,-7.812500
517,-7.812500
518,-7.812500
519,-7.812500
520,-7.812500
521,-7.812500
522,-7.812500
523,-7.812500
524,-7.812500
525,-7.812500
526,-7.812500
527,-7.812500
528,-7.812500
529,-7.812500
530,-11.718750
531,-11.718750
532,-11.718750
533,-11.718750
534,-7.812500
535,-11.718750
536,-11.718750
537,-11.718750
538,-11.718750
539,-11.718750
540,-11.718750
541,-11.718750
542,-11.718750
543,-11.718750
544,-11.718750
545,-11.718750
546,-11.718750
547,-11.718750
548,-11.718750
549,-11.718750
550,-11.718750
551,-11.718750
552,-11.718750
553,-11.718750
554,-11.718750
555,-11.718750
556,-11.718750
557,-11.718750
558,-11.718750
559,-11.718750
560,-11.718750
561,-11.718750
562,-11.718750
563,-11.718750
564,-11.718750
565,-11.718750
566,-11.718750
567,-11.718750
568,-11.718750
569,-11.718750
570,-11.718750
571,-15.625000
572,-15.625000
573,-11.718750
574,-15.625000
575,-15.625000
576,-15.625000
577,-15.625000
578,-15.625000
579,-15.625000
580,-15.625000
581,-15.625000
582,-15.625000
583,-15.625000
584,-15.625000
585,-15.625000
586,-15.625000
587,-15.625000
588,-15.625000
589,-15.625000
590,-15.625000
591,-15.625000
592,-15.625000
593,-15.625000
594,-15.625000
595,-15.625000
596,-15.625000
597,-15.625000
598,-15.625000
599,-15.625000
600,-15.625000
601,-15.625000
602,-15.625000
603,-19.531250
604,-19.531250
605,-19.531250
606,-19.531250
607,-15.625000
608,-15.625000
609,-19.531250
610,-19.531250
611,-19.531250
612,-19.531250
613,-19.531250
614,-19.531250
615,-19.531250
616,-19.531250
617,-19.531250
618,-19.531250
619,-19.531250
620,-19.531250
621,-19.531250
622,-19.531250
623,-19.531250
624,-19.531250
625,-19.531250
626,-19.531250
627,-19.531250
628,-19.531250
629,-19.531250
630,-19.531250
631,-19.531250
632,-19.531250
633,-19.531250
634,-19.531250
635,-19.531250
636,-23.437500
637,-19.531250
638,-23.437500
639,-19.531250
640,-19.531250
641,-19.531250
642,-23.437500
643,-23.437500
644,-23.437500
645,-23.437500
646,-23.437500
647,-23.437500
648,-23.437500
649,-23.437500
650,-23.437500
651,-23.437500
652,-23.437500
653,-23.437500
654,-23.437500
655,-23.437500
656,-23.437500
657,-23.437500
658,-23.437500
659,-23.437500
660,-23.437500
661,-23.437500
662,-23.437500
663,-23.437500
664,-23.437500
665,-23.437500
666,-23.437500
667,-23.437500
668,-23.437500
669,-23.437500
670,-23.437500
671,-23.437500
672,-23.437500
673,-23.437500
674,-23.437500
675,-23.437500
676,-23.437500
677,-23.437500
678,-23.437500
679,-23.437500
680,-23.437500
681,-23.437500
682,-23.437500
683,-23.437500
684,-23.437500
685,-23.437500
686,-27.343750
687,-27.343750
688,-23.437500
689,-23.437500
690,-23.437500
691,-27.343750
692,-23.437500
693,-23.437500
694,-27.343750
695,-23.437500
696,-27.343750
697,-27.343750
698,-27.343750
699,-27.343750
700,-27.343750
701,-27.343750
702,-27.343750
703,-27.343750
704,-27.343750
705,-27.343750
706,-27.343750
707,-27.343750
708,-27.343750
709,-27.343750
710,-27.343750
711,-27.343750
712,-27.343750
713,-27.343750
714,-27.343750
715,-27.343750
716,-27.343750
717,-27.343750
718,-27.343750
719,-27.343750
720,-27.343750
721,-27.343750
722,-27.343750
723,-27.343750
724,-27.343750
725,-27.343750
726,-27.343750
727,-27.343750
728,-27.343750
729,-27.343750
730,-27.343750
731,-27.343750
732,-27.343750
733,-27.343750
734,-27.343750
735,-27.343750
736,-27.343750
737,-27.343750
738,-27.343750
739,-27.343750
740,-27.343750
741,-27.343750
742,-27.343750
743,-27.343750
744,-27.343750
745,-27.343750
746,-27.343750
747,-27.343750
748,-27.343750
749,-27.343750
750,-27.343750
751,-27.343750
752,-27.343750
753,-31.250000
754,-27.343750
755,-31.250000
756,-27.343750
757,-31.250000
758,-27.343750
759,-31.250000
760,-31.250000
761,-31.250000
762,-31.250000
763,-31.250000
764,-27.343750
765,-31.250000
766,-31.250000
767,-31.250000
768,-31.250000
769,-31.250000
770,-27.343750
771,-31.250000
772,-31.250000
773,-31.250000
774,-31.250000
775,-31.250000
776,-31.250000
777,-31.250000
778,-31.250000
779,-31.250000
780,-31.250000
781,-31.250000
782,-31.250000
783,-31.250000
784,-31.250000
785,-31.250000
786,-31.250000
787,-31.250000
788,-31.250000
789,-31.250000
790,-31.250000
791,-31.250000
792,-31.250000
793,-31.250000
794,-31.250000
795,-31.250000
796,-31.250000
797,-31.250000
798,-31.250000
799,-31.250000
800,-31.250000
801,-31.250000
802,-31.250000
803,-31.250000
804,-31.250000
805,-31.250000
806,-31.250000
807,-31.250000
808,-31.250000
809,-31.250000
810,-31.250000
811,-31.250000
812,-31.250000
813,-31.250000
814,-31.250000
815,-31.250000
816,-31.250000
817,-31.250000
818,-31.250000
819,-31.250000
820,-31.250000
821,-31.250000
822,-31.250000
823,-31.250000
824,-31.250000
825,-31.250000
826,-31.250000
827,-31.250000
828,-31.250000
829,-31.250000
830,-31.250000
831,-31.250000
832,-31.250000
833,-31.250000
834,-31.250000
835,-31.250000
836,-31.250000
837,-31.250000
838,-31.250000
839,-31.250000
840,-31.250000
841,-31.250000
842,-31.250000
843,-31.250000
844,-31.250000
845,-31.250000
846,-31.250000
847,-31.250000
848,-31.250000
849,-31.250000
850,-31.250000
851,-31.250000
852,-31.250000
853,-31.250000
854,-31.250000
855,-31.250000
856,-31.250000
857,-31.250000
858,-31.250000
859,-31.250000
860,-31.250000
861,-31.250000
862,-31.250000
863,-31.250000
864,-31.250000
865,-31.250000
866,-31.250000
867,-31.250000
868,-31.250000
869,-31.250000
870,-31.250000
871,-31.250000
872,-31.250000
873,-31.250000
874,-31.250000
875,-31.250000
876,-31.250000
877,-31.250000
878,-31.250000
879,-31.250000
880,-31.250000
881,-31.250000
882,-31.250000
883,-31.250000
884,-31.250000
885,-31.250000
886,-31.250000
887,-31.250000
888,-31.250000
889,-31.250000
890,-31.250000
891,-31.250000
892,-31.250000
893,-31.250000
894,-31.250000
895,-31.250000
896,-31.250000
897,-31.250000
898,-31.250000
899,-31.250000
900,-31.250000
901,-31.250000
902,-31.250000
903,-31.250000
904,-31.250000
905,-31.250000
906,-31.250000
907,-31.250000
908,-31.250000
909,-31.250000
910,-27.343750
911,-31.250000
912,-27.343750
913,-31.250000
914,-31.250000
915,-31.250000
916,-31.250000
917,-31.250000
918,-27.343750
919,-31.250000
920,-27.343750
921,-27.343750
922,-27.343750
923,-27.343750
924,-27.343750
925,-31.250000
926,-31.250000
927,-27.343750
928,-27.343750
929,-27.343750
930,-31.250000
931,-27.343750
932,-27.343750
933,-27.343750
934,-27.343750
935,-27.343750
936,-27.343750
937,-27.343750
938,-27.343750
939,-27.343750
940,-27.343750
941,-27.343750
942,-27.343750
943,-27.343750
944,-27.343750
945,-27.343750
946,-27.343750
947,-27.343750
948,-27.343750
949,-27.343750
950,-27.343750
951,-27.343750
952,-27.343750
953,-27.343750
954,-27.343750
955,-27.343750
956,-27.343750
957,-27.343750
958,-27.343750
959,-27.343750
960,-27.343750
961,-27.343750
962,-27.343750
963,-27.343750
964,-27.343750
965,-27.343750
966,-27.343750
967,-27.343750
968,-27.343750
969,-27.343750
970,-27.343750
971,-27.343750
972,-23.437500
973,-23.437500
974,-23.437500
975,-23.437500
976,-27.343750
977,-23.437500
978,-23.437500
979,-23.437500
980,-23.437500
981,-23.437500
982,-23.437500
983,-23.437500
984,-23.437500
985,-23.437500
986,-23.437500
987,-23.437500
988,-23.437500
989,-23.437500
990,-23.437500
991,-23.437500
992,-23.437500
993,-23.437500
994,-23.437500
995,-23.437500
996,-23.437500
997,-23.437500
998,-23.437500
999,-23.437500
1000,-23.437500
1001,-23.437500
1002,-23.437500
1003,-23.437500
1004,-23.437500
1005,-23.437500
1006,-23.437500
1007,-23.437500
1008,-23.437500
1009,-23.437500
1010,-23.437500
1011,-23.437500
1012,-23.437500
1013,-23.437500
1014,-19.531250
1015,-23.437500
1016,-23.437500
1017,-23.437500
1018,-23.437500
1019,-23.437500
1020,-23.437500
1021,-23.437500
1022,-19.531250
1023,-19.531250
1024,-19.531250
1025,-19.531250
1026,-19.531250
1027,-19.531250
1028,-19.531250
1029,-19.531250
1030,-19.531250
1031,-19.531250
1032,-19.531250
1033,-19.531250
1034,-19.531250
1035,-19.531250
1036,-19.531250
1037,-19.531250
1038,-19.531250
1039,-19.531250
1040,-19.531250
1041,-19.531250
1042,-19.531250
1043,-19.531250
1044,-19.531250
1045,-19.531250
1046,-19.531250
1047,-19.531250
1048,-19.531250
1049,-19.531250
1050,-19.531250
1051,-19.531250
1052,-15.625000
1053,-19.531250
1054,-15.625000
1055,-19.531250
1056,-15.625000
1057,-15.625000
1058,-15.625000
1059,-15.625000
1060,-15.625000
1061,-15.625000
1062,-15.625000
1063,-15.625000
1064,-15.625000
1065,-15.625000
1066,-15.625000
1067,-15.625000
1068,-15.625000
1069,-15.625000
1070,-15.625000
1071,-15.625000
1072,-15.625000
1073,-15.625000
1074,-15.625000
1075,-15.625000
1076,-15.625000
1077,-15.625000
1078,-15.625000
1079,-15.625000
1080,-15.625000
1081,-15.625000
1082,-11.718750
1083,-11.718750
1084,-11.718750
1085,-11.718750
1086,-11.718750
1087,-11.718750
1088,-11.718750
1089,-15.625000
1090,-11.718750
1091,-11.718750
1092,-11.718750
1093,-11.718750
1094,-11.718750
1095,-11.718750
1096,-11.718750
1097,-11.718750
1098,-11.718750
1099,-11.718750
1100,-11.718750
1101,-11.718750
1102,-11.718750
1103,-11.718750
1104,-11.718750
1105,-11.718750
1106,-11.718750
1107,-11.718750
1108,-11.718750
1109,-11.718750
1110,-11.718750
1111,-11.718750
1112,-11.718750
1113,-11.718750
1114,-11.718750
1115,-11.718750
1116,-11.718750
1117,-11.718750
1118,-7.812500
1119,-7.812500
1120,-7.812500
1121,-7.812500
1122,-7.812500
1123,-7.812500
1124,-7.812500
1125,-7.812500
1126,-7.812500
1127,-7.812500
1128,-7.812500
1129,-7.812500
1130,-7.812500
1131,-7.812500
1132,-7.812500
1133,-7.812500
1134,-7.812500
1135,-7.812500
1136,-7.812500
1137,-7.812500
1138,-7.812500
1139,-7.812500
1140,-7.812500
1141,-7.812500
1142,-7.812500
1143,-7.812500
1144,-7.812500
1145,-7.812500
1146,-7.812500
1147,-7.812500
1148,-7.812500
1149,-7.812500
1150,-3.906250
1151,-3.906250
1152,-3.906250
1153,-3.906250
1154,-3.906250
1155,-3.906250
1156,-3.906250
1157,-3.906250
1158,-3.906250
1159,-3.906250
1160,-3.906250
1161,-3.906250
1162,-3.906250
1163,-3.906250
1164,-3.906250
1165,-3.906250
1166,-3.906250
1167,-3.906250
1168,-3.906250
1169,-3.906250
1170,-3.906250
1171,-3.906250
1172,-3.906250
1173,-3.906250
1174,-3.906250
1175,-3.906250
1176,-3.906250
1177,-3.906250
1178,-3.906250
1179,-3.906250
1180,-3.906250
1181,-3.906250
1182,-3.906250
1183,0.000000
1184,-3.906250
1185,0.000000
1186,0.000000
1187,0.000000
1188,0.000000
1189,0.000000
1190,0.000000
1191,0.000000
1192,0.000000
1193,0.000000
1194,0.000000
1195,0.000000
1196,0.000000
1197,0.000000
1198,0.000000
1199,0.000000
1200,0.000000
1201,0.000000
1202,0.000000
1203,0.000000
1204,0.000000
1205,0.000000
1206,0.000000
1207,0.000000
1208,0.000000
1209,0.000000
1210,0.000000
1211,0.000000
1212,0.000000
1213,0.000000
1214,0.000000
1215,0.000000
1216,0.000000
1217,0.000000
1218,0.000000
1219,3.906250
1220,0.000000
1221,0.000000
1222,0.000000
1223,0.000000
1224,3.906250
1225,3.906250
1226,3.906250
1227,3.906250
1228,3.906250
1229,3.906250
1230,3.906250
1231,3.906250
1232,3.906250
1233,3.906250
1234,3.906250
1235,3.906250
1236,3.906250
1237,3.906250
1238,3.906250
1239,3.906250
1240,3.906250
1241,3.906250
1242,3.906250
1243,3.906250
1244,3.906250
1245,3.906250
1246,3.906250
1247,3.906250
1248,3.906250
1249,3.906250
1250,3.906250
1251,3.906250
1252,3.906250
1253,3.906250
1254,3.906250
1255,3.906250
1256,3.906250
1257,3.906250
1258,3.906250
1259,3.906250
1260,3.906250
1261,3.906250
1262,3.906250
1263,3.906250
1264,3.906250
1265,3.906250
1266,3.906250
1267,3.906250
1268,3.906250
1269,3.906250
1270,3.906250
1271,3.906250
1272,3.906250
1273,3.906250
1274,3.906250
1275,3.906250
1276,3.906250
1277,3.906250
1278,3.906250
1279,3.906250
1280,3.906250
1281,3.906250
1282,3.906250
1283,3.906250
1284,3.906250
1285,3.906250
1286,3.906250
1287,3.906250
1288,3.906250
1289,3.906250
1290,3.906250
1291,3.906250
1292,3.906250
1293,3.906250
1294,3.906250
1295,3.906250
1296,3.906250
1297,3.906250
1298,3.906250
1299,3.906250
1300,3.906250
1301,7.812500
1302,3.906250
1303,3.906250
1304,3.906250
1305,3.906250
1306,3.906250
1307,3.906250
1308,3.906250
1309,3.906250
1310,3.906250
1311,3.906250
1312,3.906250
1313,3.906250
1314,3.906250
1315,7.812500
1316,3.906250
1317,3.906250
1318,3.906250
1319,3.906250
1320,3.906250
1321,3.906250
1322,3.906250
1323,3.906250
1324,3.906250
1325,3.906250
1326,3.906250
1327,3.906250
1328,3.906250
1329,3.906250
1330,3.906250
1331,3.906250
1332,3.906250
1333,3.906250
1334,3.906250
1335,3.906250
1336,3.906250
1337,3.906250
1338,3.906250
1339,3.906250
1340,3.906250
1341,3.906250
1342,3.906250
1343,3.906250
1344,3.906250
1345,3.906250
1346,3.906250
1347,3.906250
1348,3.906250
1349,3.906250
1350,3.906250
1351,3.906250
1352,3.906250
1353,3.906250
1354,3.906250
1355,3.906250
1356,3.906250
1357,3.906250
1358,3.906250
1359,3.906250
1360,3.906250
1361,3.906250
1362,3.906250
1363,3.906250
1364,3.906250
1365,3.906250
1366,3.906250
1367,3.906250
1368,3.906250
1369,3.906250
1370,3.906250
1371,3.906250
1372,0.000000
1373,3.906250
1374,3.906250
1375,3.906250
1376,3.906250
1377,3.906250
1378,3.906250
1379,3.906250
1380,3.906250
1381,3.906250
1382,3.906250
1383,3.906250
1384,3.906250
1385,0.000000
1386,0.000000
1387,3.906250
1388,3.906250
1389,3.906250
1390,3.906250
1391,3.906250
1392,3.906250
1393,3.906250
1394,3.906250
1395,3.906250
1396,3.906250
1397,0.000000
1398,0.000000
1399,0.000000
1400,0.000000
1401,0.000000
1402,0.000000
1403,0.000000
1404,0.000000
1405,0.000000
1406,0.000000
1407,0.000000
1408,0.000000
1409,0.000000
1410,0.000000
1411,0.000000
1412,0.000000
1413,0.000000
1414,0.000000
1415,0.000000
1416,0.000000
1417,0.000000
1418,0.000000
1419,0.000000
1420,0.000000
1421,0.000000
1422,0.000000
1423,0.000000
1424,0.000000
1425,0.000000
1426,0.000000
1427,0.000000
1428,0.000000
1429,0.000000
1430,0.000000
1431,0.000000
1432,0.000000
1433,0.000000
1434,0.000000
1435,0.000000
1436,0.000000
1437,0.000000
1438,-3.906250
1439,0.000000
1440,0.000000
1441,0.000000
1442,-3.906250
1443,0.000000
1444,-3.906250
1445,-3.906250
1446,0.000000
1447,0.000000
1448,0.000000
1449,0.000000
1450,-3.906250
1451,-3.906250
1452,-3.906250
1453,-3.906250
1454,-3.906250
1455,-3.906250
1456,-3.906250
1457,-3.906250
1458,-3.906250
1459,-3.906250
1460,-3.906250
1461,-3.906250
1462,-3.906250
1463,-3.906250
1464,-3.906250
1465,-3.906250
1466,-3.906250
1467,-3.906250
1468,-3.906250
1469,-3.906250
1470,-3.906250
1471,-3.906250
1472,-3.906250
1473,-3.906250
1474,-3.906250
1475,-3.906250
1476,-3.906250
1477,-3.906250
1478,-3.906250
1479,-3.906250
1480,-7.812500
1481,-3.906250
1482,-3.906250
1483,-7.812500
1484,-7.812500
1485,-3.906250
1486,-3.906250
1487,-7.812500
1488,-7.812500
1489,-7.812500
1490,-7.812500
1491,-7.812500
1492,-7.812500
1493,-7.812500
1494,-7.812500
1495,-7.812500
1496,-7.812500
1497,-7.812500
1498,-7.812500
1499,-7.812500
1500,-7.812500
1501,-7.812500
1502,-7.812500
1503,-7.812500
1504,-7.812500
1505,-7.812500
1506,-7.812500
1507,-7.812500
1508,-7.812500
1509,-7.812500
1510,-7.812500
1511,-7.812500
1512,-7.812500
1513,-7.812500
1514,-7.812500
1515,-7.812500
1516,-7.812500
1517,-7.812500
1518,-7.812500
1519,-7.812500
1520,-11.718750
1521,-11.718750
1522,-11.718750
1523,-11.718750
1524,-11.718750
1525,-11.718750
1526,-11.718750
1527,-11.718750
1528,-11.718750
1529,-11.718750
1530,-11.718750
1531,-11.718750
1532,-11.718750
1533,-11.718750
1534,-11.718750
1535,-11.718750
1536,-11.718750
1537,-11.718750
1538,-11.718750
1539,-11.718750
1540,-11.718750
1541,-11.718750
1542,-11.718750
1543,-11.718750
1544,-11.718750
1545,-11.718750
1546,-11.718750
1547,-11.718750
1548,-11.718750
1549,-11.718750
1550,-11.718750
1551,-11.718750
1552,-11.718750
1553,-15.625000
1554,-11.718750
1555,-11.718750
1556,-11.718750
1557,-15.625000
1558,-15.625000
1559,-15.625000
1560,-15.625000
1561,-15.625000
1562,-15.625000
1563,-15.625000
1564,-15.625000
1565,-15.625000
1566,-15.625000
1567,-15.625000
1568,-15.625000
1569,-15.625000
1570,-15.625000
1571,-15.625000
1572,-15.625000
1573,-15.625000
1574,-15.625000
1575,-15.625000
1576,-15.625000
1577,-15.625000
1578,-15.625000
1579,-15.625000
1580,-15.625000
1581,-15.625000
1582,-15.625000
1583,-15.625000
1584,-15.625000
1585,-15.625000
1586,-15.625000
1587,-15.625000
1588,-15.625000
1589,-15.625000
1590,-15.625000
1591,-15.625000
1592,-15.625000
1593,-15.625000
1594,-19.531250
1595,-15.625000
1596,-19.531250
1597,-19.531250
1598,-19.531250
1599,-19.531250
1600,-19.531250
1601,-19.531250
1602,-19.531250
1603,-19.531250
1604,-15.625000
1605,-19.531250
1606,-19.531250
1607,-19.531250
1608,-19.531250
1609,-19.531250
1610,-19.531250
1611,-19.531250
1612,-19.531250
1613,-19.531250
1614,-19.531250
1615,-19.531250
1616,-19.531250
1617,-19.531250
1618,-19.531250
1619,-19.531250
1620,-19.531250
1621,-19.531250
1622,-19.531250
1623,-19.531250
1624,-19.531250
1625,-19.531250
1626,-19.531250
1627,-23.437500
1628,-19.531250
1629,-19.531250
1630,-19.531250
1631,-19.531250
1632,-19.531250
1633,-19.531250
1634,-23.437500
1635,-23.437500
1636,-23.437500
1637,-23.437500
1638,-23.437500
1639,-23.437500
1640,-23.437500
1641,-23.437500
1642,-23.437500
1643,-23.437500
1644,-23.437500
1645,-23.437500
1646,-23.437500
1647,-23.437500
1648,-23.437500
1649,-23.437500
1650,-23.437500
1651,-23.437500
1652,-23.437500
1653,-23.437500
1654,-23.437500
1655,-23.437500
1656,-23.437500
1657,-23.437500
1658,-23.437500
1659,-23.437500
1660,-23.437500
1661,-23.437500
1662,-23.437500
1663,-23.437500
1664,-23.437500
1665,-23.437500
1666,-23.437500
1667,-23.437500
1668,-23.437500
1669,-23.437500
1670,-23.437500
1671,-23.437500
1672,-27.343750
1673,-27.343750
1674,-23.437500
1675,-23.437500
1676,-27.343750
1677,-27.343750
1678,-23.437500
1679,-27.343750
1680,-27.343750
1681,-27.343750
1682,-27.343750
1683,-27.343750
1684,-27.343750
1685,-27.343750
1686,-27.343750
1687,-27.343750
1688,-27.343750
1689,-27.343750
1690,-27.343750
1691,-27.343750
1692,-27.343750
1693,-27.343750
1694,-27.343750
1695,-27.343750
1696,-27.343750
1697,-27.343750
1698,-27.343750
1699,-27.343750
1700,-27.343750
1701,-27.343750
1702,-27.343750
1703,-27.343750
1704,-27.343750
1705,-27.343750
1706,-27.343750
1707,-27.343750
1708,-27.343750
1709,-27.343750
1710,-27.343750
1711,-27.343750
1712,-27.343750
1713,-27.343750
1714,-27.343750
1715,-27.343750
1716,-27.343750
1717,-27.343750
1718,-27.343750
1719,-27.343750
1720,-27.343750
1721,-27.343750
1722,-27.343750
1723,-27.343750
1724,-27.343750
1725,-27.343750
1726,-27.343750
1727,-27.343750
1728,-27.343750
1729,-27.343750
1730,-27.343750
1731,-27.343750
1732,-27.343750
1733,-27.343750
1734,-27.343750
1735,-27.343750
1736,-27.343750
1737,-27.343750
1738,-27.343750
1739,-27.343750
1740,-27.343750
1741,-27.343750
1742,-27.343750
1743,-27.343750
1744,-27.343750
1745,-27.343750
1746,-27.343750
1747,-31.250000
1748,-27.343750
1749,-27.343750
1750,-27.343750
1751,-31.250000
1752,-27.343750
1753,-27.343750
1754,-31.250000
1755,-31.250000
1756,-31.250000
1757,-31.250000
1758,-31.250000
1759,-31.250000
1760,-31.250000
1761,-31.250000
1762,-31.250000
1763,-31.250000
1764,-31.250000
1765,-31.250000
1766,-31.250000
1767,-31.250000
1768,-31.250000
1769,-31.250000
1770,-31.250000
1771,-31.250000
1772,-31.250000
1773,-31.250000
1774,-31.250000
1775,-31.250000
1776,-31.250000
1777,-31.250000
1778,-31.250000
1779,-31.250000
1780,-31.250000
1781,-31.250000
1782,-31.250000
1783,-31.250000
1784,-31.250000
1785,-31.250000
1786,-31.250000
1787,-31.250000
1788,-31.250000
1789,-31.250000
1790,-31.250000
1791,-31.250000
1792,-31.250000
1793,-31.250000
1794,-31.250000
1795,-31.250000
1796,-31.250000
1797,-31.250000
1798,-31.250000
1799,-31.250000
1800,-31.250000
1801,-31.250000
1802,-31.250000
1803,-31.250000
1804,-31.250000
1805,-31.250000
1806,-31.250000
1807,-31.250000
1808,-31.250000
1809,-31.250000
1810,-31.250000
1811,-31.250000
1812,-31.250000
1813,-31.250000
1814,-31.250000
1815,-31.250000
1816,-31.250000
1817,-31.250000
1818,-31.250000
1819,-31.250000
1820,-31.250000
1821,-31.250000
1822,-31.250000
1823,-31.250000
1824,-31.250000
1825,-31.250000
1826,-31.250000
1827,-31.250000
1828,-31.250000
1829,-31.250000
1830,-31.250000
1831,-31.250000
1832,-31.250000
1833,-31.250000
1834,-31.250000
1835,-31.250000
1836,-31.250000
1837,-31.250000
1838,-31.250000
1839,-31.250000
1840,-31.250000
1841,-31.250000
1842,-31.250000
1843,-31.250000
1844,-31.250000
1845,-31.250000
1846,-31.250000
1847,-31.250000
1848,-31.250000
1849,-31.250000
1850,-31.250000
1851,-31.250000
1852,-31.250000
1853,-31.250000
1854,-31.250000
1855,-31.250000
1856,-31.250000
1857,-31.250000
1858,-31.250000
1859,-31.250000
1860,-31.250000
1861,-31.250000
1862,-31.250000
1863,-31.250000
1864,-31.250000
1865,-31.250000
1866,-31.250000
1867,-31.250000
1868,-31.250000
1869,-31.250000
1870,-31.250000
1871,-31.250000
1872,-31.250000
1873,-31.250000
1874,-31.250000
1875,-31.250000
1876,-31.250000
1877,-31.250000
1878,-31.250000
1879,-31.250000
1880,-31.250000
1881,-31.250000
1882,-31.250000
1883,-31.250000
1884,-31.250000
1885,-31.250000
1886,-31.250000
1887,-31.250000
1888,-31.250000
1889,-31.250000
1890,-31.250000
1891,-31.250000
1892,-31.250000
1893,-31.250000
1894,-31.250000
1895,-31.250000
1896,-31.250000
1897,-31.250000
1898,-27.343750
1899,-31.250000
1900,-31.250000
1901,-31.250000
1902,-31.250000
1903,-31.250000
1904,-31.250000
1905,-31.250000
1906,-31.250000
1907,-31.250000
1908,-31.250000
1909,-31.250000
1910,-27.343750
1911,-27.343750
1912,-31.250000
1913,-31.250000
1914,-31.250000
1915,-31.250000
1916,-31.250000
1917,-27.343750
1918,-31.250000
1919,-31.250000
1920,-31.250000
1921,-27.343750
1922,-27.343750
1923,-27.343750
1924,-27.343750
1925,-27.343750
1926,-31.250000
1927,-27.343750
1928,-27.343750
1929,-27.343750
1930,-27.343750
1931,-27.343750
1932,-27.343750
1933,-27.343750
1934,-27.343750
1935,-27.343750
1936,-27.343750
1937,-27.343750
1938,-27.343750
1939,-27.343750
1940,-27.343750
1941,-27.343750
1942,-27.343750
1943,-27.343750
1944,-27.343750
1945,-27.343750
1946,-27.343750
1947,-27.343750
1948,-27.343750
1949,-27.343750
1950,-27.343750
1951,-27.343750
1952,-27.343750
1953,-27.343750
1954,-27.343750
1955,-27.343750
1956,-27.343750
1957,-27.343750
1958,-27.343750
1959,-27.343750
1960,-27.343750
1961,-27.343750
1962,-23.437500
1963,-27.343750
1964,-27.343750
1965,-23.437500
1966,-27.343750
1967,-27.343750
1968,-27.343750
1969,-27.343750
1970,-23.437500
1971,-23.437500
1972,-23.437500
1973,-23.437500
1974,-23.437500
1975,-23.437500
1976,-23.437500
1977,-23.437500
1978,-23.437500
1979,-23.437500
1980,-23.437500
1981,-23.437500
1982,-23.437500
1983,-23.437500
1984,-23.437500
1985,-23.437500
1986,-23.437500
1987,-23.437500
1988,-23.437500
1989,-23.437500
1990,-23.437500
1991,-23.437500
1992,-23.437500
1993,-23.437500
1994,-23.437500
1995,-23.437500
1996,-23.437500
1997,-23.437500
1998,-23.437500
1999,-23.437500
2000,-23.437500
2001,-23.437500
2002,-23.437500
2003,-23.437500
2004,-23.437500
2005,-23.437500
2006,-19.531250
2007,-23.437500
2008,-19.531250
2009,-23.437500
2010,-19.531250
2011,-19.531250
2012,-19.531250
2013,-19.531250
2014,-19.531250
2015,-19.531250
2016,-19.531250
2017,-19.531250
2018,-19.531250
2019,-19.531250
2020,-19.531250
2021,-19.531250
2022,-19.531250
2023,-19.531250
2024,-19.531250
2025,-19.531250
2026,-19.531250
2027,-19.531250
2028,-19.531250
2029,-19.531250
2030,-19.531250
2031,-19.531250
2032,-19.531250
2033,-19.531250
2034,-19.531250
2035,-19.531250
2036,-19.531250
2037,-19.531250
2038,-19.531250
2039,-19.531250
2040,-15.625000
2041,-15.625000
2042,-19.531250
2043,-19.531250
2044,-19.531250
2045,-15.625000
2046,-15.625000
2047,-19.531250
2048,-15.625000
2049,-15.625000
2050,-15.625000
2051,-15.625000
2052,-15.625000
2053,-15.625000
2054,-15.625000
2055,-15.625000
2056,-15.625000
2057,-15.625000
2058,-15.625000
2059,-15.625000
2060,-15.625000
2061,-15.625000
2062,-15.625000
2063,-15.625000
2064,-15.625000
2065,-15.625000
2066,-15.625000
2067,-15.625000
2068,-15.625000
2069,-15.625000
2070,-15.625000
2071,-15.625000
2072,-15.625000
2073,-15.625000
2074,-15.625000
2075,-15.625000
2076,-15.625000
2077,-11.718750
2078,-11.718750
2079,-11.718750
2080,-11.718750
2081,-11.718750
2082,-11.718750
2083,-11.718750
2084,-11.718750
2085,-11.718750
2086,-11.718750
2087,-11.718750
2088,-11.718750
2089,-11.718750
2090,-11.718750
2091,-11.718750
2092,-11.718750
2093,-11.718750
2094,-11.718750
2095,-11.718750
2096,-11.718750
2097,-11.718750
2098,-11.718750
2099,-11.718750
2100,-11.718750
2101,-11.718750
2102,-7.812500
2103,-11.718750
2104,-11.718750
2105,-7.812500
2106,-7.812500
2107,-7.812500
2108,-7.812500
2109,-7.812500
2110,-7.812500
2111,-7.812500
2112,-7.812500
2113,-7.812500
2114,-7.812500
2115,-7.812500
2116,-7.812500
2117,-7.812500
2118,-7.812500
2119,-7.812500
2120,-7.812500
2121,-7.812500
2122,-7.812500
2123,-7.812500
2124,-7.812500
2125,-7.812500
2126,-7.812500
2127,-7.812500
2128,-7.812500
2129,-7.812500
2130,-7.812500
2131,-7.812500
2132,-3.906250
2133,-7.812500
2134,-7.812500
2135,-3.906250
2136,-7.812500
2137,-3.906250
2138,-3.906250
2139,-3.906250
2140,-3.906250
2141,-3.906250
2142,-3.906250
2143,-3.906250
2144,-3.906250
2145,-3.906250
2146,-3.906250
2147,-3.906250
2148,-3.906250
2149,-3.906250
2150,-3.906250
2151,-3.906250
2152,-3.906250
2153,-3.906250
2154,-3.906250
2155,-3.906250
2156,-3.906250
2157,-3.906250
2158,-3.906250
2159,-3.906250
2160,-3.906250
2161,-3.906250
2162,-3.906250
2163,-3.906250
2164,-3.906250
2165,-3.906250
2166,-3.906250
2167,-3.906250
2168,-3.906250
2169,-3.906250
2170,0.000000
2171,-3.906250
2172,-3.906250
2173,-3.906250
2174,0.000000
2175,0.000000
2176,0.000000
2177,0.000000
2178,0.000000
2179,0.000000
2180,0.000000
2181,0.000000
2182,0.000000
2183,0.000000
2184,0.000000
2185,0.000000
2186,0.000000
2187,0.000000
2188,0.000000
2189,0.000000
2190,0.000000
2191,0.000000
2192,0.000000
2193,0.000000
2194,0.000000
2195,0.000000
2196,0.000000
2197,0.000000
2198,0.000000
2199,0.000000
2200,0.000000
2201,0.000000
2202,0.000000
2203,0.000000
2204,0.000000
2205,0.000000
2206,0.000000
2207,0.000000
2208,0.000000
2209,0.000000
2210,3.906250
2211,0.000000
2212,0.000000
2213,0.000000
2214,0.000000
2215,0.000000
2216,0.000000
2217,0.000000
2218,3.906250
2219,3.906250
2220,3.906250
2221,0.000000
2222,0.000000
2223,0.000000
2224,3.906250
2225,3.906250
2226,3.906250
2227,3.906250
2228,3.906250
2229,3.906250
2230,3.906250
2231,3.906250
2232,3.906250
2233,3.906250
2234,3.906250
2235,3.906250
2236,3.906250
2237,3.906250
2238,3.906250
2239,3.906250
2240,3.906250
2241,3.906250
2242,3.906250
2243,3.906250
2244,3.906250
2245,3.906250
2246,3.906250
2247,3.906250
2248,3.906250
2249,3.906250
2250,3.906250
2251,3.906250
2252,3.906250
2253,3.906250
2254,3.906250
2255,3.906250
2256,3.906250
2257,3.906250
2258,3.906250
2259,3.906250
2260,3.906250
2261,3.906250
2262,3.906250
2263,3.906250
2264,3.906250
2265,3.906250
2266,3.906250
2267,3.906250
2268,3.906250
2269,3.906250
2270,3.906250
2271,3.906250
2272,3.906250
2273,3.906250
2274,3.906250
2275,3.906250
2276,3.906250
2277,3.906250
2278,3.906250
2279,3.906250
2280,3.906250
2281,3.906250
2282,3.906250
2283,3.906250
2284,3.906250
2285,3.906250
2286,3.906250
2287,3.906250
2288,3.906250
2289,3.906250
2290,3.906250
2291,3.906250
2292,3.906250
2293,3.906250
2294,3.906250
2295,3.906250
2296,3.906250
2297,3.906250
2298,3.906250
2299,3.906250
2300,3.906250
2301,3.906250
2302,3.906250
2303,3.906250
2304,3.906250
2305,3.906250
2306,3.906250
2307,3.906250
2308,3.906250
2309,3.906250
2310,3.906250
2311,3.906250
2312,3.906250
2313,3.906250
2314,3.906250
2315,3.906250
2316,3.906250
2317,3.906250
2318,3.906250
2319,3.906250
2320,3.906250
2321,3.906250
2322,3.906250
2323,3.906250
2324,3.906250
2325,3.906250
2326,3.906250
2327,3.906250
2328,3.906250
2329,3.906250
2330,3.906250
2331,3.906250
2332,3.906250
2333,3.906250
2334,3.906250
2335,3.906250
2336,3.906250
2337,3.906250
2338,3.906250
2339,3.906250
2340,3.906250
2341,3.906250
2342,3.906250
2343,3.906250
2344,3.906250
2345,3.906250
2346,3.906250
2347,3.906250
2348,3.906250
2349,3.906250
2350,3.906250
2351,3.906250
2352,3.906250
2353,3.906250
2354,3.906250
2355,3.906250
2356,3.906250
2357,3.906250
2358,3.906250
2359,3.906250
2360,3.906250
2361,3.906250
2362,3.906250
2363,3.906250
2364,3.906250
2365,3.906250
2366,3.906250
2367,3.906250
2368,3.906250
2369,3.906250
2370,3.906250
2371,3.906250
2372,3.906250
2373,3.906250
2374,3.906250
2375,3.906250
2376,3.906250
2377,3.906250
2378,3.906250
2379,3.906250
2380,3.906250
2381,3.906250
2382,3.906250
2383,3.906250
2384,3.906250
2385,3.906250
2386,3.906250
2387,3.906250
2388,3.906250
2389,3.906250
2390,3.906250
2391,3.906250
2392,3.906250
2393,3.906250
2394,0.000000
2395,0.000000
2396,0.000000
2397,0.000000
2398,3.906250
2399,0.000000
2400,0.000000
2401,0.000000
2402,0.000000
2403,0.000000
2404,0.000000
2405,0.000000
2406,0.000000
2407,0.000000
2408,0.000000
2409,0.000000
2410,0.000000
2411,0.000000
2412,0.000000
2413,0.000000
2414,0.000000
2415,0.000000
2416,0.000000
2417,0.000000
2418,0.000000
2419,0.000000
2420,0.000000
2421,0.000000
2422,0.000000
2423,0.000000
2424,0.000000
2425,0.000000
2426,0.000000
2427,0.000000
2428,0.000000
2429,0.000000
2430,0.000000
2431,0.000000
2432,-3.906250
2433,0.000000
2434,0.000000
2435,-3.906250
2436,-3.906250
2437,-3.906250
2438,-3.906250
2439,-3.906250
2440,-3.906250
2441,-3.906250
2442,-3.906250
2443,-3.906250
2444,-3.906250
2445,-3.906250
2446,-3.906250
2447,-3.906250
2448,-3.906250
2449,-3.906250
2450,-3.906250
2451,-3.906250
2452,-3.906250
2453,-3.906250
2454,-3.906250
2455,-3.906250
2456,-3.906250
2457,-3.906250
2458,-3.906250
2459,-3.906250
2460,-3.906250
2461,-3.906250
2462,-3.906250
2463,-3.906250
2464,-3.906250
2465,-3.906250
2466,-3.906250
2467,-3.906250
2468,-3.906250
2469,-7.812500
2470,-3.906250
2471,-3.906250
2472,-3.906250
2473,-7.812500
2474,-3.906250
2475,-3.906250
2476,-3.906250
2477,-7.812500
2478,-7.812500
2479,-7.812500
2480,-7.812500
2481,-7.812500
2482,-7.812500
2483,-7.812500
2484,-7.812500
2485,-7.812500
2486,-7.812500
2487,-7.812500
2488,-7.812500
2489,-7.812500
2490,-7.812500
2491,-7.812500
2492,-7.812500
2493,-7.812500
2494,-7.812500
2495,-7.812500
2496,-7.812500
2497,-7.812500
2498,-7.812500
2499,-7.812500
2500,-7.812500
2501,-7.812500
2502,-7.812500
2503,-7.812500
2504,-7.812500
2505,-7.812500
2506,-7.812500
2507,-7.812500
2508,-7.812500
2509,-11.718750
2510,-7.812500
2511,-11.718750
2512,-11.718750
2513,-7.812500
2514,-7.812500
2515,-7.812500
2516,-11.718750
2517,-7.812500
2518,-11.718750
2519,-11.718750
2520,-11.718750
2521,-11.718750
2522,-11.718750
2523,-11.718750
2524,-11.718750
2525,-11.718750
2526,-11.718750
2527,-11.718750
2528,-11.718750
2529,-11.718750
2530,-11.718750
2531,-11.718750
2532,-11.718750
2533,-11.718750
2534,-11.718750
2535,-11.718750
2536,-11.718750
2537,-11.718750
2538,-11.718750
2539,-11.718750
2540,-11.718750
2541,-11.718750
2542,-11.718750
2543,-11.718750
2544,-11.718750
2545,-15.625000
2546,-15.625000
2547,-15.625000
2548,-15.625000
2549,-15.625000
2550,-15.625000
2551,-15.625000
2552,-15.625000
2553,-15.625000
2554,-15.625000
2555,-15.625000
2556,-15.625000
2557,-15.625000
2558,-15.625000
2559,-15.625000
2560,-15.625000
2561,-15.625000
2562,-15.625000
2563,-15.625000
2564,-15.625000
2565,-15.625000
2566,-15.625000
2567,-15.625000
2568,-15.625000
2569,-15.625000
2570,-15.625000
2571,-15.625000
2572,-15.625000
2573,-15.625000
2574,-15.625000
2575,-15.625000
2576,-15.625000
2577,-15.625000
2578,-15.625000
2579,-15.625000
2580,-15.625000
2581,-19.531250
2582,-19.531250
2583,-19.531250
2584,-19.531250
2585,-19.531250
2586,-19.531250
2587,-19.531250
2588,-19.531250
2589,-19.531250
2590,-19.531250
2591,-19.531250
2592,-19.531250
2593,-19.531250
2594,-19.531250
2595,-19.531250
2596,-19.531250
2597,-19.531250
2598,-19.531250
2599,-19.531250
2600,-19.531250
2601,-19.531250
2602,-19.531250
2603,-19.531250
2604,-19.531250
2605,-19.531250
2606,-19.531250
2607,-19.531250
2608,-19.531250
2609,-19.531250
2610,-19.531250
2611,-19.531250
2612,-19.531250
2613,-19.531250
2614,-19.531250
2615,-19.531250
2616,-19.531250
2617,-19.531250
2618,-19.531250
2619,-19.531250
2620,-23.437500
2621,-19.531250
2622,-23.437500
2623,-19.531250
2624,-23.437500
2625,-23.437500
2626,-23.437500
2627,-19.531250
2628,-23.437500
2629,-23.437500
2630,-23.437500
2631,-23.437500
2632,-23.437500
2633,-23.437500
2634,-23.437500
2635,-23.437500
2636,-23.437500
2637,-23.437500
2638,-23.437500
2639,-23.437500
2640,-23.437500
2641,-23.437500
2642,-23.437500
2643,-23.437500
2644,-23.437500
2645,-23.437500
2646,-23.437500
2647,-23.437500
2648,-23.437500
2649,-23.437500
2650,-23.437500
2651,-23.437500
2652,-23.437500
2653,-23.437500
2654,-23.437500
2655,-23.437500
2656,-23.437500
2657,-23.437500
2658,-23.437500
2659,-23.437500
2660,-23.437500
2661,-23.437500
2662,-23.437500
2663,-23.437500
2664,-23.437500
2665,-23.437500
2666,-27.343750
2667,-23.437500
2668,-27.343750
2669,-27.343750
2670,-23.437500
2671,-23.437500
2672,-27.343750
2673,-23.437500
2674,-27.343750
2675,-27.343750
2676,-27.343750
2677,-27.343750
2678,-27.343750
2679,-27.343750
2680,-27.343750
2681,-27.343750
2682,-27.343750
2683,-27.343750
2684,-27.343750
2685,-27.343750
2686,-27.343750
2687,-27.343750
2688,-27.343750
2689,-27.343750
2690,-27.343750
2691,-27.343750
2692,-27.343750
2693,-27.343750
2694,-27.343750
2695,-27.343750
2696,-27.343750
2697,-27.343750
2698,-27.343750
2699,-27.343750
2700,-27.343750
2701,-27.343750
2702,-27.343750
2703,-27.343750
2704,-27.343750
2705,-27.343750
2706,-27.343750
2707,-27.343750
2708,-27.343750
2709,-27.343750
2710,-27.343750
2711,-27.343750
2712,-27.343750
2713,-27.343750
2714,-27.343750
2715,-27.343750
2716,-27.343750
2717,-27.343750
2718,-27.343750
2719,-27.343750
2720,-27.343750
2721,-27.343750
2722,-27.343750
2723,-27.343750
2724,-27.343750
2725,-31.250000
2726,-27.343750
2727,-27.343750
2728,-27.343750
2729,-27.343750
2730,-27.343750
2731,-27.343750
2732,-27.343750
2733,-27.343750
2734,-31.250000
2735,-31.250000
2736,-31.250000
2737,-27.343750
2738,-27.343750
2739,-27.343750
2740,-27.343750
2741,-31.250000
2742,-31.250000
2743,-31.250000
2744,-31.250000
2745,-31.250000
2746,-27.343750
2747,-31.250000
2748,-31.250000
2749,-31.250000
2750,-31.250000
2751,-31.250000
2752,-31.250000
2753,-31.250000
2754,-31.250000
2755,-27.343750
2756,-31.250000
2757,-31.250000
2758,-31.250000
2759,-31.250000
2760,-27.343750
2761,-31.250000
2762,-31.250000
2763,-31.250000
2764,-27.343750
2765,-31.250000
2766,-31.250000
2767,-31.250000
2768,-31.250000
2769,-31.250000
2770,-31.250000
2771,-31.250000
2772,-31.250000
2773,-31.250000
2774,-31.250000
2775,-31.250000
2776,-31.250000
2777,-31.250000
2778,-31.250000
2779,-31.250000
2780,-31.250000
2781,-31.250000
2782,-31.250000
2783,-31.250000
2784,-31.250000
2785,-31.250000
2786,-31.250000
2787,-31.250000
2788,-31.250000
2789,-31.250000
2790,-31.250000
2791,-31.250000
2792,-31.250000
2793,-31.250000
2794,-31.250000
2795,-31.250000
2796,-31.250000
2797,-31.250000
2798,-31.250000
2799,-31.250000
2800,-31.250000
2801,-31.250000
2802,-31.250000
2803,-31.250000
2804,-31.250000
2805,-31.250000
2806,-31.250000
2807,-31.250000
2808,-31.250000
2809,-31.250000
2810,-31.250000
2811,-31.250000
2812,-31.250000
2813,-31.250000
2814,-31.250000
2815,-31.250000
2816,-31.250000
2817,-31.250000
2818,-31.250000
2819,-31.250000
2820,-31.250000
2821,-31.250000
2822,-31.250000
2823,-31.250000
2824,-31.250000
2825,-31.250000
2826,-31.250000
2827,-31.250000
2828,-31.250000
2829,-31.250000
2830,-31.250000
2831,-31.250000
2832,-31.250000
2833,-31.250000
2834,-31.250000
2835,-31.250000
2836,-31.250000
2837,-31.250000
2838,-31.250000
2839,-31.250000
2840,-31.250000
2841,-31.250000
2842,-31.250000
2843,-31.250000
2844,-31.250000
2845,-31.250000
2846,-31.250000
2847,-31.250000
2848,-31.250000
2849,-31.250000
2850,-31.250000
2851,-31.250000
2852,-31.250000
2853,-31.250000
2854,-31.250000
2855,-31.250000
2856,-31.250000
2857,-31.250000
2858,-31.250000
2859,-31.250000
2860,-31.250000
2861,-31.250000
2862,-31.250000
2863,-31.250000
2864,-31.250000
2865,-31.250000
2866,-31.250000
2867,-31.250000
2868,-31.250000
2869,-31.250000
2870,-31.250000
2871,-31.250000
2872,-31.250000
2873,-31.250000
2874,-31.250000
2875,-31.250000
2876,-31.250000
2877,-31.250000
2878,-31.250000
2879,-31.250000
2880,-31.250000
2881,-31.250000
2882,-31.250000
2883,-31.250000
2884,-31.250000
2885,-27.343750
2886,-31.250000
2887,-31.250000
2888,-31.250000
2889,-31.250000
2890,-31.250000
2891,-31.250000
2892,-31.250000
2893,-27.343750
2894,-27.343750
2895,-27.343750
2896,-31.250000
2897,-31.250000
2898,-31.250000
2899,-27.343750
2900,-27.343750
2901,-27.343750
2902,-27.343750
2903,-27.343750
2904,-27.343750
2905,-27.343750
2906,-27.343750
2907,-27.343750
2908,-27.343750
2909,-27.343750
2910,-27.343750
2911,-27.343750
2912,-27.343750
2913,-27.343750
2914,-27.343750
2915,-27.343750
2916,-27.343750
2917,-27.343750
2918,-27.343750
2919,-27.343750
2920,-27.343750
2921,-27.343750
2922,-27.343750
2923,-27.343750
2924,-27.343750
2925,-27.343750
2926,-27.343750
2927,-27.343750
2928,-27.343750
2929,-27.343750
2930,-27.343750
2931,-27.343750
2932,-27.343750
2933,-27.343750
2934,-27.343750
2935,-27.343750
2936,-27.343750
2937,-27.343750
2938,-27.343750
2939,-27.343750
2940,-27.343750
2941,-27.343750
2942,-27.343750
2943,-27.343750
2944,-27.343750
2945,-27.343750
2946,-27.343750
2947,-27.343750
2948,-27.343750
2949,-27.343750
2950,-27.343750
2951,-27.343750
2952,-27.343750
2953,-27.343750
2954,-23.437500
2955,-23.437500
2956,-23.437500
2957,-23.437500
2958,-27.343750
2959,-23.437500
2960,-23.437500
2961,-23.437500
2962,-23.437500
2963,-23.437500
2964,-23.437500
2965,-23.437500
2966,-23.437500
2967,-23.437500
2968,-23.437500
2969,-23.437500
2970,-23.437500
2971,-23.437500
2972,-23.437500
2973,-23.437500
2974,-23.437500
2975,-23.437500
2976,-23.437500
2977,-23.437500
2978,-23.437500
2979,-23.437500
2980,-23.437500
2981,-23.437500
2982,-23.437500
2983,-23.437500
2984,-23.437500
2985,-23.437500
2986,-23.437500
2987,-23.437500
2988,-23.437500
2989,-23.437500
2990,-23.437500
2991,-23.437500
2992,-23.437500
2993,-23.437500
2994,-23.437500
2995,-23.437500
2996,-23.437500
2997,-19.531250
2998,-19.531250
2999,-19.531250
3000,-23.437500
3001,-19.531250
3002,-19.531250
3003,-19.531250
3004,-19.531250
3005,-19.531250
3006,-19.531250
3007,-19.531250
3008,-19.531250
3009,-19.531250
3010,-19.531250
3011,-19.531250
3012,-19.531250
3013,-19.531250
3014,-19.531250
3015,-19.531250
3016,-19.531250
3017,-19.531250
3018,-19.531250
3019,-19.531250
3020,-19.531250
3021,-19.531250
3022,-19.531250
3023,-19.531250
3024,-19.531250
3025,-19.531250
3026,-19.531250
3027,-19.531250
3028,-19.531250
3029,-19.531250
3030,-19.531250
3031,-19.531250
3032,-15.625000
3033,-15.625000
3034,-15.625000
3035,-15.625000
3036,-15.625000
3037,-15.625000
3038,-15.625000
3039,-15.625000
3040,-15.625000
3041,-15.625000
3042,-15.625000
3043,-15.625000
3044,-15.625000
3045,-15.625000
3046,-15.625000
3047,-15.625000
3048,-15.625000
3049,-15.625000
3050,-15.625000
3051,-15.625000
3052,-15.625000
3053,-15.625000
3054,-15.625000
3055,-15.625000
3056,-15.625000
3057,-15.625000
3058,-15.625000
3059,-15.625000
3060,-15.625000
3061,-15.625000
3062,-15.625000
3063,-15.625000
3064,-11.718750
3065,-15.625000
3066,-11.718750
3067,-15.625000
3068,-11.718750
3069,-11.718750
3070,-11.718750
3071,-11.718750
3072,-11.718750
3073,-11.718750
3074,-11.718750
3075,-11.718750
3076,-11.718750
3077,-11.718750
3078,-11.718750
3079,-11.718750
3080,-11.718750
3081,-11.718750
3082,-11.718750
3083,-11.718750
3084,-11.718750
3085,-11.718750
3086,-11.718750
3087,-11.718750
3088,-11.718750
3089,-11.718750
3090,-11.718750
3091,-11.718750
3092,-11.718750
3093,-11.718750
3094,-11.718750
3095,-11.718750
3096,-7.812500
3097,-11.718750
3098,-7.812500
3099,-7.812500
3100,-7.812500
3101,-7.812500
3102,-7.812500
3103,-7.812500
3104,-7.812500
3105,-7.812500
3106,-7.812500
3107,-7.812500
3108,-7.812500
3109,-7.812500
3110,-7.812500
3111,-7.812500
3112,-7.812500
3113,-7.812500
3114,-7.812500
3115,-7.812500
3116,-7.812500
3117,-7.812500
3118,-7.812500
3119,-7.812500
3120,-7.812500
3121,-7.812500
3122,-3.906250
3123,-3.906250
3124,-7.812500
3125,-7.812500
3126,-3.906250
3127,-3.906250
3128,-3.906250
3129,-3.906250
3130,-3.906250
3131,-3.906250
3132,-3.906250
3133,-3.906250
3134,-3.906250
3135,-3.906250
3136,-3.906250
3137,-3.906250
3138,-3.906250
3139,-3.906250
3140,-3.906250
3141,-3.906250
3142,-3.906250
3143,-3.906250
3144,-3.906250
3145,-3.906250
3146,-3.906250
3147,-3.906250
3148,-3.906250
3149,-3.906250
3150,-3.906250
3151,-3.906250
3152,-3.906250
3153,-3.906250
3154,0.000000
3155,-3.906250
3156,0.000000
3157,-3.906250
3158,0.000000
3159,0.000000
3160,0.000000
3161,-3.906250
3162,0.000000
3163,0.000000
3164,0.000000
3165,0.000000
3166,0.000000
3167,0.000000
3168,0.000000
3169,0.000000
3170,0.000000
3171,0.000000
3172,0.000000
3173,0.000000
3174,0.000000
3175,0.000000
3176,0.000000
3177,0.000000
3178,0.000000
3179,0.000000
3180,0.000000
3181,0.000000
3182,0.000000
3183,0.000000
3184,0.000000
3185,0.000000
3186,0.000000
3187,0.000000
3188,0.000000
3189,0.000000
3190,0.000000
3191,0.000000
3192,0.000000
3193,0.000000
3194,0.000000
3195,0.000000
3196,0.000000
3197,0.000000
3198,0.000000
3199,0.000000
3200,3.906250
3201,0.000000
3202,3.906250
3203,0.000000
3204,3.906250
3205,3.906250
3206,3.906250
3207,3.906250
3208,3.906250
3209,0.000000
3210,3.906250
3211,3.906250
3212,3.906250
3213,3.906250
3214,3.906250
3215,3.906250
3216,3.906250
3217,3.906250
3218,3.906250
3219,3.906250
3220,3.906250
3221,3.906250
3222,3.906250
3223,3.906250
3224,3.906250
3225,3.906250
3226,3.906250
3227,3.906250
3228,3.906250
3229,3.906250
3230,3.906250
3231,3.906250
3232,3.906250
3233,3.906250
3234,3.906250
3235,3.906250
3236,3.906250
3237,3.906250
3238,3.906250
3239,3.906250
3240,3.906250
3241,3.906250
3242,3.906250
3243,3.906250
3244,3.906250
3245,3.906250
3246,3.906250
3247,3.906250
3248,3.906250
3249,3.906250
3250,3.906250
3251,3.906250
3252,3.906250
3253,3.906250
3254,3.906250
3255,3.906250
3256,3.906250
3257,3.906250
3258,3.906250
3259,3.906250
3260,3.906250
3261,3.906250
3262,3.906250
3263,3.906250
3264,3.906250
3265,3.906250
3266,7.812500
3267,7.812500
3268,7.812500
3269,3.906250
3270,3.906250
3271,3.906250
3272,7.812500
3273,7.812500
3274,7.812500
3275,3.906250
3276,3.906250
3277,3.906250
3278,3.906250
3279,3.906250
3280,7.812500
3281,3.906250
3282,3.906250
3283,3.906250
3284,3.906250
3285,3.906250
3286,3.906250
3287,7.812500
3288,3.906250
3289,3.906250
3290,3.906250
3291,7.812500
3292,3.906250
3293,3.906250
3294,3.906250
3295,3.906250
3296,3.906250
3297,7.812500
3298,7.812500
3299,3.906250
3300,3.906250
3301,3.906250
3302,3.906250
3303,7.812500
3304,7.812500
3305,3.906250
3306,3.906250
3307,3.906250
3308,3.906250
3309,3.906250
3310,3.906250
3311,7.812500
3312,3.906250
3313,3.906250
3314,3.906250
3315,3.906250
3316,3.906250
3317,3.906250
3318,3.906250
3319,3.906250
3320,3.906250
3321,3.906250
3322,3.906250
3323,3.906250
3324,3.906250
3325,3.906250
3326,3.906250
3327,3.906250
3328,3.906250
3329,3.906250
3330,3.906250
3331,3.906250
3332,3.906250
3333,3.906250
3334,3.906250
3335,3.906250
3336,3.906250
3337,3.906250
3338,3.906250
3339,3.906250
3340,3.906250
3341,3.906250
3342,3.906250
3343,3.906250
3344,3.906250
3345,3.906250
3346,3.906250
3347,3.906250
3348,3.906250
3349,3.906250
3350,3.906250
3351,3.906250
3352,3.906250
3353,3.906250
3354,3.906250
3355,3.906250
3356,3.906250
3357,3.906250
3358,3.906250
3359,3.906250
3360,3.906250
3361,3.906250
3362,3.906250
3363,3.906250
3364,3.906250
3365,3.906250
3366,3.906250
3367,3.906250
3368,3.906250
3369,3.906250
3370,3.906250
3371,3.906250
3372,0.000000
3373,0.000000
3374,3.906250
3375,3.906250
3376,3.906250
3377,3.906250
3378,3.906250
3379,0.000000
3380,3.906250
3381,0.000000
3382,0.000000
3383,0.000000
3384,0.000000
3385,0.000000
3386,3.906250
3387,0.000000
3388,0.000000
3389,0.000000
3390,0.000000
3391,0.000000
3392,0.000000
3393,0.000000
3394,0.000000
3395,0.000000
3396,0.000000
3397,0.000000
3398,0.000000
3399,0.000000
3400,0.000000
3401,0.000000
3402,0.000000
3403,0.000000
3404,0.000000
3405,0.000000
3406,0.000000
3407,0.000000
3408,0.000000
3409,0.000000
3410,0.000000
3411,0.000000
3412,0.000000
3413,0.000000
3414,0.000000
3415,0.000000
3416,0.000000
3417,0.000000
3418,0.000000
3419,0.000000
3420,0.000000
3421,0.000000
3422,0.000000
3423,0.000000
3424,0.000000
3425,-3.906250
3426,-3.906250
3427,0.000000
3428,0.000000
3429,-3.906250
3430,-3.906250
3431,-3.906250
3432,-3.906250
3433,-3.906250
3434,-3.906250
3435,-3.906250
3436,-3.906250
3437,-3.906250
3438,-3.906250
3439,-3.906250
3440,-3.906250
3441,-3.906250
3442,-3.906250
3443,-3.906250
3444,-3.906250
3445,-3.906250
3446,-3.906250
3447,-3.906250
3448,-3.906250
3449,-3.906250
3450,-3.906250
3451,-3.906250
3452,-3.906250
3453,-3.906250
3454,-3.906250
3455,-3.906250
3456,-3.906250
3457,-3.906250
3458,-3.906250
3459,-7.812500
3460,-3.906250
3461,-7.812500
3462,-7.812500
3463,-7.812500
3464,-3.906250
3465,-7.812500
3466,-7.812500
3467,-7.812500
3468,-7.812500
3469,-7.812500
3470,-7.812500
3471,-7.812500
3472,-7.812500
3473,-7.812500
3474,-7.812500
3475,-7.812500
3476,-7.812500
3477,-7.812500
3478,-7.812500
3479,-7.812500
3480,-7.812500
3481,-7.812500
3482,-7.812500
3483,-7.812500
3484,-7.812500
3485,-7.812500
3486,-7.812500
3487,-7.812500
3488,-7.812500
3489,-7.812500
3490,-7.812500
3491,-11.718750
3492,-7.812500
3493,-7.812500
3494,-7.812500
3495,-7.812500
3496,-11.718750
3497,-11.718750
3498,-11.718750
3499,-11.718750
3500,-11.718750
3501,-11.718750
3502,-11.718750
3503,-11.718750
3504,-11.718750
3505,-11.718750
3506,-11.718750
3507,-11.718750
3508,-11.718750
3509,-11.718750
3510,-11.718750
3511,-11.718750
3512,-11.718750
3513,-11.718750
3514,-11.718750
3515,-11.718750
3516,-11.718750
3517,-11.718750
3518,-11.718750
3519,-11.718750
3520,-11.718750
3521,-11.718750
3522,-11.718750
3523,-11.718750
3524,-11.718750
3525,-11.718750
3526,-11.718750
3527,-11.718750
3528,-11.718750
3529,-11.718750
3530,-11.718750
3531,-15.625000
3532,-11.718750
3533,-11.718750
3534,-15.625000
3535,-15.625000
3536,-11.718750
3537,-15.625000
3538,-15.625000
3539,-11.718750
3540,-15.625000
3541,-15.625000
3542,-15.625000
3543,-15.625000
3544,-15.625000
3545,-15.625000
3546,-15.625000
3547,-15.625000
3548,-15.625000
3549,-15.625000
3550,-15.625000
3551,-15.625000
3552,-15.625000
3553,-15.625000
3554,-15.625000
3555,-15.625000
3556,-15.625000
3557,-15.625000
3558,-15.625000
3559,-15.625000
3560,-15.625000
3561,-15.625000
3562,-15.625000
3563,-15.625000
3564,-15.625000
3565,-15.625000
3566,-15.625000
3567,-15.625000
3568,-15.625000
3569,-15.625000
3570,-19.531250
3571,-15.625000
3572,-15.625000
3573,-19.531250
3574,-19.531250
3575,-15.625000
3576,-15.625000
3577,-19.531250
3578,-19.531250
3579,-19.531250
3580,-19.531250
3581,-19.531250
3582,-19.531250
3583,-19.531250
3584,-19.531250
3585,-19.531250
3586,-19.531250
3587,-19.531250
3588,-19.531250
3589,-19.531250
3590,-19.531250
3591,-19.531250
3592,-19.531250
3593,-19.531250
3594,-19.531250
3595,-19.531250
3596,-19.531250
3597,-19.531250
3598,-19.531250
3599,-19.531250
3600,-19.531250
3601,-19.531250
3602,-19.531250
3603,-19.531250
3604,-19.531250
3605,-19.531250
3606,-19.531250
3607,-19.531250
3608,-19.531250
3609,-23.437500
3610,-23.437500
3611,-23.437500
3612,-19.531250
3613,-23.437500
3614,-23.437500
3615,-23.437500
3616,-23.437500
3617,-23.437500
3618,-23.437500
3619,-23.437500
3620,-23.437500
3621,-23.437500
3622,-23.437500
3623,-23.437500
3624,-23.437500
3625,-23.437500
3626,-23.437500
3627,-23.437500
3628,-23.437500
3629,-23.437500
3630,-23.437500
3631,-23.437500
3632,-23.437500
3633,-23.437500
3634,-23.437500
3635,-23.437500
3636,-23.437500
3637,-23.437500
3638,-27.343750
3639,-27.343750
3640,-23.437500
3641,-23.437500
3642,-23.437500
3643,-23.437500
3644,-23.437500
3645,-23.437500
3646,-23.437500
3647,-23.437500
3648,-23.437500
3649,-23.437500
3650,-23.437500
3651,-23.437500
3652,-23.437500
3653,-23.437500
3654,-23.437500
3655,-23.437500
3656,-27.343750
3657,-27.343750
3658,-27.343750
3659,-27.343750
3660,-27.343750
3661,-27.343750
3662,-23.437500
3663,-27.343750
3664,-27.343750
3665,-27.343750
3666,-27.343750
3667,-27.343750
3668,-27.343750
3669,-27.343750
3670,-27.343750
3671,-27.343750
3672,-27.343750
3673,-27.343750
3674,-27.343750
3675,-27.343750
3676,-27.343750
3677,-27.343750
3678,-27.343750
3679,-27.343750
3680,-27.343750
3681,-27.343750
3682,-27.343750
3683,-27.343750
3684,-27.343750
3685,-27.343750
3686,-27.343750
3687,-27.343750
3688,-27.343750
3689,-27.343750
3690,-27.343750
3691,-27.343750
3692,-31.250000
3693,-27.343750
3694,-27.343750
3695,-27.343750
3696,-31.250000
3697,-27.343750
3698,-27.343750
3699,-27.343750
3700,-27.343750
3701,-27.343750
3702,-27.343750
3703,-27.343750
3704,-27.343750
3705,-31.250000
3706,-27.343750
3707,-27.343750
3708,-27.343750
3709,-27.343750
3710,-27.343750
3711,-27.343750
3712,-27.343750
3713,-27.343750
3714,-27.343750
3715,-27.343750
3716,-27.343750
3717,-27.343750
3718,-27.343750
3719,-27.343750
3720,-27.343750
3721,-31.250000
3722,-31.250000
3723,-27.343750
3724,-31.250000
3725,-27.343750
3726,-27.343750
3727,-31.250000
3728,-27.343750
3729,-31.250000
3730,-31.250000
3731,-31.250000
3732,-31.250000
3733,-31.250000
3734,-31.250000
3735,-31.250000
3736,-31.250000
3737,-27.343750
3738,-31.250000
3739,-31.250000
3740,-31.250000
3741,-31.250000
3742,-31.250000
3743,-31.250000
3744,-31.250000
3745,-31.250000
3746,-31.250000
3747,-31.250000
3748,-31.250000
3749,-31.250000
3750,-31.250000
3751,-31.250000
3752,-31.250000
3753,-31.250000
3754,-31.250000
3755,-31.250000
3756,-31.250000
3757,-31.250000
3758,-31.250000
3759,-31.250000
3760,-31.250000
3761,-31.250000
3762,-31.250000
3763,-31.250000
3764,-31.250000
3765,-31.250000
3766,-31.250000
3767,-31.250000
3768,-31.250000
3769,-31.250000
3770,-31.250000
3771,-31.250000
3772,-31.250000
3773,-31.250000
3774,-31.250000
3775,-31.250000
3776,-31.250000
3777,-31.250000
3778,-31.250000
3779,-31.250000
3780,-31.250000
3781,-31.250000
3782,-31.250000
3783,-31.250000
3784,-31.250000
3785,-31.250000
3786,-31.250000
3787,-31.250000
3788,-31.250000
3789,-31.250000
3790,-31.250000
3791,-31.250000
3792,-31.250000
3793,-31.250000
3794,-31.250000
3795,-31.250000
3796,-31.250000
3797,-31.250000
3798,-31.250000
3799,-31.250000
3800,-31.250000
3801,-31.250000
3802,-31.250000
3803,-31.250000
3804,-31.250000
3805,-31.250000
3806,-31.250000
3807,-31.250000
3808,-31.250000
3809,-31.250000
3810,-31.250000
3811,-31.250000
3812,-31.250000
3813,-31.250000
3814,-31.250000
3815,-31.250000
3816,-31.250000
3817,-31.250000
3818,-31.250000
3819,-31.250000
3820,-31.250000
3821,-31.250000
3822,-31.250000
3823,-31.250000
3824,-31.250000
3825,-31.250000
3826,-31.250000
3827,-31.250000
3828,-31.250000
3829,-31.250000
3830,-31.250000
3831,-31.250000
3832,-31.250000
3833,-31.250000
3834,-31.250000
3835,-31.250000
3836,-31.250000
3837,-31.250000
3838,-31.250000
3839,-31.250000
3840,-31.250000
3841,-31.250000
3842,-31.250000
3843,-31.250000
3844,-31.250000
3845,-31.250000
3846,-31.250000
3847,-31.250000
3848,-31.250000
3849,-31.250000
3850,-31.250000
3851,-31.250000
3852,-31.250000
3853,-31.250000
3854,-31.250000
3855,-31.250000
3856,-31.250000
3857,-31.250000
3858,-31.250000
3859,-31.250000
3860,-31.250000
3861,-31.250000
3862,-31.250000
3863,-31.250000
3864,-31.250000
3865,-31.250000
3866,-31.250000
3867,-31.250000
3868,-31.250000
3869,-27.343750
3870,-27.343750
3871,-31.250000
3872,-31.250000
3873,-31.250000
3874,-31.250000
3875,-31.250000
3876,-31.250000
3877,-31.250000
3878,-31.250000
3879,-27.343750
3880,-27.343750
3881,-31.250000
3882,-31.250000
3883,-27.343750
3884,-27.343750
3885,-31.250000
3886,-27.343750
3887,-31.250000
3888,-31.250000
3889,-27.343750
3890,-27.343750
3891,-31.250000
3892,-27.343750
3893,-27.343750
3894,-27.343750
3895,-27.343750
3896,-27.343750
3897,-27.343750
3898,-27.343750
3899,-27.343750
3900,-27.343750
3901,-27.343750
3902,-27.343750
3903,-27.343750
3904,-27.343750
3905,-27.343750
3906,-27.343750
3907,-27.343750
3908,-27.343750
3909,-27.343750
3910,-27.343750
3911,-27.343750
3912,-27.343750
3913,-27.343750
3914,-27.343750
3915,-27.343750
3916,-27.343750
3917,-27.343750
3918,-27.343750
3919,-27.343750
3920,-27.343750
3921,-27.343750
3922,-27.343750
3923,-27.343750
3924,-27.343750
3925,-27.343750
3926,-27.343750
3927,-27.343750
3928,-27.343750
3929,-27.343750
3930,-27.343750
3931,-27.343750
3932,-27.343750
3933,-27.343750
3934,-27.343750
3935,-27.343750
3936,-27.343750
3937,-27.343750
3938,-27.343750
3939,-27.343750
3940,-23.437500
3941,-27.343750
3942,-27.343750
3943,-23.437500
3944,-23.437500
3945,-23.437500
3946,-23.437500
3947,-23.437500
3948,-23.437500
3949,-23.437500
3950,-23.437500
3951,-23.437500
3952,-23.437500
3953,-23.437500
3954,-23.437500
3955,-23.437500
3956,-23.437500
3957,-23.437500
3958,-23.437500
3959,-23.437500
3960,-23.437500
3961,-23.437500
3962,-23.437500
3963,-23.437500
3964,-23.437500
3965,-23.437500
3966,-23.437500
3967,-23.437500
3968,-23.437500
3969,-23.437500
3970,-23.437500
3971,-23.437500
3972,-23.437500
3973,-23.437500
3974,-23.437500
3975,-23.437500
3976,-23.437500
3977,-23.437500
3978,-19.531250
3979,-23.437500
3980,-23.437500
3981,-23.437500
3982,-23.437500
3983,-23.437500
3984,-23.437500
3985,-23.437500
3986,-19.531250
3987,-19.531250
3988,-19.531250
3989,-19.531250
3990,-19.531250
3991,-19.531250
3992,-19.531250
3993,-19.531250
3994,-23.437500
3995,-19.531250
3996,-19.531250
3997,-19.531250
3998,-19.531250
3999,-19.531250
4000,-19.531250
4001,-19.531250
4002,-19.531250
4003,-19.531250
4004,-19.531250
4005,-19.531250
4006,-19.531250
4007,-19.531250
4008,-19.531250
4009,-19.531250
4010,-19.531250
4011,-19.531250
4012,-19.531250
4013,-19.531250
4014,-19.531250
4015,-19.531250
4016,-19.531250
4017,-19.531250
4018,-19.531250
4019,-15.625000
4020,-19.531250
4021,-15.625000
4022,-15.625000
4023,-15.625000
4024,-15.625000
4025,-15.625000
4026,-19.531250
4027,-15.625000
4028,-15.625000
4029,-15.625000
4030,-15.625000
4031,-19.531250
4032,-15.625000
4033,-15.625000
4034,-15.625000
4035,-15.625000
4036,-19.531250
4037,-15.625000
4038,-15.625000
4039,-15.625000
4040,-15.625000
4041,-15.625000
4042,-15.625000
4043,-15.625000
4044,-15.625000
4045,-15.625000
4046,-15.625000
4047,-15.625000
4048,-15.625000
4049,-15.625000
4050,-11.718750
4051,-15.625000
4052,-15.625000
4053,-11.718750
4054,-11.718750
4055,-11.718750
4056,-11.718750
4057,-11.718750
4058,-11.718750
4059,-15.625000
4060,-11.718750
4061,-11.718750
4062,-11.718750
4063,-11.718750
4064,-11.718750
4065,-11.718750
4066,-11.718750
4067,-11.718750
4068,-11.718750
4069,-11.718750
4070,-11.718750
4071,-11.718750
4072,-11.718750
4073,-11.718750
4074,-11.718750
4075,-11.718750
4076,-11.718750
4077,-11.718750
4078,-11.718750
4079,-7.812500
4080,-11.718750
4081,-11.718750
4082,-11.718750
4083,-7.812500
4084,-7.812500
4085,-7.812500
4086,-7.812500
4087,-7.812500
4088,-7.812500
4089,-7.812500
4090,-7.812500
4091,-7.812500
4092,-7.812500
4093,-7.812500
4094,-7.812500
4095,-7.812500
4096,-7.812500
4097,-7.812500
4098,-7.812500
4099,-7.812500
4100,-7.812500
4101,-7.812500
4102,-3.906250
4103,-7.812500
4104,-7.812500
4105,-7.812500
4106,-7.812500
4107,-3.906250
4108,-7.812500
4109,-7.812500
4110,-3.906250
4111,-7.812500
4112,-3.906250
4113,-3.906250
4114,-7.812500
4115,-7.812500
4116,-7.812500
4117,-3.906250
4118,-3.906250
4119,-3.906250
4120,-7.812500
4121,-3.906250
4122,-3.906250
4123,-3.906250
4124,-3.906250
4125,-3.906250
4126,-3.906250
4127,-3.906250
4128,-3.906250
4129,-3.906250
4130,-3.906250
4131,-3.906250
4132,-3.906250
4133,-3.906250
4134,-3.906250
4135,-3.906250
4136,-3.906250
4137,-3.906250
4138,-3.906250
4139,-3.906250
4140,-3.906250
4141,-3.906250
4142,-3.906250
4143,-3.906250
4144,-3.906250
4145,-3.906250
4146,0.000000
4147,-3.906250
4148,-3.906250
4149,0.000000
4150,-3.906250
4151,0.000000
4152,-3.906250
4153,-3.906250
4154,-3.906250
4155,0.000000
4156,0.000000
4157,0.000000
4158,0.000000
4159,0.000000
4160,0.000000
4161,0.000000
4162,0.000000
4163,0.000000
4164,0.000000
4165,0.000000
4166,0.000000
4167,0.000000
4168,0.000000
4169,0.000000
4170,0.000000
4171,0.000000
4172,0.000000
4173,0.000000
4174,0.000000
4175,0.000000
4176,0.000000
4177,0.000000
4178,0.000000
4179,0.000000
4180,3.906250
4181,0.000000
4182,3.906250
4183,0.000000
4184,0.000000
4185,0.000000
4186,0.000000
4187,0.000000
4188,3.906250
4189,3.906250
4190,0.000000
4191,0.000000
4192,0.000000
4193,3.906250
4194,3.906250
4195,3.906250
4196,3.906250
4197,3.906250
4198,3.906250
4199,3.906250
4200,3.906250
4201,3.906250
4202,3.906250
4203,3.906250
4204,3.906250
4205,3.906250
4206,3.906250
4207,3.906250
4208,3.906250
4209,3.906250
4210,3.906250
4211,3.906250
4212,3.906250
4213,3.906250
4214,3.906250
4215,3.906250
4216,3.906250
4217,3.906250
4218,3.906250
4219,3.906250
4220,3.906250
4221,3.906250
4222,3.906250
4223,3.906250
4224,3.906250
4225,3.906250
4226,3.906250
4227,3.906250
4228,3.906250
4229,3.906250
4230,3.906250
4231,3.906250
4232,3.906250
4233,3.906250
4234,3.906250
4235,3.906250
4236,3.906250
4237,3.906250
4238,3.906250
4239,3.906250
4240,3.906250
4241,3.906250
4242,3.906250
4243,3.906250
4244,3.906250
4245,3.906250
4246,3.906250
4247,3.906250
4248,3.906250
4249,3.906250
4250,3.906250
4251,3.906250
4252,3.906250
4253,3.906250
4254,3.906250
4255,3.906250
4256,3.906250
4257,3.906250
4258,3.906250
4259,3.906250
4260,3.906250
4261,3.906250
4262,3.906250
4263,3.906250
4264,3.906250
4265,3.906250
4266,3.906250
4267,3.906250
4268,3.906250
4269,3.906250
4270,3.906250
4271,3.906250
4272,7.812500
4273,3.906250
4274,3.906250
4275,3.906250
4276,3.906250
4277,3.906250
4278,3.906250
4279,3.906250
4280,3.906250
4281,3.906250
4282,3.906250
4283,3.906250
4284,3.906250
4285,3.906250
4286,3.906250
4287,3.906250
4288,3.906250
4289,3.906250
4290,3.906250
4291,3.906250
4292,3.906250
4293,3.906250
4294,3.906250
4295,3.906250
4296,3.906250
4297,3.906250
4298,3.906250
4299,3.906250
4300,3.906250
4301,3.906250
4302,7.812500
4303,7.812500
4304,3.906250
4305,3.906250
4306,3.906250
4307,3.906250
4308,3.906250
4309,3.906250
4310,3.906250
4311,7.812500
4312,3.906250
4313,3.906250
4314,3.906250
4315,3.906250
4316,3.906250
4317,3.906250
4318,3.906250
4319,3.906250
4320,3.906250
4321,3.906250
4322,3.906250
4323,3.906250
4324,3.906250
4325,3.906250
4326,3.906250
4327,3.906250
4328,3.906250
4329,3.906250
4330,3.906250
4331,3.906250
4332,3.906250
4333,3.906250
4334,3.906250
4335,3.906250
4336,3.906250
4337,3.906250
4338,3.906250
4339,3.906250
4340,3.906250
4341,3.906250
4342,3.906250
4343,3.906250
4344,3.906250
4345,3.906250
4346,3.906250
4347,3.906250
4348,3.906250
4349,3.906250
4350,3.906250
4351,3.906250
4352,3.906250
4353,3.906250
4354,3.906250
4355,3.906250
4356,3.906250
4357,3.906250
4358,3.906250
4359,3.906250
4360,0.000000
4361,3.906250
4362,3.906250
4363,3.906250
4364,3.906250
4365,3.906250
4366,3.906250
4367,0.000000
4368,3.906250
4369,0.000000
4370,0.000000
4371,0.000000
4372,0.000000
4373,0.000000
4374,0.000000
4375,3.906250
4376,0.000000
4377,0.000000
4378,0.000000
4379,0.000000
4380,0.000000
4381,0.000000
4382,0.000000
4383,0.000000
4384,0.000000
4385,0.000000
4386,0.000000
4387,0.000000
4388,0.000000
4389,0.000000
4390,0.000000
4391,0.000000
4392,0.000000
4393,0.000000
4394,0.000000
4395,0.000000
4396,0.000000
4397,0.000000
4398,0.000000
4399,0.000000
4400,0.000000
4401,0.000000
4402,0.000000
4403,0.000000
4404,0.000000
4405,-3.906250
4406,-3.906250
4407,-3.906250
4408,-3.906250
4409,0.000000
4410,0.000000
4411,-3.906250
4412,0.000000
4413,0.000000
4414,-3.906250
4415,-3.906250
4416,-3.906250
4417,-3.906250
4418,-3.906250
4419,-3.906250
4420,-3.906250
4421,-3.906250
4422,-3.906250
4423,-3.906250
4424,-3.906250
4425,-3.906250
4426,-3.906250
4427,-3.906250
4428,-3.906250
4429,-3.906250
4430,-3.906250
4431,-3.906250
4432,-3.906250
4433,-3.906250
4434,-3.906250
4435,-3.906250
4436,-3.906250
4437,-3.906250
4438,-3.906250
4439,-3.906250
4440,-3.906250
4441,-3.906250
4442,-3.906250
4443,-3.906250
4444,-3.906250
4445,-3.906250
4446,-3.906250
4447,-3.906250
4448,-3.906250
4449,-7.812500
4450,-3.906250
4451,-3.906250
4452,-7.812500
4453,-3.906250
4454,-3.906250
4455,-7.812500
4456,-3.906250
4457,-7.812500
4458,-7.812500
4459,-7.812500
4460,-7.812500
4461,-7.812500
4462,-7.812500
4463,-7.812500
4464,-7.812500
4465,-7.812500
4466,-7.812500
4467,-7.812500
4468,-7.812500
4469,-7.812500
4470,-7.812500
4471,-7.812500
4472,-7.812500
4473,-7.812500
4474,-7.812500
4475,-7.812500
4476,-7.812500
4477,-7.812500
4478,-7.812500
4479,-11.718750
4480,-7.812500
4481,-7.812500
4482,-7.812500
4483,-7.812500
4484,-7.812500
4485,-7.812500
4486,-11.718750
4487,-11.718750
4488,-11.718750
4489,-11.718750
4490,-11.718750
4491,-11.718750
4492,-11.718750
4493,-11.718750
4494,-11.718750
4495,-11.718750
4496,-11.718750
4497,-11.718750
4498,-11.718750
4499,-11.718750
4500,-11.718750
4501,-11.718750
4502,-11.718750
4503,-11.718750
4504,-11.718750
4505,-11.718750
4506,-11.718750
4507,-11.718750
4508,-11.718750
4509,-11.718750
4510,-11.718750
4511,-11.718750
4512,-11.718750
4513,-11.718750
4514,-11.718750
4515,-11.718750
4516,-11.718750
4517,-11.718750
4518,-11.718750
4519,-11.718750
4520,-11.718750
4521,-15.625000
4522,-15.625000
4523,-15.625000
4524,-15.625000
4525,-15.625000
4526,-15.625000
4527,-15.625000
4528,-15.625000
4529,-15.625000
4530,-15.625000
4531,-15.625000
4532,-15.625000
4533,-15.625000
4534,-15.625000
4535,-15.625000
4536,-15.625000
4537,-15.625000
4538,-15.625000
4539,-15.625000
4540,-15.625000
4541,-15.625000
4542,-15.625000
4543,-15.625000
4544,-15.625000
4545,-15.625000
4546,-15.625000
4547,-15.625000
4548,-15.625000
4549,-15.625000
4550,-15.625000
4551,-15.625000
4552,-15.625000
4553,-15.625000
4554,-19.531250
4555,-15.625000
4556,-15.625000
4557,-15.625000
4558,-15.625000
4559,-19.531250
4560,-15.625000
4561,-19.531250
4562,-19.531250
4563,-19.531250
4564,-19.531250
4565,-19.531250
4566,-19.531250
4567,-19.531250
4568,-19.531250
4569,-19.531250
4570,-19.531250
4571,-19.531250
4572,-19.531250
4573,-19.531250
4574,-19.531250
4575,-19.531250
4576,-19.531250
4577,-19.531250
4578,-19.531250
4579,-19.531250
4580,-19.531250
4581,-19.531250
4582,-19.531250
4583,-19.531250
4584,-19.531250
4585,-19.531250
4586,-19.531250
4587,-23.437500
4588,-19.531250
4589,-19.531250
4590,-19.531250
4591,-19.531250
4592,-19.531250
4593,-19.531250
4594,-19.531250
4595,-23.437500
4596,-19.531250
4597,-19.531250
4598,-19.531250
4599,-23.437500
4600,-19.531250
4601,-19.531250
4602,-19.531250
4603,-23.437500
4604,-19.531250
4605,-23.437500
4606,-23.437500
4607,-23.437500
4608,-23.437500
4609,-23.437500
4610,-23.437500
4611,-23.437500
4612,-23.437500
4613,-23.437500
4614,-23.437500
4615,-23.437500
4616,-23.437500
4617,-23.437500
4618,-23.437500
4619,-23.437500
4620,-23.437500
4621,-23.437500
4622,-23.437500
4623,-23.437500
4624,-23.437500
4625,-23.437500
4626,-23.437500
4627,-23.437500
4628,-23.437500
4629,-23.437500
4630,-23.437500
4631,-23.437500
4632,-23.437500
4633,-23.437500
4634,-23.437500
4635,-23.437500
4636,-23.437500
4637,-23.437500
4638,-23.437500
4639,-23.437500
4640,-23.437500
4641,-23.437500
4642,-23.437500
4643,-23.437500
4644,-23.437500
4645,-27.343750
4646,-27.343750
4647,-23.437500
4648,-23.437500
4649,-27.343750
4650,-27.343750
4651,-27.343750
4652,-27.343750
4653,-27.343750
4654,-27.343750
4655,-27.343750
4656,-27.343750
4657,-27.343750
4658,-27.343750
4659,-27.343750
4660,-27.343750
4661,-27.343750
4662,-27.343750
4663,-27.343750
4664,-27.343750
4665,-27.343750
4666,-27.343750
4667,-27.343750
4668,-27.343750
4669,-27.343750
4670,-27.343750
4671,-27.343750
4672,-27.343750
4673,-27.343750
4674,-27.343750
4675,-27.343750
4676,-27.343750
4677,-27.343750
4678,-27.343750
4679,-27.343750
4680,-27.343750
4681,-27.343750
4682,-27.343750
4683,-27.343750
4684,-27.343750
4685,-27.343750
4686,-27.343750
4687,-27.343750
4688,-27.343750
4689,-27.343750
4690,-27.343750
4691,-27.343750
4692,-27.343750
4693,-27.343750
4694,-27.343750
4695,-27.343750
4696,-27.343750
4697,-27.343750
4698,-27.343750
4699,-27.343750
4700,-27.343750
4701,-27.343750
4702,-27.343750
4703,-27.343750
4704,-27.343750
4705,-27.343750
4706,-27.343750
4707,-27.343750
4708,-27.343750
4709,-27.343750
4710,-27.343750
4711,-27.343750
4712,-27.343750
4713,-27.343750
4714,-27.343750
4715,-27.343750
4716,-27.343750
4717,-27.343750
4718,-27.343750
4719,-27.343750
4720,-31.250000
4721,-31.250000
4722,-27.343750
4723,-31.250000
4724,-31.250000
4725,-27.343750
4726,-27.343750
4727,-31.250000
4728,-31.250000
4729,-31.250000
4730,-31.250000
4731,-31.250000
4732,-31.250000
4733,-31.250000
4734,-31.250000
4735,-31.250000
4736,-31.250000
4737,-31.250000
4738,-31.250000
4739,-31.250000
4740,-31.250000
4741,-31.250000
4742,-31.250000
4743,-31.250000
4744,-31.250000
4745,-31.250000
4746,-31.250000
4747,-31.250000
4748,-31.250000
4749,-31.250000
4750,-31.250000
4751,-31.250000
4752,-31.250000
4753,-31.250000
4754,-31.250000
4755,-31.250000
4756,-31.250000
4757,-31.250000
4758,-31.250000
4759,-31.250000
4760,-31.250000
4761,-31.250000
4762,-31.250000
4763,-31.250000
4764,-31.250000
4765,-31.250000
4766,-31.250000
4767,-31.250000
4768,-31.250000
4769,-31.250000
4770,-31.250000
4771,-31.250000
4772,-31.250000
4773,-31.250000
4774,-31.250000
4775,-31.250000
4776,-31.250000
4777,-31.250000
4778,-31.250000
4779,-31.250000
4780,-31.250000
4781,-31.250000
4782,-31.250000
4783,-31.250000
4784,-31.250000
4785,-31.250000
4786,-31.250000
4787,-31.250000
4788,-31.250000
4789,-31.250000
4790,-31.250000
4791,-31.250000
4792,-31.250000
4793,-31.250000
4794,-31.250000
4795,-31.250000
4796,-31.250000
4797,-31.250000
4798,-31.250000
4799,-31.250000
4800,-31.250000
4801,-31.250000
4802,-31.250000
4803,-31.250000
4804,-31.250000
4805,-31.250000
4806,-31.250000
4807,-31.250000
4808,-31.250000
4809,-31.250000
4810,-31.250000
4811,-31.250000
4812,-31.250000
4813,-31.250000
4814,-31.250000
4815,-31.250000
4816,-31.250000
4817,-31.250000
4818,-31.250000
4819,-31.250000
4820,-31.250000
4821,-31.250000
4822,-31.250000
4823,-31.250000
4824,-31.250000
4825,-31.250000
4826,-31.250000
4827,-31.250000
4828,-31.250000
4829,-31.250000
4830,-31.250000
4831,-31.250000
4832,-31.250000
4833,-31.250000
4834,-31.250000
4835,-31.250000
4836,-31.250000
4837,-31.250000
4838,-31.250000
4839,-31.250000
4840,-31.250000
4841,-31.250000
4842,-31.250000
4843,-31.250000
4844,-31.250000
4845,-31.250000
4846,-31.250000
4847,-31.250000
4848,-31.250000
4849,-31.250000
4850,-31.250000
4851,-31.250000
4852,-27.343750
4853,-31.250000
4854,-31.250000
4855,-31.250000
4856,-31.250000
4857,-31.250000
4858,-31.250000
4859,-31.250000
4860,-27.343750
4861,-31.250000
4862,-31.250000
4863,-31.250000
4864,-31.250000
4865,-31.250000
4866,-31.250000
4867,-27.343750
4868,-31.250000
4869,-27.343750
4870,-27.343750
4871,-27.343750
4872,-27.343750
4873,-27.343750
4874,-31.250000
4875,-31.250000
4876,-27.343750
4877,-27.343750
4878,-27.343750
4879,-27.343750
4880,-27.343750
4881,-27.343750
4882,-27.343750
4883,-27.343750
4884,-27.343750
4885,-27.343750
4886,-31.250000
4887,-27.343750
4888,-27.343750
4889,-27.343750
4890,-27.343750
4891,-27.343750
4892,-27.343750
4893,-27.343750
4894,-27.343750
4895,-27.343750
4896,-27.343750
4897,-27.343750
4898,-27.343750
4899,-27.343750
4900,-27.343750
4901,-27.343750
4902,-27.343750
4903,-27.343750
4904,-27.343750
4905,-27.343750
4906,-27.343750
4907,-27.343750
4908,-27.343750
4909,-27.343750
4910,-27.343750
4911,-27.343750
4912,-27.343750
4913,-27.343750
4914,-27.343750
4915,-27.343750
4916,-27.343750
4917,-27.343750
4918,-27.343750
4919,-27.343750
4920,-27.343750
4921,-27.343750
4922,-27.343750
4923,-27.343750
4924,-27.343750
4925,-27.343750
4926,-27.343750
4927,-27.343750
4928,-27.343750
4929,-27.343750
4930,-27.343750
4931,-23.437500
4932,-23.437500
4933,-23.437500
4934,-23.437500
4935,-23.437500
4936,-23.437500
4937,-23.437500
4938,-23.437500
4939,-23.437500
4940,-23.437500
4941,-23.437500
4942,-23.437500
4943,-23.437500
4944,-23.437500
4945,-23.437500
4946,-23.437500
4947,-23.437500
4948,-23.437500
4949,-23.437500
4950,-23.437500
4951,-23.437500
4952,-23.437500
4953,-23.437500
4954,-23.437500
4955,-23.437500
4956,-23.437500
4957,-23.437500
4958,-23.437500
4959,-23.437500
4960,-23.437500
4961,-23.437500
4962,-23.437500
4963,-23.437500
4964,-23.437500
4965,-23.437500
4966,-23.437500
4967,-19.531250
4968,-23.437500
4969,-23.437500
4970,-19.531250
4971,-23.437500
4972,-23.437500
4973,-23.437500
4974,-23.437500
4975,-19.531250
4976,-19.531250
4977,-19.531250
4978,-19.531250
4979,-19.531250
4980,-19.531250
4981,-19.531250
4982,-19.531250
4983,-19.531250
4984,-19.531250
4985,-19.531250
4986,-19.531250
4987,-19.531250
4988,-19.531250
4989,-19.531250
4990,-19.531250
4991,-19.531250
4992,-19.531250
4993,-19.531250
4994,-19.531250
4995,-19.531250
4996,-19.531250
4997,-19.531250
4998,-19.531250
4999,-19.531250
5000,-19.531250
5001,-19.531250
5002,-19.531250
5003,-19.531250
5004,-19.531250
5005,-19.531250
5006,-19.531250
5007,-15.625000
5008,-19.531250
5009,-15.625000
5010,-15.625000
5011,-15.625000
5012,-15.625000
5013,-15.625000
5014,-15.625000
5015,-15.625000
5016,-15.625000
5017,-15.625000
5018,-15.625000
5019,-15.625000
5020,-15.625000
5021,-15.625000
5022,-15.625000
5023,-15.625000
5024,-15.625000
5025,-15.625000
5026,-15.625000
5027,-15.625000
5028,-15.625000
5029,-15.625000
5030,-15.625000
5031,-15.625000
5032,-15.625000
5033,-15.625000
5034,-15.625000
5035,-15.625000
5036,-15.625000
5037,-15.625000
5038,-15.625000
5039,-15.625000
5040,-15.625000
5041,-15.625000
5042,-15.625000
5043,-11.718750
5044,-15.625000
5045,-15.625000
5046,-11.718750
5047,-11.718750
5048,-11.718750
5049,-11.718750
5050,-15.625000
5051,-11.718750
5052,-11.718750
5053,-11.718750
5054,-11.718750
5055,-11.718750
5056,-11.718750
5057,-11.718750
5058,-11.718750
5059,-11.718750
5060,-11.718750
5061,-11.718750
5062,-11.718750
5063,-11.718750
5064,-11.718750
5065,-11.718750
5066,-11.718750
5067,-11.718750
5068,-11.718750
5069,-11.718750
5070,-11.718750
5071,-11.718750
5072,-7.812500
5073,-11.718750
5074,-7.812500
5075,-11.718750
5076,-7.812500
5077,-7.812500
5078,-7.812500
5079,-7.812500
5080,-7.812500
5081,-7.812500
5082,-7.812500
5083,-7.812500
5084,-7.812500
5085,-7.812500
5086,-7.812500
5087,-7.812500
5088,-7.812500
5089,-7.812500
5090,-7.812500
5091,-7.812500
5092,-7.812500
5093,-7.812500
5094,-7.812500
5095,-7.812500
5096,-7.812500
5097,-7.812500
5098,-7.812500
5099,-7.812500
5100,-7.812500
5101,-7.812500
5102,-7.812500
5103,-7.812500
5104,-7.812500
5105,-3.906250
5106,-3.906250
5107,-3.906250
5108,-3.906250
5109,-3.906250
5110,-3.906250
5111,-3.906250
5112,-3.906250
5113,-3.906250
5114,-3.906250
5115,-3.906250
5116,-3.906250
5117,-3.906250
5118,-3.906250
5119,-3.906250
5120,-3.906250
5121,-3.906250
5122,-3.906250
5123,-3.906250
5124,-3.906250
5125,-3.906250
5126,-3.906250
5127,-3.906250
5128,-3.906250
5129,-3.906250
5130,-3.906250
5131,-3.906250
5132,-3.906250
5133,-3.906250
5134,-3.906250
5135,0.000000
5136,-3.906250
5137,0.000000
5138,0.000000
5139,0.000000
5140,-3.906250
5141,0.000000
5142,0.000000
5143,0.000000
5144,0.000000
5145,0.000000
5146,0.000000
5147,0.000000
5148,0.000000
5149,0.000000
5150,0.000000
5151,0.000000
5152,0.000000
5153,0.000000
5154,0.000000
5155,0.000000
5156,0.000000
5157,0.000000
5158,0.000000
5159,0.000000
5160,0.000000
5161,0.000000
5162,0.000000
5163,0.000000
5164,0.000000
5165,0.000000
5166,0.000000
5167,0.000000
5168,0.000000
5169,0.000000
5170,0.000000
5171,3.906250
5172,0.000000
5173,0.000000
5174,0.000000
5175,0.000000
5176,0.000000
5177,0.000000
5178,0.000000
5179,0.000000
5180,0.000000
5181,0.000000
5182,0.000000
5183,3.906250
5184,0.000000
5185,3.906250
5186,0.000000
5187,3.906250
5188,0.000000
5189,3.906250
5190,3.906250
5191,3.906250
5192,3.906250
5193,3.906250
5194,3.906250
5195,3.906250
5196,3.906250
5197,3.906250
5198,3.906250
5199,3.906250
5200,3.906250
5201,3.906250
5202,3.906250
5203,3.906250
5204,3.906250
5205,3.906250
5206,3.906250
5207,3.906250
5208,3.906250
5209,3.906250
5210,3.906250
5211,3.906250
5212,3.906250
5213,3.906250
5214,3.906250
5215,3.906250
5216,3.906250
5217,3.906250
5218,3.906250
5219,3.906250
5220,3.906250
5221,3.906250
5222,3.906250
5223,3.906250
5224,3.906250
5225,3.906250
5226,3.906250
5227,3.906250
5228,3.906250
5229,3.906250
5230,3.906250
5231,3.906250
5232,3.906250
5233,3.906250
5234,3.906250
5235,3.906250
5236,3.906250
5237,3.906250
5238,3.906250
5239,3.906250
5240,3.906250
5241,3.906250
5242,3.906250
5243,3.906250
5244,3.906250
5245,3.906250
5246,3.906250
5247,3.906250
5248,7.812500
5249,3.906250
5250,3.906250
5251,3.906250
5252,3.906250
5253,3.906250
5254,3.906250
5255,3.906250
5256,3.906250
5257,3.906250
5258,7.812500
5259,3.906250
5260,3.906250
5261,3.906250
5262,7.812500
5263,3.906250
5264,3.906250
5265,3.906250
5266,3.906250
5267,3.906250
5268,3.906250
5269,3.906250
5270,3.906250
5271,3.906250
5272,3.906250
5273,3.906250
5274,3.906250
5275,3.906250
5276,3.906250
5277,3.906250
5278,7.812500
5279,3.906250
5280,3.906250
5281,7.812500
5282,3.906250
5283,3.906250
5284,3.906250
5285,3.906250
5286,3.906250
5287,3.906250
5288,3.906250
5289,7.812500
5290,3.906250
5291,3.906250
5292,3.906250
5293,3.906250
5294,3.906250
5295,3.906250
5296,3.906250
5297,3.906250
5298,3.906250
5299,3.906250
5300,3.906250
5301,3.906250
5302,3.906250
5303,3.906250
5304,3.906250
5305,3.906250
5306,3.906250
5307,3.906250
5308,3.906250
5309,3.906250
5310,3.906250
5311,3.906250
5312,3.906250
5313,3.906250
5314,3.906250
5315,3.906250
5316,3.906250
5317,3.906250
5318,3.906250
5319,3.906250
5320,3.906250
5321,3.906250
5322,3.906250
5323,3.906250
5324,3.906250
5325,3.906250
5326,3.906250
5327,3.906250
5328,3.906250
5329,3.906250
5330,3.906250
5331,3.906250
5332,3.906250
5333,3.906250
5334,3.906250
5335,3.906250
5336,3.906250
5337,3.906250
5338,3.906250
5339,3.906250
5340,3.906250
5341,3.906250
5342,3.906250
5343,3.906250
5344,3.906250
5345,3.906250
5346,3.906250
5347,3.906250
5348,3.906250
5349,3.906250
5350,3.906250
5351,3.906250
5352,3.906250
5353,3.906250
5354,3.906250
5355,3.906250
5356,3.906250
5357,3.906250
5358,3.906250
5359,0.000000
5360,0.000000
5361,3.906250
5362,0.000000
5363,0.000000
5364,0.000000
5365,0.000000
5366,3.906250
5367,0.000000
5368,0.000000
5369,0.000000
5370,0.000000
5371,0.000000
5372,0.000000
5373,0.000000
5374,0.000000
5375,0.000000
5376,0.000000
5377,0.000000
5378,0.000000
5379,0.000000
5380,0.000000
5381,0.000000
5382,0.000000
5383,0.000000
5384,0.000000
5385,0.000000
5386,0.000000
5387,0.000000
5388,0.000000
5389,0.000000
5390,0.000000
5391,0.000000
5392,0.000000
5393,0.000000
5394,0.000000
5395,0.000000
5396,0.000000
5397,0.000000
5398,0.000000
5399,0.000000
5400,0.000000
5401,-3.906250
5402,0.000000
5403,0.000000
5404,-3.906250
5405,0.000000
5406,0.000000
5407,0.000000
5408,0.000000
5409,0.000000
5410,0.000000
5411,-3.906250
5412,-3.906250
5413,-3.906250
5414,-3.906250
5415,-3.906250
5416,-3.906250
5417,-3.906250
5418,-3.906250
5419,-3.906250
5420,-3.906250
5421,-3.906250
5422,-3.906250
5423,-3.906250
5424,-3.906250
5425,-3.906250
5426,-3.906250
5427,-3.906250
5428,-3.906250
5429,-3.906250
5430,-3.906250
5431,-3.906250
5432,-3.906250
5433,-3.906250
5434,-3.906250
5435,-7.812500
5436,-3.906250
5437,-3.906250
5438,-3.906250
5439,-3.906250
5440,-3.906250
5441,-7.812500
5442,-7.812500
5443,-7.812500
5444,-7.812500
5445,-7.812500
5446,-7.812500
5447,-7.812500
5448,-7.812500
5449,-7.812500
5450,-7.812500
5451,-7.812500
5452,-7.812500
5453,-7.812500
5454,-7.812500
5455,-7.812500
5456,-7.812500
5457,-7.812500
5458,-7.812500
5459,-7.812500
5460,-7.812500
5461,-7.812500
5462,-7.812500
5463,-7.812500
5464,-7.812500
5465,-7.812500
5466,-7.812500
5467,-7.812500
5468,-7.812500
5469,-7.812500
5470,-7.812500
5471,-7.812500
5472,-7.812500
5473,-7.812500
5474,-11.718750
5475,-7.812500
5476,-7.812500
5477,-7.812500
5478,-7.812500
5479,-7.812500
5480,-11.718750
5481,-11.718750
5482,-11.718750
5483,-7.812500
5484,-11.718750
5485,-11.718750
5486,-11.718750
5487,-11.718750
5488,-11.718750
5489,-11.718750
5490,-11.718750
5491,-11.718750
5492,-11.718750
5493,-11.718750
5494,-11.718750
5495,-11.718750
5496,-11.718750
5497,-11.718750
5498,-11.718750
5499,-11.718750
5500,-11.718750
5501,-11.718750
5502,-11.718750
5503,-11.718750
5504,-11.718750
5505,-11.718750
5506,-11.718750
5507,-11.718750
5508,-11.718750
5509,-11.718750
5510,-15.625000
5511,-11.718750
5512,-11.718750
5513,-15.625000
5514,-15.625000
5515,-11.718750
5516,-15.625000
5517,-15.625000
5518,-15.625000
5519,-15.625000
5520,-15.625000
5521,-15.625000
5522,-15.625000
5523,-15.625000
5524,-15.625000
5525,-15.625000
5526,-15.625000
5527,-15.625000
5528,-15.625000
5529,-15.625000
5530,-15.625000
5531,-15.625000
5532,-15.625000
5533,-15.625000
5534,-15.625000
5535,-15.625000
5536,-15.625000
5537,-15.625000
5538,-15.625000
5539,-15.625000
5540,-15.625000
5541,-15.625000
5542,-15.625000
5543,-15.625000
5544,-19.531250
5545,-15.625000
5546,-15.625000
5547,-15.625000
5548,-19.531250
5549,-15.625000
5550,-19.531250
5551,-19.531250
5552,-19.531250
5553,-19.531250
5554,-19.531250
5555,-19.531250
5556,-19.531250
5557,-19.531250
5558,-19.531250
5559,-19.531250
5560,-19.531250
5561,-19.531250
5562,-19.531250
5563,-19.531250
5564,-19.531250
5565,-19.531250
5566,-19.531250
5567,-19.531250
5568,-19.531250
5569,-19.531250
5570,-19.531250
5571,-19.531250
5572,-19.531250
5573,-19.531250
5574,-19.531250
5575,-19.531250
5576,-19.531250
5577,-19.531250
5578,-19.531250
5579,-19.531250
5580,-19.531250
5581,-23.437500
5582,-19.531250
5583,-19.531250
5584,-19.531250
5585,-19.531250
5586,-19.531250
5587,-23.437500
5588,-23.437500
5589,-23.437500
5590,-23.437500
5591,-23.437500
5592,-23.437500
5593,-23.437500
5594,-23.437500
5595,-23.437500
5596,-23.437500
5597,-23.437500
5598,-23.437500
5599,-23.437500
5600,-23.437500
5601,-23.437500
5602,-23.437500
5603,-23.437500
5604,-23.437500
5605,-23.437500
5606,-23.437500
5607,-23.437500
5608,-23.437500
5609,-23.437500
5610,-23.437500
5611,-23.437500
5612,-23.437500
5613,-23.437500
5614,-23.437500
5615,-23.437500
5616,-23.437500
5617,-23.437500
5618,-23.437500
5619,-23.437500
5620,-23.437500
5621,-23.437500
5622,-23.437500
5623,-23.437500
5624,-23.437500
5625,-23.437500
5626,-23.437500
5627,-23.437500
5628,-23.437500
5629,-23.437500
5630,-23.437500
5631,-27.343750
5632,-27.343750
5633,-23.437500
5634,-23.437500
5635,-23.437500
5636,-27.343750
5637,-27.343750
5638,-27.343750
5639,-23.437500
5640,-27.343750
5641,-27.343750
5642,-27.343750
5643,-27.343750
5644,-27.343750
5645,-27.343750
5646,-27.343750
5647,-27.343750
5648,-23.437500
5649,-27.343750
5650,-27.343750
5651,-27.343750
5652,-27.343750
5653,-27.343750
5654,-27.343750
5655,-27.343750
5656,-27.343750
5657,-27.343750
5658,-27.343750
5659,-27.343750
5660,-27.343750
5661,-27.343750
5662,-27.343750
5663,-27.343750
5664,-27.343750
5665,-27.343750
5666,-27.343750
5667,-27.343750
5668,-27.343750
5669,-27.343750
5670,-27.343750
5671,-27.343750
5672,-27.343750
5673,-27.343750
5674,-27.343750
5675,-27.343750
5676,-27.343750
5677,-27.343750
5678,-27.343750
5679,-27.343750
5680,-27.343750
5681,-27.343750
5682,-27.343750
5683,-27.343750
5684,-27.343750
5685,-27.343750
5686,-27.343750
5687,-27.343750
5688,-31.250000
5689,-31.250000
5690,-27.343750
5691,-31.250000
5692,-31.250000
5693,-27.343750
5694,-31.250000
5695,-31.250000
5696,-31.250000
5697,-27.343750
5698,-31.250000
5699,-31.250000
5700,-31.250000
5701,-31.250000
5702,-27.343750
5703,-27.343750
5704,-31.250000
5705,-31.250000
5706,-27.343750
5707,-31.250000
5708,-31.250000
5709,-31.250000
5710,-31.250000
5711,-31.250000
5712,-31.250000
5713,-31.250000
5714,-31.250000
5715,-31.250000
5716,-31.250000
5717,-31.250000
5718,-31.250000
5719,-31.250000
5720,-31.250000
5721,-31.250000
5722,-31.250000
5723,-31.250000
5724,-31.250000
5725,-31.250000
5726,-31.250000
5727,-31.250000
5728,-31.250000
5729,-31.250000
5730,-31.250000
5731,-31.250000
5732,-31.250000
5733,-31.250000
5734,-31.250000
5735,-31.250000
5736,-31.250000
5737,-31.250000
5738,-31.250000
5739,-31.250000
5740,-31.250000
5741,-31.250000
5742,-31.250000
5743,-31.250000
5744,-31.250000
5745,-31.250000
5746,-31.250000
5747,-31.250000
5748,-31.250000
5749,-31.250000
5750,-31.250000
5751,-31.250000
5752,-31.250000
5753,-31.250000
5754,-31.250000
5755,-31.250000
5756,-31.250000
5757,-31.250000
5758,-31.250000
5759,-31.250000
5760,-31.250000
5761,-31.250000
5762,-31.250000
5763,-31.250000
5764,-31.250000
5765,-31.250000
5766,-31.250000
5767,-31.250000
5768,-31.250000
5769,-31.250000
5770,-31.250000
5771,-31.250000
5772,-31.250000
5773,-31.250000
5774,-31.250000
5775,-31.250000
5776,-31.250000
5777,-31.250000
5778,-31.250000
5779,-31.250000
5780,-31.250000
5781,-31.250000
5782,-31.250000
5783,-31.250000
5784,-31.250000
5785,-31.250000
5786,-31.250000
5787,-31.250000
5788,-31.250000
5789,-31.250000
5790,-31.250000
5791,-31.250000
5792,-31.250000
5793,-31.250000
5794,-31.250000
5795,-31.250000
5796,-31.250000
5797,-31.250000
5798,-31.250000
5799,-31.250000
5800,-31.250000
5801,-31.250000
5802,-31.250000
5803,-31.250000
5804,-31.250000
5805,-31.250000
5806,-31.250000
5807,-31.250000
5808,-31.250000
5809,-31.250000
5810,-31.250000
5811,-31.250000
5812,-31.250000
5813,-31.250000
5814,-31.250000
5815,-31.250000
5816,-31.250000
5817,-31.250000
5818,-31.250000
5819,-31.250000
5820,-31.250000
5821,-31.250000
5822,-31.250000
5823,-31.250000
5824,-31.250000
5825,-31.250000
5826,-31.250000
5827,-31.250000
5828,-31.250000
5829,-31.250000
5830,-31.250000
5831,-31.250000
5832,-31.250000
5833,-31.250000
5834,-31.250000
5835,-31.250000
5836,-31.250000
5837,-31.250000
5838,-31.250000
5839,-31.250000
5840,-31.250000
5841,-31.250000
5842,-31.250000
5843,-31.250000
5844,-27.343750
5845,-31.250000
5846,-27.343750
5847,-31.250000
5848,-31.250000
5849,-31.250000
5850,-31.250000
5851,-31.250000
5852,-31.250000
5853,-31.250000
5854,-31.250000
5855,-27.343750
5856,-31.250000
5857,-31.250000
5858,-31.250000
5859,-31.250000
5860,-31.250000
5861,-27.343750
5862,-27.343750
5863,-27.343750
5864,-27.343750
5865,-27.343750
5866,-27.343750
5867,-27.343750
5868,-27.343750
5869,-27.343750
5870,-27.343750
5871,-31.250000
5872,-27.343750
5873,-27.343750
5874,-27.343750
5875,-27.343750
5876,-27.343750
5877,-27.343750
5878,-27.343750
5879,-27.343750
5880,-27.343750
5881,-27.343750
5882,-27.343750
5883,-27.343750
5884,-27.343750
5885,-27.343750
5886,-27.343750
5887,-27.343750
5888,-27.343750
5889,-27.343750
5890,-27.343750
5891,-27.343750
5892,-27.343750
5893,-27.343750
5894,-27.343750
5895,-27.343750
5896,-27.343750
5897,-27.343750
5898,-27.343750
5899,-27.343750
5900,-27.343750
5901,-27.343750
5902,-27.343750
5903,-27.343750
5904,-27.343750
5905,-27.343750
5906,-27.343750
5907,-27.343750
5908,-23.437500
5909,-27.343750
5910,-27.343750
5911,-27.343750
5912,-27.343750
5913,-27.343750
5914,-27.343750
5915,-27.343750
5916,-27.343750
5917,-23.437500
5918,-27.343750
5919,-23.437500
5920,-23.437500
5921,-23.437500
5922,-23.437500
5923,-23.437500
5924,-23.437500
5925,-23.437500
5926,-27.343750
5927,-23.437500
5928,-23.437500
5929,-23.437500
5930,-23.437500
5931,-23.437500
5932,-23.437500
5933,-23.437500
5934,-23.437500
5935,-23.437500
5936,-23.437500
5937,-23.437500
5938,-23.437500
5939,-23.437500
5940,-23.437500
5941,-23.437500
5942,-23.437500
5943,-23.437500
5944,-23.437500
5945,-23.437500
5946,-23.437500
5947,-23.437500
5948,-23.437500
5949,-23.437500
5950,-23.437500
5951,-23.437500
5952,-23.437500
5953,-23.437500
5954,-23.437500
5955,-23.437500
5956,-23.437500
5957,-23.437500
5958,-23.437500
5959,-23.437500
5960,-23.437500
5961,-23.437500
5962,-19.531250
5963,-19.531250
5964,-19.531250
5965,-23.437500
5966,-19.531250
5967,-19.531250
5968,-19.531250
5969,-19.531250
5970,-19.531250
5971,-19.531250
5972,-19.531250
5973,-19.531250
5974,-19.531250
5975,-19.531250
5976,-19.531250
5977,-19.531250
5978,-19.531250
5979,-19.531250
5980,-19.531250
5981,-19.531250
5982,-19.531250
5983,-19.531250
5984,-19.531250
5985,-19.531250
5986,-19.531250
5987,-19.531250
5988,-19.531250
5989,-19.531250
5990,-19.531250
5991,-19.531250
5992,-15.625000
5993,-19.531250
5994,-15.625000
5995,-19.531250
5996,-15.625000
5997,-15.625000
5998,-15.625000
5999,-15.625000
6000,-15.625000
6001,-15.625000
6002,-15.625000
6003,-15.625000
6004,-15.625000
6005,-15.625000
6006,-15.625000
6007,-15.625000
6008,-15.625000
6009,-15.625000
6010,-15.625000
6011,-15.625000
6012,-15.625000
6013,-15.625000
6014,-15.625000
6015,-15.625000
6016,-15.625000
6017,-15.625000
6018,-15.625000
6019,-15.625000
6020,-15.625000
6021,-15.625000
6022,-15.625000
6023,-15.625000
6024,-11.718750
6025,-15.625000
6026,-15.625000
6027,-15.625000
6028,-15.625000
6029,-15.625000
6030,-15.625000
6031,-15.625000
6032,-11.718750
6033,-11.718750
6034,-11.718750
6035,-11.718750
6036,-11.718750
6037,-11.718750
6038,-11.718750
6039,-11.718750
6040,-11.718750
6041,-11.718750
6042,-11.718750
6043,-11.718750
6044,-11.718750
6045,-11.718750
6046,-11.718750
6047,-11.718750
6048,-11.718750
6049,-11.718750
6050,-11.718750
6051,-11.718750
6052,-11.718750
6053,-11.718750
6054,-11.718750
6055,-11.718750
6056,-11.718750
6057,-11.718750
6058,-11.718750
6059,-11.718750
6060,-11.718750
6061,-11.718750
6062,-11.718750
6063,-11.718750
6064,-11.718750
6065,-7.812500
6066,-7.812500
6067,-7.812500
6068,-7.812500
6069,-7.812500
6070,-7.812500
6071,-7.812500
6072,-7.812500
6073,-7.812500
6074,-7.812500
6075,-7.812500
6076,-7.812500
6077,-7.812500
6078,-7.812500
6079,-7.812500
6080,-7.812500
6081,-7.812500
6082,-7.812500
6083,-7.812500
6084,-7.812500
6085,-7.812500
6086,-7.812500
6087,-7.812500
6088,-7.812500
6089,-7.812500
6090,-7.812500
6091,-7.812500
6092,-7.812500
6093,-7.812500
6094,-7.812500
6095,-7.812500
6096,-3.906250
6097,-7.812500
6098,-7.812500
6099,-7.812500
6100,-3.906250
6101,-3.906250
6102,-3.906250
6103,-3.906250
6104,-3.906250
6105,-3.906250
6106,-3.906250
6107,-3.906250
6108,-3.906250
6109,-3.906250
6110,-3.906250
6111,-3.906250
6112,-3.906250
6113,-3.906250
6114,-3.906250
6115,-3.906250
6116,-3.906250
6117,-3.906250
6118,-3.906250
6119,-3.906250
6120,-3.906250
6121,-3.906250
6122,-3.906250
6123,-3.906250
6124,-3.906250
6125,-3.906250
6126,0.000000
6127,-3.906250
6128,-3.906250
6129,-3.906250
6130,-3.906250
6131,-3.906250
6132,0.000000
6133,0.000000
6134,0.000000
6135,0.000000
6136,0.000000
6137,0.000000
6138,0.000000
6139,0.000000
6140,0.000000
6141,0.000000
6142,0.000000
6143,0.000000
6144,0.000000
6145,0.000000
6146,0.000000
6147,0.000000
6148,0.000000
6149,0.000000
6150,0.000000
6151,0.000000
6152,0.000000
6153,0.000000
6154,0.000000
6155,0.000000
6156,0.000000
6157,0.000000
6158,0.000000
6159,0.000000
6160,0.000000
6161,0.000000
6162,3.906250
6163,0.000000
6164,0.000000
6165,0.000000
6166,3.906250
6167,0.000000
6168,0.000000
6169,0.000000
6170,3.906250
6171,0.000000
6172,3.906250
6173,3.906250
6174,3.906250
6175,3.906250
6176,3.906250
6177,3.906250
6178,3.906250
6179,0.000000
6180,3.906250
6181,3.906250
6182,3.906250
6183,3.906250
6184,3.906250
6185,3.906250
6186,3.906250
6187,3.906250
6188,3.906250
6189,3.906250
6190,3.906250
6191,3.906250
6192,3.906250
6193,3.906250
6194,3.906250
6195,3.906250
6196,3.906250
6197,3.906250
6198,3.906250
6199,3.906250
6200,3.906250
6201,3.906250
6202,3.906250
6203,3.906250
6204,3.906250
6205,3.906250
6206,3.906250
6207,3.906250
6208,3.906250
6209,3.906250
6210,3.906250
6211,3.906250
6212,3.906250
6213,3.906250
6214,3.906250
6215,3.906250
6216,3.906250
6217,3.906250
6218,3.906250
6219,3.906250
6220,3.906250
6221,3.906250
6222,3.906250
6223,3.906250
6224,3.906250
6225,3.906250
6226,3.906250
6227,3.906250
6228,3.906250
6229,3.906250
6230,3.906250
6231,3.906250
6232,3.906250
6233,3.906250
6234,3.906250
6235,3.906250
6236,3.906250
6237,3.906250
6238,3.906250
6239,3.906250
6240,3.906250
6241,3.906250
6242,3.906250
6243,3.906250
6244,3.906250
6245,3.906250
6246,3.906250
6247,3.906250
6248,3.906250
6249,3.906250
6250,7.812500
6251,3.906250
6252,7.812500
6253,3.906250
6254,3.906250
6255,3.906250
6256,3.906250
6257,3.906250
6258,3.906250
6259,3.906250
6260,3.906250
6261,7.812500
6262,7.812500
6263,3.906250
6264,3.906250
6265,3.906250
6266,3.906250
6267,3.906250
6268,3.906250
6269,3.906250
6270,3.906250
6271,3.906250
6272,3.906250
6273,3.906250
6274,3.906250
6275,3.906250
6276,3.906250
6277,3.906250
6278,3.906250
6279,7.812500
6280,3.906250
6281,3.906250
6282,7.812500
6283,3.906250
6284,3.906250
6285,3.906250
6286,3.906250
6287,3.906250
6288,3.906250
6289,3.906250
6290,3.906250
6291,3.906250
6292,3.906250
6293,3.906250
6294,3.906250
6295,3.906250
6296,3.906250
6297,3.906250
6298,3.906250
6299,3.906250
6300,3.906250
6301,3.906250
6302,3.906250
6303,3.906250
6304,3.906250
6305,3.906250
6306,3.906250
6307,3.906250
6308,3.906250
6309,3.906250
6310,3.906250
6311,3.906250
6312,3.906250
6313,3.906250
6314,3.906250
6315,3.906250
6316,3.906250
6317,3.906250
6318,3.906250
6319,3.906250
6320,3.906250
6321,3.906250
6322,3.906250
6323,3.906250
6324,3.906250
6325,3.906250
6326,3.906250
6327,3.906250
6328,3.906250
6329,3.906250
6330,3.906250
6331,3.906250
6332,3.906250
6333,3.906250
6334,3.906250
6335,3.906250
6336,3.906250
6337,3.906250
6338,3.906250
6339,3.906250
6340,3.906250
6341,0.000000
6342,3.906250
6343,3.906250
6344,3.906250
6345,3.906250
6346,3.906250
6347,0.000000
6348,3.906250
6349,0.000000
6350,0.000000
6351,0.000000
6352,3.906250
6353,3.906250
6354,0.000000
6355,3.906250
6356,0.000000
6357,0.000000
6358,0.000000
6359,0.000000
6360,0.000000
6361,0.000000
6362,0.000000
6363,0.000000
6364,0.000000
6365,0.000000
6366,0.000000
6367,0.000000
6368,0.000000
6369,0.000000
6370,0.000000
6371,0.000000
6372,0.000000
6373,0.000000
6374,0.000000
6375,0.000000
6376,0.000000
6377,0.000000
6378,0.000000
6379,0.000000
6380,0.000000
6381,0.000000
6382,0.000000
6383,0.000000
6384,0.000000
6385,0.000000
6386,0.000000
6387,0.000000
6388,0.000000
6389,0.000000
6390,0.000000
6391,0.000000
6392,0.000000
6393,0.000000
6394,0.000000
6395,0.000000
6396,0.000000
6397,0.000000
6398,-3.906250
6399,-3.906250
6400,0.000000
6401,0.000000
6402,-3.906250
6403,-3.906250
6404,0.000000
6405,-3.906250
6406,-3.906250
6407,-3.906250
6408,-3.906250
6409,-3.906250
6410,-3.906250
6411,-3.906250
6412,-3.906250
6413,-3.906250
6414,-3.906250
6415,-3.906250
6416,-3.906250
6417,-3.906250
6418,-3.906250
6419,-3.906250
6420,-3.906250
6421,-3.906250
6422,-3.906250
6423,-3.906250
6424,-3.906250
6425,-3.906250
6426,-3.906250
6427,-3.906250
6428,-3.906250
6429,-3.906250
6430,-3.906250
6431,-3.906250
6432,-3.906250
6433,-3.906250
6434,-3.906250
6435,-7.812500
6436,-7.812500
6437,-7.812500
6438,-3.906250
6439,-7.812500
6440,-7.812500
6441,-7.812500
6442,-7.812500
6443,-7.812500
6444,-7.812500
6445,-7.812500
6446,-7.812500
6447,-7.812500
6448,-7.812500
6449,-7.812500
6450,-7.812500
6451,-7.812500
6452,-7.812500
6453,-7.812500
6454,-7.812500
6455,-7.812500
6456,-7.812500
6457,-7.812500
6458,-7.812500
6459,-7.812500
6460,-7.812500
6461,-7.812500
6462,-7.812500
6463,-7.812500
6464,-7.812500
6465,-7.812500
6466,-11.718750
6467,-11.718750
6468,-7.812500
6469,-11.718750
6470,-11.718750
6471,-11.718750
6472,-11.718750
6473,-11.718750
6474,-11.718750
6475,-11.718750
6476,-11.718750
6477,-11.718750
6478,-11.718750
6479,-11.718750
6480,-11.718750
6481,-11.718750
6482,-11.718750
6483,-11.718750
6484,-11.718750
6485,-11.718750
6486,-11.718750
6487,-11.718750
6488,-11.718750
6489,-11.718750
6490,-11.718750
6491,-11.718750
6492,-11.718750
6493,-11.718750
6494,-11.718750
6495,-11.718750
6496,-11.718750
6497,-15.625000
6498,-11.718750
6499,-11.718750
6500,-15.625000
6501,-11.718750
6502,-15.625000
6503,-15.625000
6504,-15.625000
6505,-15.625000
6506,-15.625000
6507,-15.625000
6508,-15.625000
6509,-15.625000
6510,-15.625000
6511,-15.625000
6512,-15.625000
6513,-15.625000
6514,-15.625000
6515,-15.625000
6516,-15.625000
6517,-15.625000
6518,-15.625000
6519,-15.625000
6520,-15.625000
6521,-15.625000
6522,-15.625000
6523,-15.625000
6524,-15.625000
6525,-15.625000
6526,-15.625000
6527,-15.625000
6528,-15.625000
6529,-15.625000
6530,-15.625000
6531,-15.625000
6532,-15.625000
6533,-15.625000
6534,-15.625000
6535,-15.625000
6536,-15.625000
6537,-15.625000
6538,-15.625000
6539,-15.625000
6540,-19.531250
6541,-15.625000
6542,-15.625000
6543,-19.531250
6544,-19.531250
6545,-19.531250
6546,-19.531250
6547,-19.531250
6548,-19.531250
6549,-19.531250
6550,-19.531250
6551,-19.531250
6552,-19.531250
6553,-19.531250
6554,-19.531250
6555,-19.531250
6556,-19.531250
6557,-19.531250
6558,-19.531250
6559,-19.531250
6560,-19.531250
6561,-19.531250
6562,-19.531250
6563,-19.531250
6564,-19.531250
6565,-19.531250
6566,-19.531250
6567,-19.531250
6568,-19.531250
6569,-19.531250
6570,-19.531250
6571,-23.437500
6572,-23.437500
6573,-23.437500
6574,-23.437500
6575,-23.437500
6576,-19.531250
6577,-19.531250
6578,-23.437500
6579,-23.437500
6580,-23.437500
6581,-23.437500
6582,-23.437500
6583,-23.437500
6584,-23.437500
6585,-23.437500
6586,-23.437500
6587,-23.437500
6588,-23.437500
6589,-23.437500
6590,-23.437500
6591,-23.437500
6592,-23.437500
6593,-23.437500
6594,-23.437500
6595,-23.437500
6596,-23.437500
6597,-23.437500
6598,-23.437500
6599,-23.437500
6600,-23.437500
6601,-23.437500
6602,-23.437500
6603,-23.437500
6604,-23.437500
6605,-23.437500
6606,-23.437500
6607,-23.437500
6608,-23.437500
6609,-23.437500
6610,-23.437500
6611,-27.343750
6612,-23.437500
6613,-23.437500
6614,-23.437500
6615,-23.437500
6616,-23.437500
6617,-23.437500
6618,-23.437500
6619,-27.343750
6620,-27.343750
6621,-27.343750
6622,-27.343750
6623,-27.343750
6624,-27.343750
6625,-23.437500
6626,-27.343750
6627,-27.343750
6628,-27.343750
6629,-27.343750
6630,-27.343750
6631,-27.343750
6632,-23.437500
6633,-27.343750
6634,-27.343750
6635,-27.343750
6636,-27.343750
6637,-27.343750
6638,-27.343750
6639,-27.343750
6640,-27.343750
6641,-27.343750
6642,-27.343750
6643,-27.343750
6644,-27.343750
6645,-27.343750
6646,-27.343750
6647,-27.343750
6648,-27.343750
6649,-27.343750
6650,-27.343750
6651,-27.343750
6652,-27.343750
6653,-27.343750
6654,-27.343750
6655,-27.343750
6656,-27.343750
6657,-27.343750
6658,-27.343750
6659,-27.343750
6660,-27.343750
6661,-27.343750
6662,-27.343750
6663,-27.343750
6664,-27.343750
6665,-27.343750
6666,-27.343750
6667,-27.343750
6668,-27.343750
6669,-27.343750
6670,-27.343750
6671,-27.343750
6672,-27.343750
6673,-27.343750
6674,-27.343750
6675,-27.343750
6676,-27.343750
6677,-27.343750
6678,-27.343750
6679,-27.343750
6680,-27.343750
6681,-27.343750
6682,-27.343750
6683,-31.250000
6684,-31.250000
6685,-27.343750
6686,-27.343750
6687,-27.343750
6688,-27.343750
6689,-27.343750
6690,-27.343750
6691,-27.343750
6692,-27.343750
6693,-27.343750
6694,-31.250000
6695,-31.250000
6696,-31.250000
6697,-31.250000
6698,-31.250000
6699,-31.250000
6700,-31.250000
6701,-27.343750
6702,-31.250000
6703,-31.250000
6704,-31.250000
6705,-31.250000
6706,-31.250000
6707,-31.250000
6708,-31.250000
6709,-31.250000
6710,-31.250000
6711,-31.250000
6712,-31.250000
6713,-31.250000
6714,-31.250000
6715,-31.250000
6716,-31.250000
6717,-31.250000
6718,-31.250000
6719,-31.250000
6720,-31.250000
6721,-31.250000
6722,-31.250000
6723,-31.250000
6724,-31.250000
6725,-31.250000
6726,-31.250000
6727,-31.250000
6728,-31.250000
6729,-31.250000
6730,-31.250000
6731,-31.250000
6732,-31.250000
6733,-31.250000
6734,-31.250000
6735,-31.250000
6736,-31.250000
6737,-31.250000
6738,-31.250000
6739,-31.250000
6740,-31.250000
6741,-31.250000
6742,-31.250000
6743,-31.250000
6744,-31.250000
6745,-31.250000
6746,-31.250000
6747,-31.250000
6748,-31.250000
6749,-31.250000
6750,-31.250000
6751,-31.250000
6752,-31.250000
6753,-31.250000
6754,-31.250000
6755,-31.250000
6756,-31.250000
6757,-31.250000
6758,-31.250000
6759,-31.250000
6760,-31.250000
6761,-31.250000
6762,-31.250000
6763,-31.250000
6764,-31.250000
6765,-31.250000
6766,-31.250000
6767,-31.250000
6768,-31.250000
6769,-31.250000
6770,-31.250000
6771,-35.156250
6772,-31.250000
6773,-31.250000
6774,-31.250000
6775,-31.250000
6776,-31.250000
6777,-31.250000
6778,-31.250000
6779,-31.250000
6780,-31.250000
6781,-31.250000
6782,-31.250000
6783,-31.250000
6784,-31.250000
6785,-31.250000
6786,-31.250000
6787,-31.250000
6788,-31.250000
6789,-31.250000
6790,-31.250000
6791,-31.250000
6792,-31.250000
6793,-31.250000
6794,-31.250000
6795,-31.250000
6796,-31.250000
6797,-31.250000
6798,-31.250000
6799,-31.250000
6800,-31.250000
6801,-31.250000
6802,-31.250000
6803,-31.250000
6804,-31.250000
6805,-31.250000
6806,-31.250000
6807,-31.250000
6808,-31.250000
6809,-31.250000
6810,-31.250000
6811,-31.250000
6812,-31.250000
6813,-31.250000
6814,-31.250000
6815,-31.250000
6816,-31.250000
6817,-31.250000
6818,-31.250000
6819,-31.250000
6820,-31.250000
6821,-31.250000
6822,-31.250000
6823,-31.250000
6824,-31.250000
6825,-31.250000
6826,-31.250000
6827,-31.250000
6828,-31.250000
6829,-31.250000
6830,-31.250000
6831,-31.250000
6832,-31.250000
6833,-31.250000
6834,-31.250000
6835,-31.250000
6836,-31.250000
6837,-31.250000
6838,-31.250000
6839,-31.250000
6840,-31.250000
6841,-31.250000
6842,-31.250000
6843,-31.250000
6844,-31.250000
6845,-31.250000
6846,-31.250000
6847,-31.250000
6848,-31.250000
6849,-31.250000
6850,-31.250000
6851,-31.250000
6852,-31.250000
6853,-27.343750
6854,-31.250000
6855,-31.250000
6856,-27.343750
6857,-27.343750
6858,-27.343750
6859,-27.343750
6860,-31.250000
6861,-31.250000
6862,-27.343750
6863,-27.343750
6864,-27.343750
6865,-31.250000
6866,-27.343750
6867,-27.343750
6868,-27.343750
6869,-27.343750
6870,-27.343750
6871,-27.343750
6872,-27.343750
6873,-27.343750
6874,-27.343750
6875,-27.343750
6876,-27.343750
6877,-27.343750
6878,-27.343750
6879,-27.343750
6880,-27.343750
6881,-27.343750
6882,-27.343750
6883,-27.343750
6884,-27.343750
6885,-27.343750
6886,-27.343750
6887,-27.343750
6888,-27.343750
6889,-27.343750
6890,-27.343750
6891,-27.343750
6892,-27.343750
6893,-27.343750
6894,-27.343750
6895,-27.343750
6896,-27.343750
6897,-27.343750
6898,-27.343750
6899,-27.343750
6900,-27.343750
6901,-27.343750
6902,-27.343750
6903,-27.343750
6904,-27.343750
6905,-23.437500
6906,-27.343750
6907,-27.343750
6908,-23.437500
6909,-23.437500
6910,-27.343750
6911,-27.343750
6912,-23.437500
6913,-23.437500
6914,-23.437500
6915,-23.437500
6916,-23.437500
6917,-23.437500
6918,-23.437500
6919,-23.437500
6920,-23.437500
6921,-23.437500
6922,-23.437500
6923,-23.437500
6924,-23.437500
6925,-23.437500
6926,-23.437500
6927,-23.437500
6928,-23.437500
6929,-23.437500
6930,-23.437500
6931,-23.437500
6932,-23.437500
6933,-23.437500
6934,-23.437500
6935,-23.437500
6936,-23.437500
6937,-23.437500
6938,-23.437500
6939,-23.437500
6940,-23.437500
6941,-23.437500
6942,-23.437500
6943,-23.437500
6944,-23.437500
6945,-23.437500
6946,-23.437500
6947,-23.437500
6948,-23.437500
6949,-23.437500
6950,-23.437500
6951,-19.531250
6952,-19.531250
6953,-23.437500
6954,-19.531250
6955,-19.531250
6956,-19.531250
6957,-19.531250
6958,-19.531250
6959,-19.531250
6960,-19.531250
6961,-19.531250
6962,-19.531250
6963,-19.531250
6964,-19.531250
6965,-19.531250
6966,-19.531250
6967,-19.531250
6968,-19.531250
6969,-19.531250
6970,-19.531250
6971,-19.531250
6972,-19.531250
6973,-19.531250
6974,-19.531250
6975,-19.531250
6976,-19.531250
6977,-19.531250
6978,-19.531250
6979,-19.531250
6980,-19.531250
6981,-19.531250
6982,-19.531250
6983,-15.625000
6984,-19.531250
6985,-19.531250
6986,-19.531250
6987,-19.531250
6988,-15.625000
6989,-15.625000
6990,-15.625000
6991,-15.625000
6992,-15.625000
6993,-15.625000
6994,-15.625000
6995,-15.625000
6996,-15.625000
6997,-15.625000
6998,-15.625000
6999,-15.625000
7000,-15.625000
7001,-15.625000
7002,-15.625000
7003,-15.625000
7004,-15.625000
7005,-15.625000
7006,-15.625000
7007,-15.625000
7008,-15.625000
7009,-15.625000
7010,-15.625000
7011,-15.625000
7012,-15.625000
7013,-15.625000
7014,-15.625000
7015,-15.625000
7016,-15.625000
7017,-15.625000
7018,-15.625000
7019,-11.718750
7020,-11.718750
7021,-11.718750
7022,-11.718750
7023,-11.718750
7024,-11.718750
7025,-11.718750
7026,-11.718750
7027,-11.718750
7028,-11.718750
7029,-11.718750
7030,-11.718750
7031,-11.718750
7032,-11.718750
7033,-11.718750
7034,-11.718750
7035,-11.718750
7036,-11.718750
7037,-11.718750
7038,-11.718750
7039,-11.718750
7040,-11.718750
7041,-11.718750
7042,-11.718750
7043,-11.718750
7044,-11.718750
7045,-11.718750
7046,-11.718750
7047,-11.718750
7048,-11.718750
7049,-11.718750
7050,-11.718750
7051,-7.812500
7052,-7.812500
7053,-7.812500
7054,-7.812500
7055,-7.812500
7056,-7.812500
7057,-7.812500
7058,-7.812500
7059,-7.812500
7060,-7.812500
7061,-7.812500
7062,-7.812500
7063,-7.812500
7064,-7.812500
7065,-7.812500
7066,-7.812500
7067,-7.812500
7068,-7.812500
7069,-7.812500
7070,-7.812500
7071,-7.812500
7072,-7.812500
7073,-7.812500
7074,-7.812500
7075,-7.812500
7076,-7.812500
7077,-7.812500
7078,-7.812500
7079,-7.812500
7080,-7.812500
7081,-7.812500
7082,-3.906250
7083,-3.906250
7084,-3.906250
7085,-3.906250
7086,-3.906250
7087,-3.906250
7088,-3.906250
7089,-3.906250
7090,-3.906250
7091,-3.906250
7092,-3.906250
7093,-3.906250
7094,-3.906250
7095,-3.906250
7096,-3.906250
7097,-3.906250
7098,-3.906250
7099,-3.906250
7100,-3.906250
7101,-3.906250
7102,-3.906250
7103,-3.906250
7104,-3.906250
7105,-3.906250
7106,-3.906250
7107,-3.906250
7108,-3.906250
7109,-3.906250
7110,-3.906250
7111,-3.906250
7112,-3.906250
7113,-3.906250
7114,-3.906250
7115,-3.906250
7116,-3.906250
7117,-3.906250
7118,-3.906250
7119,0.000000
7120,0.000000
7121,0.000000
7122,0.000000
7123,0.000000
7124,0.000000
7125,-3.906250
7126,0.000000
7127,0.000000
7128,0.000000
7129,0.000000
7130,0.000000
7131,0.000000
7132,0.000000
7133,0.000000
7134,0.000000
7135,0.000000
7136,0.000000
7137,0.000000
7138,0.000000
7139,0.000000
7140,0.000000
7141,0.000000
7142,0.000000
7143,0.000000
7144,0.000000
7145,0.000000
7146,0.000000
7147,0.000000
7148,0.000000
7149,0.000000
7150,0.000000
7151,0.000000
7152,0.000000
7153,0.000000
7154,0.000000
7155,0.000000
7156,0.000000
7157,0.000000
7158,0.000000
7159,3.906250
7160,3.906250
7161,0.000000
7162,3.906250
7163,3.906250
7164,3.906250
7165,3.906250
7166,3.906250
7167,3.906250
7168,3.906250
7169,3.906250
7170,3.906250
7171,3.906250
7172,3.906250
7173,3.906250
7174,3.906250
7175,3.906250
7176,3.906250
7177,3.906250
7178,3.906250
7179,3.906250
7180,3.906250
7181,3.906250
7182,3.906250
7183,3.906250
7184,3.906250
7185,3.906250
7186,3.906250
7187,3.906250
7188,3.906250
7189,3.906250
7190,3.906250
7191,3.906250
7192,3.906250
7193,3.906250
7194,3.906250
7195,3.906250
7196,3.906250
7197,3.906250
7198,3.906250
7199,3.906250
7200,3.906250
7201,3.906250
7202,3.906250
7203,3.906250
7204,3.906250
7205,3.906250
7206,3.906250
7207,3.906250
7208,3.906250
7209,3.906250
7210,3.906250
7211,3.906250
7212,3.906250
7213,3.906250
7214,3.906250
7215,3.906250
7216,3.906250
7217,3.906250
7218,3.906250
7219,3.906250
7220,3.906250
7221,3.906250
7222,7.812500
7223,3.906250
7224,3.906250
7225,3.906250
7226,3.906250
7227,7.812500
7228,3.906250
7229,3.906250
7230,3.906250
7231,3.906250
7232,3.906250
7233,3.906250
7234,3.906250
7235,3.906250
7236,3.906250
7237,3.906250
7238,7.812500
7239,3.906250
7240,3.906250
7241,3.906250
7242,3.906250
7243,3.906250
7244,3.906250
7245,3.906250
7246,3.906250
7247,3.906250
7248,3.906250
7249,3.906250
7250,3.906250
7251,3.906250
7252,3.906250
7253,3.906250
7254,3.906250
7255,3.906250
7256,3.906250
7257,3.906250
7258,3.906250
7259,3.906250
7260,3.906250
7261,3.906250
7262,3.906250
7263,3.906250
7264,3.906250
7265,3.906250
7266,3.906250
7267,3.906250
7268,3.906250
7269,3.906250
7270,7.812500
7271,3.906250
7272,3.906250
7273,3.906250
7274,3.906250
7275,3.906250
7276,3.906250
7277,3.906250
7278,3.906250
7279,3.906250
7280,3.906250
7281,3.906250
7282,3.906250
7283,3.906250
7284,3.906250
7285,3.906250
7286,3.906250
7287,3.906250
7288,3.906250
7289,3.906250
7290,3.906250
7291,3.906250
7292,3.906250
7293,3.906250
7294,3.906250
7295,3.906250
7296,3.906250
7297,3.906250
7298,3.906250
7299,3.906250
7300,3.906250
7301,3.906250
7302,3.906250
7303,3.906250
7304,3.906250
7305,3.906250
7306,3.906250
7307,3.906250
7308,3.906250
7309,3.906250
7310,3.906250
7311,3.906250
7312,3.906250
7313,3.906250
7314,3.906250
7315,3.906250
7316,3.906250
7317,3.906250
7318,3.906250
7319,3.906250
7320,3.906250
7321,3.906250
7322,3.906250
7323,3.906250
7324,3.906250
7325,3.906250
7326,3.906250
7327,3.906250
7328,3.906250
7329,3.906250
7330,3.906250
7331,3.906250
7332,3.906250
7333,3.906250
7334,3.906250
7335,0.000000
7336,0.000000
7337,0.000000
7338,3.906250
7339,3.906250
7340,0.000000
7341,0.000000
7342,0.000000
7343,0.000000
7344,0.000000
7345,0.000000
7346,0.000000
7347,0.000000
7348,0.000000
7349,0.000000
7350,0.000000
7351,3.906250
7352,0.000000
7353,0.000000
7354,0.000000
7355,0.000000
7356,0.000000
7357,0.000000
7358,0.000000
7359,0.000000
7360,0.000000
7361,0.000000
7362,0.000000
7363,0.000000
7364,0.000000
7365,0.000000
7366,0.000000
7367,0.000000
7368,0.000000
7369,0.000000
7370,0.000000
7371,0.000000
7372,0.000000
7373,0.000000
7374,0.000000
7375,0.000000
7376,0.000000
7377,0.000000
7378,0.000000
7379,-3.906250
7380,0.000000
7381,-3.906250
7382,-3.906250
7383,-3.906250
7384,0.000000
7385,-3.906250
7386,0.000000
7387,-3.906250
7388,-3.906250
7389,-3.906250
7390,-3.906250
7391,-3.906250
7392,-3.906250
7393,-3.906250
7394,-3.906250
7395,-3.906250
7396,-3.906250
7397,-3.906250
7398,-3.906250
7399,-3.906250
7400,-3.906250
7401,-3.906250
7402,-3.906250
7403,-3.906250
7404,-3.906250
7405,-3.906250
7406,-3.906250
7407,-3.906250
7408,-3.906250
7409,-3.906250
7410,-3.906250
7411,-3.906250
7412,-3.906250
7413,-3.906250
7414,-3.906250
7415,-3.906250
7416,-3.906250
7417,-3.906250
7418,-3.906250
7419,-3.906250
7420,-3.906250
7421,-3.906250
7422,-3.906250
7423,-7.812500
7424,-7.812500
7425,-7.812500
7426,-7.812500
7427,-7.812500
7428,-7.812500
7429,-7.812500
7430,-7.812500
7431,-7.812500
7432,-7.812500
7433,-7.812500
7434,-7.812500
7435,-7.812500
7436,-7.812500
7437,-7.812500
7438,-7.812500
7439,-7.812500
7440,-7.812500
7441,-7.812500
7442,-7.812500
7443,-7.812500
7444,-7.812500
7445,-7.812500
7446,-7.812500
7447,-7.812500
7448,-7.812500
7449,-7.812500
7450,-7.812500
7451,-7.812500
7452,-7.812500
7453,-7.812500
7454,-7.812500
7455,-7.812500
7456,-7.812500
7457,-7.812500
7458,-11.718750
7459,-11.718750
7460,-11.718750
7461,-11.718750
7462,-11.718750
7463,-11.718750
7464,-11.718750
7465,-11.718750
7466,-11.718750
7467,-11.718750
7468,-11.718750
7469,-11.718750
7470,-11.718750
7471,-11.718750
7472,-11.718750
7473,-11.718750
7474,-11.718750
7475,-11.718750
7476,-11.718750
7477,-11.718750
7478,-11.718750
7479,-11.718750
7480,-11.718750
7481,-11.718750
7482,-11.718750
7483,-11.718750
7484,-11.718750
7485,-11.718750
7486,-11.718750
7487,-11.718750
7488,-11.718750
7489,-11.718750
7490,-11.718750
7491,-11.718750
7492,-11.718750
7493,-11.718750
7494,-15.625000
7495,-15.625000
7496,-15.625000
7497,-15.625000
7498,-15.625000
7499,-15.625000
7500,-15.625000
7501,-15.625000
7502,-15.625000
7503,-15.625000
7504,-15.625000
7505,-15.625000
7506,-15.625000
7507,-15.625000
7508,-15.625000
7509,-15.625000
7510,-15.625000
7511,-15.625000
7512,-15.625000
7513,-15.625000
7514,-15.625000
7515,-15.625000
7516,-15.625000
7517,-15.625000
7518,-15.625000
7519,-15.625000
7520,-15.625000
7521,-15.625000
7522,-19.531250
7523,-15.625000
7524,-15.625000
7525,-15.625000
7526,-15.625000
7527,-15.625000
7528,-15.625000
7529,-19.531250
7530,-19.531250
7531,-19.531250
7532,-15.625000
7533,-19.531250
7534,-19.531250
7535,-19.531250
7536,-19.531250
7537,-19.531250
7538,-19.531250
7539,-19.531250
7540,-19.531250
7541,-19.531250
7542,-19.531250
7543,-19.531250
7544,-19.531250
7545,-19.531250
7546,-19.531250
7547,-19.531250
7548,-19.531250
7549,-19.531250
7550,-19.531250
7551,-19.531250
7552,-19.531250
7553,-19.531250
7554,-19.531250
7555,-19.531250
7556,-19.531250
7557,-19.531250
7558,-19.531250
7559,-19.531250
7560,-19.531250
7561,-19.531250
7562,-19.531250
7563,-19.531250
7564,-19.531250
7565,-19.531250
7566,-23.437500
7567,-23.437500
7568,-19.531250
7569,-19.531250
7570,-19.531250
7571,-23.437500
7572,-23.437500
7573,-23.437500
7574,-23.437500
7575,-23.437500
7576,-23.437500
7577,-23.437500
7578,-23.437500
7579,-23.437500
7580,-23.437500
7581,-23.437500
7582,-23.437500
7583,-23.437500
7584,-23.437500
7585,-23.437500
7586,-23.437500
7587,-23.437500
7588,-23.437500
7589,-23.437500
7590,-23.437500
7591,-23.437500
7592,-23.437500
7593,-23.437500
7594,-23.437500
7595,-23.437500
7596,-23.437500
7597,-23.437500
7598,-23.437500
7599,-23.437500
7600,-23.437500
7601,-23.437500
7602,-23.437500
7603,-23.437500
7604,-23.437500
7605,-23.437500
7606,-23.437500
7607,-23.437500
7608,-23.437500
7609,-27.343750
7610,-23.437500
7611,-27.343750
7612,-23.437500
7613,-27.343750
7614,-27.343750
7615,-27.343750
7616,-27.343750
7617,-27.343750
7618,-27.343750
7619,-27.343750
7620,-27.343750
7621,-27.343750
7622,-27.343750
7623,-27.343750
7624,-27.343750
7625,-27.343750
7626,-27.343750
7627,-27.343750
7628,-27.343750
7629,-27.343750
7630,-27.343750
7631,-27.343750
7632,-27.343750
7633,-27.343750
7634,-27.343750
7635,-27.343750
7636,-27.343750
7637,-27.343750
7638,-27.343750
7639,-27.343750
7640,-27.343750
7641,-27.343750
7642,-27.343750
7643,-27.343750
7644,-27.343750
7645,-27.343750
7646,-27.343750
7647,-27.343750
7648,-27.343750
7649,-27.343750
7650,-27.343750
7651,-27.343750
7652,-27.343750
7653,-27.343750
7654,-27.343750
7655,-27.343750
7656,-27.343750
7657,-27.343750
7658,-27.343750
7659,-27.343750
7660,-27.343750
7661,-27.343750
7662,-27.343750
7663,-27.343750
7664,-31.250000
7665,-31.250000
7666,-27.343750
7667,-27.343750
7668,-31.250000
7669,-27.343750
7670,-27.343750
7671,-27.343750
7672,-31.250000
7673,-31.250000
7674,-31.250000
7675,-27.343750
7676,-31.250000
7677,-31.250000
7678,-31.250000
7679,-31.250000
7680,-31.250000
7681,-31.250000
7682,-31.250000
7683,-31.250000
7684,-27.343750
7685,-31.250000
7686,-31.250000
7687,-31.250000
7688,-31.250000
7689,-31.250000
7690,-31.250000
7691,-31.250000
7692,-31.250000
7693,-31.250000
7694,-27.343750
7695,-31.250000
7696,-31.250000
7697,-27.343750
7698,-31.250000
7699,-31.250000
7700,-31.250000
7701,-31.250000
7702,-31.250000
7703,-31.250000
7704,-31.250000
7705,-31.250000
7706,-31.250000
7707,-31.250000
7708,-31.250000
7709,-31.250000
7710,-31.250000
7711,-31.250000
7712,-31.250000
7713,-31.250000
7714,-31.250000
7715,-31.250000
7716,-31.250000
7717,-31.250000
7718,-31.250000
7719,-31.250000
7720,-31.250000
7721,-31.250000
7722,-31.250000
7723,-31.250000
7724,-31.250000
7725,-31.250000
7726,-31.250000
7727,-31.250000
7728,-31.250000
7729,-31.250000
7730,-31.250000
7731,-31.250000
7732,-31.250000
7733,-31.250000
7734,-31.250000
7735,-31.250000
7736,-31.250000
7737,-31.250000
7738,-31.250000
7739,-31.250000
7740,-31.250000
7741,-31.250000
7742,-31.250000
7743,-31.250000
7744,-31.250000
7745,-31.250000
7746,-31.250000
7747,-31.250000
7748,-31.250000
7749,-31.250000
7750,-31.250000
7751,-31.250000
7752,-31.250000
7753,-31.250000
7754,-31.250000
7755,-31.250000
7756,-31.250000
7757,-31.250000
7758,-31.250000
7759,-31.250000
7760,-31.250000
7761,-31.250000
7762,-31.250000
7763,-31.250000
7764,-31.250000
7765,-31.250000
7766,-31.250000
7767,-31.250000
7768,-31.250000
7769,-31.250000
7770,-31.250000
7771,-31.250000
7772,-31.250000
7773,-31.250000
7774,-31.250000
7775,-31.250000
7776,-31.250000
7777,-31.250000
7778,-31.250000
7779,-31.250000
7780,-31.250000
7781,-31.250000
7782,-31.250000
7783,-31.250000
7784,-31.250000
7785,-31.250000
7786,-31.250000
7787,-31.250000
7788,-31.250000
7789,-31.250000
7790,-31.250000
7791,-31.250000
7792,-31.250000
7793,-31.250000
7794,-31.250000
7795,-31.250000
7796,-31.250000
7797,-31.250000
7798,-31.250000
7799,-31.250000
7800,-31.250000
7801,-31.250000
7802,-31.250000
7803,-31.250000
7804,-31.250000
7805,-31.250000
7806,-31.250000
7807,-31.250000
7808,-31.250000
7809,-31.250000
7810,-31.250000
7811,-31.250000
7812,-31.250000
7813,-31.250000
7814,-31.250000
7815,-31.250000
7816,-31.250000
7817,-31.250000
7818,-31.250000
7819,-31.250000
7820,-31.250000
7821,-31.250000
7822,-31.250000
7823,-27.343750
7824,-31.250000
7825,-31.250000
7826,-31.250000
7827,-31.250000
7828,-31.250000
7829,-27.343750
7830,-27.343750
7831,-27.343750
7832,-31.250000
7833,-27.343750
7834,-27.343750
7835,-31.250000
7836,-27.343750
7837,-27.343750
7838,-31.250000
7839,-27.343750
7840,-27.343750
7841,-27.343750
7842,-27.343750
7843,-27.343750
7844,-27.343750
7845,-27.343750
7846,-27.343750
7847,-27.343750
7848,-27.343750
7849,-27.343750
7850,-27.343750
7851,-27.343750
7852,-27.343750
7853,-27.343750
7854,-27.343750
7855,-27.343750
7856,-27.343750
7857,-27.343750
7858,-27.343750
7859,-27.343750
7860,-27.343750
7861,-27.343750
7862,-27.343750
7863,-27.343750
7864,-27.343750
7865,-27.343750
7866,-27.343750
7867,-27.343750
7868,-27.343750
7869,-27.343750
7870,-27.343750
7871,-27.343750
7872,-27.343750
7873,-27.343750
7874,-27.343750
7875,-27.343750
7876,-27.343750
7877,-27.343750
7878,-27.343750
7879,-27.343750
7880,-27.343750
7881,-27.343750
7882,-27.343750
7883,-27.343750
7884,-27.343750
7885,-27.343750
7886,-27.343750
7887,-27.343750
7888,-27.343750
7889,-23.437500
7890,-27.343750
7891,-27.343750
7892,-27.343750
7893,-27.343750
7894,-27.343750
7895,-27.343750
7896,-23.437500
7897,-23.437500
7898,-23.437500
7899,-27.343750
7900,-27.343750
7901,-27.343750
7902,-23.437500
7903,-23.437500
7904,-23.437500
7905,-23.437500
7906,-23.437500
7907,-23.437500
7908,-23.437500
7909,-23.437500
7910,-23.437500
7911,-23.437500
7912,-23.437500
7913,-23.437500
7914,-23.437500
7915,-23.437500
7916,-23.437500
7917,-23.437500
7918,-23.437500
7919,-23.437500
7920,-23.437500
7921,-23.437500
7922,-23.437500
7923,-23.437500
7924,-23.437500
7925,-23.437500
7926,-23.437500
7927,-23.437500
7928,-23.437500
7929,-23.437500
7930,-23.437500
7931,-23.437500
7932,-23.437500
7933,-23.437500
7934,-19.531250
7935,-19.531250
7936,-19.531250
7937,-23.437500
7938,-23.437500
7939,-19.531250
7940,-19.531250
7941,-19.531250
7942,-19.531250
7943,-19.531250
7944,-19.531250
7945,-19.531250
7946,-19.531250
7947,-19.531250
7948,-19.531250
7949,-19.531250
7950,-19.531250
7951,-19.531250
7952,-19.531250
7953,-19.531250
7954,-19.531250
7955,-19.531250
7956,-19.531250
7957,-19.531250
7958,-19.531250
7959,-19.531250
7960,-19.531250
7961,-19.531250
7962,-19.531250
7963,-19.531250
7964,-19.531250
7965,-19.531250
7966,-19.531250
7967,-19.531250
7968,-19.531250
7969,-19.531250
7970,-15.625000
7971,-15.625000
7972,-15.625000
7973,-19.531250
7974,-19.531250
7975,-15.625000
7976,-15.625000
7977,-15.625000
7978,-15.625000
7979,-15.625000
7980,-15.625000
7981,-15.625000
7982,-15.625000
7983,-15.625000
7984,-15.625000
7985,-15.625000
7986,-15.625000
7987,-15.625000
7988,-15.625000
7989,-15.625000
7990,-15.625000
7991,-15.625000
7992,-15.625000
7993,-15.625000
7994,-15.625000
7995,-15.625000
7996,-15.625000
7997,-15.625000
7998,-15.625000
7999,-15.625000
8000,-15.625000
8001,-15.625000
8002,-15.625000
8003,-15.625000
8004,-15.625000
8005,-15.625000
8006,-11.718750
8007,-15.625000
8008,-15.625000
8009,-15.625000
8010,-11.718750
8011,-11.718750
8012,-11.718750
8013,-11.718750
8014,-11.718750
8015,-11.718750
8016,-11.718750
8017,-11.718750
8018,-11.718750
8019,-11.718750
8020,-11.718750
8021,-11.718750
8022,-11.718750
8023,-11.718750
8024,-11.718750
8025,-11.718750
8026,-11.718750
8027,-11.718750
8028,-11.718750
8029,-11.718750
8030,-11.718750
8031,-11.718750
8032,-11.718750
8033,-11.718750
8034,-11.718750
8035,-11.718750
8036,-11.718750
8037,-11.718750
8038,-7.812500
8039,-11.718750
8040,-11.718750
8041,-11.718750
8042,-7.812500
8043,-7.812500
8044,-7.812500
8045,-7.812500
8046,-7.812500
8047,-7.812500
8048,-7.812500
8049,-7.812500
8050,-7.812500
8051,-7.812500
8052,-7.812500
8053,-7.812500
8054,-7.812500
8055,-7.812500
8056,-7.812500
8057,-7.812500
8058,-7.812500
8059,-7.812500
8060,-7.812500
8061,-7.812500
8062,-7.812500
8063,-7.812500
8064,-7.812500
8065,-7.812500
8066,-7.812500
8067,-3.906250
8068,-7.812500
8069,-7.812500
8070,-3.906250
8071,-3.906250
8072,-3.906250
8073,-3.906250
8074,-3.906250
8075,-3.906250
8076,-3.906250
8077,-3.906250
8078,-3.906250
8079,-3.906250
8080,-3.906250
8081,-3.906250
8082,-3.906250
8083,-3.906250
8084,-3.906250
8085,-3.906250
8086,-3.906250
8087,-3.906250
8088,-3.906250
8089,-3.906250
8090,-3.906250
8091,-3.906250
8092,-3.906250
8093,-3.906250
8094,-3.906250
8095,-3.906250
8096,-3.906250
8097,-3.906250
8098,-3.906250
8099,-3.906250
8100,-3.906250
8101,-3.906250
8102,-3.906250
8103,0.000000
8104,0.000000
8105,-3.906250
8106,-3.906250
8107,-3.906250
8108,0.000000
8109,0.000000
8110,0.000000
8111,0.000000
8112,0.000000
8113,0.000000
8114,0.000000
8115,0.000000
8116,0.000000
8117,0.000000
8118,0.000000
8119,0.000000
8120,0.000000
8121,0.000000
8122,0.000000
8123,0.000000
8124,0.000000
8125,0.000000
8126,0.000000
8127,0.000000
8128,0.000000
8129,0.000000
8130,0.000000
8131,0.000000
8132,0.000000
8133,0.000000
8134,0.000000
8135,0.000000
8136,0.000000
8137,0.000000
8138,0.000000
8139,0.000000
8140,0.000000
8141,0.000000
8142,0.000000
8143,0.000000
8144,0.000000
8145,0.000000
8146,0.000000
8147,0.000000
8148,0.000000
8149,0.000000
8150,0.000000
8151,0.000000
8152,0.000000
8153,0.000000
8154,0.000000
8155,0.000000
8156,0.000000
8157,0.000000
8158,3.906250
8159,3.906250
8160,3.906250
8161,3.906250
8162,3.906250
8163,3.906250
8164,3.906250
8165,3.906250
8166,3.906250
8167,3.906250
8168,3.906250
8169,3.906250
8170,3.906250
8171,3.906250
8172,3.906250
8173,3.906250
8174,3.906250
8175,3.906250
8176,3.906250
8177,3.906250
8178,3.906250
8179,3.906250
8180,3.906250
8181,3.906250
8182,3.906250
8183,3.906250
8184,3.906250
8185,3.906250
8186,3.906250
8187,3.906250
8188,3.906250
8189,3.906250
8190,3.906250
8191,3.906250
8192,3.906250
8193,3.906250
8194,3.906250
8195,3.906250
8196,3.906250
8197,3.906250
8198,3.906250
8199,3.906250
8200,3.906250
8201,3.906250
8202,3.906250
8203,3.906250
8204,3.906250
8205,3.906250
8206,3.906250
8207,3.906250
8208,3.906250
8209,3.906250
8210,3.906250
8211,3.906250
8212,3.906250
8213,3.906250
8214,3.906250
8215,3.906250
8216,7.812500
8217,3.906250
8218,3.906250
8219,3.906250
8220,3.906250
8221,3.906250
8222,3.906250
8223,3.906250
8224,3.906250
8225,3.906250
8226,3.906250
8227,3.906250
8228,3.906250
8229,3.906250
8230,3.906250
8231,3.906250
8232,3.906250
8233,3.906250
8234,3.906250
8235,3.906250
8236,3.906250
8237,7.812500
8238,7.812500
8239,3.906250
8240,3.906250
8241,3.906250
8242,3.906250
8243,3.906250
8244,3.906250
8245,3.906250
8246,3.906250
8247,3.906250
8248,7.812500
8249,3.906250
8250,3.906250
8251,3.906250
8252,3.906250
8253,3.906250
8254,3.906250
8255,3.906250
8256,3.906250
8257,3.906250
8258,3.906250
8259,3.906250
8260,3.906250
8261,3.906250
8262,3.906250
8263,3.906250
8264,3.906250
8265,3.906250
8266,3.906250
8267,3.906250
8268,3.906250
8269,3.906250
8270,3.906250
8271,3.906250
8272,3.906250
8273,3.906250
8274,3.906250
8275,3.906250
8276,3.906250
8277,3.906250
8278,3.906250
8279,3.906250
8280,3.906250
8281,3.906250
8282,3.906250
8283,3.906250
8284,0.000000
8285,3.906250
8286,3.906250
8287,3.906250
8288,3.906250
8289,3.906250
8290,3.906250
8291,3.906250
8292,3.906250
8293,3.906250
8294,3.906250
8295,3.906250
8296,3.906250
8297,3.906250
8298,3.906250
8299,3.906250
8300,3.906250
8301,3.906250
8302,3.906250
8303,3.906250
8304,3.906250
8305,3.906250
8306,3.906250
8307,3.906250
8308,3.906250
8309,3.906250
8310,3.906250
8311,3.906250
8312,3.906250
8313,3.906250
8314,3.906250
8315,3.906250
8316,3.906250
8317,3.906250
8318,3.906250
8319,3.906250
8320,3.906250
8321,3.906250
8322,3.906250
8323,3.906250
8324,3.906250
8325,3.906250
8326,3.906250
8327,0.000000
8328,3.906250
8329,0.000000
8330,0.000000
8331,0.000000
8332,0.000000
8333,0.000000
8334,3.906250
8335,0.000000
8336,0.000000
8337,0.000000
8338,0.000000
8339,0.000000
8340,0.000000
8341,0.000000
8342,0.000000
8343,0.000000
8344,0.000000
8345,0.000000
8346,0.000000
8347,0.000000
8348,0.000000
8349,0.000000
8350,0.000000
8351,0.000000
8352,0.000000
8353,0.000000
8354,0.000000
8355,0.000000
8356,0.000000
8357,0.000000
8358,0.000000
8359,0.000000
8360,0.000000
8361,-3.906250
8362,0.000000
8363,0.000000
8364,0.000000
8365,0.000000
8366,0.000000
8367,0.000000
8368,0.000000
8369,0.000000
8370,0.000000
8371,0.000000
8372,-3.906250
8373,0.000000
8374,0.000000
8375,0.000000
8376,-3.906250
8377,-3.906250
8378,-3.906250
8379,-3.906250
8380,-3.906250
8381,-3.906250
8382,-3.906250
8383,-3.906250
8384,-3.906250
8385,-3.906250
8386,-3.906250
8387,-3.906250
8388,-3.906250
8389,-3.906250
8390,-3.906250
8391,-3.906250
8392,-3.906250
8393,-3.906250
8394,-3.906250
8395,-3.906250
8396,-3.906250
8397,-3.906250
8398,-3.906250
8399,-3.906250
8400,-3.906250
8401,-3.906250
8402,-3.906250
8403,-3.906250
8404,-3.906250
8405,-3.906250
8406,-3.906250
8407,-7.812500
8408,-7.812500
8409,-7.812500
8410,-7.812500
8411,-7.812500
8412,-7.812500
8413,-7.812500
8414,-7.812500
8415,-7.812500
8416,-7.812500
8417,-7.812500
8418,-7.812500
8419,-7.812500
8420,-7.812500
8421,-7.812500
8422,-7.812500
8423,-7.812500
8424,-7.812500
8425,-7.812500
8426,-7.812500
8427,-7.812500
8428,-7.812500
8429,-7.812500
8430,-7.812500
8431,-7.812500
8432,-7.812500
8433,-7.812500
8434,-7.812500
8435,-7.812500
8436,-7.812500
8437,-7.812500
8438,-7.812500
8439,-7.812500
8440,-7.812500
8441,-7.812500
8442,-7.812500
8443,-7.812500
8444,-7.812500
8445,-7.812500
8446,-7.812500
8447,-11.718750
8448,-11.718750
8449,-11.718750
8450,-11.718750
8451,-11.718750
8452,-11.718750
8453,-11.718750
8454,-7.812500
8455,-11.718750
8456,-11.718750
8457,-11.718750
8458,-11.718750
8459,-11.718750
8460,-11.718750
8461,-11.718750
8462,-11.718750
8463,-11.718750
8464,-11.718750
8465,-11.718750
8466,-11.718750
8467,-11.718750
8468,-11.718750
8469,-11.718750
8470,-11.718750
8471,-11.718750
8472,-11.718750
8473,-11.718750
8474,-11.718750
8475,-11.718750
8476,-11.718750
8477,-11.718750
8478,-11.718750
8479,-11.718750
8480,-11.718750
8481,-15.625000
8482,-11.718750
8483,-11.718750
8484,-11.718750
8485,-11.718750
8486,-15.625000
8487,-15.625000
8488,-15.625000
8489,-15.625000
8490,-15.625000
8491,-15.625000
8492,-15.625000
8493,-15.625000
8494,-15.625000
8495,-15.625000
8496,-15.625000
8497,-15.625000
8498,-15.625000
8499,-15.625000
8500,-15.625000
8501,-15.625000
8502,-15.625000
8503,-15.625000
8504,-15.625000
8505,-15.625000
8506,-15.625000
8507,-15.625000
8508,-15.625000
8509,-15.625000
8510,-15.625000
8511,-15.625000
8512,-15.625000
8513,-19.531250
8514,-15.625000
8515,-15.625000
8516,-15.625000
8517,-15.625000
8518,-19.531250
8519,-19.531250
8520,-19.531250
8521,-19.531250
8522,-19.531250
8523,-19.531250
8524,-19.531250
8525,-19.531250
8526,-19.531250
8527,-19.531250
8528,-19.531250
8529,-19.531250
8530,-19.531250
8531,-19.531250
8532,-19.531250
8533,-19.531250
8534,-19.531250
8535,-19.531250
8536,-19.531250
8537,-19.531250
8538,-19.531250
8539,-19.531250
8540,-19.531250
8541,-19.531250
8542,-19.531250
8543,-19.531250
8544,-19.531250
8545,-19.531250
8546,-19.531250
8547,-19.531250
8548,-19.531250
8549,-19.531250
8550,-19.531250
8551,-19.531250
8552,-19.531250
8553,-23.437500
8554,-19.531250
8555,-19.531250
8556,-19.531250
8557,-19.531250
8558,-23.437500
8559,-19.531250
8560,-23.437500
8561,-23.437500
8562,-23.437500
8563,-23.437500
8564,-23.437500
8565,-23.437500
8566,-23.437500
8567,-23.437500
8568,-23.437500
8569,-23.437500
8570,-23.437500
8571,-23.437500
8572,-23.437500
8573,-23.437500
8574,-23.437500
8575,-23.437500
8576,-23.437500
8577,-23.437500
8578,-23.437500
8579,-23.437500
8580,-23.437500
8581,-23.437500
8582,-23.437500
8583,-23.437500
8584,-23.437500
8585,-23.437500
8586,-23.437500
8587,-23.437500
8588,-23.437500
8589,-23.437500
8590,-23.437500
8591,-23.437500
8592,-23.437500
8593,-23.437500
8594,-23.437500
8595,-23.437500
8596,-23.437500
8597,-23.437500
8598,-23.437500
8599,-23.437500
8600,-23.437500
8601,-23.437500
8602,-23.437500
8603,-23.437500
8604,-23.437500
8605,-23.437500
8606,-23.437500
8607,-23.437500
8608,-23.437500
8609,-27.343750
8610,-27.343750
8611,-27.343750
8612,-27.343750
8613,-27.343750
8614,-27.343750
8615,-27.343750
8616,-27.343750
8617,-27.343750
8618,-27.343750
8619,-27.343750
8620,-27.343750
8621,-27.343750
8622,-27.343750
8623,-27.343750
8624,-27.343750
8625,-27.343750
8626,-27.343750
8627,-27.343750
8628,-27.343750
8629,-27.343750
8630,-27.343750
8631,-27.343750
8632,-27.343750
8633,-27.343750
8634,-27.343750
8635,-27.343750
8636,-27.343750
8637,-27.343750
8638,-27.343750
8639,-27.343750
8640,-27.343750
8641,-27.343750
8642,-27.343750
8643,-27.343750
8644,-27.343750
8645,-27.343750
8646,-27.343750
8647,-27.343750
8648,-27.343750
8649,-27.343750
8650,-27.343750
8651,-27.343750
8652,-27.343750
8653,-27.343750
8654,-27.343750
8655,-27.343750
8656,-31.250000
8657,-27.343750
8658,-27.343750
8659,-27.343750
8660,-27.343750
8661,-31.250000
8662,-27.343750
8663,-31.250000
8664,-27.343750
8665,-27.343750
8666,-27.343750
8667,-27.343750
8668,-31.250000
8669,-31.250000
8670,-31.250000
8671,-31.250000
8672,-31.250000
8673,-31.250000
8674,-31.250000
8675,-31.250000
8676,-31.250000
8677,-31.250000
8678,-27.343750
8679,-31.250000
8680,-31.250000
8681,-31.250000
8682,-31.250000
8683,-31.250000
8684,-31.250000
8685,-31.250000
8686,-31.250000
8687,-31.250000
8688,-31.250000
8689,-31.250000
8690,-31.250000
8691,-31.250000
8692,-31.250000
8693,-31.250000
8694,-31.250000
8695,-31.250000
8696,-31.250000
8697,-31.250000
8698,-31.250000
8699,-31.250000
8700,-31.250000
8701,-31.250000
8702,-31.250000
8703,-31.250000
8704,-31.250000
8705,-31.250000
8706,-31.250000
8707,-31.250000
8708,-31.250000
8709,-31.250000
8710,-31.250000
8711,-31.250000
8712,-31.250000
8713,-31.250000
8714,-31.250000
8715,-31.250000
8716,-31.250000
8717,-31.250000
8718,-31.250000
8719,-31.250000
8720,-31.250000
8721,-31.250000
8722,-31.250000
8723,-31.250000
8724,-31.250000
8725,-31.250000
8726,-31.250000
8727,-31.250000
8728,-31.250000
8729,-31.250000
8730,-31.250000
8731,-31.250000
8732,-31.250000
8733,-31.250000
8734,-31.250000
8735,-27.343750
8736,-31.250000
8737,-31.250000
8738,-31.250000
8739,-31.250000
8740,-31.250000
8741,-31.250000
8742,-31.250000
8743,-31.250000
8744,-31.250000
8745,-31.250000
8746,-31.250000
8747,-31.250000
8748,-31.250000
8749,-31.250000
8750,-31.250000
8751,-31.250000
8752,-31.250000
8753,-31.250000
8754,-31.250000
8755,-31.250000
8756,-31.250000
8757,-31.250000
8758,-31.250000
8759,-31.250000
8760,-31.250000
8761,-31.250000
8762,-31.250000
8763,-31.250000
8764,-31.250000
8765,-31.250000
8766,-31.250000
8767,-31.250000
8768,-31.250000
8769,-31.250000
8770,-31.250000
8771,-31.250000
8772,-31.250000
8773,-31.250000
8774,-31.250000
8775,-31.250000
8776,-31.250000
8777,-31.250000
8778,-31.250000
8779,-31.250000
8780,-31.250000
8781,-31.250000
8782,-31.250000
8783,-31.250000
8784,-31.250000
8785,-31.250000
8786,-31.250000
8787,-31.250000
8788,-31.250000
8789,-31.250000
8790,-31.250000
8791,-31.250000
8792,-31.250000
8793,-31.250000
8794,-31.250000
8795,-31.250000
8796,-31.250000
8797,-31.250000
8798,-31.250000
8799,-31.250000
8800,-31.250000
8801,-31.250000
8802,-31.250000
8803,-31.250000
8804,-31.250000
8805,-31.250000
8806,-31.250000
8807,-31.250000
8808,-31.250000
8809,-31.250000
8810,-31.250000
8811,-31.250000
8812,-31.250000
8813,-31.250000
8814,-31.250000
8815,-31.250000
8816,-31.250000
8817,-31.250000
8818,-31.250000
8819,-31.250000
8820,-27.343750
8821,-31.250000
8822,-31.250000
8823,-31.250000
8824,-31.250000
8825,-31.250000
8826,-27.343750
8827,-31.250000
8828,-31.250000
8829,-31.250000
8830,-27.343750
8831,-31.250000
8832,-27.343750
8833,-27.343750
8834,-27.343750
8835,-27.343750
8836,-27.343750
8837,-27.343750
8838,-27.343750
8839,-27.343750
8840,-27.343750
8841,-27.343750
8842,-27.343750
8843,-27.343750
8844,-27.343750
8845,-27.343750
8846,-27.343750
8847,-27.343750
8848,-27.343750
8849,-27.343750
8850,-27.343750
8851,-27.343750
8852,-27.343750
8853,-27.343750
8854,-27.343750
8855,-27.343750
8856,-27.343750
8857,-27.343750
8858,-27.343750
8859,-27.343750
8860,-27.343750
8861,-27.343750
8862,-27.343750
8863,-27.343750
8864,-27.343750
8865,-27.343750
8866,-27.343750
8867,-27.343750
8868,-27.343750
8869,-27.343750
8870,-27.343750
8871,-27.343750
8872,-27.343750
8873,-27.343750
8874,-27.343750
8875,-27.343750
8876,-27.343750
8877,-27.343750
8878,-27.343750
8879,-27.343750
8880,-27.343750
8881,-27.343750
8882,-27.343750
8883,-27.343750
8884,-23.437500
8885,-23.437500
8886,-23.437500
8887,-27.343750
8888,-27.343750
8889,-27.343750
8890,-23.437500
8891,-23.437500
8892,-23.437500
8893,-27.343750
8894,-23.437500
8895,-23.437500
8896,-23.437500
8897,-23.437500
8898,-23.437500
8899,-23.437500
8900,-23.437500
8901,-23.437500
8902,-23.437500
8903,-23.437500
8904,-23.437500
8905,-23.437500
8906,-23.437500
8907,-23.437500
8908,-23.437500
8909,-23.437500
8910,-23.437500
8911,-23.437500
8912,-23.437500
8913,-23.437500
8914,-23.437500
8915,-23.437500
8916,-23.437500
8917,-23.437500
8918,-19.531250
8919,-23.437500
8920,-23.437500
8921,-23.437500
8922,-19.531250
8923,-23.437500
8924,-23.437500
8925,-23.437500
8926,-23.437500
8927,-23.437500
8928,-19.531250
8929,-19.531250
8930,-19.531250
8931,-23.437500
8932,-19.531250
8933,-19.531250
8934,-19.531250
8935,-19.531250
8936,-19.531250
8937,-19.531250
8938,-19.531250
8939,-19.531250
8940,-19.531250
8941,-19.531250
8942,-19.531250
8943,-19.531250
8944,-19.531250
8945,-19.531250
8946,-19.531250
8947,-19.531250
8948,-19.531250
8949,-19.531250
8950,-19.531250
8951,-19.531250
8952,-19.531250
8953,-19.531250
8954,-19.531250
8955,-19.531250
8956,-19.531250
8957,-19.531250
8958,-19.531250
8959,-15.625000
8960,-15.625000
8961,-19.531250
8962,-19.531250
8963,-19.531250
8964,-15.625000
8965,-19.531250
8966,-15.625000
8967,-15.625000
8968,-15.625000
8969,-15.625000
8970,-15.625000
8971,-15.625000
8972,-15.625000
8973,-15.625000
8974,-15.625000
8975,-15.625000
8976,-15.625000
8977,-15.625000
8978,-15.625000
8979,-15.625000
8980,-15.625000
8981,-15.625000
8982,-15.625000
8983,-15.625000
8984,-15.625000
8985,-15.625000
8986,-15.625000
8987,-15.625000
8988,-15.625000
8989,-15.625000
8990,-15.625000
8991,-15.625000
8992,-15.625000
8993,-15.625000
8994,-15.625000
8995,-15.625000
8996,-11.718750
8997,-11.718750
8998,-11.718750
8999,-11.718750
9000,-11.718750
9001,-11.718750
9002,-11.718750
9003,-11.718750
9004,-11.718750
9005,-11.718750
9006,-11.718750
9007,-11.718750
9008,-11.718750
9009,-11.718750
9010,-11.718750
9011,-11.718750
9012,-11.718750
9013,-11.718750
9014,-11.718750
9015,-11.718750
9016,-11.718750
9017,-11.718750
9018,-11.718750
9019,-11.718750
9020,-11.718750
9021,-11.718750
9022,-11.718750
9023,-11.718750
9024,-11.718750
9025,-7.812500
9026,-11.718750
9027,-11.718750
9028,-11.718750
9029,-7.812500
9030,-7.812500
9031,-7.812500
9032,-11.718750
9033,-11.718750
9034,-7.812500
9035,-7.812500
9036,-7.812500
9037,-7.812500
9038,-7.812500
9039,-7.812500
9040,-7.812500
9041,-7.812500
9042,-7.812500
9043,-7.812500
9044,-7.812500
9045,-7.812500
9046,-7.812500
9047,-7.812500
9048,-7.812500
9049,-7.812500
9050,-7.812500
9051,-7.812500
9052,-7.812500
9053,-7.812500
9054,-7.812500
9055,-7.812500
9056,-7.812500
9057,-7.812500
9058,-7.812500
9059,-7.812500
9060,-7.812500
9061,-3.906250
9062,-3.906250
9063,-3.906250
9064,-7.812500
9065,-7.812500
9066,-3.906250
9067,-3.906250
9068,-3.906250
9069,-3.906250
9070,-7.812500
9071,-3.906250
9072,-3.906250
9073,-3.906250
9074,-3.906250
9075,-3.906250
9076,-3.906250
9077,-3.906250
9078,-3.906250
9079,-3.906250
9080,-3.906250
9081,-3.906250
9082,-3.906250
9083,-3.906250
9084,-3.906250
9085,-3.906250
9086,-3.906250
9087,-3.906250
9088,-3.906250
9089,-3.906250
9090,-3.906250
9091,-3.906250
9092,-3.906250
9093,-3.906250
9094,-3.906250
9095,-3.906250
9096,0.000000
9097,0.000000
9098,0.000000
9099,0.000000
9100,0.000000
9101,0.000000
9102,0.000000
9103,3.906250
9104,0.000000
9105,0.000000
9106,0.000000
9107,0.000000
9108,0.000000
9109,0.000000
9110,0.000000
9111,0.000000
9112,0.000000
9113,0.000000
9114,0.000000
9115,0.000000
9116,0.000000
9117,0.000000
9118,0.000000
9119,0.000000
9120,0.000000
9121,0.000000
9122,0.000000
9123,0.000000
9124,0.000000
9125,0.000000
9126,0.000000
9127,0.000000
9128,0.000000
9129,0.000000
9130,0.000000
9131,0.000000
9132,3.906250
9133,3.906250
9134,3.906250
9135,0.000000
9136,0.000000
9137,3.906250
9138,3.906250
9139,0.000000
9140,0.000000
9141,0.000000
9142,3.906250
9143,3.906250
9144,3.906250
9145,3.906250
9146,3.906250
9147,3.906250
9148,3.906250
9149,3.906250
9150,3.906250
9151,3.906250
9152,3.906250
9153,3.906250
9154,3.906250
9155,3.906250
9156,3.906250
9157,3.906250
9158,3.906250
9159,3.906250
9160,3.906250
9161,3.906250
9162,3.906250
9163,3.906250
9164,3.906250
9165,3.906250
9166,3.906250
9167,3.906250
9168,3.906250
9169,3.906250
9170,3.906250
9171,7.812500
9172,3.906250
9173,3.906250
9174,3.906250
9175,3.906250
9176,3.906250
9177,3.906250
9178,3.906250
9179,3.906250
9180,3.906250
9181,3.906250
9182,3.906250
9183,3.906250
9184,3.906250
9185,3.906250
9186,3.906250
9187,3.906250
9188,3.906250
9189,3.906250
9190,3.906250
9191,3.906250
9192,3.906250
9193,3.906250
9194,3.906250
9195,3.906250
9196,3.906250
9197,3.906250
9198,3.906250
9199,3.906250
9200,3.906250
9201,3.906250
9202,3.906250
9203,3.906250
9204,3.906250
9205,3.906250
9206,3.906250
9207,3.906250
9208,3.906250
9209,3.906250
9210,3.906250
9211,3.906250
9212,3.906250
9213,3.906250
9214,3.906250
9215,3.906250
9216,3.906250
9217,3.906250
9218,3.906250
9219,3.906250
9220,3.906250
9221,3.906250
9222,3.906250
9223,3.906250
9224,3.906250
9225,3.906250
9226,3.906250
9227,3.906250
9228,3.906250
9229,3.906250
9230,3.906250
9231,3.906250
9232,3.906250
9233,3.906250
9234,3.906250
9235,3.906250
9236,3.906250
9237,3.906250
9238,3.906250
9239,3.906250
9240,3.906250
9241,3.906250
9242,3.906250
9243,3.906250
9244,3.906250
9245,3.906250
9246,3.906250
9247,3.906250
9248,3.906250
9249,3.906250
9250,3.906250
9251,3.906250
9252,3.906250
9253,3.906250
9254,3.906250
9255,3.906250
9256,3.906250
9257,3.906250
9258,3.906250
9259,3.906250
9260,3.906250
9261,3.906250
9262,3.906250
9263,3.906250
9264,3.906250
9265,3.906250
9266,3.906250
9267,3.906250
9268,3.906250
9269,3.906250
9270,3.906250
9271,3.906250
9272,3.906250
9273,3.906250
9274,3.906250
9275,3.906250
9276,3.906250
9277,3.906250
9278,3.906250
9279,3.906250
9280,3.906250
9281,3.906250
9282,3.906250
9283,3.906250
9284,3.906250
9285,3.906250
9286,3.906250
9287,3.906250
9288,3.906250
9289,3.906250
9290,3.906250
9291,3.906250
9292,3.906250
9293,3.906250
9294,3.906250
9295,3.906250
9296,3.906250
9297,3.906250
9298,3.906250
9299,3.906250
9300,3.906250
9301,3.906250
9302,3.906250
9303,3.906250
9304,3.906250
9305,3.906250
9306,3.906250
9307,3.906250
9308,0.000000
9309,0.000000
9310,3.906250
9311,3.906250
9312,3.906250
9313,3.906250
9314,3.906250
9315,0.000000
9316,0.000000
9317,0.000000
9318,0.000000
9319,0.000000
9320,0.000000
9321,0.000000
9322,0.000000
9323,0.000000
9324,0.000000
9325,0.000000
9326,0.000000
9327,0.000000
9328,0.000000
9329,0.000000
9330,0.000000
9331,0.000000
9332,0.000000
9333,0.000000
9334,0.000000
9335,0.000000
9336,0.000000
9337,0.000000
9338,0.000000
9339,0.000000
9340,0.000000
9341,0.000000
9342,0.000000
9343,0.000000
9344,0.000000
9345,0.000000
9346,0.000000
9347,0.000000
9348,0.000000
9349,0.000000
9350,0.000000
9351,0.000000
9352,0.000000
9353,0.000000
9354,0.000000
9355,0.000000
9356,0.000000
9357,0.000000
9358,0.000000
9359,0.000000
9360,0.000000
9361,0.000000
9362,-3.906250
9363,-3.906250
9364,-3.906250
9365,-3.906250
9366,-3.906250
9367,-3.906250
9368,-3.906250
9369,-3.906250
9370,-3.906250
9371,-3.906250
9372,-3.906250
9373,-3.906250
9374,-3.906250
9375,-3.906250
9376,-3.906250
9377,-3.906250
9378,-3.906250
9379,-3.906250
9380,-3.906250
9381,-3.906250
9382,-3.906250
9383,-3.906250
9384,-3.906250
9385,-3.906250
9386,-3.906250
9387,-3.906250
9388,-3.906250
9389,-3.906250
9390,-3.906250
9391,-3.906250
9392,-3.906250
9393,-3.906250
9394,-3.906250
9395,-3.906250
9396,-3.906250
9397,-3.906250
9398,-3.906250
9399,-3.906250
9400,-3.906250
9401,-3.906250
9402,-3.906250
9403,-7.812500
9404,-7.812500
9405,-7.812500
9406,-7.812500
9407,-7.812500
9408,-7.812500
9409,-7.812500
9410,-7.812500
9411,-7.812500
9412,-7.812500
9413,-7.812500
9414,-7.812500
9415,-7.812500
9416,-7.812500
9417,-7.812500
9418,-7.812500
9419,-7.812500
9420,-7.812500
9421,-7.812500
9422,-7.812500
9423,-7.812500
9424,-7.812500
9425,-7.812500
9426,-7.812500
9427,-11.718750
9428,-7.812500
9429,-7.812500
9430,-7.812500
9431,-7.812500
9432,-7.812500
9433,-7.812500
9434,-7.812500
9435,-11.718750
9436,-7.812500
9437,-7.812500
9438,-7.812500
9439,-11.718750
9440,-11.718750
9441,-11.718750
9442,-11.718750
9443,-11.718750
9444,-11.718750
9445,-11.718750
9446,-11.718750
9447,-11.718750
9448,-11.718750
9449,-11.718750
9450,-11.718750
9451,-11.718750
9452,-11.718750
9453,-11.718750
9454,-11.718750
9455,-11.718750
9456,-11.718750
9457,-11.718750
9458,-11.718750
9459,-11.718750
9460,-11.718750
9461,-11.718750
9462,-11.718750
9463,-11.718750
9464,-11.718750
9465,-15.625000
9466,-11.718750
9467,-15.625000
9468,-15.625000
9469,-11.718750
9470,-11.718750
9471,-11.718750
9472,-15.625000
9473,-15.625000
9474,-15.625000
9475,-15.625000
9476,-15.625000
9477,-15.625000
9478,-15.625000
9479,-15.625000
9480,-15.625000
9481,-15.625000
9482,-15.625000
9483,-15.625000
9484,-15.625000
9485,-15.625000
9486,-15.625000
9487,-15.625000
9488,-15.625000
9489,-15.625000
9490,-15.625000
9491,-15.625000
9492,-15.625000
9493,-15.625000
9494,-15.625000
9495,-15.625000
9496,-15.625000
9497,-15.625000
9498,-15.625000
9499,-15.625000
9500,-15.625000
9501,-15.625000
9502,-15.625000
9503,-15.625000
9504,-15.625000
9505,-15.625000
9506,-15.625000
9507,-15.625000
9508,-19.531250
9509,-19.531250
9510,-19.531250
9511,-19.531250
9512,-19.531250
9513,-19.531250
9514,-19.531250
9515,-19.531250
9516,-19.531250
9517,-19.531250
9518,-19.531250
9519,-19.531250
9520,-19.531250
9521,-19.531250
9522,-19.531250
9523,-19.531250
9524,-19.531250
9525,-19.531250
9526,-19.531250
9527,-19.531250
9528,-19.531250
9529,-19.531250
9530,-19.531250
9531,-19.531250
9532,-19.531250
9533,-19.531250
9534,-19.531250
9535,-19.531250
9536,-19.531250
9537,-19.531250
9538,-19.531250
9539,-19.531250
9540,-19.531250
9541,-19.531250
9542,-19.531250
9543,-19.531250
9544,-19.531250
9545,-23.437500
9546,-19.531250
9547,-19.531250
9548,-19.531250
9549,-23.437500
9550,-23.437500
9551,-23.437500
9552,-23.437500
9553,-23.437500
9554,-23.437500
9555,-23.437500
9556,-23.437500
9557,-23.437500
9558,-23.437500
9559,-23.437500
9560,-23.437500
9561,-23.437500
9562,-23.437500
9563,-23.437500
9564,-23.437500
9565,-23.437500
9566,-23.437500
9567,-23.437500
9568,-23.437500
9569,-23.437500
9570,-23.437500
9571,-23.437500
9572,-23.437500
9573,-23.437500
9574,-23.437500
9575,-23.437500
9576,-23.437500
9577,-23.437500
9578,-23.437500
9579,-23.437500
9580,-23.437500
9581,-23.437500
9582,-23.437500
9583,-23.437500
9584,-23.437500
9585,-23.437500
9586,-23.437500
9587,-27.343750
9588,-23.437500
9589,-23.437500
9590,-23.437500
9591,-23.437500
9592,-27.343750
9593,-27.343750
9594,-27.343750
9595,-27.343750
9596,-27.343750
9597,-27.343750
9598,-27.343750
9599,-27.343750
9600,-27.343750
9601,-27.343750
9602,-27.343750
9603,-27.343750
9604,-27.343750
9605,-27.343750
9606,-27.343750
9607,-27.343750
9608,-27.343750
9609,-27.343750
9610,-27.343750
9611,-27.343750
9612,-27.343750
9613,-27.343750
9614,-27.343750
9615,-27.343750
9616,-27.343750
9617,-27.343750
9618,-27.343750
9619,-27.343750
9620,-27.343750
9621,-27.343750
9622,-27.343750
9623,-27.343750
9624,-27.343750
9625,-27.343750
9626,-27.343750
9627,-27.343750
9628,-27.343750
9629,-27.343750
9630,-27.343750
9631,-27.343750
9632,-27.343750
9633,-27.343750
9634,-27.343750
9635,-27.343750
9636,-27.343750
9637,-27.343750
9638,-27.343750
9639,-27.343750
9640,-27.343750
9641,-27.343750
9642,-27.343750
9643,-27.343750
9644,-27.343750
9645,-27.343750
9646,-27.343750
9647,-27.343750
9648,-27.343750
9649,-31.250000
9650,-27.343750
9651,-31.250000
9652,-27.343750
9653,-27.343750
9654,-27.343750
9655,-27.343750
9656,-31.250000
9657,-27.343750
9658,-27.343750
9659,-27.343750
9660,-27.343750
9661,-31.250000
9662,-31.250000
9663,-31.250000
9664,-27.343750
9665,-31.250000
9666,-27.343750
9667,-27.343750
9668,-31.250000
9669,-31.250000
9670,-27.343750
9671,-31.250000
9672,-31.250000
9673,-31.250000
9674,-31.250000
9675,-27.343750
9676,-27.343750
9677,-27.343750
9678,-31.250000
9679,-31.250000
9680,-31.250000
9681,-31.250000
9682,-31.250000
9683,-31.250000
9684,-31.250000
9685,-31.250000
9686,-31.250000
9687,-31.250000
9688,-31.250000
9689,-31.250000
9690,-31.250000
9691,-31.250000
9692,-31.250000
9693,-31.250000
9694,-31.250000
9695,-31.250000
9696,-31.250000
9697,-31.250000
9698,-31.250000
9699,-31.250000
9700,-31.250000
9701,-31.250000
9702,-31.250000
9703,-31.250000
9704,-31.250000
9705,-31.250000
9706,-31.250000
9707,-31.250000
9708,-31.250000
9709,-31.250000
9710,-31.250000
9711,-31.250000
9712,-31.250000
9713,-31.250000
9714,-31.250000
9715,-31.250000
9716,-31.250000
9717,-31.250000
9718,-31.250000
9719,-31.250000
9720,-31.250000
9721,-31.250000
9722,-31.250000
9723,-31.250000
9724,-31.250000
9725,-31.250000
9726,-31.250000
9727,-31.250000
9728,-31.250000
9729,-31.250000
9730,-31.250000
9731,-31.250000
9732,-31.250000
9733,-31.250000
9734,-31.250000
9735,-31.250000
9736,-31.250000
9737,-31.250000
9738,-31.250000
9739,-31.250000
9740,-31.250000
9741,-31.250000
9742,-31.250000
9743,-31.250000
9744,-31.250000
9745,-31.250000
9746,-31.250000
9747,-31.250000
9748,-31.250000
9749,-31.250000
9750,-31.250000
9751,-31.250000
9752,-31.250000
9753,-31.250000
9754,-31.250000
9755,-31.250000
9756,-31.250000
9757,-31.250000
9758,-31.250000
9759,-31.250000
9760,-31.250000
9761,-31.250000
9762,-31.250000
9763,-31.250000
9764,-31.250000
9765,-31.250000
9766,-31.250000
9767,-31.250000
9768,-31.250000
9769,-31.250000
9770,-31.250000
9771,-31.250000
9772,-31.250000
9773,-31.250000
9774,-31.250000
9775,-31.250000
9776,-31.250000
9777,-31.250000
9778,-31.250000
9779,-31.250000
9780,-31.250000
9781,-31.250000
9782,-31.250000
9783,-31.250000
9784,-31.250000
9785,-31.250000
9786,-31.250000
9787,-31.250000
9788,-31.250000
9789,-31.250000
9790,-31.250000
9791,-31.250000
9792,-31.250000
9793,-31.250000
9794,-31.250000
9795,-31.250000
9796,-31.250000
9797,-31.250000
9798,-31.250000
9799,-31.250000
9800,-31.250000
9801,-31.250000
9802,-31.250000
9803,-31.250000
9804,-31.250000
9805,-31.250000
9806,-31.250000
9807,-31.250000
9808,-31.250000
9809,-31.250000
9810,-27.343750
9811,-27.343750
9812,-27.343750
9813,-31.250000
9814,-27.343750
9815,-27.343750
9816,-31.250000
9817,-31.250000
9818,-31.250000
9819,-31.250000
9820,-31.250000
9821,-27.343750
9822,-27.343750
9823,-31.250000
9824,-27.343750
9825,-27.343750
9826,-27.343750
9827,-27.343750
9828,-27.343750
9829,-31.250000
9830,-27.343750
9831,-27.343750
9832,-27.343750
9833,-27.343750
9834,-27.343750
9835,-27.343750
9836,-27.343750
9837,-31.250000
9838,-27.343750
9839,-27.343750
9840,-27.343750
9841,-27.343750
9842,-27.343750
9843,-27.343750
9844,-27.343750
9845,-27.343750
9846,-27.343750
9847,-27.343750
9848,-27.343750
9849,-27.343750
9850,-27.343750
9851,-27.343750
9852,-27.343750
9853,-27.343750
9854,-27.343750
9855,-27.343750
9856,-27.343750
9857,-27.343750
9858,-27.343750
9859,-27.343750
9860,-27.343750
9861,-27.343750
9862,-27.343750
9863,-27.343750
9864,-27.343750
9865,-27.343750
9866,-27.343750
9867,-27.343750
9868,-27.343750
9869,-27.343750
9870,-27.343750
9871,-27.343750
9872,-27.343750
9873,-23.437500
9874,-23.437500
9875,-23.437500
9876,-27.343750
9877,-23.437500
9878,-23.437500
9879,-27.343750
9880,-23.437500
9881,-23.437500
9882,-23.437500
9883,-23.437500
9884,-23.437500
9885,-23.437500
9886,-23.437500
9887,-23.437500
9888,-23.437500
9889,-23.437500
9890,-23.437500
9891,-23.437500
9892,-23.437500
9893,-23.437500
9894,-23.437500
9895,-23.437500
9896,-23.437500
9897,-23.437500
9898,-23.437500
9899,-23.437500
9900,-23.437500
9901,-23.437500
9902,-23.437500
9903,-23.437500
9904,-23.437500
9905,-23.437500
9906,-23.437500
9907,-23.437500
9908,-23.437500
9909,-23.437500
9910,-23.437500
9911,-23.437500
9912,-19.531250
9913,-19.531250
9914,-23.437500
9915,-19.531250
9916,-19.531250
9917,-23.437500
9918,-23.437500
9919,-23.437500
9920,-19.531250
9921,-19.531250
9922,-19.531250
9923,-19.531250
9924,-19.531250
9925,-19.531250
9926,-19.531250
9927,-19.531250
9928,-19.531250
9929,-19.531250
9930,-19.531250
9931,-19.531250
9932,-19.531250
9933,-19.531250
9934,-19.531250
9935,-19.531250
9936,-19.531250
9937,-19.531250
9938,-19.531250
9939,-19.531250
9940,-19.531250
9941,-19.531250
9942,-19.531250
9943,-19.531250
9944,-19.531250
9945,-19.531250
9946,-19.531250
9947,-19.531250
9948,-19.531250
9949,-19.531250
9950,-19.531250
9951,-19.531250
9952,-15.625000
9953,-19.531250
9954,-15.625000
9955,-19.531250
9956,-15.625000
9957,-19.531250
9958,-19.531250
9959,-15.625000
9960,-15.625000
9961,-15.625000
9962,-15.625000
9963,-15.625000
9964,-15.625000
9965,-15.625000
9966,-15.625000
9967,-15.625000
9968,-15.625000
9969,-15.625000
9970,-15.625000
9971,-15.625000
9972,-15.625000
9973,-15.625000
9974,-15.625000
9975,-15.625000
9976,-15.625000
9977,-15.625000
9978,-15.625000
9979,-15.625000
9980,-15.625000
9981,-15.625000
9982,-15.625000
9983,-15.625000
9984,-15.625000
9985,-15.625000
9986,-11.718750
9987,-11.718750
9988,-15.625000
9989,-15.625000
9990,-11.718750
9991,-11.718750
9992,-11.718750
9993,-11.718750
9994,-11.718750
9995,-11.718750
9996,-11.718750
9997,-11.718750
9998,-11.718750
9999,-11.718750
10000,-11.718750
