Channel              :,CH1
Frequency            :,1.010kHz
Period               :,0.990ms
PK-PK                :,136.7mV
Probe attenuation    :,1X
Voltage per ADC value:,0.244141mV
Time interval        :,1.00000us

index,CH1_Voltage(mV)
1,-46.875000
2,-46.875000
3,-46.875000
4,-46.875000
5,-46.875000
6,-42.968750
7,-42.968750
8,-42.968750
9,-42.968750
10,-42.968750
11,-42.968750
12,-42.968750
13,-42.968750
14,-42.968750
15,-42.968750
16,-39.062500
17,-39.062500
18,-39.062500
19,-39.062500
20,-39.062500
21,-39.062500
22,-39.062500
23,-39.062500
24,-35.156250
25,-35.156250
26,-35.156250
27,-35.156250
28,-35.156250
29,-35.156250
30,-35.156250
31,-35.156250
32,-35.156250
33,-35.156250
34,-31.250000
35,-31.250000
36,-31.250000
37,-31.250000
38,-31.250000
39,-31.250000
40,-31.250000
41,-31.250000
42,-31.250000
43,-27.343750
44,-31.250000
45,-27.343750
46,-27.343750
47,-27.343750
48,-27.343750
49,-27.343750
50,-27.343750
51,-27.343750
52,-27.343750
53,-27.343750
54,-23.437500
55,-23.437500
56,-23.437500
57,-23.437500
58,-23.437500
59,-23.437500
60,-23.437500
61,-23.437500
62,-23.437500
63,-19.531250
64,-19.531250
65,-19.531250
66,-19.531250
67,-19.531250
68,-19.531250
69,-19.531250
70,-19.531250
71,-15.625000
72,-15.625000
73,-15.625000
74,-15.625000
75,-15.625000
76,-15.625000
77,-15.625000
78,-15.625000
79,-15.625000
80,-11.718750
81,-11.718750
82,-11.718750
83,-11.718750
84,-11.718750
85,-11.718750
86,-11.718750
87,-11.718750
88,-7.812500
89,-7.812500
90,-7.812500
91,-7.812500
92,-7.812500
93,-7.812500
94,-7.812500
95,-7.812500
96,-7.812500
97,-7.812500
98,-3.906250
99,-3.906250
100,-3.906250
101,-3.906250
102,-3.906250
103,-3.906250
104,-3.906250
105,-3.906250
106,-3.906250
107,-3.906250
108,0.000000
109,0.000000
110,0.000000
111,0.000000
112,0.000000
113,0.000000
114,0.000000
115,0.000000
116,0.000000
117,3.906250
118,3.906250
119,3.906250
120,3.906250
121,3.906250
122,3.906250
123,3.906250
124,3.906250
125,3.906250
126,3.906250
127,7.812500
128,7.812500
129,7.812500
130,7.812500
131,7.812500
132,7.812500
133,7.812500
134,7.812500
135,11.718750
136,11.718750
137,11.718750
138,11.718750
139,11.718750
140,11.718750
141,11.718750
142,11.718750
143,11.718750
144,11.718750
145,15.625000
146,15.625000
147,15.625000
148,15.625000
149,15.625000
150,15.625000
151,15.625000
152,15.625000
153,15.625000
154,15.625000
155,19.531250
156,19.531250
157,19.531250
158,19.531250
159,19.531250
160,19.531250
161,19.531250
162,19.531250
163,19.531250
164,19.531250
165,19.531250
166,19.531250
167,19.531250
168,23.437500
169,23.437500
170,23.437500
171,23.437500
172,23.437500
173,23.437500
174,23.437500
175,23.437500
176,23.437500
177,27.343750
178,27.343750
179,27.343750
180,27.343750
181,27.343750
182,27.343750
183,27.343750
184,27.343750
185,27.343750
186,27.343750
187,27.343750
188,27.343750
189,27.343750
190,27.343750
191,31.250000
192,31.250000
193,31.250000
194,31.250000
195,31.250000
196,31.250000
197,31.250000
198,31.250000
199,31.250000
200,31.250000
201,31.250000
202,31.250000
203,31.250000
204,35.156250
205,35.156250
206,35.156250
207,35.156250
208,35.156250
209,35.156250
210,35.156250
211,35.156250
212,35.156250
213,35.156250
214,35.156250
215,35.156250
216,39.062500
217,39.062500
218,39.062500
219,39.062500
220,39.062500
221,39.062500
222,39.062500
223,39.062500
224,39.062500
225,39.062500
226,39.062500
227,39.062500
228,39.062500
229,39.062500
230,39.062500
231,39.062500
232,39.062500
233,39.062500
234,42.968750
235,42.968750
236,42.968750
237,42.968750
238,42.968750
239,42.968750
240,42.968750
241,42.968750
242,42.968750
243,42.968750
244,42.968750
245,42.968750
246,42.968750
247,42.968750
248,42.968750
249,46.875000
250,46.875000
251,46.875000
252,46.875000
253,46.875000
254,46.875000
255,46.875000
256,46.875000
257,46.875000
258,46.875000
259,46.875000
260,46.875000
261,46.875000
262,46.875000
263,46.875000
264,46.875000
265,46.875000
266,46.875000
267,46.875000
268,46.875000
269,46.875000
270,46.875000
271,50.781250
272,46.875000
273,46.875000
274,46.875000
275,50.781250
276,46.875000
277,50.781250
278,50.781250
279,50.781250
280,46.875000
281,50.781250
282,50.781250
283,50.781250
284,50.781250
285,50.781250
286,50.781250
287,50.781250
288,50.781250
289,50.781250
290,50.781250
291,50.781250
292,50.781250
293,50.781250
294,50.781250
295,50.781250
296,50.781250
297,50.781250
298,50.781250
299,50.781250
300,50.781250
301,50.781250
302,50.781250
303,50.781250
304,50.781250
305,50.781250
306,50.781250
307,50.781250
308,50.781250
309,50.781250
310,50.781250
311,50.781250
312,50.781250
313,50.781250
314,54.687500
315,50.781250
316,50.781250
317,50.781250
318,50.781250
319,50.781250
320,50.781250
321,50.781250
322,50.781250
323,54.687500
324,50.781250
325,50.781250
326,50.781250
327,54.687500
328,54.687500
329,54.687500
330,50.781250
331,50.781250
332,50.781250
333,50.781250
334,54.687500
335,54.687500
336,50.781250
337,50.781250
338,50.781250
339,54.687500
340,50.781250
341,50.781250
342,50.781250
343,50.781250
344,50.781250
345,50.781250
346,50.781250
347,50.781250
348,50.781250
349,50.781250
350,50.781250
351,50.781250
352,50.781250
353,50.781250
354,50.781250
355,50.781250
356,50.781250
357,50.781250
358,50.781250
359,50.781250
360,50.781250
361,50.781250
362,50.781250
363,50.781250
364,50.781250
365,50.781250
366,50.781250
367,50.781250
368,50.781250
369,50.781250
370,50.781250
371,50.781250
372,50.781250
373,50.781250
374,50.781250
375,50.781250
376,50.781250
377,50.781250
378,46.875000
379,50.781250
380,50.781250
381,50.781250
382,46.875000
383,50.781250
384,46.875000
385,46.875000
386,46.875000
387,46.875000
388,46.875000
389,46.875000
390,46.875000
391,46.875000
392,46.875000
393,46.875000
394,46.875000
395,46.875000
396,46.875000
397,46.875000
398,46.875000
399,46.875000
400,46.875000
401,46.875000
402,46.875000
403,46.875000
404,46.875000
405,46.875000
406,46.875000
407,46.875000
408,46.875000
409,46.875000
410,46.875000
411,46.875000
412,42.968750
413,42.968750
414,42.968750
415,42.968750
416,42.968750
417,42.968750
418,42.968750
419,42.968750
420,42.968750
421,42.968750
422,42.968750
423,42.968750
424,42.968750
425,42.968750
426,42.968750
427,42.968750
428,39.062500
429,39.062500
430,39.062500
431,39.062500
432,39.062500
433,39.062500
434,39.062500
435,39.062500
436,39.062500
437,39.062500
438,39.062500
439,39.062500
440,39.062500
441,35.156250
442,35.156250
443,35.156250
444,35.156250
445,35.156250
446,35.156250
447,35.156250
448,35.156250
449,35.156250
450,35.156250
451,35.156250
452,35.156250
453,35.156250
454,35.156250
455,35.156250
456,31.250000
457,31.250000
458,31.250000
459,31.250000
460,31.250000
461,31.250000
462,31.250000
463,31.250000
464,31.250000
465,31.250000
466,31.250000
467,31.250000
468,31.250000
469,31.250000
470,31.250000
471,27.343750
472,27.343750
473,27.343750
474,27.343750
475,27.343750
476,27.343750
477,27.343750
478,27.343750
479,27.343750
480,23.437500
481,23.437500
482,23.437500
483,23.437500
484,23.437500
485,23.437500
486,23.437500
487,23.437500
488,23.437500
489,23.437500
490,23.437500
491,23.437500
492,23.437500
493,23.437500
494,19.531250
495,19.531250
496,19.531250
497,19.531250
498,19.531250
499,19.531250
500,19.531250
501,19.531250
502,19.531250
503,19.531250
504,19.531250
505,15.625000
506,15.625000
507,15.625000
508,15.625000
509,15.625000
510,15.625000
511,15.625000
512,15.625000
513,15.625000
514,15.625000
515,11.718750
516,11.718750
517,11.718750
518,11.718750
519,11.718750
520,11.718750
521,11.718750
522,11.718750
523,11.718750
524,11.718750
525,11.718750
526,7.812500
527,11.718750
528,7.812500
529,7.812500
530,7.812500
531,7.812500
532,7.812500
533,7.812500
534,7.812500
535,7.812500
536,3.906250
537,7.812500
538,3.906250
539,3.906250
540,3.906250
541,3.906250
542,3.906250
543,3.906250
544,3.906250
545,3.906250
546,3.906250
547,3.906250
548,3.906250
549,0.000000
550,0.000000
551,0.000000
552,0.000000
553,0.000000
554,0.000000
555,0.000000
556,-3.906250
557,-3.906250
558,-3.906250
559,-3.906250
560,-3.906250
561,-3.906250
562,-3.906250
563,-3.906250
564,-3.906250
565,-3.906250
566,-3.906250
567,-3.906250
568,-7.812500
569,-7.812500
570,-7.812500
571,-7.812500
572,-7.812500
573,-7.812500
574,-11.718750
575,-11.718750
576,-11.718750
577,-11.718750
578,-11.718750
579,-11.718750
580,-11.718750
581,-11.718750
582,-11.718750
583,-11.718750
584,-11.718750
585,-11.718750
586,-15.625000
587,-15.625000
588,-15.625000
589,-15.625000
590,-15.625000
591,-15.625000
592,-15.625000
593,-15.625000
594,-19.531250
595,-19.531250
596,-19.531250
597,-19.531250
598,-19.531250
599,-19.531250
600,-19.531250
601,-19.531250
602,-23.437500
603,-23.437500
604,-23.437500
605,-23.437500
606,-23.437500
607,-23.437500
608,-23.437500
609,-23.437500
610,-27.343750
611,-23.437500
612,-27.343750
613,-27.343750
614,-27.343750
615,-27.343750
616,-27.343750
617,-27.343750
618,-27.343750
619,-27.343750
620,-27.343750
621,-27.343750
622,-31.250000
623,-31.250000
624,-31.250000
625,-31.250000
626,-31.250000
627,-31.250000
628,-31.250000
629,-35.156250
630,-35.156250
631,-31.250000
632,-35.156250
633,-35.156250
634,-35.156250
635,-35.156250
636,-35.156250
637,-35.156250
638,-35.156250
639,-35.156250
640,-35.156250
641,-39.062500
642,-39.062500
643,-39.062500
644,-39.062500
645,-39.062500
646,-39.062500
647,-39.062500
648,-39.062500
649,-39.062500
650,-42.968750
651,-42.968750
652,-42.968750
653,-42.968750
654,-42.968750
655,-42.968750
656,-42.968750
657,-42.968750
658,-42.968750
659,-42.968750
660,-42.968750
661,-46.875000
662,-46.875000
663,-46.875000
664,-46.875000
665,-46.875000
666,-46.875000
667,-46.875000
668,-46.875000
669,-46.875000
670,-50.781250
671,-46.875000
672,-50.781250
673,-50.781250
674,-50.781250
675,-50.781250
676,-50.781250
677,-50.781250
678,-50.781250
679,-50.781250
680,-50.781250
681,-50.781250
682,-54.687500
683,-54.687500
684,-54.687500
685,-54.687500
686,-54.687500
687,-54.687500
688,-54.687500
689,-54.687500
690,-54.687500
691,-54.687500
692,-54.687500
693,-58.593750
694,-58.593750
695,-58.593750
696,-58.593750
697,-58.593750
698,-58.593750
699,-58.593750
700,-58.593750
701,-58.593750
702,-58.593750
703,-58.593750
704,-58.593750
705,-58.593750
706,-62.500000
707,-62.500000
708,-62.500000
709,-62.500000
710,-62.500000
711,-58.593750
712,-62.500000
713,-62.500000
714,-62.500000
715,-62.500000
716,-62.500000
717,-62.500000
718,-62.500000
719,-62.500000
720,-66.406250
721,-66.406250
722,-66.406250
723,-66.406250
724,-66.406250
725,-66.406250
726,-66.406250
727,-66.406250
728,-66.406250
729,-66.406250
730,-66.406250
731,-66.406250
732,-66.406250
733,-70.312500
734,-70.312500
735,-70.312500
736,-70.312500
737,-70.312500
738,-70.312500
739,-70.312500
740,-70.312500
741,-70.312500
742,-70.312500
743,-70.312500
744,-70.312500
745,-70.312500
746,-70.312500
747,-70.312500
748,-74.218750
749,-74.218750
750,-70.312500
751,-74.218750
752,-74.218750
753,-74.218750
754,-74.218750
755,-74.218750
756,-74.218750
757,-74.218750
758,-74.218750
759,-74.218750
760,-74.218750
761,-74.218750
762,-74.218750
763,-74.218750
764,-74.218750
765,-74.218750
766,-74.218750
767,-74.218750
768,-74.218750
769,-74.218750
770,-74.218750
771,-74.218750
772,-78.125000
773,-78.125000
774,-74.218750
775,-74.218750
776,-78.125000
777,-78.125000
778,-78.125000
779,-78.125000
780,-78.125000
781,-78.125000
782,-78.125000
783,-78.125000
784,-78.125000
785,-78.125000
786,-78.125000
787,-78.125000
788,-78.125000
789,-78.125000
790,-78.125000
791,-78.125000
792,-78.125000
793,-78.125000
794,-78.125000
795,-78.125000
796,-78.125000
797,-78.125000
798,-78.125000
799,-78.125000
800,-78.125000
801,-78.125000
802,-78.125000
803,-78.125000
804,-78.125000
805,-78.125000
806,-78.125000
807,-78.125000
808,-78.125000
809,-78.125000
810,-78.125000
811,-78.125000
812,-78.125000
813,-78.125000
814,-78.125000
815,-78.125000
816,-78.125000
817,-78.125000
818,-78.125000
819,-82.031250
820,-78.125000
821,-78.125000
822,-82.031250
823,-82.031250
824,-82.031250
825,-82.031250
826,-82.031250
827,-78.125000
828,-82.031250
829,-82.031250
830,-82.031250
831,-82.031250
832,-82.031250
833,-82.031250
834,-78.125000
835,-78.125000
836,-82.031250
837,-82.031250
838,-78.125000
839,-78.125000
840,-78.125000
841,-82.031250
842,-82.031250
843,-82.031250
844,-82.031250
845,-78.125000
846,-78.125000
847,-78.125000
848,-82.031250
849,-82.031250
850,-82.031250
851,-78.125000
852,-78.125000
853,-78.125000
854,-78.125000
855,-78.125000
856,-78.125000
857,-78.125000
858,-78.125000
859,-78.125000
860,-78.125000
861,-78.125000
862,-78.125000
863,-78.125000
864,-78.125000
865,-78.125000
866,-78.125000
867,-78.125000
868,-78.125000
869,-78.125000
870,-78.125000
871,-78.125000
872,-78.125000
873,-78.125000
874,-78.125000
875,-78.125000
876,-78.125000
877,-78.125000
878,-78.125000
879,-78.125000
880,-78.125000
881,-78.125000
882,-78.125000
883,-78.125000
884,-78.125000
885,-74.218750
886,-74.218750
887,-74.218750
888,-74.218750
889,-74.218750
890,-74.218750
891,-74.218750
892,-74.218750
893,-74.218750
894,-74.218750
895,-74.218750
896,-74.218750
897,-74.218750
898,-74.218750
899,-74.218750
900,-74.218750
901,-74.218750
902,-74.218750
903,-74.218750
904,-74.218750
905,-70.312500
906,-74.218750
907,-70.312500
908,-70.312500
909,-70.312500
910,-70.312500
911,-70.312500
912,-70.312500
913,-70.312500
914,-70.312500
915,-70.312500
916,-70.312500
917,-70.312500
918,-70.312500
919,-70.312500
920,-70.312500
921,-66.406250
922,-66.406250
923,-66.406250
924,-66.406250
925,-66.406250
926,-66.406250
927,-66.406250
928,-66.406250
929,-66.406250
930,-66.406250
931,-66.406250
932,-66.406250
933,-66.406250
934,-66.406250
935,-62.500000
936,-62.500000
937,-62.500000
938,-62.500000
939,-62.500000
940,-62.500000
941,-62.500000
942,-62.500000
943,-62.500000
944,-62.500000
945,-62.500000
946,-62.500000
947,-62.500000
948,-58.593750
949,-58.593750
950,-58.593750
951,-58.593750
952,-58.593750
953,-58.593750
954,-58.593750
955,-58.593750
956,-58.593750
957,-58.593750
958,-58.593750
959,-58.593750
960,-58.593750
961,-54.687500
962,-54.687500
963,-54.687500
964,-54.687500
965,-54.687500
966,-54.687500
967,-54.687500
968,-54.687500
969,-54.687500
970,-54.687500
971,-50.781250
972,-50.781250
973,-50.781250
974,-50.781250
975,-50.781250
976,-50.781250
977,-50.781250
978,-50.781250
979,-50.781250
980,-50.781250
981,-50.781250
982,-50.781250
983,-46.875000
984,-46.875000
985,-46.875000
986,-46.875000
987,-46.875000
988,-46.875000
989,-46.875000
990,-46.875000
991,-46.875000
992,-46.875000
993,-46.875000
994,-42.968750
995,-42.968750
996,-42.968750
997,-46.875000
998,-42.968750
999,-42.968750
1000,-42.968750
1001,-42.968750
1002,-42.968750
1003,-42.968750
1004,-42.968750
1005,-39.062500
1006,-39.062500
1007,-39.062500
1008,-39.062500
1009,-39.062500
1010,-39.062500
1011,-39.062500
1012,-35.156250
1013,-39.062500
1014,-35.156250
1015,-35.156250
1016,-35.156250
1017,-35.156250
1018,-35.156250
1019,-35.156250
1020,-35.156250
1021,-35.156250
1022,-35.156250
1023,-35.156250
1024,-31.250000
1025,-31.250000
1026,-31.250000
1027,-31.250000
1028,-31.250000
1029,-31.250000
1030,-31.250000
1031,-31.250000
1032,-31.250000
1033,-31.250000
1034,-27.343750
1035,-27.343750
1036,-27.343750
1037,-27.343750
1038,-27.343750
1039,-27.343750
1040,-27.343750
1041,-27.343750
1042,-23.437500
1043,-23.437500
1044,-23.437500
1045,-23.437500
1046,-23.437500
1047,-23.437500
1048,-23.437500
1049,-23.437500
1050,-23.437500
1051,-19.531250
1052,-23.437500
1053,-19.531250
1054,-19.531250
1055,-19.531250
1056,-19.531250
1057,-19.531250
1058,-19.531250
1059,-19.531250
1060,-15.625000
1061,-15.625000
1062,-15.625000
1063,-15.625000
1064,-15.625000
1065,-15.625000
1066,-15.625000
1067,-15.625000
1068,-11.718750
1069,-15.625000
1070,-11.718750
1071,-11.718750
1072,-11.718750
1073,-11.718750
1074,-11.718750
1075,-11.718750
1076,-11.718750
1077,-11.718750
1078,-11.718750
1079,-7.812500
1080,-7.812500
1081,-7.812500
1082,-7.812500
1083,-7.812500
1084,-7.812500
1085,-7.812500
1086,-7.812500
1087,-7.812500
1088,-7.812500
1089,-3.906250
1090,-3.906250
1091,-3.906250
1092,-3.906250
1093,-3.906250
1094,-3.906250
1095,0.000000
1096,0.000000
1097,0.000000
1098,0.000000
1099,0.000000
1100,0.000000
1101,0.000000
1102,0.000000
1103,0.000000
1104,0.000000
1105,0.000000
1106,0.000000
1107,3.906250
1108,3.906250
1109,3.906250
1110,3.906250
1111,3.906250
1112,3.906250
1113,3.906250
1114,3.906250
1115,3.906250
1116,3.906250
1117,7.812500
1118,7.812500
1119,7.812500
1120,7.812500
1121,7.812500
1122,7.812500
1123,7.812500
1124,7.812500
1125,7.812500
1126,11.718750
1127,11.718750
1128,11.718750
1129,11.718750
1130,11.718750
1131,11.718750
1132,11.718750
1133,11.718750
1134,15.625000
1135,11.718750
1136,15.625000
1137,15.625000
1138,15.625000
1139,15.625000
1140,15.625000
1141,15.625000
1142,15.625000
1143,15.625000
1144,15.625000
1145,19.531250
1146,19.531250
1147,19.531250
1148,19.531250
1149,19.531250
1150,19.531250
1151,19.531250
1152,19.531250
1153,19.531250
1154,19.531250
1155,19.531250
1156,23.437500
1157,23.437500
1158,23.437500
1159,23.437500
1160,23.437500
1161,23.437500
1162,23.437500
1163,23.437500
1164,23.437500
1165,23.437500
1166,27.343750
1167,27.343750
1168,27.343750
1169,27.343750
1170,27.343750
1171,27.343750
1172,27.343750
1173,27.343750
1174,27.343750
1175,27.343750
1176,27.343750
1177,27.343750
1178,27.343750
1179,31.250000
1180,31.250000
1181,31.250000
1182,31.250000
1183,31.250000
1184,31.250000
1185,31.250000
1186,31.250000
1187,31.250000
1188,31.250000
1189,35.156250
1190,31.250000
1191,35.156250
1192,35.156250
1193,35.156250
1194,35.156250
1195,35.156250
1196,35.156250
1197,35.156250
1198,35.156250
1199,35.156250
1200,35.156250
1201,35.156250
1202,35.156250
1203,39.062500
1204,35.156250
1205,35.156250
1206,39.062500
1207,39.062500
1208,39.062500
1209,39.062500
1210,39.062500
1211,39.062500
1212,39.062500
1213,39.062500
1214,39.062500
1215,39.062500
1216,39.062500
1217,39.062500
1218,39.062500
1219,42.968750
1220,39.062500
1221,42.968750
1222,42.968750
1223,42.968750
1224,42.968750
1225,42.968750
1226,42.968750
1227,42.968750
1228,42.968750
1229,42.968750
1230,42.968750
1231,42.968750
1232,42.968750
1233,42.968750
1234,42.968750
1235,42.968750
1236,42.968750
1237,46.875000
1238,46.875000
1239,46.875000
1240,46.875000
1241,46.875000
1242,46.875000
1243,46.875000
1244,46.875000
1245,46.875000
1246,46.875000
1247,46.875000
1248,46.875000
1249,46.875000
1250,46.875000
1251,46.875000
1252,46.875000
1253,46.875000
1254,46.875000
1255,46.875000
1256,46.875000
1257,46.875000
1258,46.875000
1259,50.781250
1260,46.875000
1261,46.875000
1262,46.875000
1263,46.875000
1264,50.781250
1265,50.781250
1266,50.781250
1267,50.781250
1268,50.781250
1269,50.781250
1270,50.781250
1271,50.781250
1272,50.781250
1273,50.781250
1274,50.781250
1275,50.781250
1276,50.781250
1277,50.781250
1278,50.781250
1279,50.781250
1280,50.781250
1281,50.781250
1282,50.781250
1283,50.781250
1284,50.781250
1285,50.781250
1286,50.781250
1287,50.781250
1288,50.781250
1289,50.781250
1290,50.781250
1291,50.781250
1292,50.781250
1293,50.781250
1294,50.781250
1295,50.781250
1296,50.781250
1297,54.687500
1298,50.781250
1299,54.687500
1300,50.781250
1301,50.781250
1302,50.781250
1303,50.781250
1304,50.781250
1305,50.781250
1306,54.687500
1307,54.687500
1308,54.687500
1309,50.781250
1310,54.687500
1311,50.781250
1312,50.781250
1313,54.687500
1314,50.781250
1315,50.781250
1316,50.781250
1317,54.687500
1318,50.781250
1319,54.687500
1320,54.687500
1321,50.781250
1322,50.781250
1323,54.687500
1324,54.687500
1325,54.687500
1326,54.687500
1327,50.781250
1328,50.781250
1329,50.781250
1330,50.781250
1331,54.687500
1332,50.781250
1333,50.781250
1334,50.781250
1335,50.781250
1336,50.781250
1337,50.781250
1338,50.781250
1339,50.781250
1340,50.781250
1341,50.781250
1342,50.781250
1343,50.781250
1344,50.781250
1345,50.781250
1346,50.781250
1347,50.781250
1348,50.781250
1349,50.781250
1350,50.781250
1351,50.781250
1352,50.781250
1353,50.781250
1354,50.781250
1355,50.781250
1356,50.781250
1357,50.781250
1358,50.781250
1359,50.781250
1360,50.781250
1361,50.781250
1362,50.781250
1363,50.781250
1364,50.781250
1365,50.781250
1366,50.781250
1367,50.781250
1368,50.781250
1369,50.781250
1370,50.781250
1371,50.781250
1372,46.875000
1373,46.875000
1374,46.875000
1375,50.781250
1376,46.875000
1377,46.875000
1378,46.875000
1379,46.875000
1380,46.875000
1381,46.875000
1382,46.875000
1383,46.875000
1384,46.875000
1385,46.875000
1386,46.875000
1387,46.875000
1388,46.875000
1389,46.875000
1390,46.875000
1391,46.875000
1392,46.875000
1393,46.875000
1394,46.875000
1395,46.875000
1396,42.968750
1397,46.875000
1398,42.968750
1399,42.968750
1400,42.968750
1401,42.968750
1402,42.968750
1403,42.968750
1404,42.968750
1405,42.968750
1406,42.968750
1407,42.968750
1408,42.968750
1409,42.968750
1410,42.968750
1411,42.968750
1412,42.968750
1413,42.968750
1414,42.968750
1415,42.968750
1416,39.062500
1417,39.062500
1418,39.062500
1419,39.062500
1420,39.062500
1421,39.062500
1422,39.062500
1423,39.062500
1424,39.062500
1425,39.062500
1426,39.062500
1427,39.062500
1428,39.062500
1429,39.062500
1430,39.062500
1431,39.062500
1432,35.156250
1433,35.156250
1434,35.156250
1435,35.156250
1436,35.156250
1437,35.156250
1438,35.156250
1439,35.156250
1440,35.156250
1441,35.156250
1442,35.156250
1443,35.156250
1444,35.156250
1445,35.156250
1446,31.250000
1447,31.250000
1448,31.250000
1449,31.250000
1450,31.250000
1451,31.250000
1452,31.250000
1453,31.250000
1454,31.250000
1455,31.250000
1456,31.250000
1457,31.250000
1458,31.250000
1459,31.250000
1460,27.343750
1461,27.343750
1462,27.343750
1463,27.343750
1464,27.343750
1465,27.343750
1466,27.343750
1467,27.343750
1468,27.343750
1469,27.343750
1470,27.343750
1471,23.437500
1472,23.437500
1473,23.437500
1474,23.437500
1475,23.437500
1476,23.437500
1477,23.437500
1478,23.437500
1479,23.437500
1480,23.437500
1481,23.437500
1482,19.531250
1483,19.531250
1484,19.531250
1485,19.531250
1486,19.531250
1487,19.531250
1488,19.531250
1489,19.531250
1490,19.531250
1491,19.531250
1492,19.531250
1493,19.531250
1494,15.625000
1495,15.625000
1496,15.625000
1497,15.625000
1498,15.625000
1499,15.625000
1500,15.625000
1501,15.625000
1502,15.625000
1503,11.718750
1504,11.718750
1505,11.718750
1506,11.718750
1507,11.718750
1508,11.718750
1509,11.718750
1510,11.718750
1511,11.718750
1512,11.718750
1513,7.812500
1514,7.812500
1515,7.812500
1516,7.812500
1517,7.812500
1518,7.812500
1519,7.812500
1520,7.812500
1521,7.812500
1522,3.906250
1523,3.906250
1524,3.906250
1525,3.906250
1526,3.906250
1527,3.906250
1528,3.906250
1529,3.906250
1530,3.906250
1531,3.906250
1532,3.906250
1533,0.000000
1534,0.000000
1535,0.000000
1536,0.000000
1537,0.000000
1538,0.000000
1539,0.000000
1540,0.000000
1541,0.000000
1542,0.000000
1543,0.000000
1544,-3.906250
1545,-3.906250
1546,-3.906250
1547,-3.906250
1548,-3.906250
1549,-3.906250
1550,-3.906250
1551,-3.906250
1552,-7.812500
1553,-7.812500
1554,-7.812500
1555,-7.812500
1556,-7.812500
1557,-7.812500
1558,-7.812500
1559,-7.812500
1560,-7.812500
1561,-7.812500
1562,-7.812500
1563,-11.718750
1564,-11.718750
1565,-11.718750
1566,-11.718750
1567,-11.718750
1568,-11.718750
1569,-11.718750
1570,-11.718750
1571,-11.718750
1572,-11.718750
1573,-11.718750
1574,-15.625000
1575,-15.625000
1576,-15.625000
1577,-15.625000
1578,-15.625000
1579,-15.625000
1580,-15.625000
1581,-15.625000
1582,-15.625000
1583,-19.531250
1584,-19.531250
1585,-19.531250
1586,-19.531250
1587,-19.531250
1588,-19.531250
1589,-19.531250
1590,-19.531250
1591,-19.531250
1592,-19.531250
1593,-23.437500
1594,-23.437500
1595,-23.437500
1596,-23.437500
1597,-23.437500
1598,-23.437500
1599,-23.437500
1600,-23.437500
1601,-23.437500
1602,-27.343750
1603,-27.343750
1604,-27.343750
1605,-27.343750
1606,-27.343750
1607,-27.343750
1608,-31.250000
1609,-31.250000
1610,-27.343750
1611,-27.343750
1612,-31.250000
1613,-31.250000
1614,-31.250000
1615,-31.250000
1616,-31.250000
1617,-31.250000
1618,-31.250000
1619,-31.250000
1620,-31.250000
1621,-35.156250
1622,-35.156250
1623,-35.156250
1624,-35.156250
1625,-35.156250
1626,-35.156250
1627,-35.156250
1628,-35.156250
1629,-35.156250
1630,-39.062500
1631,-39.062500
1632,-39.062500
1633,-39.062500
1634,-39.062500
1635,-39.062500
1636,-39.062500
1637,-39.062500
1638,-42.968750
1639,-42.968750
1640,-42.968750
1641,-42.968750
1642,-42.968750
1643,-42.968750
1644,-42.968750
1645,-42.968750
1646,-42.968750
1647,-42.968750
1648,-42.968750
1649,-46.875000
1650,-46.875000
1651,-46.875000
1652,-46.875000
1653,-46.875000
1654,-46.875000
1655,-46.875000
1656,-46.875000
1657,-46.875000
1658,-46.875000
1659,-46.875000
1660,-50.781250
1661,-50.781250
1662,-50.781250
1663,-50.781250
1664,-50.781250
1665,-50.781250
1666,-50.781250
1667,-50.781250
1668,-50.781250
1669,-50.781250
1670,-50.781250
1671,-54.687500
1672,-54.687500
1673,-54.687500
1674,-54.687500
1675,-54.687500
1676,-54.687500
1677,-54.687500
1678,-54.687500
1679,-54.687500
1680,-54.687500
1681,-54.687500
1682,-54.687500
1683,-58.593750
1684,-58.593750
1685,-58.593750
1686,-58.593750
1687,-58.593750
1688,-58.593750
1689,-58.593750
1690,-58.593750
1691,-58.593750
1692,-58.593750
1693,-58.593750
1694,-58.593750
1695,-62.500000
1696,-58.593750
1697,-62.500000
1698,-62.500000
1699,-62.500000
1700,-62.500000
1701,-62.500000
1702,-62.500000
1703,-62.500000
1704,-62.500000
1705,-62.500000
1706,-62.500000
1707,-62.500000
1708,-62.500000
1709,-62.500000
1710,-66.406250
1711,-66.406250
1712,-66.406250
1713,-66.406250
1714,-66.406250
1715,-66.406250
1716,-66.406250
1717,-66.406250
1718,-66.406250
1719,-66.406250
1720,-66.406250
1721,-66.406250
1722,-70.312500
1723,-70.312500
1724,-70.312500
1725,-70.312500
1726,-70.312500
1727,-70.312500
1728,-70.312500
1729,-70.312500
1730,-70.312500
1731,-70.312500
1732,-70.312500
1733,-70.312500
1734,-70.312500
1735,-70.312500
1736,-70.312500
1737,-70.312500
1738,-70.312500
1739,-70.312500
1740,-70.312500
1741,-74.218750
1742,-74.218750
1743,-74.218750
1744,-74.218750
1745,-74.218750
1746,-74.218750
1747,-74.218750
1748,-74.218750
1749,-74.218750
1750,-74.218750
1751,-74.218750
1752,-74.218750
1753,-74.218750
1754,-74.218750
1755,-74.218750
1756,-74.218750
1757,-74.218750
1758,-74.218750
1759,-74.218750
1760,-78.125000
1761,-74.218750
1762,-78.125000
1763,-78.125000
1764,-78.125000
1765,-78.125000
1766,-78.125000
1767,-78.125000
1768,-78.125000
1769,-78.125000
1770,-78.125000
1771,-78.125000
1772,-78.125000
1773,-78.125000
1774,-78.125000
1775,-78.125000
1776,-78.125000
1777,-78.125000
1778,-78.125000
1779,-78.125000
1780,-78.125000
1781,-78.125000
1782,-78.125000
1783,-78.125000
1784,-78.125000
1785,-78.125000
1786,-78.125000
1787,-82.031250
1788,-82.031250
1789,-78.125000
1790,-78.125000
1791,-82.031250
1792,-78.125000
1793,-78.125000
1794,-82.031250
1795,-78.125000
1796,-82.031250
1797,-82.031250
1798,-78.125000
1799,-82.031250
1800,-82.031250
1801,-82.031250
1802,-82.031250
1803,-82.031250
1804,-82.031250
1805,-78.125000
1806,-82.031250
1807,-82.031250
1808,-78.125000
1809,-82.031250
1810,-82.031250
1811,-82.031250
1812,-82.031250
1813,-82.031250
1814,-82.031250
1815,-82.031250
1816,-82.031250
1817,-82.031250
1818,-82.031250
1819,-82.031250
1820,-82.031250
1821,-82.031250
1822,-82.031250
1823,-78.125000
1824,-82.031250
1825,-78.125000
1826,-82.031250
1827,-78.125000
1828,-82.031250
1829,-82.031250
1830,-82.031250
1831,-78.125000
1832,-82.031250
1833,-78.125000
1834,-78.125000
1835,-78.125000
1836,-78.125000
1837,-82.031250
1838,-78.125000
1839,-78.125000
1840,-78.125000
1841,-78.125000
1842,-78.125000
1843,-78.125000
1844,-78.125000
1845,-78.125000
1846,-78.125000
1847,-78.125000
1848,-78.125000
1849,-78.125000
1850,-78.125000
1851,-78.125000
1852,-78.125000
1853,-78.125000
1854,-78.125000
1855,-78.125000
1856,-78.125000
1857,-78.125000
1858,-78.125000
1859,-78.125000
1860,-78.125000
1861,-78.125000
1862,-78.125000
1863,-78.125000
1864,-78.125000
1865,-78.125000
1866,-78.125000
1867,-78.125000
1868,-78.125000
1869,-78.125000
1870,-74.218750
1871,-74.218750
1872,-74.218750
1873,-74.218750
1874,-74.218750
1875,-74.218750
1876,-74.218750
1877,-74.218750
1878,-74.218750
1879,-74.218750
1880,-74.218750
1881,-74.218750
1882,-74.218750
1883,-74.218750
1884,-74.218750
1885,-74.218750
1886,-74.218750
1887,-74.218750
1888,-74.218750
1889,-74.218750
1890,-74.218750
1891,-74.218750
1892,-74.218750
1893,-74.218750
1894,-74.218750
1895,-70.312500
1896,-70.312500
1897,-70.312500
1898,-70.312500
1899,-70.312500
1900,-70.312500
1901,-70.312500
1902,-70.312500
1903,-70.312500
1904,-70.312500
1905,-70.312500
1906,-70.312500
1907,-70.312500
1908,-70.312500
1909,-70.312500
1910,-70.312500
1911,-66.406250
1912,-70.312500
1913,-66.406250
1914,-66.406250
1915,-66.406250
1916,-66.406250
1917,-66.406250
1918,-66.406250
1919,-66.406250
1920,-66.406250
1921,-66.406250
1922,-66.406250
1923,-66.406250
1924,-66.406250
1925,-62.500000
1926,-62.500000
1927,-62.500000
1928,-62.500000
1929,-62.500000
1930,-62.500000
1931,-62.500000
1932,-62.500000
1933,-62.500000
1934,-62.500000
1935,-62.500000
1936,-62.500000
1937,-62.500000
1938,-62.500000
1939,-58.593750
1940,-58.593750
1941,-58.593750
1942,-58.593750
1943,-58.593750
1944,-58.593750
1945,-58.593750
1946,-58.593750
1947,-58.593750
1948,-58.593750
1949,-58.593750
1950,-54.687500
1951,-54.687500
1952,-54.687500
1953,-54.687500
1954,-54.687500
1955,-54.687500
1956,-54.687500
1957,-54.687500
1958,-54.687500
1959,-54.687500
1960,-54.687500
1961,-50.781250
1962,-50.781250
1963,-50.781250
1964,-50.781250
1965,-50.781250
1966,-50.781250
1967,-50.781250
1968,-50.781250
1969,-50.781250
1970,-50.781250
1971,-50.781250
1972,-50.781250
1973,-46.875000
1974,-46.875000
1975,-46.875000
1976,-46.875000
1977,-46.875000
1978,-46.875000
1979,-46.875000
1980,-46.875000
1981,-46.875000
1982,-46.875000
1983,-42.968750
1984,-46.875000
1985,-42.968750
1986,-42.968750
1987,-42.968750
1988,-42.968750
1989,-42.968750
1990,-42.968750
1991,-42.968750
1992,-42.968750
1993,-42.968750
1994,-42.968750
1995,-39.062500
1996,-39.062500
1997,-39.062500
1998,-39.062500
1999,-39.062500
2000,-39.062500
2001,-39.062500
2002,-39.062500
2003,-39.062500
2004,-35.156250
2005,-35.156250
2006,-35.156250
2007,-35.156250
2008,-35.156250
2009,-35.156250
2010,-35.156250
2011,-35.156250
2012,-31.250000
2013,-31.250000
2014,-31.250000
2015,-31.250000
2016,-31.250000
2017,-31.250000
2018,-31.250000
2019,-31.250000
2020,-31.250000
2021,-31.250000
2022,-31.250000
2023,-27.343750
2024,-27.343750
2025,-27.343750
2026,-27.343750
2027,-27.343750
2028,-27.343750
2029,-27.343750
2030,-27.343750
2031,-27.343750
2032,-23.437500
2033,-23.437500
2034,-23.437500
2035,-23.437500
2036,-23.437500
2037,-23.437500
2038,-23.437500
2039,-23.437500
2040,-23.437500
2041,-19.531250
2042,-19.531250
2043,-19.531250
2044,-19.531250
2045,-19.531250
2046,-19.531250
2047,-19.531250
2048,-19.531250
2049,-15.625000
2050,-15.625000
2051,-15.625000
2052,-15.625000
2053,-15.625000
2054,-15.625000
2055,-15.625000
2056,-15.625000
2057,-15.625000
2058,-11.718750
2059,-11.718750
2060,-11.718750
2061,-11.718750
2062,-11.718750
2063,-11.718750
2064,-11.718750
2065,-11.718750
2066,-11.718750
2067,-11.718750
2068,-7.812500
2069,-7.812500
2070,-7.812500
2071,-7.812500
2072,-7.812500
2073,-7.812500
2074,-7.812500
2075,-7.812500
2076,-7.812500
2077,-3.906250
2078,-3.906250
2079,-3.906250
2080,-3.906250
2081,-3.906250
2082,-3.906250
2083,-3.906250
2084,-3.906250
2085,-3.906250
2086,-3.906250
2087,0.000000
2088,0.000000
2089,0.000000
2090,0.000000
2091,0.000000
2092,0.000000
2093,0.000000
2094,0.000000
2095,3.906250
2096,3.906250
2097,3.906250
2098,3.906250
2099,3.906250
2100,3.906250
2101,3.906250
2102,3.906250
2103,3.906250
2104,3.906250
2105,7.812500
2106,7.812500
2107,7.812500
2108,7.812500
2109,7.812500
2110,7.812500
2111,7.812500
2112,7.812500
2113,7.812500
2114,11.718750
2115,11.718750
2116,11.718750
2117,11.718750
2118,11.718750
2119,11.718750
2120,11.718750
2121,11.718750
2122,11.718750
2123,11.718750
2124,15.625000
2125,15.625000
2126,15.625000
2127,15.625000
2128,15.625000
2129,15.625000
2130,15.625000
2131,15.625000
2132,15.625000
2133,15.625000
2134,15.625000
2135,19.531250
2136,19.531250
2137,19.531250
2138,19.531250
2139,19.531250
2140,19.531250
2141,19.531250
2142,19.531250
2143,19.531250
2144,19.531250
2145,23.437500
2146,19.531250
2147,23.437500
2148,23.437500
2149,23.437500
2150,23.437500
2151,23.437500
2152,23.437500
2153,23.437500
2154,23.437500
2155,23.437500
2156,23.437500
2157,23.437500
2158,27.343750
2159,27.343750
2160,27.343750
2161,27.343750
2162,27.343750
2163,27.343750
2164,27.343750
2165,27.343750
2166,27.343750
2167,27.343750
2168,27.343750
2169,31.250000
2170,31.250000
2171,31.250000
2172,31.250000
2173,31.250000
2174,31.250000
2175,31.250000
2176,31.250000
2177,31.250000
2178,31.250000
2179,31.250000
2180,31.250000
2181,31.250000
2182,31.250000
2183,31.250000
2184,35.156250
2185,35.156250
2186,35.156250
2187,35.156250
2188,35.156250
2189,35.156250
2190,35.156250
2191,35.156250
2192,35.156250
2193,35.156250
2194,35.156250
2195,35.156250
2196,35.156250
2197,39.062500
2198,39.062500
2199,39.062500
2200,39.062500
2201,39.062500
2202,39.062500
2203,39.062500
2204,39.062500
2205,39.062500
2206,39.062500
2207,39.062500
2208,39.062500
2209,39.062500
2210,39.062500
2211,42.968750
2212,39.062500
2213,42.968750
2214,42.968750
2215,42.968750
2216,42.968750
2217,42.968750
2218,42.968750
2219,42.968750
2220,42.968750
2221,42.968750
2222,42.968750
2223,42.968750
2224,42.968750
2225,46.875000
2226,42.968750
2227,42.968750
2228,42.968750
2229,46.875000
2230,46.875000
2231,46.875000
2232,46.875000
2233,46.875000
2234,46.875000
2235,46.875000
2236,46.875000
2237,46.875000
2238,46.875000
2239,46.875000
2240,46.875000
2241,46.875000
2242,50.781250
2243,46.875000
2244,46.875000
2245,46.875000
2246,46.875000
2247,46.875000
2248,46.875000
2249,46.875000
2250,46.875000
2251,46.875000
2252,50.781250
2253,50.781250
2254,50.781250
2255,50.781250
2256,50.781250
2257,50.781250
2258,50.781250
2259,50.781250
2260,50.781250
2261,50.781250
2262,50.781250
2263,50.781250
2264,50.781250
2265,50.781250
2266,50.781250
2267,50.781250
2268,50.781250
2269,50.781250
2270,50.781250
2271,50.781250
2272,50.781250
2273,50.781250
2274,50.781250
2275,50.781250
2276,50.781250
2277,50.781250
2278,50.781250
2279,50.781250
2280,50.781250
2281,50.781250
2282,50.781250
2283,50.781250
2284,50.781250
2285,50.781250
2286,50.781250
2287,50.781250
2288,50.781250
2289,50.781250
2290,50.781250
2291,50.781250
2292,50.781250
2293,50.781250
2294,50.781250
2295,54.687500
2296,54.687500
2297,54.687500
2298,50.781250
2299,50.781250
2300,50.781250
2301,50.781250
2302,50.781250
2303,54.687500
2304,54.687500
2305,50.781250
2306,50.781250
2307,50.781250
2308,50.781250
2309,50.781250
2310,50.781250
2311,54.687500
2312,54.687500
2313,54.687500
2314,50.781250
2315,50.781250
2316,50.781250
2317,50.781250
2318,54.687500
2319,50.781250
2320,50.781250
2321,50.781250
2322,50.781250
2323,50.781250
2324,50.781250
2325,50.781250
2326,50.781250
2327,54.687500
2328,50.781250
2329,50.781250
2330,50.781250
2331,50.781250
2332,50.781250
2333,50.781250
2334,50.781250
2335,50.781250
2336,50.781250
2337,50.781250
2338,50.781250
2339,50.781250
2340,50.781250
2341,50.781250
2342,50.781250
2343,50.781250
2344,50.781250
2345,50.781250
2346,50.781250
2347,50.781250
2348,50.781250
2349,50.781250
2350,50.781250
2351,50.781250
2352,50.781250
2353,50.781250
2354,50.781250
2355,50.781250
2356,50.781250
2357,50.781250
2358,50.781250
2359,46.875000
2360,50.781250
2361,50.781250
2362,50.781250
2363,46.875000
2364,46.875000
2365,46.875000
2366,46.875000
2367,46.875000
2368,46.875000
2369,46.875000
2370,46.875000
2371,46.875000
2372,46.875000
2373,46.875000
2374,46.875000
2375,46.875000
2376,46.875000
2377,46.875000
2378,46.875000
2379,46.875000
2380,46.875000
2381,46.875000
2382,46.875000
2383,46.875000
2384,46.875000
2385,46.875000
2386,42.968750
2387,42.968750
2388,42.968750
2389,42.968750
2390,42.968750
2391,42.968750
2392,42.968750
2393,42.968750
2394,42.968750
2395,42.968750
2396,42.968750
2397,42.968750
2398,42.968750
2399,42.968750
2400,42.968750
2401,39.062500
2402,39.062500
2403,39.062500
2404,39.062500
2405,39.062500
2406,39.062500
2407,39.062500
2408,39.062500
2409,39.062500
2410,39.062500
2411,39.062500
2412,39.062500
2413,39.062500
2414,39.062500
2415,39.062500
2416,39.062500
2417,39.062500
2418,35.156250
2419,39.062500
2420,35.156250
2421,35.156250
2422,35.156250
2423,35.156250
2424,35.156250
2425,35.156250
2426,35.156250
2427,35.156250
2428,35.156250
2429,35.156250
2430,35.156250
2431,35.156250
2432,31.250000
2433,31.250000
2434,31.250000
2435,31.250000
2436,31.250000
2437,31.250000
2438,31.250000
2439,31.250000
2440,31.250000
2441,31.250000
2442,31.250000
2443,31.250000
2444,31.250000
2445,31.250000
2446,27.343750
2447,27.343750
2448,27.343750
2449,27.343750
2450,27.343750
2451,27.343750
2452,27.343750
2453,27.343750
2454,27.343750
2455,27.343750
2456,27.343750
2457,27.343750
2458,27.343750
2459,27.343750
2460,23.437500
2461,23.437500
2462,23.437500
2463,23.437500
2464,23.437500
2465,23.437500
2466,23.437500
2467,23.437500
2468,23.437500
2469,23.437500
2470,23.437500
2471,23.437500
2472,19.531250
2473,19.531250
2474,19.531250
2475,19.531250
2476,19.531250
2477,19.531250
2478,19.531250
2479,19.531250
2480,19.531250
2481,19.531250
2482,15.625000
2483,15.625000
2484,15.625000
2485,15.625000
2486,15.625000
2487,15.625000
2488,15.625000
2489,15.625000
2490,15.625000
2491,15.625000
2492,15.625000
2493,11.718750
2494,11.718750
2495,11.718750
2496,11.718750
2497,11.718750
2498,11.718750
2499,11.718750
2500,11.718750
2501,11.718750
2502,11.718750
2503,11.718750
2504,11.718750
2505,7.812500
2506,7.812500
2507,7.812500
2508,7.812500
2509,7.812500
2510,7.812500
2511,7.812500
2512,7.812500
2513,3.906250
2514,3.906250
2515,3.906250
2516,3.906250
2517,3.906250
2518,3.906250
2519,3.906250
2520,3.906250
2521,3.906250
2522,3.906250
2523,3.906250
2524,3.906250
2525,0.000000
2526,0.000000
2527,0.000000
2528,0.000000
2529,0.000000
2530,0.000000
2531,0.000000
2532,0.000000
2533,-3.906250
2534,-3.906250
2535,-3.906250
2536,-3.906250
2537,-3.906250
2538,-3.906250
2539,-3.906250
2540,-3.906250
2541,-3.906250
2542,-7.812500
2543,-7.812500
2544,-7.812500
2545,-7.812500
2546,-7.812500
2547,-7.812500
2548,-7.812500
2549,-7.812500
2550,-7.812500
2551,-11.718750
2552,-11.718750
2553,-11.718750
2554,-11.718750
2555,-11.718750
2556,-11.718750
2557,-11.718750
2558,-11.718750
2559,-11.718750
2560,-15.625000
2561,-15.625000
2562,-15.625000
2563,-15.625000
2564,-15.625000
2565,-15.625000
2566,-15.625000
2567,-15.625000
2568,-15.625000
2569,-15.625000
2570,-15.625000
2571,-15.625000
2572,-19.531250
2573,-19.531250
2574,-19.531250
2575,-19.531250
2576,-19.531250
2577,-19.531250
2578,-19.531250
2579,-19.531250
2580,-23.437500
2581,-23.437500
2582,-23.437500
2583,-23.437500
2584,-23.437500
2585,-23.437500
2586,-23.437500
2587,-23.437500
2588,-27.343750
2589,-23.437500
2590,-27.343750
2591,-27.343750
2592,-27.343750
2593,-27.343750
2594,-27.343750
2595,-27.343750
2596,-27.343750
2597,-31.250000
2598,-31.250000
2599,-27.343750
2600,-31.250000
2601,-27.343750
2602,-31.250000
2603,-31.250000
2604,-31.250000
2605,-31.250000
2606,-31.250000
2607,-35.156250
2608,-31.250000
2609,-35.156250
2610,-35.156250
2611,-35.156250
2612,-35.156250
2613,-35.156250
2614,-35.156250
2615,-35.156250
2616,-35.156250
2617,-35.156250
2618,-35.156250
2619,-39.062500
2620,-39.062500
2621,-39.062500
2622,-39.062500
2623,-39.062500
2624,-39.062500
2625,-39.062500
2626,-39.062500
2627,-39.062500
2628,-42.968750
2629,-42.968750
2630,-42.968750
2631,-42.968750
2632,-42.968750
2633,-42.968750
2634,-42.968750
2635,-42.968750
2636,-42.968750
2637,-42.968750
2638,-42.968750
2639,-42.968750
2640,-46.875000
2641,-46.875000
2642,-46.875000
2643,-46.875000
2644,-46.875000
2645,-46.875000
2646,-46.875000
2647,-46.875000
2648,-46.875000
2649,-46.875000
2650,-50.781250
2651,-50.781250
2652,-50.781250
2653,-50.781250
2654,-50.781250
2655,-50.781250
2656,-50.781250
2657,-50.781250
2658,-50.781250
2659,-50.781250
2660,-54.687500
2661,-54.687500
2662,-54.687500
2663,-54.687500
2664,-54.687500
2665,-54.687500
2666,-54.687500
2667,-54.687500
2668,-54.687500
2669,-54.687500
2670,-58.593750
2671,-58.593750
2672,-58.593750
2673,-58.593750
2674,-58.593750
2675,-58.593750
2676,-58.593750
2677,-58.593750
2678,-58.593750
2679,-58.593750
2680,-58.593750
2681,-58.593750
2682,-58.593750
2683,-58.593750
2684,-62.500000
2685,-62.500000
2686,-62.500000
2687,-62.500000
2688,-62.500000
2689,-62.500000
2690,-62.500000
2691,-62.500000
2692,-62.500000
2693,-62.500000
2694,-62.500000
2695,-62.500000
2696,-62.500000
2697,-62.500000
2698,-66.406250
2699,-66.406250
2700,-66.406250
2701,-66.406250
2702,-66.406250
2703,-66.406250
2704,-66.406250
2705,-66.406250
2706,-66.406250
2707,-66.406250
2708,-66.406250
2709,-66.406250
2710,-66.406250
2711,-66.406250
2712,-70.312500
2713,-66.406250
2714,-70.312500
2715,-70.312500
2716,-70.312500
2717,-70.312500
2718,-70.312500
2719,-70.312500
2720,-70.312500
2721,-70.312500
2722,-70.312500
2723,-70.312500
2724,-70.312500
2725,-70.312500
2726,-70.312500
2727,-70.312500
2728,-70.312500
2729,-70.312500
2730,-74.218750
2731,-74.218750
2732,-74.218750
2733,-74.218750
2734,-74.218750
2735,-74.218750
2736,-74.218750
2737,-74.218750
2738,-74.218750
2739,-74.218750
2740,-74.218750
2741,-74.218750
2742,-74.218750
2743,-74.218750
2744,-74.218750
2745,-74.218750
2746,-74.218750
2747,-74.218750
2748,-74.218750
2749,-74.218750
2750,-78.125000
2751,-74.218750
2752,-74.218750
2753,-74.218750
2754,-78.125000
2755,-78.125000
2756,-78.125000
2757,-78.125000
2758,-78.125000
2759,-78.125000
2760,-78.125000
2761,-78.125000
2762,-78.125000
2763,-78.125000
2764,-78.125000
2765,-78.125000
2766,-78.125000
2767,-78.125000
2768,-78.125000
2769,-78.125000
2770,-78.125000
2771,-78.125000
2772,-78.125000
2773,-78.125000
2774,-78.125000
2775,-78.125000
2776,-78.125000
2777,-78.125000
2778,-78.125000
2779,-78.125000
2780,-78.125000
2781,-78.125000
2782,-82.031250
2783,-82.031250
2784,-78.125000
2785,-78.125000
2786,-78.125000
2787,-78.125000
2788,-78.125000
2789,-82.031250
2790,-82.031250
2791,-82.031250
2792,-82.031250
2793,-82.031250
2794,-82.031250
2795,-82.031250
2796,-82.031250
2797,-82.031250
2798,-82.031250
2799,-82.031250
2800,-82.031250
2801,-82.031250
2802,-82.031250
2803,-82.031250
2804,-82.031250
2805,-82.031250
2806,-82.031250
2807,-82.031250
2808,-82.031250
2809,-82.031250
2810,-82.031250
2811,-82.031250
2812,-82.031250
2813,-82.031250
2814,-82.031250
2815,-82.031250
2816,-82.031250
2817,-82.031250
2818,-82.031250
2819,-82.031250
2820,-82.031250
2821,-82.031250
2822,-82.031250
2823,-82.031250
2824,-82.031250
2825,-78.125000
2826,-82.031250
2827,-78.125000
2828,-82.031250
2829,-82.031250
2830,-82.031250
2831,-82.031250
2832,-82.031250
2833,-78.125000
2834,-78.125000
2835,-78.125000
2836,-78.125000
2837,-78.125000
2838,-78.125000
2839,-78.125000
2840,-78.125000
2841,-78.125000
2842,-78.125000
2843,-78.125000
2844,-78.125000
2845,-78.125000
2846,-78.125000
2847,-78.125000
2848,-78.125000
2849,-78.125000
2850,-78.125000
2851,-78.125000
2852,-78.125000
2853,-78.125000
2854,-78.125000
2855,-78.125000
2856,-78.125000
2857,-78.125000
2858,-78.125000
2859,-78.125000
2860,-78.125000
2861,-74.218750
2862,-74.218750
2863,-74.218750
2864,-74.218750
2865,-74.218750
2866,-74.218750
2867,-74.218750
2868,-74.218750
2869,-74.218750
2870,-74.218750
2871,-74.218750
2872,-74.218750
2873,-74.218750
2874,-74.218750
2875,-74.218750
2876,-74.218750
2877,-74.218750
2878,-74.218750
2879,-74.218750
2880,-74.218750
2881,-74.218750
2882,-70.312500
2883,-70.312500
2884,-74.218750
2885,-70.312500
2886,-70.312500
2887,-70.312500
2888,-70.312500
2889,-70.312500
2890,-70.312500
2891,-70.312500
2892,-70.312500
2893,-70.312500
2894,-70.312500
2895,-70.312500
2896,-70.312500
2897,-70.312500
2898,-66.406250
2899,-66.406250
2900,-66.406250
2901,-66.406250
2902,-66.406250
2903,-66.406250
2904,-66.406250
2905,-66.406250
2906,-66.406250
2907,-66.406250
2908,-66.406250
2909,-66.406250
2910,-66.406250
2911,-66.406250
2912,-66.406250
2913,-62.500000
2914,-62.500000
2915,-62.500000
2916,-62.500000
2917,-62.500000
2918,-62.500000
2919,-62.500000
2920,-62.500000
2921,-62.500000
2922,-62.500000
2923,-62.500000
2924,-62.500000
2925,-62.500000
2926,-62.500000
2927,-58.593750
2928,-58.593750
2929,-58.593750
2930,-58.593750
2931,-58.593750
2932,-58.593750
2933,-58.593750
2934,-58.593750
2935,-58.593750
2936,-58.593750
2937,-58.593750
2938,-58.593750
2939,-58.593750
2940,-54.687500
2941,-54.687500
2942,-54.687500
2943,-54.687500
2944,-54.687500
2945,-54.687500
2946,-54.687500
2947,-54.687500
2948,-54.687500
2949,-54.687500
2950,-54.687500
2951,-50.781250
2952,-50.781250
2953,-50.781250
2954,-50.781250
2955,-50.781250
2956,-50.781250
2957,-50.781250
2958,-50.781250
2959,-50.781250
2960,-50.781250
2961,-50.781250
2962,-46.875000
2963,-50.781250
2964,-46.875000
2965,-46.875000
2966,-46.875000
2967,-46.875000
2968,-46.875000
2969,-46.875000
2970,-46.875000
2971,-42.968750
2972,-42.968750
2973,-46.875000
2974,-42.968750
2975,-42.968750
2976,-42.968750
2977,-42.968750
2978,-42.968750
2979,-42.968750
2980,-42.968750
2981,-39.062500
2982,-39.062500
2983,-39.062500
2984,-39.062500
2985,-39.062500
2986,-39.062500
2987,-39.062500
2988,-39.062500
2989,-39.062500
2990,-39.062500
2991,-35.156250
2992,-35.156250
2993,-35.156250
2994,-35.156250
2995,-35.156250
2996,-35.156250
2997,-35.156250
2998,-31.250000
2999,-31.250000
3000,-31.250000
3001,-31.250000
3002,-31.250000
3003,-31.250000
3004,-31.250000
3005,-31.250000
3006,-31.250000
3007,-31.250000
3008,-31.250000
3009,-31.250000
3010,-27.343750
3011,-27.343750
3012,-27.343750
3013,-27.343750
3014,-27.343750
3015,-27.343750
3016,-27.343750
3017,-27.343750
3018,-27.343750
3019,-23.437500
3020,-23.437500
3021,-23.437500
3022,-23.437500
3023,-23.437500
3024,-23.437500
3025,-23.437500
3026,-23.437500
3027,-23.437500
3028,-23.437500
3029,-19.531250
3030,-19.531250
3031,-19.531250
3032,-19.531250
3033,-19.531250
3034,-19.531250
3035,-19.531250
3036,-19.531250
3037,-19.531250
3038,-19.531250
3039,-15.625000
3040,-15.625000
3041,-15.625000
3042,-15.625000
3043,-15.625000
3044,-15.625000
3045,-15.625000
3046,-15.625000
3047,-15.625000
3048,-11.718750
3049,-11.718750
3050,-11.718750
3051,-11.718750
3052,-11.718750
3053,-11.718750
3054,-11.718750
3055,-11.718750
3056,-11.718750
3057,-11.718750
3058,-7.812500
3059,-7.812500
3060,-7.812500
3061,-7.812500
3062,-7.812500
3063,-7.812500
3064,-7.812500
3065,-3.906250
3066,-7.812500
3067,-7.812500
3068,-3.906250
3069,-3.906250
3070,-3.906250
3071,-3.906250
3072,-3.906250
3073,-3.906250
3074,-3.906250
3075,0.000000
3076,0.000000
3077,0.000000
3078,0.000000
3079,0.000000
3080,0.000000
3081,0.000000
3082,0.000000
3083,0.000000
3084,3.906250
3085,3.906250
3086,3.906250
3087,3.906250
3088,3.906250
3089,3.906250
3090,3.906250
3091,3.906250
3092,3.906250
3093,3.906250
3094,7.812500
3095,7.812500
3096,7.812500
3097,7.812500
3098,7.812500
3099,7.812500
3100,7.812500
3101,7.812500
3102,11.718750
3103,7.812500
3104,11.718750
3105,11.718750
3106,11.718750
3107,11.718750
3108,11.718750
3109,11.718750
3110,11.718750
3111,11.718750
3112,15.625000
3113,15.625000
3114,15.625000
3115,15.625000
3116,15.625000
3117,15.625000
3118,15.625000
3119,15.625000
3120,15.625000
3121,15.625000
3122,15.625000
3123,19.531250
3124,19.531250
3125,19.531250
3126,19.531250
3127,19.531250
3128,19.531250
3129,19.531250
3130,19.531250
3131,19.531250
3132,23.437500
3133,23.437500
3134,23.437500
3135,23.437500
3136,23.437500
3137,23.437500
3138,23.437500
3139,23.437500
3140,23.437500
3141,23.437500
3142,23.437500
3143,23.437500
3144,27.343750
3145,27.343750
3146,27.343750
3147,27.343750
3148,27.343750
3149,27.343750
3150,27.343750
3151,27.343750
3152,27.343750
3153,31.250000
3154,27.343750
3155,27.343750
3156,31.250000
3157,31.250000
3158,31.250000
3159,31.250000
3160,31.250000
3161,31.250000
3162,31.250000
3163,31.250000
3164,31.250000
3165,31.250000
3166,31.250000
3167,31.250000
3168,35.156250
3169,35.156250
3170,35.156250
3171,35.156250
3172,35.156250
3173,35.156250
3174,35.156250
3175,35.156250
3176,35.156250
3177,35.156250
3178,35.156250
3179,35.156250
3180,35.156250
3181,35.156250
3182,35.156250
3183,35.156250
3184,39.062500
3185,39.062500
3186,39.062500
3187,39.062500
3188,39.062500
3189,39.062500
3190,39.062500
3191,39.062500
3192,39.062500
3193,39.062500
3194,39.062500
3195,39.062500
3196,39.062500
3197,42.968750
3198,42.968750
3199,42.968750
3200,42.968750
3201,39.062500
3202,42.968750
3203,42.968750
3204,42.968750
3205,42.968750
3206,42.968750
3207,42.968750
3208,42.968750
3209,42.968750
3210,42.968750
3211,42.968750
3212,42.968750
3213,42.968750
3214,42.968750
3215,42.968750
3216,46.875000
3217,46.875000
3218,46.875000
3219,42.968750
3220,42.968750
3221,46.875000
3222,42.968750
3223,46.875000
3224,46.875000
3225,46.875000
3226,46.875000
3227,46.875000
3228,46.875000
3229,46.875000
3230,46.875000
3231,46.875000
3232,46.875000
3233,46.875000
3234,46.875000
3235,46.875000
3236,46.875000
3237,46.875000
3238,46.875000
3239,50.781250
3240,50.781250
3241,50.781250
3242,50.781250
3243,50.781250
3244,50.781250
3245,50.781250
3246,50.781250
3247,50.781250
3248,50.781250
3249,50.781250
3250,50.781250
3251,50.781250
3252,50.781250
3253,50.781250
3254,50.781250
3255,54.687500
3256,50.781250
3257,50.781250
3258,50.781250
3259,50.781250
3260,50.781250
3261,50.781250
3262,50.781250
3263,50.781250
3264,50.781250
3265,50.781250
3266,50.781250
3267,54.687500
3268,50.781250
3269,50.781250
3270,50.781250
3271,54.687500
3272,50.781250
3273,50.781250
3274,50.781250
3275,50.781250
3276,50.781250
3277,50.781250
3278,54.687500
3279,54.687500
3280,54.687500
3281,50.781250
3282,54.687500
3283,50.781250
3284,54.687500
3285,54.687500
3286,54.687500
3287,54.687500
3288,54.687500
3289,54.687500
3290,54.687500
3291,50.781250
3292,54.687500
3293,54.687500
3294,50.781250
3295,50.781250
3296,54.687500
3297,54.687500
3298,54.687500
3299,50.781250
3300,54.687500
3301,54.687500
3302,54.687500
3303,50.781250
3304,54.687500
3305,54.687500
3306,50.781250
3307,50.781250
3308,54.687500
3309,54.687500
3310,54.687500
3311,54.687500
3312,50.781250
3313,50.781250
3314,50.781250
3315,50.781250
3316,50.781250
3317,50.781250
3318,54.687500
3319,50.781250
3320,50.781250
3321,50.781250
3322,50.781250
3323,50.781250
3324,50.781250
3325,50.781250
3326,50.781250
3327,50.781250
3328,50.781250
3329,50.781250
3330,50.781250
3331,50.781250
3332,50.781250
3333,50.781250
3334,50.781250
3335,50.781250
3336,50.781250
3337,50.781250
3338,50.781250
3339,50.781250
3340,50.781250
3341,50.781250
3342,50.781250
3343,50.781250
3344,50.781250
3345,50.781250
3346,50.781250
3347,50.781250
3348,46.875000
3349,50.781250
3350,46.875000
3351,50.781250
3352,50.781250
3353,50.781250
3354,46.875000
3355,50.781250
3356,46.875000
3357,46.875000
3358,46.875000
3359,46.875000
3360,46.875000
3361,46.875000
3362,46.875000
3363,46.875000
3364,46.875000
3365,46.875000
3366,46.875000
3367,46.875000
3368,46.875000
3369,46.875000
3370,46.875000
3371,46.875000
3372,46.875000
3373,46.875000
3374,46.875000
3375,46.875000
3376,46.875000
3377,46.875000
3378,46.875000
3379,42.968750
3380,42.968750
3381,42.968750
3382,42.968750
3383,42.968750
3384,42.968750
3385,42.968750
3386,42.968750
3387,42.968750
3388,42.968750
3389,42.968750
3390,42.968750
3391,42.968750
3392,42.968750
3393,42.968750
3394,42.968750
3395,42.968750
3396,39.062500
3397,39.062500
3398,39.062500
3399,39.062500
3400,39.062500
3401,39.062500
3402,39.062500
3403,39.062500
3404,39.062500
3405,39.062500
3406,39.062500
3407,35.156250
3408,39.062500
3409,39.062500
3410,39.062500
3411,35.156250
3412,35.156250
3413,35.156250
3414,35.156250
3415,35.156250
3416,35.156250
3417,35.156250
3418,35.156250
3419,35.156250
3420,35.156250
3421,35.156250
3422,31.250000
3423,35.156250
3424,35.156250
3425,31.250000
3426,31.250000
3427,31.250000
3428,31.250000
3429,31.250000
3430,31.250000
3431,31.250000
3432,31.250000
3433,31.250000
3434,31.250000
3435,27.343750
3436,27.343750
3437,27.343750
3438,27.343750
3439,27.343750
3440,27.343750
3441,27.343750
3442,27.343750
3443,27.343750
3444,27.343750
3445,27.343750
3446,23.437500
3447,23.437500
3448,23.437500
3449,23.437500
3450,23.437500
3451,23.437500
3452,23.437500
3453,23.437500
3454,23.437500
3455,23.437500
3456,23.437500
3457,23.437500
3458,23.437500
3459,19.531250
3460,19.531250
3461,19.531250
3462,19.531250
3463,19.531250
3464,19.531250
3465,19.531250
3466,19.531250
3467,19.531250
3468,19.531250
3469,15.625000
3470,15.625000
3471,15.625000
3472,15.625000
3473,15.625000
3474,15.625000
3475,15.625000
3476,15.625000
3477,15.625000
3478,15.625000
3479,15.625000
3480,15.625000
3481,11.718750
3482,11.718750
3483,11.718750
3484,11.718750
3485,11.718750
3486,11.718750
3487,11.718750
3488,11.718750
3489,11.718750
3490,7.812500
3491,7.812500
3492,7.812500
3493,7.812500
3494,7.812500
3495,7.812500
3496,7.812500
3497,7.812500
3498,7.812500
3499,7.812500
3500,3.906250
3501,7.812500
3502,3.906250
3503,3.906250
3504,3.906250
3505,3.906250
3506,3.906250
3507,3.906250
3508,3.906250
3509,3.906250
3510,3.906250
3511,3.906250
3512,0.000000
3513,0.000000
3514,0.000000
3515,0.000000
3516,0.000000
3517,0.000000
3518,0.000000
3519,0.000000
3520,0.000000
3521,0.000000
3522,0.000000
3523,-3.906250
3524,-3.906250
3525,-3.906250
3526,-3.906250
3527,-3.906250
3528,-3.906250
3529,-3.906250
3530,-7.812500
3531,-3.906250
3532,-7.812500
3533,-7.812500
3534,-7.812500
3535,-7.812500
3536,-7.812500
3537,-7.812500
3538,-7.812500
3539,-7.812500
3540,-7.812500
3541,-11.718750
3542,-11.718750
3543,-11.718750
3544,-11.718750
3545,-11.718750
3546,-11.718750
3547,-11.718750
3548,-11.718750
3549,-15.625000
3550,-15.625000
3551,-15.625000
3552,-15.625000
3553,-15.625000
3554,-15.625000
3555,-15.625000
3556,-15.625000
3557,-15.625000
3558,-15.625000
3559,-19.531250
3560,-19.531250
3561,-19.531250
3562,-19.531250
3563,-19.531250
3564,-19.531250
3565,-19.531250
3566,-19.531250
3567,-19.531250
3568,-19.531250
3569,-19.531250
3570,-23.437500
3571,-23.437500
3572,-23.437500
3573,-23.437500
3574,-23.437500
3575,-23.437500
3576,-23.437500
3577,-23.437500
3578,-23.437500
3579,-27.343750
3580,-27.343750
3581,-27.343750
3582,-27.343750
3583,-27.343750
3584,-27.343750
3585,-27.343750
3586,-27.343750
3587,-27.343750
3588,-31.250000
3589,-31.250000
3590,-31.250000
3591,-31.250000
3592,-31.250000
3593,-31.250000
3594,-31.250000
3595,-31.250000
3596,-31.250000
3597,-35.156250
3598,-35.156250
3599,-35.156250
3600,-35.156250
3601,-35.156250
3602,-35.156250
3603,-35.156250
3604,-35.156250
3605,-35.156250
3606,-39.062500
3607,-39.062500
3608,-39.062500
3609,-39.062500
3610,-39.062500
3611,-39.062500
3612,-39.062500
3613,-39.062500
3614,-39.062500
3615,-39.062500
3616,-39.062500
3617,-39.062500
3618,-42.968750
3619,-42.968750
3620,-42.968750
3621,-42.968750
3622,-42.968750
3623,-42.968750
3624,-42.968750
3625,-42.968750
3626,-42.968750
3627,-42.968750
3628,-46.875000
3629,-46.875000
3630,-46.875000
3631,-46.875000
3632,-46.875000
3633,-46.875000
3634,-46.875000
3635,-46.875000
3636,-46.875000
3637,-46.875000
3638,-50.781250
3639,-46.875000
3640,-50.781250
3641,-50.781250
3642,-50.781250
3643,-50.781250
3644,-50.781250
3645,-50.781250
3646,-50.781250
3647,-50.781250
3648,-50.781250
3649,-50.781250
3650,-54.687500
3651,-54.687500
3652,-54.687500
3653,-54.687500
3654,-54.687500
3655,-54.687500
3656,-54.687500
3657,-54.687500
3658,-54.687500
3659,-54.687500
3660,-54.687500
3661,-58.593750
3662,-58.593750
3663,-58.593750
3664,-58.593750
3665,-58.593750
3666,-58.593750
3667,-58.593750
3668,-58.593750
3669,-58.593750
3670,-58.593750
3671,-58.593750
3672,-58.593750
3673,-58.593750
3674,-62.500000
3675,-62.500000
3676,-58.593750
3677,-58.593750
3678,-62.500000
3679,-62.500000
3680,-62.500000
3681,-62.500000
3682,-62.500000
3683,-62.500000
3684,-62.500000
3685,-62.500000
3686,-62.500000
3687,-62.500000
3688,-66.406250
3689,-66.406250
3690,-66.406250
3691,-66.406250
3692,-66.406250
3693,-66.406250
3694,-66.406250
3695,-66.406250
3696,-66.406250
3697,-66.406250
3698,-66.406250
3699,-66.406250
3700,-66.406250
3701,-66.406250
3702,-70.312500
3703,-66.406250
3704,-70.312500
3705,-70.312500
3706,-70.312500
3707,-70.312500
3708,-70.312500
3709,-70.312500
3710,-70.312500
3711,-70.312500
3712,-70.312500
3713,-70.312500
3714,-70.312500
3715,-70.312500
3716,-70.312500
3717,-70.312500
3718,-70.312500
3719,-70.312500
3720,-70.312500
3721,-74.218750
3722,-74.218750
3723,-74.218750
3724,-74.218750
3725,-74.218750
3726,-74.218750
3727,-74.218750
3728,-74.218750
3729,-74.218750
3730,-74.218750
3731,-74.218750
3732,-74.218750
3733,-74.218750
3734,-74.218750
3735,-74.218750
3736,-74.218750
3737,-74.218750
3738,-74.218750
3739,-78.125000
3740,-74.218750
3741,-74.218750
3742,-74.218750
3743,-78.125000
3744,-78.125000
3745,-78.125000
3746,-78.125000
3747,-78.125000
3748,-78.125000
3749,-78.125000
3750,-78.125000
3751,-78.125000
3752,-78.125000
3753,-78.125000
3754,-78.125000
3755,-78.125000
3756,-78.125000
3757,-78.125000
3758,-78.125000
3759,-78.125000
3760,-78.125000
3761,-78.125000
3762,-78.125000
3763,-78.125000
3764,-78.125000
3765,-78.125000
3766,-78.125000
3767,-78.125000
3768,-78.125000
3769,-78.125000
3770,-78.125000
3771,-78.125000
3772,-78.125000
3773,-78.125000
3774,-78.125000
3775,-78.125000
3776,-78.125000
3777,-78.125000
3778,-78.125000
3779,-78.125000
3780,-78.125000
3781,-82.031250
3782,-78.125000
3783,-78.125000
3784,-78.125000
3785,-78.125000
3786,-82.031250
3787,-82.031250
3788,-78.125000
3789,-82.031250
3790,-78.125000
3791,-78.125000
3792,-78.125000
3793,-82.031250
3794,-82.031250
3795,-82.031250
3796,-78.125000
3797,-78.125000
3798,-82.031250
3799,-78.125000
3800,-78.125000
3801,-78.125000
3802,-78.125000
3803,-78.125000
3804,-78.125000
3805,-78.125000
3806,-78.125000
3807,-82.031250
3808,-78.125000
3809,-78.125000
3810,-78.125000
3811,-78.125000
3812,-82.031250
3813,-78.125000
3814,-78.125000
3815,-78.125000
3816,-78.125000
3817,-78.125000
3818,-78.125000
3819,-78.125000
3820,-78.125000
3821,-82.031250
3822,-78.125000
3823,-78.125000
3824,-78.125000
3825,-78.125000
3826,-78.125000
3827,-78.125000
3828,-78.125000
3829,-78.125000
3830,-78.125000
3831,-78.125000
3832,-78.125000
3833,-78.125000
3834,-78.125000
3835,-78.125000
3836,-78.125000
3837,-78.125000
3838,-78.125000
3839,-78.125000
3840,-78.125000
3841,-78.125000
3842,-78.125000
3843,-78.125000
3844,-78.125000
3845,-78.125000
3846,-78.125000
3847,-74.218750
3848,-78.125000
3849,-78.125000
3850,-74.218750
3851,-74.218750
3852,-74.218750
3853,-74.218750
3854,-74.218750
3855,-74.218750
3856,-74.218750
3857,-74.218750
3858,-74.218750
3859,-74.218750
3860,-74.218750
3861,-74.218750
3862,-74.218750
3863,-74.218750
3864,-74.218750
3865,-74.218750
3866,-74.218750
3867,-74.218750
3868,-74.218750
3869,-74.218750
3870,-74.218750
3871,-74.218750
3872,-74.218750
3873,-74.218750
3874,-70.312500
3875,-70.312500
3876,-70.312500
3877,-70.312500
3878,-70.312500
3879,-70.312500
3880,-70.312500
3881,-70.312500
3882,-70.312500
3883,-70.312500
3884,-70.312500
3885,-70.312500
3886,-70.312500
3887,-70.312500
3888,-70.312500
3889,-70.312500
3890,-66.406250
3891,-66.406250
3892,-66.406250
3893,-66.406250
3894,-66.406250
3895,-66.406250
3896,-66.406250
3897,-66.406250
3898,-66.406250
3899,-66.406250
3900,-66.406250
3901,-66.406250
3902,-66.406250
3903,-62.500000
3904,-66.406250
3905,-62.500000
3906,-62.500000
3907,-62.500000
3908,-62.500000
3909,-62.500000
3910,-62.500000
3911,-62.500000
3912,-62.500000
3913,-62.500000
3914,-62.500000
3915,-62.500000
3916,-58.593750
3917,-58.593750
3918,-58.593750
3919,-58.593750
3920,-58.593750
3921,-58.593750
3922,-58.593750
3923,-58.593750
3924,-58.593750
3925,-58.593750
3926,-58.593750
3927,-54.687500
3928,-54.687500
3929,-54.687500
3930,-54.687500
3931,-54.687500
3932,-54.687500
3933,-54.687500
3934,-54.687500
3935,-54.687500
3936,-54.687500
3937,-54.687500
3938,-50.781250
3939,-50.781250
3940,-50.781250
3941,-50.781250
3942,-50.781250
3943,-50.781250
3944,-50.781250
3945,-50.781250
3946,-50.781250
3947,-50.781250
3948,-50.781250
3949,-50.781250
3950,-50.781250
3951,-46.875000
3952,-46.875000
3953,-46.875000
3954,-46.875000
3955,-46.875000
3956,-46.875000
3957,-46.875000
3958,-46.875000
3959,-46.875000
3960,-42.968750
3961,-42.968750
3962,-42.968750
3963,-42.968750
3964,-42.968750
3965,-42.968750
3966,-42.968750
3967,-42.968750
3968,-42.968750
3969,-39.062500
3970,-39.062500
3971,-39.062500
3972,-39.062500
3973,-39.062500
3974,-39.062500
3975,-39.062500
3976,-39.062500
3977,-39.062500
3978,-39.062500
3979,-39.062500
3980,-35.156250
3981,-35.156250
3982,-35.156250
3983,-35.156250
3984,-35.156250
3985,-35.156250
3986,-35.156250
3987,-35.156250
3988,-31.250000
3989,-35.156250
3990,-31.250000
3991,-31.250000
3992,-31.250000
3993,-31.250000
3994,-31.250000
3995,-31.250000
3996,-31.250000
3997,-27.343750
3998,-27.343750
3999,-27.343750
4000,-31.250000
4001,-27.343750
4002,-27.343750
4003,-27.343750
4004,-27.343750
4005,-27.343750
4006,-27.343750
4007,-27.343750
4008,-23.437500
4009,-23.437500
4010,-23.437500
4011,-23.437500
4012,-23.437500
4013,-23.437500
4014,-23.437500
4015,-23.437500
4016,-23.437500
4017,-19.531250
4018,-19.531250
4019,-19.531250
4020,-19.531250
4021,-19.531250
4022,-19.531250
4023,-19.531250
4024,-19.531250
4025,-19.531250
4026,-15.625000
4027,-15.625000
4028,-15.625000
4029,-15.625000
4030,-15.625000
4031,-15.625000
4032,-15.625000
4033,-15.625000
4034,-15.625000
4035,-11.718750
4036,-11.718750
4037,-11.718750
4038,-11.718750
4039,-11.718750
4040,-11.718750
4041,-11.718750
4042,-11.718750
4043,-11.718750
4044,-11.718750
4045,-7.812500
4046,-7.812500
4047,-7.812500
4048,-7.812500
4049,-7.812500
4050,-7.812500
4051,-7.812500
4052,-7.812500
4053,-7.812500
4054,-3.906250
4055,-3.906250
4056,-3.906250
4057,-3.906250
4058,-3.906250
4059,-3.906250
4060,-3.906250
4061,-3.906250
4062,0.000000
4063,0.000000
4064,0.000000
4065,0.000000
4066,0.000000
4067,0.000000
4068,0.000000
4069,0.000000
4070,0.000000
4071,0.000000
4072,3.906250
4073,3.906250
4074,3.906250
4075,3.906250
4076,3.906250
4077,3.906250
4078,3.906250
4079,3.906250
4080,3.906250
4081,3.906250
4082,7.812500
4083,7.812500
4084,7.812500
4085,7.812500
4086,7.812500
4087,7.812500
4088,7.812500
4089,7.812500
4090,7.812500
4091,7.812500
4092,11.718750
4093,11.718750
4094,11.718750
4095,11.718750
4096,11.718750
4097,11.718750
4098,11.718750
4099,11.718750
4100,11.718750
4101,11.718750
4102,15.625000
4103,15.625000
4104,15.625000
4105,15.625000
4106,15.625000
4107,15.625000
4108,15.625000
4109,15.625000
4110,15.625000
4111,15.625000
4112,15.625000
4113,19.531250
4114,19.531250
4115,19.531250
4116,19.531250
4117,19.531250
4118,19.531250
4119,19.531250
4120,19.531250
4121,19.531250
4122,19.531250
4123,23.437500
4124,19.531250
4125,23.437500
4126,23.437500
4127,23.437500
4128,23.437500
4129,23.437500
4130,23.437500
4131,23.437500
4132,23.437500
4133,23.437500
4134,27.343750
4135,27.343750
4136,27.343750
4137,27.343750
4138,27.343750
4139,27.343750
4140,27.343750
4141,27.343750
4142,27.343750
4143,27.343750
4144,27.343750
4145,27.343750
4146,31.250000
4147,27.343750
4148,31.250000
4149,31.250000
4150,31.250000
4151,31.250000
4152,31.250000
4153,31.250000
4154,31.250000
4155,31.250000
4156,31.250000
4157,31.250000
4158,31.250000
4159,31.250000
4160,35.156250
4161,35.156250
4162,35.156250
4163,35.156250
4164,35.156250
4165,35.156250
4166,35.156250
4167,35.156250
4168,35.156250
4169,35.156250
4170,39.062500
4171,39.062500
4172,39.062500
4173,39.062500
4174,39.062500
4175,39.062500
4176,39.062500
4177,39.062500
4178,39.062500
4179,39.062500
4180,39.062500
4181,39.062500
4182,39.062500
4183,39.062500
4184,39.062500
4185,39.062500
4186,42.968750
4187,39.062500
4188,42.968750
4189,42.968750
4190,42.968750
4191,42.968750
4192,42.968750
4193,42.968750
4194,42.968750
4195,42.968750
4196,42.968750
4197,42.968750
4198,42.968750
4199,42.968750
4200,42.968750
4201,42.968750
4202,42.968750
4203,46.875000
4204,42.968750
4205,42.968750
4206,42.968750
4207,46.875000
4208,46.875000
4209,46.875000
4210,42.968750
4211,46.875000
4212,46.875000
4213,50.781250
4214,46.875000
4215,46.875000
4216,46.875000
4217,46.875000
4218,46.875000
4219,46.875000
4220,46.875000
4221,46.875000
4222,46.875000
4223,46.875000
4224,46.875000
4225,46.875000
4226,46.875000
4227,46.875000
4228,50.781250
4229,50.781250
4230,50.781250
4231,50.781250
4232,50.781250
4233,50.781250
4234,50.781250
4235,50.781250
4236,50.781250
4237,50.781250
4238,50.781250
4239,50.781250
4240,50.781250
4241,50.781250
4242,50.781250
4243,50.781250
4244,50.781250
4245,50.781250
4246,50.781250
4247,50.781250
4248,50.781250
4249,50.781250
4250,50.781250
4251,50.781250
4252,50.781250
4253,50.781250
4254,50.781250
4255,50.781250
4256,50.781250
4257,50.781250
4258,50.781250
4259,50.781250
4260,50.781250
4261,50.781250
4262,50.781250
4263,50.781250
4264,50.781250
4265,50.781250
4266,50.781250
4267,50.781250
4268,50.781250
4269,50.781250
4270,54.687500
4271,50.781250
4272,54.687500
4273,54.687500
4274,54.687500
4275,50.781250
4276,50.781250
4277,54.687500
4278,50.781250
4279,50.781250
4280,54.687500
4281,54.687500
4282,54.687500
4283,50.781250
4284,54.687500
4285,50.781250
4286,54.687500
4287,50.781250
4288,50.781250
4289,50.781250
4290,54.687500
4291,54.687500
4292,54.687500
4293,54.687500
4294,54.687500
4295,54.687500
4296,54.687500
4297,54.687500
4298,50.781250
4299,50.781250
4300,54.687500
4301,50.781250
4302,54.687500
4303,50.781250
4304,50.781250
4305,50.781250
4306,50.781250
4307,50.781250
4308,50.781250
4309,50.781250
4310,50.781250
4311,50.781250
4312,50.781250
4313,54.687500
4314,50.781250
4315,50.781250
4316,50.781250
4317,50.781250
4318,50.781250
4319,50.781250
4320,50.781250
4321,50.781250
4322,50.781250
4323,50.781250
4324,50.781250
4325,50.781250
4326,50.781250
4327,50.781250
4328,50.781250
4329,50.781250
4330,50.781250
4331,50.781250
4332,50.781250
4333,50.781250
4334,50.781250
4335,50.781250
4336,50.781250
4337,50.781250
4338,50.781250
4339,50.781250
4340,50.781250
4341,46.875000
4342,46.875000
4343,46.875000
4344,46.875000
4345,46.875000
4346,46.875000
4347,46.875000
4348,46.875000
4349,46.875000
4350,46.875000
4351,46.875000
4352,46.875000
4353,46.875000
4354,46.875000
4355,46.875000
4356,46.875000
4357,46.875000
4358,46.875000
4359,46.875000
4360,46.875000
4361,46.875000
4362,42.968750
4363,42.968750
4364,46.875000
4365,42.968750
4366,46.875000
4367,42.968750
4368,42.968750
4369,42.968750
4370,42.968750
4371,42.968750
4372,42.968750
4373,42.968750
4374,42.968750
4375,42.968750
4376,42.968750
4377,42.968750
4378,42.968750
4379,42.968750
4380,42.968750
4381,42.968750
4382,39.062500
4383,42.968750
4384,39.062500
4385,39.062500
4386,39.062500
4387,39.062500
4388,39.062500
4389,39.062500
4390,39.062500
4391,39.062500
4392,39.062500
4393,39.062500
4394,39.062500
4395,39.062500
4396,39.062500
4397,39.062500
4398,39.062500
4399,39.062500
4400,35.156250
4401,35.156250
4402,35.156250
4403,35.156250
4404,35.156250
4405,35.156250
4406,35.156250
4407,35.156250
4408,35.156250
4409,35.156250
4410,35.156250
4411,35.156250
4412,35.156250
4413,35.156250
4414,31.250000
4415,31.250000
4416,31.250000
4417,31.250000
4418,31.250000
4419,31.250000
4420,31.250000
4421,31.250000
4422,31.250000
4423,31.250000
4424,31.250000
4425,31.250000
4426,27.343750
4427,27.343750
4428,27.343750
4429,27.343750
4430,27.343750
4431,27.343750
4432,27.343750
4433,27.343750
4434,27.343750
4435,27.343750
4436,27.343750
4437,27.343750
4438,27.343750
4439,27.343750
4440,23.437500
4441,23.437500
4442,23.437500
4443,23.437500
4444,23.437500
4445,23.437500
4446,23.437500
4447,23.437500
4448,23.437500
4449,23.437500
4450,19.531250
4451,19.531250
4452,19.531250
4453,19.531250
4454,19.531250
4455,19.531250
4456,19.531250
4457,19.531250
4458,19.531250
4459,19.531250
4460,19.531250
4461,19.531250
4462,15.625000
4463,15.625000
4464,15.625000
4465,15.625000
4466,15.625000
4467,15.625000
4468,15.625000
4469,15.625000
4470,15.625000
4471,15.625000
4472,11.718750
4473,11.718750
4474,11.718750
4475,11.718750
4476,11.718750
4477,11.718750
4478,11.718750
4479,11.718750
4480,11.718750
4481,7.812500
4482,7.812500
4483,7.812500
4484,7.812500
4485,7.812500
4486,7.812500
4487,7.812500
4488,7.812500
4489,7.812500
4490,7.812500
4491,3.906250
4492,3.906250
4493,3.906250
4494,3.906250
4495,3.906250
4496,3.906250
4497,3.906250
4498,3.906250
4499,3.906250
4500,3.906250
4501,3.906250
4502,0.000000
4503,0.000000
4504,0.000000
4505,0.000000
4506,0.000000
4507,0.000000
4508,0.000000
4509,0.000000
4510,0.000000
4511,-3.906250
4512,-3.906250
4513,-3.906250
4514,-3.906250
4515,-3.906250
4516,-3.906250
4517,-3.906250
4518,-3.906250
4519,-7.812500
4520,-7.812500
4521,-7.812500
4522,-7.812500
4523,-7.812500
4524,-7.812500
4525,-7.812500
4526,-7.812500
4527,-7.812500
4528,-7.812500
4529,-7.812500
4530,-11.718750
4531,-11.718750
4532,-11.718750
4533,-11.718750
4534,-11.718750
4535,-11.718750
4536,-11.718750
4537,-11.718750
4538,-15.625000
4539,-15.625000
4540,-15.625000
4541,-15.625000
4542,-15.625000
4543,-15.625000
4544,-15.625000
4545,-15.625000
4546,-15.625000
4547,-15.625000
4548,-19.531250
4549,-19.531250
4550,-19.531250
4551,-19.531250
4552,-19.531250
4553,-19.531250
4554,-19.531250
4555,-19.531250
4556,-19.531250
4557,-19.531250
4558,-19.531250
4559,-19.531250
4560,-23.437500
4561,-23.437500
4562,-23.437500
4563,-23.437500
4564,-23.437500
4565,-23.437500
4566,-23.437500
4567,-23.437500
4568,-27.343750
4569,-27.343750
4570,-27.343750
4571,-27.343750
4572,-27.343750
4573,-27.343750
4574,-27.343750
4575,-27.343750
4576,-27.343750
4577,-27.343750
4578,-31.250000
4579,-31.250000
4580,-31.250000
4581,-31.250000
4582,-31.250000
4583,-31.250000
4584,-31.250000
4585,-31.250000
4586,-35.156250
4587,-31.250000
4588,-35.156250
4589,-35.156250
4590,-35.156250
4591,-35.156250
4592,-35.156250
4593,-35.156250
4594,-39.062500
4595,-35.156250
4596,-35.156250
4597,-39.062500
4598,-39.062500
4599,-39.062500
4600,-39.062500
4601,-39.062500
4602,-39.062500
4603,-39.062500
4604,-39.062500
4605,-39.062500
4606,-39.062500
4607,-42.968750
4608,-42.968750
4609,-42.968750
4610,-42.968750
4611,-42.968750
4612,-42.968750
4613,-42.968750
4614,-42.968750
4615,-42.968750
4616,-46.875000
4617,-46.875000
4618,-46.875000
4619,-46.875000
4620,-46.875000
4621,-46.875000
4622,-46.875000
4623,-46.875000
4624,-46.875000
4625,-46.875000
4626,-46.875000
4627,-50.781250
4628,-50.781250
4629,-50.781250
4630,-50.781250
4631,-50.781250
4632,-50.781250
4633,-50.781250
4634,-50.781250
4635,-50.781250
4636,-50.781250
4637,-50.781250
4638,-50.781250
4639,-54.687500
4640,-54.687500
4641,-54.687500
4642,-54.687500
4643,-54.687500
4644,-54.687500
4645,-54.687500
4646,-54.687500
4647,-54.687500
4648,-54.687500
4649,-54.687500
4650,-54.687500
4651,-58.593750
4652,-58.593750
4653,-58.593750
4654,-58.593750
4655,-58.593750
4656,-58.593750
4657,-58.593750
4658,-58.593750
4659,-58.593750
4660,-58.593750
4661,-58.593750
4662,-58.593750
4663,-58.593750
4664,-62.500000
4665,-62.500000
4666,-62.500000
4667,-62.500000
4668,-62.500000
4669,-62.500000
4670,-62.500000
4671,-62.500000
4672,-62.500000
4673,-62.500000
4674,-62.500000
4675,-62.500000
4676,-62.500000
4677,-62.500000
4678,-66.406250
4679,-62.500000
4680,-66.406250
4681,-66.406250
4682,-66.406250
4683,-66.406250
4684,-66.406250
4685,-66.406250
4686,-66.406250
4687,-66.406250
4688,-66.406250
4689,-66.406250
4690,-66.406250
4691,-66.406250
4692,-66.406250
4693,-66.406250
4694,-66.406250
4695,-70.312500
4696,-70.312500
4697,-70.312500
4698,-70.312500
4699,-70.312500
4700,-70.312500
4701,-70.312500
4702,-70.312500
4703,-70.312500
4704,-70.312500
4705,-70.312500
4706,-70.312500
4707,-70.312500
4708,-70.312500
4709,-70.312500
4710,-70.312500
4711,-70.312500
4712,-74.218750
4713,-74.218750
4714,-74.218750
4715,-74.218750
4716,-74.218750
4717,-74.218750
4718,-74.218750
4719,-74.218750
4720,-74.218750
4721,-74.218750
4722,-74.218750
4723,-74.218750
4724,-74.218750
4725,-74.218750
4726,-74.218750
4727,-74.218750
4728,-74.218750
4729,-74.218750
4730,-78.125000
4731,-78.125000
4732,-74.218750
4733,-74.218750
4734,-74.218750
4735,-78.125000
4736,-74.218750
4737,-78.125000
4738,-78.125000
4739,-78.125000
4740,-78.125000
4741,-78.125000
4742,-78.125000
4743,-78.125000
4744,-78.125000
4745,-78.125000
4746,-78.125000
4747,-78.125000
4748,-78.125000
4749,-78.125000
4750,-78.125000
4751,-78.125000
4752,-78.125000
4753,-78.125000
4754,-78.125000
4755,-78.125000
4756,-78.125000
4757,-78.125000
4758,-78.125000
4759,-78.125000
4760,-78.125000
4761,-78.125000
4762,-82.031250
4763,-78.125000
4764,-82.031250
4765,-82.031250
4766,-78.125000
4767,-82.031250
4768,-78.125000
4769,-82.031250
4770,-82.031250
4771,-82.031250
4772,-78.125000
4773,-78.125000
4774,-82.031250
4775,-78.125000
4776,-82.031250
4777,-82.031250
4778,-82.031250
4779,-82.031250
4780,-82.031250
4781,-82.031250
4782,-82.031250
4783,-82.031250
4784,-82.031250
4785,-82.031250
4786,-82.031250
4787,-82.031250
4788,-82.031250
4789,-78.125000
4790,-78.125000
4791,-78.125000
4792,-82.031250
4793,-82.031250
4794,-82.031250
4795,-82.031250
4796,-82.031250
4797,-82.031250
4798,-82.031250
4799,-82.031250
4800,-82.031250
4801,-78.125000
4802,-78.125000
4803,-78.125000
4804,-78.125000
4805,-78.125000
4806,-78.125000
4807,-78.125000
4808,-78.125000
4809,-78.125000
4810,-78.125000
4811,-78.125000
4812,-82.031250
4813,-78.125000
4814,-82.031250
4815,-78.125000
4816,-78.125000
4817,-78.125000
4818,-78.125000
4819,-78.125000
4820,-78.125000
4821,-78.125000
4822,-78.125000
4823,-78.125000
4824,-78.125000
4825,-78.125000
4826,-78.125000
4827,-78.125000
4828,-78.125000
4829,-78.125000
4830,-78.125000
4831,-78.125000
4832,-78.125000
4833,-78.125000
4834,-78.125000
4835,-78.125000
4836,-78.125000
4837,-78.125000
4838,-78.125000
4839,-78.125000
4840,-74.218750
4841,-74.218750
4842,-74.218750
4843,-74.218750
4844,-74.218750
4845,-74.218750
4846,-74.218750
4847,-74.218750
4848,-74.218750
4849,-74.218750
4850,-74.218750
4851,-74.218750
4852,-74.218750
4853,-74.218750
4854,-74.218750
4855,-74.218750
4856,-74.218750
4857,-74.218750
4858,-74.218750
4859,-74.218750
4860,-74.218750
4861,-70.312500
4862,-70.312500
4863,-70.312500
4864,-70.312500
4865,-70.312500
4866,-70.312500
4867,-70.312500
4868,-70.312500
4869,-70.312500
4870,-70.312500
4871,-70.312500
4872,-70.312500
4873,-66.406250
4874,-70.312500
4875,-70.312500
4876,-70.312500
4877,-70.312500
4878,-70.312500
4879,-66.406250
4880,-66.406250
4881,-66.406250
4882,-66.406250
4883,-66.406250
4884,-66.406250
4885,-66.406250
4886,-66.406250
4887,-66.406250
4888,-66.406250
4889,-66.406250
4890,-66.406250
4891,-66.406250
4892,-66.406250
4893,-62.500000
4894,-62.500000
4895,-62.500000
4896,-62.500000
4897,-62.500000
4898,-62.500000
4899,-62.500000
4900,-62.500000
4901,-62.500000
4902,-62.500000
4903,-62.500000
4904,-58.593750
4905,-58.593750
4906,-58.593750
4907,-58.593750
4908,-58.593750
4909,-58.593750
4910,-58.593750
4911,-58.593750
4912,-58.593750
4913,-58.593750
4914,-58.593750
4915,-58.593750
4916,-58.593750
4917,-58.593750
4918,-54.687500
4919,-54.687500
4920,-54.687500
4921,-58.593750
4922,-54.687500
4923,-54.687500
4924,-54.687500
4925,-54.687500
4926,-54.687500
4927,-54.687500
4928,-54.687500
4929,-50.781250
4930,-50.781250
4931,-50.781250
4932,-50.781250
4933,-50.781250
4934,-50.781250
4935,-50.781250
4936,-46.875000
4937,-50.781250
4938,-50.781250
4939,-46.875000
4940,-46.875000
4941,-46.875000
4942,-46.875000
4943,-46.875000
4944,-46.875000
4945,-46.875000
4946,-46.875000
4947,-42.968750
4948,-42.968750
4949,-46.875000
4950,-46.875000
4951,-42.968750
4952,-42.968750
4953,-42.968750
4954,-42.968750
4955,-42.968750
4956,-42.968750
4957,-42.968750
4958,-42.968750
4959,-42.968750
4960,-39.062500
4961,-39.062500
4962,-39.062500
4963,-39.062500
4964,-39.062500
4965,-39.062500
4966,-39.062500
4967,-39.062500
4968,-39.062500
4969,-35.156250
4970,-35.156250
4971,-35.156250
4972,-35.156250
4973,-35.156250
4974,-35.156250
4975,-35.156250
4976,-35.156250
4977,-31.250000
4978,-35.156250
4979,-31.250000
4980,-31.250000
4981,-31.250000
4982,-31.250000
4983,-31.250000
4984,-31.250000
4985,-31.250000
4986,-31.250000
4987,-31.250000
4988,-31.250000
4989,-31.250000
4990,-27.343750
4991,-27.343750
4992,-27.343750
4993,-27.343750
4994,-27.343750
4995,-27.343750
4996,-27.343750
4997,-27.343750
4998,-27.343750
4999,-27.343750
5000,-23.437500
5001,-27.343750
5002,-23.437500
5003,-23.437500
5004,-23.437500
5005,-23.437500
5006,-19.531250
5007,-23.437500
5008,-23.437500
5009,-19.531250
5010,-19.531250
5011,-19.531250
5012,-19.531250
5013,-19.531250
5014,-19.531250
5015,-19.531250
5016,-19.531250
5017,-15.625000
5018,-15.625000
5019,-15.625000
5020,-15.625000
5021,-15.625000
5022,-15.625000
5023,-15.625000
5024,-15.625000
5025,-15.625000
5026,-11.718750
5027,-11.718750
5028,-11.718750
5029,-11.718750
5030,-11.718750
5031,-11.718750
5032,-11.718750
5033,-11.718750
5034,-11.718750
5035,-11.718750
5036,-7.812500
5037,-7.812500
5038,-7.812500
5039,-7.812500
5040,-7.812500
5041,-7.812500
5042,-7.812500
5043,-7.812500
5044,-7.812500
5045,-3.906250
5046,-3.906250
5047,-3.906250
5048,-3.906250
5049,-3.906250
5050,-3.906250
5051,0.000000
5052,0.000000
5053,0.000000
5054,0.000000
5055,0.000000
5056,0.000000
5057,0.000000
5058,0.000000
5059,0.000000
5060,0.000000
5061,0.000000
5062,3.906250
5063,3.906250
5064,3.906250
5065,3.906250
5066,3.906250
5067,3.906250
5068,3.906250
5069,3.906250
5070,7.812500
5071,7.812500
5072,7.812500
5073,7.812500
5074,7.812500
5075,7.812500
5076,7.812500
5077,7.812500
5078,7.812500
5079,7.812500
5080,11.718750
5081,11.718750
5082,11.718750
5083,11.718750
5084,11.718750
5085,11.718750
5086,11.718750
5087,11.718750
5088,11.718750
5089,15.625000
5090,11.718750
5091,15.625000
5092,15.625000
5093,15.625000
5094,15.625000
5095,15.625000
5096,15.625000
5097,15.625000
5098,15.625000
5099,15.625000
5100,15.625000
5101,19.531250
5102,19.531250
5103,19.531250
5104,19.531250
5105,19.531250
5106,19.531250
5107,19.531250
5108,19.531250
5109,19.531250
5110,19.531250
5111,23.437500
5112,23.437500
5113,23.437500
5114,23.437500
5115,23.437500
5116,23.437500
5117,23.437500
5118,23.437500
5119,23.437500
5120,23.437500
5121,23.437500
5122,23.437500
5123,23.437500
5124,27.343750
5125,27.343750
5126,27.343750
5127,27.343750
5128,27.343750
5129,27.343750
5130,27.343750
5131,27.343750
5132,27.343750
5133,27.343750
5134,27.343750
5135,31.250000
5136,31.250000
5137,31.250000
5138,31.250000
5139,31.250000
5140,31.250000
5141,31.250000
5142,31.250000
5143,31.250000
5144,31.250000
5145,31.250000
5146,31.250000
5147,35.156250
5148,31.250000
5149,31.250000
5150,35.156250
5151,35.156250
5152,35.156250
5153,35.156250
5154,35.156250
5155,35.156250
5156,35.156250
5157,35.156250
5158,35.156250
5159,39.062500
5160,39.062500
5161,39.062500
5162,35.156250
5163,39.062500
5164,39.062500
5165,39.062500
5166,39.062500
5167,39.062500
5168,39.062500
5169,39.062500
5170,39.062500
5171,39.062500
5172,39.062500
5173,39.062500
5174,39.062500
5175,39.062500
5176,42.968750
5177,42.968750
5178,42.968750
5179,42.968750
5180,42.968750
5181,42.968750
5182,42.968750
5183,42.968750
5184,42.968750
5185,42.968750
5186,42.968750
5187,42.968750
5188,42.968750
5189,46.875000
5190,46.875000
5191,42.968750
5192,42.968750
5193,46.875000
5194,46.875000
5195,46.875000
5196,42.968750
5197,46.875000
5198,46.875000
5199,46.875000
5200,46.875000
5201,46.875000
5202,46.875000
5203,46.875000
5204,46.875000
5205,46.875000
5206,46.875000
5207,46.875000
5208,46.875000
5209,46.875000
5210,46.875000
5211,46.875000
5212,46.875000
5213,50.781250
5214,46.875000
5215,50.781250
5216,50.781250
5217,50.781250
5218,50.781250
5219,50.781250
5220,50.781250
5221,50.781250
5222,50.781250
5223,50.781250
5224,50.781250
5225,50.781250
5226,46.875000
5227,50.781250
5228,50.781250
5229,50.781250
5230,50.781250
5231,50.781250
5232,50.781250
5233,50.781250
5234,50.781250
5235,50.781250
5236,50.781250
5237,50.781250
5238,50.781250
5239,50.781250
5240,50.781250
5241,50.781250
5242,50.781250
5243,50.781250
5244,50.781250
5245,50.781250
5246,50.781250
5247,50.781250
5248,50.781250
5249,50.781250
5250,50.781250
5251,50.781250
5252,50.781250
5253,50.781250
5254,50.781250
5255,50.781250
5256,50.781250
5257,54.687500
5258,50.781250
5259,50.781250
5260,54.687500
5261,50.781250
5262,50.781250
5263,50.781250
5264,50.781250
5265,54.687500
5266,50.781250
5267,50.781250
5268,50.781250
5269,50.781250
5270,50.781250
5271,50.781250
5272,54.687500
5273,54.687500
5274,50.781250
5275,50.781250
5276,50.781250
5277,50.781250
5278,50.781250
5279,50.781250
5280,50.781250
5281,54.687500
5282,50.781250
5283,50.781250
5284,50.781250
5285,54.687500
5286,50.781250
5287,54.687500
5288,50.781250
5289,54.687500
5290,50.781250
5291,50.781250
5292,50.781250
5293,50.781250
5294,50.781250
5295,50.781250
5296,50.781250
5297,50.781250
5298,50.781250
5299,50.781250
5300,50.781250
5301,50.781250
5302,50.781250
5303,50.781250
5304,50.781250
5305,50.781250
5306,50.781250
5307,50.781250
5308,50.781250
5309,50.781250
5310,50.781250
5311,50.781250
5312,50.781250
5313,50.781250
5314,50.781250
5315,50.781250
5316,50.781250
5317,50.781250
5318,50.781250
5319,50.781250
5320,50.781250
5321,50.781250
5322,50.781250
5323,50.781250
5324,50.781250
5325,50.781250
5326,50.781250
5327,50.781250
5328,50.781250
5329,50.781250
5330,50.781250
5331,50.781250
5332,50.781250
5333,46.875000
5334,46.875000
5335,46.875000
5336,46.875000
5337,46.875000
5338,46.875000
5339,46.875000
5340,46.875000
5341,46.875000
5342,46.875000
5343,46.875000
5344,46.875000
5345,46.875000
5346,46.875000
5347,46.875000
5348,46.875000
5349,46.875000
5350,46.875000
5351,46.875000
5352,46.875000
5353,46.875000
5354,46.875000
5355,42.968750
5356,42.968750
5357,42.968750
5358,42.968750
5359,42.968750
5360,42.968750
5361,42.968750
5362,42.968750
5363,42.968750
5364,42.968750
5365,42.968750
5366,42.968750
5367,42.968750
5368,42.968750
5369,42.968750
5370,42.968750
5371,42.968750
5372,39.062500
5373,39.062500
5374,39.062500
5375,39.062500
5376,39.062500
5377,39.062500
5378,39.062500
5379,39.062500
5380,39.062500
5381,39.062500
5382,39.062500
5383,39.062500
5384,39.062500
5385,35.156250
5386,39.062500
5387,39.062500
5388,35.156250
5389,35.156250
5390,35.156250
5391,35.156250
5392,35.156250
5393,35.156250
5394,35.156250
5395,35.156250
5396,35.156250
5397,35.156250
5398,35.156250
5399,35.156250
5400,35.156250
5401,31.250000
5402,31.250000
5403,31.250000
5404,31.250000
5405,31.250000
5406,31.250000
5407,31.250000
5408,31.250000
5409,31.250000
5410,31.250000
5411,31.250000
5412,31.250000
5413,31.250000
5414,27.343750
5415,27.343750
5416,27.343750
5417,27.343750
5418,27.343750
5419,27.343750
5420,27.343750
5421,27.343750
5422,27.343750
5423,27.343750
5424,27.343750
5425,27.343750
5426,23.437500
5427,23.437500
5428,23.437500
5429,23.437500
5430,23.437500
5431,23.437500
5432,23.437500
5433,23.437500
5434,23.437500
5435,23.437500
5436,23.437500
5437,23.437500
5438,23.437500
5439,23.437500
5440,19.531250
5441,19.531250
5442,19.531250
5443,19.531250
5444,19.531250
5445,19.531250
5446,19.531250
5447,19.531250
5448,19.531250
5449,15.625000
5450,19.531250
5451,15.625000
5452,15.625000
5453,15.625000
5454,15.625000
5455,15.625000
5456,15.625000
5457,15.625000
5458,15.625000
5459,15.625000
5460,15.625000
5461,15.625000
5462,11.718750
5463,11.718750
5464,11.718750
5465,11.718750
5466,11.718750
5467,11.718750
5468,11.718750
5469,11.718750
5470,11.718750
5471,7.812500
5472,7.812500
5473,7.812500
5474,7.812500
5475,7.812500
5476,7.812500
5477,7.812500
5478,7.812500
5479,7.812500
5480,3.906250
5481,7.812500
5482,3.906250
5483,3.906250
5484,3.906250
5485,3.906250
5486,3.906250
5487,3.906250
5488,3.906250
5489,3.906250
5490,3.906250
5491,0.000000
5492,0.000000
5493,0.000000
5494,0.000000
5495,0.000000
5496,0.000000
5497,0.000000
5498,0.000000
5499,0.000000
5500,0.000000
5501,-3.906250
5502,-3.906250
5503,-3.906250
5504,-3.906250
5505,-3.906250
5506,-3.906250
5507,-3.906250
5508,-3.906250
5509,-3.906250
5510,-7.812500
5511,-7.812500
5512,-7.812500
5513,-7.812500
5514,-7.812500
5515,-7.812500
5516,-7.812500
5517,-7.812500
5518,-11.718750
5519,-11.718750
5520,-11.718750
5521,-11.718750
5522,-11.718750
5523,-11.718750
5524,-11.718750
5525,-11.718750
5526,-11.718750
5527,-11.718750
5528,-11.718750
5529,-11.718750
5530,-15.625000
5531,-15.625000
5532,-15.625000
5533,-15.625000
5534,-15.625000
5535,-15.625000
5536,-15.625000
5537,-15.625000
5538,-19.531250
5539,-19.531250
5540,-19.531250
5541,-19.531250
5542,-19.531250
5543,-19.531250
5544,-19.531250
5545,-19.531250
5546,-23.437500
5547,-19.531250
5548,-23.437500
5549,-23.437500
5550,-23.437500
5551,-23.437500
5552,-23.437500
5553,-23.437500
5554,-23.437500
5555,-23.437500
5556,-27.343750
5557,-27.343750
5558,-27.343750
5559,-27.343750
5560,-27.343750
5561,-27.343750
5562,-27.343750
5563,-27.343750
5564,-27.343750
5565,-27.343750
5566,-27.343750
5567,-27.343750
5568,-31.250000
5569,-31.250000
5570,-31.250000
5571,-31.250000
5572,-31.250000
5573,-31.250000
5574,-31.250000
5575,-31.250000
5576,-31.250000
5577,-35.156250
5578,-35.156250
5579,-35.156250
5580,-35.156250
5581,-35.156250
5582,-35.156250
5583,-35.156250
5584,-35.156250
5585,-39.062500
5586,-39.062500
5587,-39.062500
5588,-39.062500
5589,-39.062500
5590,-39.062500
5591,-39.062500
5592,-39.062500
5593,-39.062500
5594,-39.062500
5595,-42.968750
5596,-42.968750
5597,-42.968750
5598,-42.968750
5599,-42.968750
5600,-42.968750
5601,-42.968750
5602,-42.968750
5603,-42.968750
5604,-42.968750
5605,-42.968750
5606,-46.875000
5607,-46.875000
5608,-46.875000
5609,-46.875000
5610,-46.875000
5611,-46.875000
5612,-46.875000
5613,-46.875000
5614,-46.875000
5615,-46.875000
5616,-50.781250
5617,-50.781250
5618,-50.781250
5619,-50.781250
5620,-50.781250
5621,-50.781250
5622,-50.781250
5623,-50.781250
5624,-50.781250
5625,-50.781250
5626,-50.781250
5627,-54.687500
5628,-54.687500
5629,-54.687500
5630,-54.687500
5631,-54.687500
5632,-54.687500
5633,-54.687500
5634,-54.687500
5635,-54.687500
5636,-54.687500
5637,-54.687500
5638,-54.687500
5639,-58.593750
5640,-58.593750
5641,-58.593750
5642,-58.593750
5643,-58.593750
5644,-58.593750
5645,-58.593750
5646,-58.593750
5647,-58.593750
5648,-58.593750
5649,-58.593750
5650,-58.593750
5651,-58.593750
5652,-62.500000
5653,-62.500000
5654,-62.500000
5655,-62.500000
5656,-62.500000
5657,-62.500000
5658,-62.500000
5659,-62.500000
5660,-62.500000
5661,-62.500000
5662,-62.500000
5663,-66.406250
5664,-66.406250
5665,-66.406250
5666,-66.406250
5667,-66.406250
5668,-66.406250
5669,-66.406250
5670,-66.406250
5671,-66.406250
5672,-66.406250
5673,-66.406250
5674,-66.406250
5675,-66.406250
5676,-66.406250
5677,-66.406250
5678,-70.312500
5679,-70.312500
5680,-70.312500
5681,-70.312500
5682,-70.312500
5683,-70.312500
5684,-70.312500
5685,-70.312500
5686,-70.312500
5687,-70.312500
5688,-70.312500
5689,-70.312500
5690,-70.312500
5691,-70.312500
5692,-70.312500
5693,-70.312500
5694,-70.312500
5695,-70.312500
5696,-70.312500
5697,-70.312500
5698,-74.218750
5699,-74.218750
5700,-74.218750
5701,-74.218750
5702,-74.218750
5703,-74.218750
5704,-74.218750
5705,-74.218750
5706,-74.218750
5707,-74.218750
5708,-74.218750
5709,-74.218750
5710,-74.218750
5711,-74.218750
5712,-74.218750
5713,-74.218750
5714,-74.218750
5715,-74.218750
5716,-74.218750
5717,-74.218750
5718,-74.218750
5719,-74.218750
5720,-78.125000
5721,-78.125000
5722,-74.218750
5723,-78.125000
5724,-78.125000
5725,-78.125000
5726,-78.125000
5727,-78.125000
5728,-78.125000
5729,-78.125000
5730,-78.125000
5731,-78.125000
5732,-78.125000
5733,-78.125000
5734,-78.125000
5735,-78.125000
5736,-78.125000
5737,-78.125000
5738,-78.125000
5739,-78.125000
5740,-78.125000
5741,-78.125000
5742,-78.125000
5743,-78.125000
5744,-78.125000
5745,-78.125000
5746,-82.031250
5747,-78.125000
5748,-78.125000
5749,-78.125000
5750,-78.125000
5751,-78.125000
5752,-78.125000
5753,-78.125000
5754,-82.031250
5755,-78.125000
5756,-82.031250
5757,-78.125000
5758,-82.031250
5759,-82.031250
5760,-82.031250
5761,-78.125000
5762,-78.125000
5763,-82.031250
5764,-82.031250
5765,-78.125000
5766,-78.125000
5767,-82.031250
5768,-82.031250
5769,-82.031250
5770,-82.031250
5771,-78.125000
5772,-82.031250
5773,-78.125000
5774,-78.125000
5775,-78.125000
5776,-82.031250
5777,-82.031250
5778,-82.031250
5779,-78.125000
5780,-82.031250
5781,-82.031250
5782,-78.125000
5783,-78.125000
5784,-82.031250
5785,-82.031250
5786,-82.031250
5787,-82.031250
5788,-82.031250
5789,-82.031250
5790,-78.125000
5791,-78.125000
5792,-82.031250
5793,-78.125000
5794,-78.125000
5795,-78.125000
5796,-78.125000
5797,-78.125000
5798,-78.125000
5799,-78.125000
5800,-78.125000
5801,-78.125000
5802,-78.125000
5803,-78.125000
5804,-78.125000
5805,-78.125000
5806,-78.125000
5807,-78.125000
5808,-78.125000
5809,-78.125000
5810,-78.125000
5811,-78.125000
5812,-78.125000
5813,-78.125000
5814,-78.125000
5815,-78.125000
5816,-78.125000
5817,-78.125000
5818,-78.125000
5819,-78.125000
5820,-78.125000
5821,-78.125000
5822,-78.125000
5823,-78.125000
5824,-78.125000
5825,-78.125000
5826,-74.218750
5827,-78.125000
5828,-74.218750
5829,-78.125000
5830,-74.218750
5831,-74.218750
5832,-78.125000
5833,-74.218750
5834,-74.218750
5835,-74.218750
5836,-74.218750
5837,-74.218750
5838,-74.218750
5839,-74.218750
5840,-74.218750
5841,-74.218750
5842,-74.218750
5843,-74.218750
5844,-74.218750
5845,-74.218750
5846,-74.218750
5847,-74.218750
5848,-74.218750
5849,-74.218750
5850,-70.312500
5851,-70.312500
5852,-74.218750
5853,-70.312500
5854,-70.312500
5855,-70.312500
5856,-70.312500
5857,-70.312500
5858,-70.312500
5859,-70.312500
5860,-70.312500
5861,-70.312500
5862,-70.312500
5863,-70.312500
5864,-70.312500
5865,-70.312500
5866,-70.312500
5867,-66.406250
5868,-66.406250
5869,-66.406250
5870,-66.406250
5871,-66.406250
5872,-66.406250
5873,-66.406250
5874,-66.406250
5875,-66.406250
5876,-66.406250
5877,-66.406250
5878,-66.406250
5879,-66.406250
5880,-66.406250
5881,-66.406250
5882,-66.406250
5883,-62.500000
5884,-62.500000
5885,-62.500000
5886,-62.500000
5887,-62.500000
5888,-62.500000
5889,-62.500000
5890,-62.500000
5891,-62.500000
5892,-62.500000
5893,-62.500000
5894,-62.500000
5895,-58.593750
5896,-62.500000
5897,-58.593750
5898,-58.593750
5899,-58.593750
5900,-58.593750
5901,-58.593750
5902,-58.593750
5903,-58.593750
5904,-58.593750
5905,-58.593750
5906,-58.593750
5907,-58.593750
5908,-58.593750
5909,-54.687500
5910,-54.687500
5911,-54.687500
5912,-54.687500
5913,-54.687500
5914,-54.687500
5915,-54.687500
5916,-54.687500
5917,-54.687500
5918,-50.781250
5919,-54.687500
5920,-50.781250
5921,-50.781250
5922,-50.781250
5923,-50.781250
5924,-50.781250
5925,-50.781250
5926,-50.781250
5927,-50.781250
5928,-50.781250
5929,-50.781250
5930,-50.781250
5931,-46.875000
5932,-46.875000
5933,-46.875000
5934,-46.875000
5935,-46.875000
5936,-46.875000
5937,-46.875000
5938,-46.875000
5939,-46.875000
5940,-46.875000
5941,-42.968750
5942,-42.968750
5943,-42.968750
5944,-42.968750
5945,-42.968750
5946,-42.968750
5947,-42.968750
5948,-42.968750
5949,-42.968750
5950,-39.062500
5951,-39.062500
5952,-39.062500
5953,-39.062500
5954,-39.062500
5955,-39.062500
5956,-39.062500
5957,-39.062500
5958,-39.062500
5959,-39.062500
5960,-35.156250
5961,-35.156250
5962,-35.156250
5963,-35.156250
5964,-35.156250
5965,-35.156250
5966,-35.156250
5967,-35.156250
5968,-31.250000
5969,-31.250000
5970,-31.250000
5971,-31.250000
5972,-31.250000
5973,-31.250000
5974,-31.250000
5975,-31.250000
5976,-31.250000
5977,-27.343750
5978,-31.250000
5979,-27.343750
5980,-27.343750
5981,-27.343750
5982,-27.343750
5983,-27.343750
5984,-27.343750
5985,-27.343750
5986,-27.343750
5987,-23.437500
5988,-23.437500
5989,-23.437500
5990,-23.437500
5991,-23.437500
5992,-23.437500
5993,-23.437500
5994,-23.437500
5995,-23.437500
5996,-19.531250
5997,-19.531250
5998,-19.531250
5999,-19.531250
6000,-19.531250
6001,-19.531250
6002,-19.531250
6003,-19.531250
6004,-19.531250
6005,-15.625000
6006,-15.625000
6007,-15.625000
6008,-15.625000
6009,-15.625000
6010,-15.625000
6011,-15.625000
6012,-15.625000
6013,-15.625000
6014,-11.718750
6015,-11.718750
6016,-11.718750
6017,-11.718750
6018,-11.718750
6019,-11.718750
6020,-11.718750
6021,-11.718750
6022,-11.718750
6023,-11.718750
6024,-11.718750
6025,-7.812500
6026,-7.812500
6027,-7.812500
6028,-7.812500
6029,-7.812500
6030,-7.812500
6031,-7.812500
6032,-7.812500
6033,-7.812500
6034,-3.906250
6035,-3.906250
6036,-3.906250
6037,-3.906250
6038,-3.906250
6039,-3.906250
6040,-3.906250
6041,-3.906250
6042,-3.906250
6043,0.000000
6044,0.000000
6045,0.000000
6046,0.000000
6047,0.000000
6048,0.000000
6049,0.000000
6050,0.000000
6051,0.000000
6052,0.000000
6053,3.906250
6054,3.906250
6055,3.906250
6056,3.906250
6057,3.906250
6058,3.906250
6059,3.906250
6060,3.906250
6061,3.906250
6062,7.812500
6063,7.812500
6064,7.812500
6065,7.812500
6066,7.812500
6067,7.812500
6068,7.812500
6069,7.812500
6070,7.812500
6071,7.812500
6072,11.718750
6073,11.718750
6074,7.812500
6075,11.718750
6076,11.718750
6077,11.718750
6078,11.718750
6079,11.718750
6080,11.718750
6081,15.625000
6082,15.625000
6083,11.718750
6084,15.625000
6085,15.625000
6086,15.625000
6087,15.625000
6088,15.625000
6089,15.625000
6090,15.625000
6091,15.625000
6092,19.531250
6093,15.625000
6094,19.531250
6095,19.531250
6096,19.531250
6097,19.531250
6098,19.531250
6099,19.531250
6100,19.531250
6101,19.531250
6102,23.437500
6103,23.437500
6104,23.437500
6105,23.437500
6106,23.437500
6107,23.437500
6108,23.437500
6109,23.437500
6110,23.437500
6111,23.437500
6112,23.437500
6113,27.343750
6114,27.343750
6115,27.343750
6116,27.343750
6117,27.343750
6118,27.343750
6119,27.343750
6120,27.343750
6121,27.343750
6122,27.343750
6123,27.343750
6124,27.343750
6125,31.250000
6126,31.250000
6127,31.250000
6128,31.250000
6129,31.250000
6130,31.250000
6131,31.250000
6132,31.250000
6133,31.250000
6134,31.250000
6135,35.156250
6136,31.250000
6137,35.156250
6138,35.156250
6139,35.156250
6140,35.156250
6141,35.156250
6142,35.156250
6143,35.156250
6144,35.156250
6145,35.156250
6146,35.156250
6147,35.156250
6148,35.156250
6149,35.156250
6150,35.156250
6151,39.062500
6152,39.062500
6153,39.062500
6154,39.062500
6155,39.062500
6156,39.062500
6157,39.062500
6158,39.062500
6159,39.062500
6160,39.062500
6161,39.062500
6162,39.062500
6163,39.062500
6164,39.062500
6165,39.062500
6166,42.968750
6167,42.968750
6168,42.968750
6169,42.968750
6170,42.968750
6171,42.968750
6172,42.968750
6173,42.968750
6174,42.968750
6175,42.968750
6176,42.968750
6177,42.968750
6178,42.968750
6179,42.968750
6180,42.968750
6181,42.968750
6182,42.968750
6183,42.968750
6184,42.968750
6185,46.875000
6186,46.875000
6187,46.875000
6188,46.875000
6189,46.875000
6190,46.875000
6191,46.875000
6192,46.875000
6193,46.875000
6194,46.875000
6195,46.875000
6196,46.875000
6197,46.875000
6198,46.875000
6199,46.875000
6200,46.875000
6201,46.875000
6202,46.875000
6203,46.875000
6204,46.875000
6205,46.875000
6206,46.875000
6207,46.875000
6208,50.781250
6209,50.781250
6210,50.781250
6211,46.875000
6212,50.781250
6213,50.781250
6214,50.781250
6215,50.781250
6216,50.781250
6217,50.781250
6218,50.781250
6219,50.781250
6220,50.781250
6221,50.781250
6222,50.781250
6223,50.781250
6224,50.781250
6225,50.781250
6226,50.781250
6227,50.781250
6228,50.781250
6229,50.781250
6230,50.781250
6231,50.781250
6232,50.781250
6233,50.781250
6234,50.781250
6235,50.781250
6236,50.781250
6237,50.781250
6238,50.781250
6239,50.781250
6240,50.781250
6241,50.781250
6242,50.781250
6243,50.781250
6244,50.781250
6245,54.687500
6246,50.781250
6247,50.781250
6248,50.781250
6249,54.687500
6250,50.781250
6251,54.687500
6252,54.687500
6253,54.687500
6254,50.781250
6255,50.781250
6256,50.781250
6257,54.687500
6258,54.687500
6259,54.687500
6260,54.687500
6261,54.687500
6262,50.781250
6263,54.687500
6264,50.781250
6265,50.781250
6266,50.781250
6267,54.687500
6268,54.687500
6269,50.781250
6270,50.781250
6271,54.687500
6272,54.687500
6273,54.687500
6274,54.687500
6275,54.687500
6276,50.781250
6277,50.781250
6278,50.781250
6279,50.781250
6280,50.781250
6281,50.781250
6282,50.781250
6283,50.781250
6284,54.687500
6285,50.781250
6286,50.781250
6287,50.781250
6288,50.781250
6289,50.781250
6290,50.781250
6291,50.781250
6292,50.781250
6293,50.781250
6294,50.781250
6295,50.781250
6296,50.781250
6297,50.781250
6298,50.781250
6299,50.781250
6300,50.781250
6301,50.781250
6302,50.781250
6303,50.781250
6304,50.781250
6305,50.781250
6306,50.781250
6307,50.781250
6308,50.781250
6309,50.781250
6310,50.781250
6311,50.781250
6312,50.781250
6313,50.781250
6314,50.781250
6315,50.781250
6316,50.781250
6317,46.875000
6318,46.875000
6319,46.875000
6320,46.875000
6321,46.875000
6322,46.875000
6323,46.875000
6324,46.875000
6325,46.875000
6326,46.875000
6327,46.875000
6328,46.875000
6329,46.875000
6330,46.875000
6331,46.875000
6332,46.875000
6333,46.875000
6334,46.875000
6335,46.875000
6336,46.875000
6337,46.875000
6338,46.875000
6339,46.875000
6340,46.875000
6341,46.875000
6342,42.968750
6343,42.968750
6344,42.968750
6345,46.875000
6346,42.968750
6347,42.968750
6348,42.968750
6349,42.968750
6350,42.968750
6351,42.968750
6352,42.968750
6353,42.968750
6354,42.968750
6355,42.968750
6356,42.968750
6357,42.968750
6358,42.968750
6359,42.968750
6360,42.968750
6361,42.968750
6362,39.062500
6363,39.062500
6364,39.062500
6365,39.062500
6366,39.062500
6367,39.062500
6368,39.062500
6369,39.062500
6370,39.062500
6371,39.062500
6372,39.062500
6373,39.062500
6374,39.062500
6375,39.062500
6376,39.062500
6377,39.062500
6378,35.156250
6379,35.156250
6380,35.156250
6381,35.156250
6382,35.156250
6383,35.156250
6384,35.156250
6385,35.156250
6386,35.156250
6387,35.156250
6388,35.156250
6389,35.156250
6390,35.156250
6391,35.156250
6392,35.156250
6393,35.156250
6394,31.250000
6395,31.250000
6396,31.250000
6397,31.250000
6398,31.250000
6399,31.250000
6400,31.250000
6401,31.250000
6402,31.250000
6403,31.250000
6404,31.250000
6405,31.250000
6406,31.250000
6407,27.343750
6408,27.343750
6409,27.343750
6410,27.343750
6411,27.343750
6412,27.343750
6413,27.343750
6414,27.343750
6415,27.343750
6416,27.343750
6417,27.343750
6418,23.437500
6419,23.437500
6420,23.437500
6421,23.437500
6422,23.437500
6423,23.437500
6424,23.437500
6425,23.437500
6426,23.437500
6427,23.437500
6428,19.531250
6429,19.531250
6430,19.531250
6431,19.531250
6432,19.531250
6433,19.531250
6434,19.531250
6435,19.531250
6436,19.531250
6437,19.531250
6438,19.531250
6439,15.625000
6440,15.625000
6441,15.625000
6442,15.625000
6443,15.625000
6444,15.625000
6445,15.625000
6446,15.625000
6447,15.625000
6448,15.625000
6449,11.718750
6450,11.718750
6451,11.718750
6452,11.718750
6453,11.718750
6454,11.718750
6455,11.718750
6456,11.718750
6457,11.718750
6458,11.718750
6459,7.812500
6460,7.812500
6461,11.718750
6462,7.812500
6463,7.812500
6464,7.812500
6465,7.812500
6466,7.812500
6467,7.812500
6468,7.812500
6469,7.812500
6470,7.812500
6471,3.906250
6472,3.906250
6473,3.906250
6474,3.906250
6475,3.906250
6476,3.906250
6477,3.906250
6478,3.906250
6479,3.906250
6480,0.000000
6481,0.000000
6482,0.000000
6483,0.000000
6484,0.000000
6485,0.000000
6486,0.000000
6487,0.000000
6488,0.000000
6489,-3.906250
6490,-3.906250
6491,-3.906250
6492,-3.906250
6493,-3.906250
6494,-3.906250
6495,-3.906250
6496,-3.906250
6497,-3.906250
6498,-7.812500
6499,-7.812500
6500,-7.812500
6501,-7.812500
6502,-7.812500
6503,-7.812500
6504,-7.812500
6505,-7.812500
6506,-7.812500
6507,-7.812500
6508,-11.718750
6509,-11.718750
6510,-11.718750
6511,-11.718750
6512,-11.718750
6513,-11.718750
6514,-11.718750
6515,-11.718750
6516,-11.718750
6517,-11.718750
6518,-15.625000
6519,-15.625000
6520,-15.625000
6521,-15.625000
6522,-11.718750
6523,-15.625000
6524,-15.625000
6525,-15.625000
6526,-15.625000
6527,-15.625000
6528,-15.625000
6529,-19.531250
6530,-19.531250
6531,-19.531250
6532,-19.531250
6533,-19.531250
6534,-19.531250
6535,-23.437500
6536,-19.531250
6537,-19.531250
6538,-23.437500
6539,-23.437500
6540,-23.437500
6541,-23.437500
6542,-23.437500
6543,-23.437500
6544,-23.437500
6545,-23.437500
6546,-23.437500
6547,-27.343750
6548,-27.343750
6549,-27.343750
6550,-27.343750
6551,-27.343750
6552,-27.343750
6553,-27.343750
6554,-27.343750
6555,-27.343750
6556,-31.250000
6557,-31.250000
6558,-31.250000
6559,-31.250000
6560,-31.250000
6561,-31.250000
6562,-35.156250
6563,-35.156250
6564,-31.250000
6565,-35.156250
6566,-35.156250
6567,-35.156250
6568,-35.156250
6569,-35.156250
6570,-35.156250
6571,-35.156250
6572,-35.156250
6573,-35.156250
6574,-35.156250
6575,-39.062500
6576,-39.062500
6577,-39.062500
6578,-39.062500
6579,-39.062500
6580,-39.062500
6581,-39.062500
6582,-39.062500
6583,-39.062500
6584,-39.062500
6585,-42.968750
6586,-42.968750
6587,-42.968750
6588,-42.968750
6589,-42.968750
6590,-42.968750
6591,-42.968750
6592,-42.968750
6593,-46.875000
6594,-46.875000
6595,-46.875000
6596,-42.968750
6597,-46.875000
6598,-46.875000
6599,-46.875000
6600,-46.875000
6601,-46.875000
6602,-46.875000
6603,-46.875000
6604,-46.875000
6605,-46.875000
6606,-46.875000
6607,-50.781250
6608,-50.781250
6609,-50.781250
6610,-50.781250
6611,-50.781250
6612,-50.781250
6613,-50.781250
6614,-50.781250
6615,-50.781250
6616,-50.781250
6617,-54.687500
6618,-50.781250
6619,-54.687500
6620,-50.781250
6621,-54.687500
6622,-54.687500
6623,-54.687500
6624,-54.687500
6625,-54.687500
6626,-54.687500
6627,-58.593750
6628,-58.593750
6629,-54.687500
6630,-58.593750
6631,-58.593750
6632,-58.593750
6633,-58.593750
6634,-58.593750
6635,-58.593750
6636,-58.593750
6637,-58.593750
6638,-58.593750
6639,-58.593750
6640,-58.593750
6641,-58.593750
6642,-62.500000
6643,-62.500000
6644,-62.500000
6645,-62.500000
6646,-62.500000
6647,-62.500000
6648,-62.500000
6649,-62.500000
6650,-62.500000
6651,-62.500000
6652,-62.500000
6653,-62.500000
6654,-62.500000
6655,-66.406250
6656,-66.406250
6657,-66.406250
6658,-66.406250
6659,-66.406250
6660,-66.406250
6661,-66.406250
6662,-66.406250
6663,-66.406250
6664,-66.406250
6665,-66.406250
6666,-66.406250
6667,-66.406250
6668,-66.406250
6669,-66.406250
6670,-70.312500
6671,-70.312500
6672,-70.312500
6673,-70.312500
6674,-70.312500
6675,-70.312500
6676,-70.312500
6677,-70.312500
6678,-70.312500
6679,-70.312500
6680,-70.312500
6681,-70.312500
6682,-70.312500
6683,-74.218750
6684,-70.312500
6685,-70.312500
6686,-70.312500
6687,-70.312500
6688,-70.312500
6689,-74.218750
6690,-74.218750
6691,-74.218750
6692,-74.218750
6693,-74.218750
6694,-74.218750
6695,-74.218750
6696,-74.218750
6697,-74.218750
6698,-74.218750
6699,-74.218750
6700,-74.218750
6701,-74.218750
6702,-74.218750
6703,-74.218750
6704,-74.218750
6705,-74.218750
6706,-74.218750
6707,-74.218750
6708,-78.125000
6709,-78.125000
6710,-78.125000
6711,-78.125000
6712,-78.125000
6713,-78.125000
6714,-78.125000
6715,-78.125000
6716,-78.125000
6717,-78.125000
6718,-78.125000
6719,-78.125000
6720,-78.125000
6721,-78.125000
6722,-78.125000
6723,-78.125000
6724,-78.125000
6725,-78.125000
6726,-78.125000
6727,-78.125000
6728,-78.125000
6729,-78.125000
6730,-78.125000
6731,-78.125000
6732,-78.125000
6733,-78.125000
6734,-78.125000
6735,-78.125000
6736,-78.125000
6737,-78.125000
6738,-78.125000
6739,-78.125000
6740,-78.125000
6741,-78.125000
6742,-78.125000
6743,-78.125000
6744,-78.125000
6745,-78.125000
6746,-78.125000
6747,-78.125000
6748,-78.125000
6749,-82.031250
6750,-78.125000
6751,-78.125000
6752,-78.125000
6753,-78.125000
6754,-78.125000
6755,-78.125000
6756,-82.031250
6757,-82.031250
6758,-78.125000
6759,-82.031250
6760,-82.031250
6761,-78.125000
6762,-78.125000
6763,-78.125000
6764,-82.031250
6765,-78.125000
6766,-82.031250
6767,-78.125000
6768,-78.125000
6769,-78.125000
6770,-82.031250
6771,-82.031250
6772,-78.125000
6773,-78.125000
6774,-78.125000
6775,-78.125000
6776,-82.031250
6777,-78.125000
6778,-78.125000
6779,-78.125000
6780,-78.125000
6781,-78.125000
6782,-78.125000
6783,-78.125000
6784,-78.125000
6785,-78.125000
6786,-78.125000
6787,-78.125000
6788,-78.125000
6789,-78.125000
6790,-78.125000
6791,-78.125000
6792,-78.125000
6793,-78.125000
6794,-78.125000
6795,-78.125000
6796,-78.125000
6797,-78.125000
6798,-78.125000
6799,-78.125000
6800,-78.125000
6801,-78.125000
6802,-78.125000
6803,-78.125000
6804,-78.125000
6805,-78.125000
6806,-78.125000
6807,-78.125000
6808,-78.125000
6809,-78.125000
6810,-78.125000
6811,-78.125000
6812,-78.125000
6813,-78.125000
6814,-78.125000
6815,-78.125000
6816,-78.125000
6817,-78.125000
6818,-78.125000
6819,-74.218750
6820,-74.218750
6821,-74.218750
6822,-74.218750
6823,-74.218750
6824,-74.218750
6825,-74.218750
6826,-74.218750
6827,-74.218750
6828,-74.218750
6829,-74.218750
6830,-74.218750
6831,-78.125000
6832,-74.218750
6833,-74.218750
6834,-74.218750
6835,-74.218750
6836,-74.218750
6837,-70.312500
6838,-74.218750
6839,-74.218750
6840,-70.312500
6841,-70.312500
6842,-70.312500
6843,-70.312500
6844,-70.312500
6845,-70.312500
6846,-70.312500
6847,-70.312500
6848,-70.312500
6849,-70.312500
6850,-70.312500
6851,-70.312500
6852,-70.312500
6853,-70.312500
6854,-70.312500
6855,-66.406250
6856,-70.312500
6857,-66.406250
6858,-66.406250
6859,-70.312500
6860,-66.406250
6861,-66.406250
6862,-70.312500
6863,-66.406250
6864,-66.406250
6865,-66.406250
6866,-66.406250
6867,-66.406250
6868,-66.406250
6869,-62.500000
6870,-62.500000
6871,-62.500000
6872,-62.500000
6873,-62.500000
6874,-62.500000
6875,-62.500000
6876,-62.500000
6877,-62.500000
6878,-62.500000
6879,-62.500000
6880,-62.500000
6881,-62.500000
6882,-58.593750
6883,-62.500000
6884,-62.500000
6885,-58.593750
6886,-58.593750
6887,-58.593750
6888,-58.593750
6889,-58.593750
6890,-58.593750
6891,-58.593750
6892,-58.593750
6893,-54.687500
6894,-58.593750
6895,-54.687500
6896,-54.687500
6897,-54.687500
6898,-54.687500
6899,-54.687500
6900,-54.687500
6901,-54.687500
6902,-54.687500
6903,-54.687500
6904,-54.687500
6905,-54.687500
6906,-54.687500
6907,-54.687500
6908,-50.781250
6909,-50.781250
6910,-50.781250
6911,-50.781250
6912,-50.781250
6913,-50.781250
6914,-50.781250
6915,-50.781250
6916,-46.875000
6917,-46.875000
6918,-46.875000
6919,-46.875000
6920,-46.875000
6921,-46.875000
6922,-46.875000
6923,-46.875000
6924,-46.875000
6925,-46.875000
6926,-46.875000
6927,-46.875000
6928,-42.968750
6929,-42.968750
6930,-46.875000
6931,-42.968750
6932,-42.968750
6933,-42.968750
6934,-42.968750
6935,-42.968750
6936,-42.968750
6937,-42.968750
6938,-42.968750
6939,-42.968750
6940,-39.062500
6941,-39.062500
6942,-39.062500
6943,-39.062500
6944,-39.062500
6945,-39.062500
6946,-39.062500
6947,-39.062500
6948,-39.062500
6949,-39.062500
6950,-39.062500
6951,-39.062500
6952,-35.156250
6953,-35.156250
6954,-35.156250
6955,-35.156250
6956,-35.156250
6957,-35.156250
6958,-35.156250
6959,-35.156250
6960,-31.250000
6961,-31.250000
6962,-31.250000
6963,-31.250000
6964,-31.250000
6965,-31.250000
6966,-31.250000
6967,-31.250000
6968,-27.343750
6969,-27.343750
6970,-27.343750
6971,-27.343750
6972,-27.343750
6973,-27.343750
6974,-27.343750
6975,-27.343750
6976,-27.343750
6977,-23.437500
6978,-23.437500
6979,-23.437500
6980,-23.437500
6981,-23.437500
6982,-23.437500
6983,-23.437500
6984,-23.437500
6985,-23.437500
6986,-23.437500
6987,-23.437500
6988,-19.531250
6989,-19.531250
6990,-19.531250
6991,-19.531250
6992,-19.531250
6993,-19.531250
6994,-19.531250
6995,-19.531250
6996,-19.531250
6997,-15.625000
6998,-15.625000
6999,-15.625000
7000,-15.625000
7001,-15.625000
7002,-15.625000
7003,-15.625000
7004,-11.718750
7005,-11.718750
7006,-11.718750
7007,-11.718750
7008,-11.718750
7009,-11.718750
7010,-11.718750
7011,-11.718750
7012,-11.718750
7013,-11.718750
7014,-7.812500
7015,-7.812500
7016,-7.812500
7017,-7.812500
7018,-7.812500
7019,-7.812500
7020,-7.812500
7021,-7.812500
7022,-3.906250
7023,-3.906250
7024,-3.906250
7025,-3.906250
7026,-3.906250
7027,-3.906250
7028,-3.906250
7029,-3.906250
7030,-3.906250
7031,-3.906250
7032,0.000000
7033,0.000000
7034,0.000000
7035,0.000000
7036,0.000000
7037,0.000000
7038,0.000000
7039,3.906250
7040,0.000000
7041,3.906250
7042,3.906250
7043,3.906250
7044,3.906250
7045,3.906250
7046,3.906250
7047,3.906250
7048,3.906250
7049,3.906250
7050,7.812500
7051,7.812500
7052,7.812500
7053,7.812500
7054,7.812500
7055,7.812500
7056,7.812500
7057,7.812500
7058,7.812500
7059,7.812500
7060,11.718750
7061,7.812500
7062,11.718750
7063,11.718750
7064,11.718750
7065,11.718750
7066,11.718750
7067,11.718750
7068,11.718750
7069,11.718750
7070,15.625000
7071,15.625000
7072,15.625000
7073,15.625000
7074,15.625000
7075,15.625000
7076,15.625000
7077,15.625000
7078,15.625000
7079,15.625000
7080,19.531250
7081,19.531250
7082,19.531250
7083,19.531250
7084,19.531250
7085,19.531250
7086,19.531250
7087,19.531250
7088,19.531250
7089,19.531250
7090,19.531250
7091,23.437500
7092,23.437500
7093,23.437500
7094,23.437500
7095,23.437500
7096,23.437500
7097,23.437500
7098,23.437500
7099,23.437500
7100,23.437500
7101,23.437500
7102,23.437500
7103,27.343750
7104,27.343750
7105,27.343750
7106,27.343750
7107,27.343750
7108,27.343750
7109,27.343750
7110,27.343750
7111,27.343750
7112,27.343750
7113,31.250000
7114,27.343750
7115,31.250000
7116,31.250000
7117,31.250000
7118,31.250000
7119,31.250000
7120,31.250000
7121,31.250000
7122,31.250000
7123,31.250000
7124,31.250000
7125,31.250000
7126,35.156250
7127,35.156250
7128,31.250000
7129,35.156250
7130,35.156250
7131,35.156250
7132,35.156250
7133,35.156250
7134,35.156250
7135,35.156250
7136,35.156250
7137,35.156250
7138,35.156250
7139,35.156250
7140,35.156250
7141,39.062500
7142,39.062500
7143,39.062500
7144,39.062500
7145,39.062500
7146,39.062500
7147,39.062500
7148,39.062500
7149,39.062500
7150,42.968750
7151,39.062500
7152,39.062500
7153,39.062500
7154,42.968750
7155,42.968750
7156,42.968750
7157,42.968750
7158,42.968750
7159,42.968750
7160,42.968750
7161,42.968750
7162,42.968750
7163,42.968750
7164,42.968750
7165,42.968750
7166,42.968750
7167,42.968750
7168,42.968750
7169,42.968750
7170,42.968750
7171,42.968750
7172,42.968750
7173,46.875000
7174,42.968750
7175,46.875000
7176,46.875000
7177,46.875000
7178,46.875000
7179,46.875000
7180,46.875000
7181,46.875000
7182,46.875000
7183,46.875000
7184,46.875000
7185,46.875000
7186,46.875000
7187,46.875000
7188,46.875000
7189,46.875000
7190,46.875000
7191,46.875000
7192,46.875000
7193,46.875000
7194,46.875000
7195,50.781250
7196,50.781250
7197,46.875000
7198,46.875000
7199,46.875000
7200,50.781250
7201,50.781250
7202,50.781250
7203,50.781250
7204,50.781250
7205,50.781250
7206,50.781250
7207,50.781250
7208,50.781250
7209,50.781250
7210,50.781250
7211,50.781250
7212,50.781250
7213,50.781250
7214,50.781250
7215,50.781250
7216,50.781250
7217,50.781250
7218,50.781250
7219,50.781250
7220,50.781250
7221,50.781250
7222,50.781250
7223,50.781250
7224,50.781250
7225,50.781250
7226,50.781250
7227,50.781250
7228,50.781250
7229,50.781250
7230,50.781250
7231,50.781250
7232,50.781250
7233,50.781250
7234,50.781250
7235,50.781250
7236,54.687500
7237,54.687500
7238,50.781250
7239,50.781250
7240,50.781250
7241,54.687500
7242,54.687500
7243,54.687500
7244,50.781250
7245,54.687500
7246,54.687500
7247,54.687500
7248,54.687500
7249,54.687500
7250,54.687500
7251,54.687500
7252,50.781250
7253,54.687500
7254,50.781250
7255,54.687500
7256,50.781250
7257,54.687500
7258,54.687500
7259,54.687500
7260,50.781250
7261,54.687500
7262,54.687500
7263,54.687500
7264,50.781250
7265,54.687500
7266,54.687500
7267,54.687500
7268,50.781250
7269,54.687500
7270,54.687500
7271,54.687500
7272,54.687500
7273,50.781250
7274,54.687500
7275,50.781250
7276,50.781250
7277,54.687500
7278,54.687500
7279,50.781250
7280,50.781250
7281,50.781250
7282,50.781250
7283,50.781250
7284,50.781250
7285,50.781250
7286,50.781250
7287,50.781250
7288,50.781250
7289,50.781250
7290,50.781250
7291,50.781250
7292,50.781250
7293,50.781250
7294,50.781250
7295,50.781250
7296,50.781250
7297,50.781250
7298,50.781250
7299,50.781250
7300,50.781250
7301,50.781250
7302,50.781250
7303,50.781250
7304,50.781250
7305,50.781250
7306,50.781250
7307,46.875000
7308,46.875000
7309,50.781250
7310,50.781250
7311,46.875000
7312,46.875000
7313,46.875000
7314,46.875000
7315,46.875000
7316,46.875000
7317,46.875000
7318,50.781250
7319,46.875000
7320,46.875000
7321,46.875000
7322,46.875000
7323,46.875000
7324,46.875000
7325,46.875000
7326,46.875000
7327,46.875000
7328,46.875000
7329,46.875000
7330,46.875000
7331,46.875000
7332,46.875000
7333,42.968750
7334,42.968750
7335,42.968750
7336,42.968750
7337,42.968750
7338,42.968750
7339,42.968750
7340,42.968750
7341,42.968750
7342,42.968750
7343,42.968750
7344,42.968750
7345,42.968750
7346,42.968750
7347,42.968750
7348,42.968750
7349,42.968750
7350,39.062500
7351,42.968750
7352,39.062500
7353,42.968750
7354,39.062500
7355,39.062500
7356,39.062500
7357,39.062500
7358,39.062500
7359,39.062500
7360,39.062500
7361,39.062500
7362,39.062500
7363,39.062500
7364,35.156250
7365,39.062500
7366,35.156250
7367,35.156250
7368,35.156250
7369,35.156250
7370,35.156250
7371,35.156250
7372,35.156250
7373,35.156250
7374,35.156250
7375,35.156250
7376,35.156250
7377,35.156250
7378,35.156250
7379,35.156250
7380,35.156250
7381,31.250000
7382,31.250000
7383,31.250000
7384,31.250000
7385,31.250000
7386,31.250000
7387,31.250000
7388,31.250000
7389,31.250000
7390,31.250000
7391,31.250000
7392,31.250000
7393,31.250000
7394,31.250000
7395,27.343750
7396,27.343750
7397,27.343750
7398,27.343750
7399,27.343750
7400,27.343750
7401,27.343750
7402,27.343750
7403,27.343750
7404,27.343750
7405,27.343750
7406,23.437500
7407,23.437500
7408,23.437500
7409,23.437500
7410,23.437500
7411,23.437500
7412,23.437500
7413,23.437500
7414,23.437500
7415,23.437500
7416,23.437500
7417,23.437500
7418,19.531250
7419,19.531250
7420,19.531250
7421,19.531250
7422,19.531250
7423,19.531250
7424,19.531250
7425,19.531250
7426,19.531250
7427,19.531250
7428,15.625000
7429,19.531250
7430,15.625000
7431,15.625000
7432,15.625000
7433,15.625000
7434,15.625000
7435,15.625000
7436,15.625000
7437,15.625000
7438,15.625000
7439,11.718750
7440,11.718750
7441,11.718750
7442,11.718750
7443,11.718750
7444,11.718750
7445,11.718750
7446,11.718750
7447,11.718750
7448,11.718750
7449,7.812500
7450,7.812500
7451,7.812500
7452,7.812500
7453,7.812500
7454,7.812500
7455,7.812500
7456,7.812500
7457,7.812500
7458,7.812500
7459,7.812500
7460,7.812500
7461,3.906250
7462,3.906250
7463,3.906250
7464,3.906250
7465,3.906250
7466,3.906250
7467,3.906250
7468,3.906250
7469,0.000000
7470,0.000000
7471,3.906250
7472,0.000000
7473,0.000000
7474,0.000000
7475,0.000000
7476,0.000000
7477,0.000000
7478,0.000000
7479,-3.906250
7480,-3.906250
7481,-3.906250
7482,-3.906250
7483,-3.906250
7484,-3.906250
7485,-3.906250
7486,-3.906250
7487,-3.906250
7488,-7.812500
7489,-7.812500
7490,-7.812500
7491,-7.812500
7492,-7.812500
7493,-7.812500
7494,-7.812500
7495,-7.812500
7496,-7.812500
7497,-11.718750
7498,-11.718750
7499,-11.718750
7500,-11.718750
7501,-11.718750
7502,-11.718750
7503,-11.718750
7504,-11.718750
7505,-11.718750
7506,-11.718750
7507,-11.718750
7508,-11.718750
7509,-15.625000
7510,-15.625000
7511,-15.625000
7512,-15.625000
7513,-15.625000
7514,-15.625000
7515,-15.625000
7516,-15.625000
7517,-19.531250
7518,-19.531250
7519,-19.531250
7520,-19.531250
7521,-19.531250
7522,-19.531250
7523,-19.531250
7524,-19.531250
7525,-19.531250
7526,-19.531250
7527,-23.437500
7528,-23.437500
7529,-23.437500
7530,-23.437500
7531,-23.437500
7532,-23.437500
7533,-23.437500
7534,-23.437500
7535,-27.343750
7536,-27.343750
7537,-27.343750
7538,-27.343750
7539,-27.343750
7540,-27.343750
7541,-27.343750
7542,-27.343750
7543,-27.343750
7544,-27.343750
7545,-27.343750
7546,-31.250000
7547,-31.250000
7548,-31.250000
7549,-31.250000
7550,-31.250000
7551,-31.250000
7552,-31.250000
7553,-31.250000
7554,-35.156250
7555,-35.156250
7556,-35.156250
7557,-35.156250
7558,-35.156250
7559,-35.156250
7560,-35.156250
7561,-35.156250
7562,-35.156250
7563,-35.156250
7564,-35.156250
7565,-39.062500
7566,-39.062500
7567,-39.062500
7568,-39.062500
7569,-39.062500
7570,-39.062500
7571,-39.062500
7572,-39.062500
7573,-39.062500
7574,-42.968750
7575,-42.968750
7576,-42.968750
7577,-42.968750
7578,-42.968750
7579,-42.968750
7580,-42.968750
7581,-42.968750
7582,-42.968750
7583,-42.968750
7584,-42.968750
7585,-46.875000
7586,-46.875000
7587,-42.968750
7588,-46.875000
7589,-46.875000
7590,-46.875000
7591,-46.875000
7592,-46.875000
7593,-46.875000
7594,-50.781250
7595,-46.875000
7596,-50.781250
7597,-50.781250
7598,-50.781250
7599,-50.781250
7600,-50.781250
7601,-50.781250
7602,-50.781250
7603,-50.781250
7604,-50.781250
7605,-50.781250
7606,-50.781250
7607,-54.687500
7608,-54.687500
7609,-54.687500
7610,-54.687500
7611,-54.687500
7612,-54.687500
7613,-54.687500
7614,-54.687500
7615,-54.687500
7616,-58.593750
7617,-54.687500
7618,-58.593750
7619,-58.593750
7620,-58.593750
7621,-58.593750
7622,-58.593750
7623,-58.593750
7624,-58.593750
7625,-58.593750
7626,-58.593750
7627,-58.593750
7628,-58.593750
7629,-58.593750
7630,-62.500000
7631,-62.500000
7632,-62.500000
7633,-62.500000
7634,-62.500000
7635,-62.500000
7636,-62.500000
7637,-62.500000
7638,-62.500000
7639,-62.500000
7640,-62.500000
7641,-62.500000
7642,-62.500000
7643,-62.500000
7644,-66.406250
7645,-66.406250
7646,-66.406250
7647,-66.406250
7648,-66.406250
7649,-66.406250
7650,-66.406250
7651,-66.406250
7652,-66.406250
7653,-66.406250
7654,-66.406250
7655,-66.406250
7656,-66.406250
7657,-66.406250
7658,-70.312500
7659,-66.406250
7660,-70.312500
7661,-70.312500
7662,-70.312500
7663,-70.312500
7664,-70.312500
7665,-70.312500
7666,-70.312500
7667,-70.312500
7668,-70.312500
7669,-70.312500
7670,-70.312500
7671,-70.312500
7672,-70.312500
7673,-74.218750
7674,-70.312500
7675,-70.312500
7676,-70.312500
7677,-70.312500
7678,-74.218750
7679,-74.218750
7680,-74.218750
7681,-74.218750
7682,-74.218750
7683,-74.218750
7684,-74.218750
7685,-74.218750
7686,-74.218750
7687,-74.218750
7688,-74.218750
7689,-74.218750
7690,-74.218750
7691,-74.218750
7692,-74.218750
7693,-74.218750
7694,-74.218750
7695,-74.218750
7696,-74.218750
7697,-74.218750
7698,-78.125000
7699,-78.125000
7700,-78.125000
7701,-78.125000
7702,-78.125000
7703,-78.125000
7704,-78.125000
7705,-74.218750
7706,-78.125000
7707,-78.125000
7708,-78.125000
7709,-78.125000
7710,-78.125000
7711,-78.125000
7712,-78.125000
7713,-78.125000
7714,-78.125000
7715,-78.125000
7716,-78.125000
7717,-78.125000
7718,-78.125000
7719,-78.125000
7720,-78.125000
7721,-78.125000
7722,-78.125000
7723,-78.125000
7724,-78.125000
7725,-78.125000
7726,-78.125000
7727,-78.125000
7728,-78.125000
7729,-78.125000
7730,-78.125000
7731,-78.125000
7732,-82.031250
7733,-82.031250
7734,-78.125000
7735,-78.125000
7736,-78.125000
7737,-82.031250
7738,-82.031250
7739,-78.125000
7740,-82.031250
7741,-82.031250
7742,-82.031250
7743,-82.031250
7744,-82.031250
7745,-82.031250
7746,-82.031250
7747,-78.125000
7748,-82.031250
7749,-82.031250
7750,-82.031250
7751,-82.031250
7752,-82.031250
7753,-82.031250
7754,-82.031250
7755,-82.031250
7756,-82.031250
7757,-82.031250
7758,-82.031250
7759,-82.031250
7760,-82.031250
7761,-82.031250
7762,-82.031250
7763,-78.125000
7764,-78.125000
7765,-82.031250
7766,-82.031250
7767,-82.031250
7768,-82.031250
7769,-82.031250
7770,-82.031250
7771,-78.125000
7772,-82.031250
7773,-82.031250
7774,-78.125000
7775,-78.125000
7776,-78.125000
7777,-78.125000
7778,-78.125000
7779,-78.125000
7780,-78.125000
7781,-78.125000
7782,-78.125000
7783,-78.125000
7784,-78.125000
7785,-78.125000
7786,-78.125000
7787,-78.125000
7788,-78.125000
7789,-78.125000
7790,-78.125000
7791,-78.125000
7792,-78.125000
7793,-78.125000
7794,-78.125000
7795,-78.125000
7796,-78.125000
7797,-78.125000
7798,-78.125000
7799,-78.125000
7800,-78.125000
7801,-78.125000
7802,-78.125000
7803,-78.125000
7804,-74.218750
7805,-74.218750
7806,-74.218750
7807,-74.218750
7808,-74.218750
7809,-74.218750
7810,-74.218750
7811,-74.218750
7812,-74.218750
7813,-74.218750
7814,-74.218750
7815,-74.218750
7816,-74.218750
7817,-74.218750
7818,-74.218750
7819,-74.218750
7820,-74.218750
7821,-74.218750
7822,-74.218750
7823,-74.218750
7824,-74.218750
7825,-74.218750
7826,-74.218750
7827,-74.218750
7828,-74.218750
7829,-70.312500
7830,-70.312500
7831,-70.312500
7832,-70.312500
7833,-70.312500
7834,-70.312500
7835,-70.312500
7836,-70.312500
7837,-70.312500
7838,-70.312500
7839,-70.312500
7840,-70.312500
7841,-70.312500
7842,-70.312500
7843,-70.312500
7844,-70.312500
7845,-70.312500
7846,-70.312500
7847,-70.312500
7848,-66.406250
7849,-66.406250
7850,-66.406250
7851,-66.406250
7852,-66.406250
7853,-66.406250
7854,-66.406250
7855,-66.406250
7856,-66.406250
7857,-66.406250
7858,-66.406250
7859,-66.406250
7860,-66.406250
7861,-66.406250
7862,-66.406250
7863,-62.500000
7864,-62.500000
7865,-62.500000
7866,-62.500000
7867,-62.500000
7868,-62.500000
7869,-62.500000
7870,-62.500000
7871,-62.500000
7872,-62.500000
7873,-58.593750
7874,-58.593750
7875,-62.500000
7876,-58.593750
7877,-58.593750
7878,-58.593750
7879,-58.593750
7880,-58.593750
7881,-58.593750
7882,-58.593750
7883,-58.593750
7884,-58.593750
7885,-58.593750
7886,-58.593750
7887,-54.687500
7888,-54.687500
7889,-54.687500
7890,-54.687500
7891,-54.687500
7892,-54.687500
7893,-54.687500
7894,-54.687500
7895,-54.687500
7896,-54.687500
7897,-54.687500
7898,-50.781250
7899,-50.781250
7900,-50.781250
7901,-50.781250
7902,-50.781250
7903,-50.781250
7904,-50.781250
7905,-50.781250
7906,-50.781250
7907,-46.875000
7908,-46.875000
7909,-46.875000
7910,-46.875000
7911,-46.875000
7912,-46.875000
7913,-46.875000
7914,-46.875000
7915,-46.875000
7916,-46.875000
7917,-42.968750
7918,-46.875000
7919,-42.968750
7920,-42.968750
7921,-42.968750
7922,-42.968750
7923,-42.968750
7924,-42.968750
7925,-42.968750
7926,-42.968750
7927,-39.062500
7928,-42.968750
7929,-39.062500
7930,-39.062500
7931,-39.062500
7932,-39.062500
7933,-39.062500
7934,-39.062500
7935,-39.062500
7936,-35.156250
7937,-39.062500
7938,-39.062500
7939,-35.156250
7940,-35.156250
7941,-35.156250
7942,-35.156250
7943,-35.156250
7944,-35.156250
7945,-35.156250
7946,-35.156250
7947,-31.250000
7948,-31.250000
7949,-31.250000
7950,-31.250000
7951,-31.250000
7952,-31.250000
7953,-31.250000
7954,-31.250000
7955,-31.250000
7956,-31.250000
7957,-27.343750
7958,-31.250000
7959,-27.343750
7960,-27.343750
7961,-27.343750
7962,-27.343750
7963,-27.343750
7964,-27.343750
7965,-27.343750
7966,-23.437500
7967,-23.437500
7968,-27.343750
7969,-23.437500
7970,-23.437500
7971,-23.437500
7972,-23.437500
7973,-23.437500
7974,-23.437500
7975,-19.531250
7976,-19.531250
7977,-19.531250
7978,-19.531250
7979,-19.531250
7980,-19.531250
7981,-19.531250
7982,-19.531250
7983,-19.531250
7984,-15.625000
7985,-15.625000
7986,-15.625000
7987,-15.625000
7988,-15.625000
7989,-15.625000
7990,-15.625000
7991,-15.625000
7992,-15.625000
7993,-11.718750
7994,-15.625000
7995,-11.718750
7996,-11.718750
7997,-11.718750
7998,-11.718750
7999,-11.718750
8000,-11.718750
8001,-11.718750
8002,-7.812500
8003,-7.812500
8004,-7.812500
8005,-7.812500
8006,-7.812500
8007,-7.812500
8008,-7.812500
8009,-7.812500
8010,-7.812500
8011,-7.812500
8012,-3.906250
8013,-3.906250
8014,-3.906250
8015,-3.906250
8016,-3.906250
8017,-3.906250
8018,-3.906250
8019,-3.906250
8020,-3.906250
8021,-3.906250
8022,0.000000
8023,0.000000
8024,0.000000
8025,0.000000
8026,0.000000
8027,0.000000
8028,0.000000
8029,0.000000
8030,0.000000
8031,3.906250
8032,3.906250
8033,3.906250
8034,3.906250
8035,3.906250
8036,3.906250
8037,3.906250
8038,3.906250
8039,3.906250
8040,3.906250
8041,7.812500
8042,7.812500
8043,7.812500
8044,7.812500
8045,7.812500
8046,7.812500
8047,7.812500
8048,7.812500
8049,7.812500
8050,11.718750
8051,11.718750
8052,11.718750
8053,11.718750
8054,11.718750
8055,11.718750
8056,11.718750
8057,11.718750
8058,11.718750
8059,11.718750
8060,15.625000
8061,15.625000
8062,15.625000
8063,15.625000
8064,15.625000
8065,15.625000
8066,15.625000
8067,15.625000
8068,15.625000
8069,15.625000
8070,19.531250
8071,19.531250
8072,19.531250
8073,19.531250
8074,19.531250
8075,19.531250
8076,19.531250
8077,19.531250
8078,19.531250
8079,19.531250
8080,19.531250
8081,23.437500
8082,23.437500
8083,23.437500
8084,23.437500
8085,23.437500
8086,23.437500
8087,23.437500
8088,23.437500
8089,23.437500
8090,23.437500
8091,23.437500
8092,27.343750
8093,27.343750
8094,27.343750
8095,27.343750
8096,27.343750
8097,27.343750
8098,27.343750
8099,27.343750
8100,27.343750
8101,27.343750
8102,27.343750
8103,31.250000
8104,27.343750
8105,31.250000
8106,35.156250
8107,31.250000
8108,31.250000
8109,31.250000
8110,35.156250
8111,31.250000
8112,31.250000
8113,31.250000
8114,31.250000
8115,31.250000
8116,31.250000
8117,35.156250
8118,35.156250
8119,35.156250
8120,35.156250
8121,35.156250
8122,35.156250
8123,35.156250
8124,35.156250
8125,35.156250
8126,35.156250
8127,35.156250
8128,35.156250
8129,39.062500
8130,35.156250
8131,39.062500
8132,39.062500
8133,39.062500
8134,39.062500
8135,39.062500
8136,39.062500
8137,39.062500
8138,39.062500
8139,39.062500
8140,39.062500
8141,39.062500
8142,39.062500
8143,39.062500
8144,39.062500
8145,39.062500
8146,42.968750
8147,39.062500
8148,42.968750
8149,42.968750
8150,42.968750
8151,42.968750
8152,42.968750
8153,42.968750
8154,42.968750
8155,42.968750
8156,42.968750
8157,42.968750
8158,42.968750
8159,42.968750
8160,42.968750
8161,46.875000
8162,42.968750
8163,46.875000
8164,46.875000
8165,46.875000
8166,46.875000
8167,46.875000
8168,46.875000
8169,46.875000
8170,46.875000
8171,46.875000
8172,46.875000
8173,46.875000
8174,46.875000
8175,46.875000
8176,46.875000
8177,46.875000
8178,46.875000
8179,46.875000
8180,46.875000
8181,46.875000
8182,46.875000
8183,46.875000
8184,50.781250
8185,50.781250
8186,50.781250
8187,50.781250
8188,50.781250
8189,50.781250
8190,50.781250
8191,50.781250
8192,50.781250
8193,50.781250
8194,50.781250
8195,50.781250
8196,50.781250
8197,50.781250
8198,50.781250
8199,50.781250
8200,50.781250
8201,50.781250
8202,50.781250
8203,50.781250
8204,50.781250
8205,50.781250
8206,50.781250
8207,50.781250
8208,50.781250
8209,50.781250
8210,50.781250
8211,50.781250
8212,50.781250
8213,50.781250
8214,50.781250
8215,50.781250
8216,50.781250
8217,54.687500
8218,50.781250
8219,50.781250
8220,50.781250
8221,54.687500
8222,50.781250
8223,50.781250
8224,50.781250
8225,50.781250
8226,54.687500
8227,50.781250
8228,50.781250
8229,50.781250
8230,54.687500
8231,50.781250
8232,50.781250
8233,54.687500
8234,50.781250
8235,54.687500
8236,50.781250
8237,50.781250
8238,50.781250
8239,50.781250
8240,50.781250
8241,54.687500
8242,54.687500
8243,50.781250
8244,50.781250
8245,54.687500
8246,54.687500
8247,50.781250
8248,54.687500
8249,50.781250
8250,50.781250
8251,50.781250
8252,50.781250
8253,50.781250
8254,50.781250
8255,50.781250
8256,50.781250
8257,54.687500
8258,50.781250
8259,50.781250
8260,50.781250
8261,50.781250
8262,54.687500
8263,50.781250
8264,50.781250
8265,50.781250
8266,50.781250
8267,50.781250
8268,50.781250
8269,50.781250
8270,50.781250
8271,50.781250
8272,50.781250
8273,50.781250
8274,50.781250
8275,50.781250
8276,50.781250
8277,50.781250
8278,50.781250
8279,50.781250
8280,50.781250
8281,50.781250
8282,50.781250
8283,50.781250
8284,50.781250
8285,50.781250
8286,50.781250
8287,50.781250
8288,50.781250
8289,50.781250
8290,50.781250
8291,50.781250
8292,50.781250
8293,50.781250
8294,50.781250
8295,50.781250
8296,50.781250
8297,46.875000
8298,50.781250
8299,46.875000
8300,46.875000
8301,50.781250
8302,50.781250
8303,50.781250
8304,50.781250
8305,46.875000
8306,46.875000
8307,50.781250
8308,46.875000
8309,46.875000
8310,46.875000
8311,46.875000
8312,46.875000
8313,46.875000
8314,46.875000
8315,46.875000
8316,46.875000
8317,46.875000
8318,46.875000
8319,46.875000
8320,46.875000
8321,46.875000
8322,46.875000
8323,46.875000
8324,42.968750
8325,46.875000
8326,42.968750
8327,42.968750
8328,42.968750
8329,42.968750
8330,42.968750
8331,42.968750
8332,42.968750
8333,42.968750
8334,42.968750
8335,42.968750
8336,42.968750
8337,39.062500
8338,42.968750
8339,42.968750
8340,42.968750
8341,42.968750
8342,39.062500
8343,39.062500
8344,39.062500
8345,39.062500
8346,39.062500
8347,39.062500
8348,39.062500
8349,39.062500
8350,39.062500
8351,39.062500
8352,39.062500
8353,39.062500
8354,39.062500
8355,39.062500
8356,39.062500
8357,39.062500
8358,35.156250
8359,35.156250
8360,35.156250
8361,35.156250
8362,35.156250
8363,35.156250
8364,35.156250
8365,35.156250
8366,35.156250
8367,35.156250
8368,35.156250
8369,35.156250
8370,31.250000
8371,35.156250
8372,31.250000
8373,31.250000
8374,31.250000
8375,35.156250
8376,31.250000
8377,31.250000
8378,31.250000
8379,31.250000
8380,27.343750
8381,31.250000
8382,31.250000
8383,27.343750
8384,27.343750
8385,27.343750
8386,27.343750
8387,27.343750
8388,27.343750
8389,27.343750
8390,27.343750
8391,27.343750
8392,27.343750
8393,27.343750
8394,27.343750
8395,23.437500
8396,23.437500
8397,23.437500
8398,23.437500
8399,23.437500
8400,23.437500
8401,23.437500
8402,23.437500
8403,23.437500
8404,23.437500
8405,23.437500
8406,19.531250
8407,23.437500
8408,19.531250
8409,19.531250
8410,19.531250
8411,19.531250
8412,19.531250
8413,19.531250
8414,19.531250
8415,19.531250
8416,19.531250
8417,19.531250
8418,15.625000
8419,15.625000
8420,15.625000
8421,15.625000
8422,15.625000
8423,15.625000
8424,15.625000
8425,15.625000
8426,11.718750
8427,15.625000
8428,11.718750
8429,11.718750
8430,11.718750
8431,11.718750
8432,11.718750
8433,11.718750
8434,7.812500
8435,11.718750
8436,11.718750
8437,7.812500
8438,15.625000
8439,7.812500
8440,7.812500
8441,11.718750
8442,7.812500
8443,7.812500
8444,7.812500
8445,7.812500
8446,7.812500
8447,7.812500
8448,7.812500
8449,7.812500
8450,3.906250
8451,3.906250
8452,3.906250
8453,3.906250
8454,3.906250
8455,3.906250
8456,3.906250
8457,3.906250
8458,3.906250
8459,3.906250
8460,0.000000
8461,0.000000
8462,0.000000
8463,0.000000
8464,0.000000
8465,0.000000
8466,0.000000
8467,0.000000
8468,0.000000
8469,-3.906250
8470,-3.906250
8471,-3.906250
8472,-3.906250
8473,-3.906250
8474,-3.906250
8475,-3.906250
8476,-3.906250
8477,-3.906250
8478,-7.812500
8479,-7.812500
8480,-7.812500
8481,-7.812500
8482,-7.812500
8483,-7.812500
8484,-7.812500
8485,-7.812500
8486,-11.718750
8487,-11.718750
8488,-11.718750
8489,-11.718750
8490,-11.718750
8491,-11.718750
8492,-11.718750
8493,-11.718750
8494,-11.718750
8495,-11.718750
8496,-15.625000
8497,-15.625000
8498,-15.625000
8499,-15.625000
8500,-15.625000
8501,-15.625000
8502,-15.625000
8503,-15.625000
8504,-19.531250
8505,-15.625000
8506,-19.531250
8507,-19.531250
8508,-19.531250
8509,-19.531250
8510,-19.531250
8511,-19.531250
8512,-19.531250
8513,-19.531250
8514,-19.531250
8515,-23.437500
8516,-23.437500
8517,-23.437500
8518,-23.437500
8519,-23.437500
8520,-23.437500
8521,-23.437500
8522,-23.437500
8523,-27.343750
8524,-23.437500
8525,-27.343750
8526,-27.343750
8527,-27.343750
8528,-27.343750
8529,-27.343750
8530,-27.343750
8531,-27.343750
8532,-27.343750
8533,-27.343750
8534,-31.250000
8535,-31.250000
8536,-31.250000
8537,-31.250000
8538,-31.250000
8539,-31.250000
8540,-31.250000
8541,-31.250000
8542,-35.156250
8543,-35.156250
8544,-31.250000
8545,-35.156250
8546,-35.156250
8547,-35.156250
8548,-35.156250
8549,-35.156250
8550,-35.156250
8551,-35.156250
8552,-35.156250
8553,-35.156250
8554,-39.062500
8555,-39.062500
8556,-39.062500
8557,-39.062500
8558,-39.062500
8559,-39.062500
8560,-39.062500
8561,-39.062500
8562,-42.968750
8563,-42.968750
8564,-42.968750
8565,-42.968750
8566,-42.968750
8567,-42.968750
8568,-42.968750
8569,-42.968750
8570,-42.968750
8571,-42.968750
8572,-42.968750
8573,-42.968750
8574,-46.875000
8575,-46.875000
8576,-46.875000
8577,-46.875000
8578,-46.875000
8579,-46.875000
8580,-46.875000
8581,-46.875000
8582,-46.875000
8583,-46.875000
8584,-46.875000
8585,-50.781250
8586,-50.781250
8587,-50.781250
8588,-50.781250
8589,-50.781250
8590,-50.781250
8591,-50.781250
8592,-50.781250
8593,-50.781250
8594,-50.781250
8595,-50.781250
8596,-54.687500
8597,-54.687500
8598,-54.687500
8599,-54.687500
8600,-54.687500
8601,-54.687500
8602,-54.687500
8603,-54.687500
8604,-54.687500
8605,-54.687500
8606,-54.687500
8607,-54.687500
8608,-58.593750
8609,-58.593750
8610,-58.593750
8611,-58.593750
8612,-58.593750
8613,-58.593750
8614,-58.593750
8615,-58.593750
8616,-58.593750
8617,-58.593750
8618,-58.593750
8619,-62.500000
8620,-58.593750
8621,-62.500000
8622,-62.500000
8623,-62.500000
8624,-62.500000
8625,-62.500000
8626,-62.500000
8627,-62.500000
8628,-62.500000
8629,-62.500000
8630,-66.406250
8631,-62.500000
8632,-66.406250
8633,-66.406250
8634,-66.406250
8635,-66.406250
8636,-66.406250
8637,-66.406250
8638,-66.406250
8639,-66.406250
8640,-66.406250
8641,-66.406250
8642,-66.406250
8643,-66.406250
8644,-66.406250
8645,-66.406250
8646,-70.312500
8647,-70.312500
8648,-70.312500
8649,-70.312500
8650,-70.312500
8651,-70.312500
8652,-70.312500
8653,-70.312500
8654,-70.312500
8655,-70.312500
8656,-70.312500
8657,-70.312500
8658,-70.312500
8659,-70.312500
8660,-70.312500
8661,-74.218750
8662,-70.312500
8663,-74.218750
8664,-74.218750
8665,-74.218750
8666,-74.218750
8667,-74.218750
8668,-74.218750
8669,-74.218750
8670,-74.218750
8671,-74.218750
8672,-74.218750
8673,-74.218750
8674,-74.218750
8675,-74.218750
8676,-74.218750
8677,-74.218750
8678,-74.218750
8679,-74.218750
8680,-74.218750
8681,-74.218750
8682,-74.218750
8683,-74.218750
8684,-74.218750
8685,-74.218750
8686,-74.218750
8687,-74.218750
8688,-78.125000
8689,-78.125000
8690,-78.125000
8691,-78.125000
8692,-78.125000
8693,-78.125000
8694,-78.125000
8695,-78.125000
8696,-78.125000
8697,-78.125000
8698,-78.125000
8699,-78.125000
8700,-78.125000
8701,-78.125000
8702,-78.125000
8703,-78.125000
8704,-78.125000
8705,-78.125000
8706,-78.125000
8707,-78.125000
8708,-78.125000
8709,-78.125000
8710,-78.125000
8711,-78.125000
8712,-78.125000
8713,-78.125000
8714,-78.125000
8715,-78.125000
8716,-78.125000
8717,-78.125000
8718,-82.031250
8719,-78.125000
8720,-78.125000
8721,-78.125000
8722,-78.125000
8723,-78.125000
8724,-82.031250
8725,-78.125000
8726,-78.125000
8727,-82.031250
8728,-82.031250
8729,-78.125000
8730,-82.031250
8731,-82.031250
8732,-82.031250
8733,-82.031250
8734,-82.031250
8735,-82.031250
8736,-82.031250
8737,-78.125000
8738,-82.031250
8739,-82.031250
8740,-82.031250
8741,-82.031250
8742,-82.031250
8743,-82.031250
8744,-82.031250
8745,-82.031250
8746,-82.031250
8747,-82.031250
8748,-82.031250
8749,-82.031250
8750,-82.031250
8751,-78.125000
8752,-82.031250
8753,-82.031250
8754,-82.031250
8755,-78.125000
8756,-82.031250
8757,-82.031250
8758,-82.031250
8759,-82.031250
8760,-78.125000
8761,-78.125000
8762,-78.125000
8763,-78.125000
8764,-82.031250
8765,-82.031250
8766,-82.031250
8767,-82.031250
8768,-78.125000
8769,-78.125000
8770,-78.125000
8771,-78.125000
8772,-78.125000
8773,-78.125000
8774,-78.125000
8775,-78.125000
8776,-78.125000
8777,-78.125000
8778,-78.125000
8779,-78.125000
8780,-78.125000
8781,-78.125000
8782,-78.125000
8783,-78.125000
8784,-78.125000
8785,-78.125000
8786,-78.125000
8787,-78.125000
8788,-78.125000
8789,-78.125000
8790,-78.125000
8791,-78.125000
8792,-78.125000
8793,-78.125000
8794,-78.125000
8795,-78.125000
8796,-78.125000
8797,-74.218750
8798,-74.218750
8799,-78.125000
8800,-78.125000
8801,-74.218750
8802,-78.125000
8803,-74.218750
8804,-74.218750
8805,-74.218750
8806,-74.218750
8807,-74.218750
8808,-74.218750
8809,-74.218750
8810,-74.218750
8811,-74.218750
8812,-74.218750
8813,-74.218750
8814,-74.218750
8815,-74.218750
8816,-74.218750
8817,-74.218750
8818,-74.218750
8819,-74.218750
8820,-70.312500
8821,-70.312500
8822,-70.312500
8823,-70.312500
8824,-70.312500
8825,-70.312500
8826,-70.312500
8827,-70.312500
8828,-70.312500
8829,-70.312500
8830,-70.312500
8831,-70.312500
8832,-70.312500
8833,-70.312500
8834,-66.406250
8835,-66.406250
8836,-70.312500
8837,-66.406250
8838,-66.406250
8839,-66.406250
8840,-66.406250
8841,-66.406250
8842,-66.406250
8843,-66.406250
8844,-66.406250
8845,-66.406250
8846,-66.406250
8847,-66.406250
8848,-66.406250
8849,-62.500000
8850,-66.406250
8851,-62.500000
8852,-62.500000
8853,-62.500000
8854,-62.500000
8855,-62.500000
8856,-62.500000
8857,-62.500000
8858,-62.500000
8859,-62.500000
8860,-62.500000
8861,-62.500000
8862,-58.593750
8863,-58.593750
8864,-58.593750
8865,-58.593750
8866,-58.593750
8867,-58.593750
8868,-58.593750
8869,-58.593750
8870,-58.593750
8871,-58.593750
8872,-58.593750
8873,-58.593750
8874,-58.593750
8875,-54.687500
8876,-54.687500
8877,-54.687500
8878,-54.687500
8879,-54.687500
8880,-54.687500
8881,-54.687500
8882,-54.687500
8883,-54.687500
8884,-54.687500
8885,-54.687500
8886,-54.687500
8887,-50.781250
8888,-50.781250
8889,-50.781250
8890,-50.781250
8891,-50.781250
8892,-50.781250
8893,-50.781250
8894,-50.781250
8895,-50.781250
8896,-50.781250
8897,-46.875000
8898,-46.875000
8899,-46.875000
8900,-46.875000
8901,-46.875000
8902,-46.875000
8903,-46.875000
8904,-46.875000
8905,-46.875000
8906,-46.875000
8907,-42.968750
8908,-42.968750
8909,-42.968750
8910,-42.968750
8911,-42.968750
8912,-42.968750
8913,-42.968750
8914,-42.968750
8915,-42.968750
8916,-42.968750
8917,-42.968750
8918,-39.062500
8919,-39.062500
8920,-39.062500
8921,-39.062500
8922,-39.062500
8923,-39.062500
8924,-39.062500
8925,-39.062500
8926,-35.156250
8927,-39.062500
8928,-35.156250
8929,-35.156250
8930,-35.156250
8931,-35.156250
8932,-35.156250
8933,-35.156250
8934,-35.156250
8935,-35.156250
8936,-35.156250
8937,-31.250000
8938,-31.250000
8939,-31.250000
8940,-31.250000
8941,-31.250000
8942,-31.250000
8943,-31.250000
8944,-31.250000
8945,-31.250000
8946,-31.250000
8947,-27.343750
8948,-27.343750
8949,-27.343750
8950,-27.343750
8951,-27.343750
8952,-27.343750
8953,-27.343750
8954,-27.343750
8955,-23.437500
8956,-23.437500
8957,-23.437500
8958,-23.437500
8959,-23.437500
8960,-23.437500
8961,-23.437500
8962,-23.437500
8963,-19.531250
8964,-19.531250
8965,-19.531250
8966,-19.531250
8967,-19.531250
8968,-19.531250
8969,-19.531250
8970,-19.531250
8971,-19.531250
8972,-15.625000
8973,-15.625000
8974,-15.625000
8975,-15.625000
8976,-15.625000
8977,-15.625000
8978,-15.625000
8979,-15.625000
8980,-15.625000
8981,-11.718750
8982,-11.718750
8983,-11.718750
8984,-11.718750
8985,-11.718750
8986,-11.718750
8987,-11.718750
8988,-11.718750
8989,-11.718750
8990,-11.718750
8991,-7.812500
8992,-7.812500
8993,-7.812500
8994,-7.812500
8995,-7.812500
8996,-7.812500
8997,-7.812500
8998,-7.812500
8999,-7.812500
9000,-7.812500
9001,-3.906250
9002,-3.906250
9003,-3.906250
9004,-3.906250
9005,-3.906250
9006,-3.906250
9007,0.000000
9008,-3.906250
9009,-3.906250
9010,0.000000
9011,0.000000
9012,0.000000
9013,0.000000
9014,0.000000
9015,0.000000
9016,0.000000
9017,0.000000
9018,0.000000
9019,3.906250
9020,3.906250
9021,3.906250
9022,3.906250
9023,3.906250
9024,3.906250
9025,3.906250
9026,3.906250
9027,3.906250
9028,7.812500
9029,7.812500
9030,7.812500
9031,7.812500
9032,7.812500
9033,7.812500
9034,7.812500
9035,7.812500
9036,7.812500
9037,7.812500
9038,11.718750
9039,11.718750
9040,11.718750
9041,11.718750
9042,11.718750
9043,11.718750
9044,11.718750
9045,11.718750
9046,11.718750
9047,11.718750
9048,15.625000
9049,15.625000
9050,15.625000
9051,15.625000
9052,15.625000
9053,15.625000
9054,15.625000
9055,15.625000
9056,15.625000
9057,15.625000
9058,15.625000
9059,19.531250
9060,19.531250
9061,19.531250
9062,19.531250
9063,19.531250
9064,19.531250
9065,19.531250
9066,23.437500
9067,19.531250
9068,19.531250
9069,23.437500
9070,23.437500
9071,23.437500
9072,23.437500
9073,23.437500
9074,23.437500
9075,23.437500
9076,23.437500
9077,23.437500
9078,27.343750
9079,27.343750
9080,27.343750
9081,27.343750
9082,27.343750
9083,27.343750
9084,27.343750
9085,27.343750
9086,27.343750
9087,27.343750
9088,27.343750
9089,31.250000
9090,31.250000
9091,31.250000
9092,31.250000
9093,31.250000
9094,31.250000
9095,31.250000
9096,31.250000
9097,31.250000
9098,31.250000
9099,31.250000
9100,35.156250
9101,31.250000
9102,31.250000
9103,35.156250
9104,35.156250
9105,35.156250
9106,35.156250
9107,35.156250
9108,35.156250
9109,35.156250
9110,35.156250
9111,35.156250
9112,35.156250
9113,35.156250
9114,35.156250
9115,39.062500
9116,39.062500
9117,39.062500
9118,39.062500
9119,39.062500
9120,39.062500
9121,39.062500
9122,39.062500
9123,39.062500
9124,39.062500
9125,39.062500
9126,39.062500
9127,39.062500
9128,39.062500
9129,39.062500
9130,39.062500
9131,39.062500
9132,42.968750
9133,39.062500
9134,42.968750
9135,39.062500
9136,42.968750
9137,42.968750
9138,42.968750
9139,42.968750
9140,42.968750
9141,42.968750
9142,42.968750
9143,42.968750
9144,42.968750
9145,42.968750
9146,42.968750
9147,42.968750
9148,42.968750
9149,42.968750
9150,42.968750
9151,42.968750
9152,46.875000
9153,46.875000
9154,46.875000
9155,46.875000
9156,46.875000
9157,46.875000
9158,46.875000
9159,46.875000
9160,46.875000
9161,46.875000
9162,46.875000
9163,46.875000
9164,46.875000
9165,46.875000
9166,46.875000
9167,46.875000
9168,46.875000
9169,46.875000
9170,46.875000
9171,46.875000
9172,46.875000
9173,46.875000
9174,46.875000
9175,46.875000
9176,46.875000
9177,46.875000
9178,50.781250
9179,50.781250
9180,50.781250
9181,50.781250
9182,50.781250
9183,50.781250
9184,50.781250
9185,50.781250
9186,50.781250
9187,50.781250
9188,50.781250
9189,50.781250
9190,50.781250
9191,50.781250
9192,50.781250
9193,50.781250
9194,50.781250
9195,50.781250
9196,50.781250
9197,50.781250
9198,50.781250
9199,50.781250
9200,50.781250
9201,50.781250
9202,50.781250
9203,50.781250
9204,50.781250
9205,50.781250
9206,50.781250
9207,50.781250
9208,50.781250
9209,50.781250
9210,50.781250
9211,54.687500
9212,54.687500
9213,50.781250
9214,50.781250
9215,54.687500
9216,50.781250
9217,54.687500
9218,54.687500
9219,54.687500
9220,54.687500
9221,54.687500
9222,54.687500
9223,54.687500
9224,54.687500
9225,54.687500
9226,54.687500
9227,54.687500
9228,54.687500
9229,54.687500
9230,50.781250
9231,50.781250
9232,50.781250
9233,54.687500
9234,50.781250
9235,54.687500
9236,54.687500
9237,54.687500
9238,54.687500
9239,54.687500
9240,54.687500
9241,54.687500
9242,54.687500
9243,50.781250
9244,50.781250
9245,54.687500
9246,50.781250
9247,50.781250
9248,50.781250
9249,54.687500
9250,50.781250
9251,50.781250
9252,50.781250
9253,50.781250
9254,50.781250
9255,50.781250
9256,50.781250
9257,50.781250
9258,50.781250
9259,50.781250
9260,50.781250
9261,50.781250
9262,50.781250
9263,50.781250
9264,50.781250
9265,50.781250
9266,50.781250
9267,50.781250
9268,50.781250
9269,50.781250
9270,50.781250
9271,50.781250
9272,50.781250
9273,50.781250
9274,50.781250
9275,50.781250
9276,50.781250
9277,50.781250
9278,50.781250
9279,50.781250
9280,50.781250
9281,50.781250
9282,50.781250
9283,50.781250
9284,50.781250
9285,50.781250
9286,46.875000
9287,46.875000
9288,46.875000
9289,46.875000
9290,46.875000
9291,46.875000
9292,46.875000
9293,46.875000
9294,46.875000
9295,46.875000
9296,46.875000
9297,46.875000
9298,46.875000
9299,46.875000
9300,46.875000
9301,46.875000
9302,46.875000
9303,46.875000
9304,46.875000
9305,46.875000
9306,42.968750
9307,46.875000
9308,46.875000
9309,46.875000
9310,42.968750
9311,42.968750
9312,46.875000
9313,42.968750
9314,42.968750
9315,42.968750
9316,42.968750
9317,42.968750
9318,42.968750
9319,42.968750
9320,42.968750
9321,42.968750
9322,42.968750
9323,42.968750
9324,42.968750
9325,42.968750
9326,42.968750
9327,42.968750
9328,39.062500
9329,39.062500
9330,39.062500
9331,39.062500
9332,39.062500
9333,39.062500
9334,39.062500
9335,39.062500
9336,39.062500
9337,39.062500
9338,39.062500
9339,39.062500
9340,39.062500
9341,39.062500
9342,39.062500
9343,39.062500
9344,35.156250
9345,39.062500
9346,35.156250
9347,39.062500
9348,35.156250
9349,35.156250
9350,35.156250
9351,35.156250
9352,35.156250
9353,35.156250
9354,35.156250
9355,35.156250
9356,35.156250
9357,35.156250
9358,35.156250
9359,35.156250
9360,31.250000
9361,31.250000
9362,31.250000
9363,31.250000
9364,31.250000
9365,31.250000
9366,31.250000
9367,31.250000
9368,31.250000
9369,31.250000
9370,27.343750
9371,27.343750
9372,27.343750
9373,27.343750
9374,27.343750
9375,27.343750
9376,27.343750
9377,27.343750
9378,27.343750
9379,27.343750
9380,27.343750
9381,23.437500
9382,23.437500
9383,23.437500
9384,27.343750
9385,27.343750
9386,23.437500
9387,23.437500
9388,23.437500
9389,23.437500
9390,23.437500
9391,23.437500
9392,23.437500
9393,19.531250
9394,23.437500
9395,19.531250
9396,19.531250
9397,19.531250
9398,19.531250
9399,19.531250
9400,19.531250
9401,19.531250
9402,19.531250
9403,19.531250
9404,19.531250
9405,19.531250
9406,15.625000
9407,15.625000
9408,15.625000
9409,15.625000
9410,15.625000
9411,15.625000
9412,15.625000
9413,15.625000
9414,15.625000
9415,15.625000
9416,15.625000
9417,11.718750
9418,11.718750
9419,11.718750
9420,11.718750
9421,11.718750
9422,11.718750
9423,11.718750
9424,11.718750
9425,11.718750
9426,11.718750
9427,11.718750
9428,7.812500
9429,7.812500
9430,7.812500
9431,7.812500
9432,7.812500
9433,7.812500
9434,7.812500
9435,7.812500
9436,7.812500
9437,3.906250
9438,3.906250
9439,3.906250
9440,3.906250
9441,3.906250
9442,3.906250
9443,3.906250
9444,3.906250
9445,3.906250
9446,3.906250
9447,0.000000
9448,0.000000
9449,0.000000
9450,0.000000
9451,0.000000
9452,0.000000
9453,0.000000
9454,0.000000
9455,0.000000
9456,0.000000
9457,-3.906250
9458,-3.906250
9459,-3.906250
9460,-3.906250
9461,-3.906250
9462,-3.906250
9463,-3.906250
9464,-3.906250
9465,-3.906250
9466,-7.812500
9467,-7.812500
9468,-7.812500
9469,-7.812500
9470,-7.812500
9471,-7.812500
9472,-7.812500
9473,-7.812500
9474,-7.812500
9475,-7.812500
9476,-11.718750
9477,-11.718750
9478,-11.718750
9479,-11.718750
9480,-11.718750
9481,-11.718750
9482,-11.718750
9483,-11.718750
9484,-11.718750
9485,-15.625000
9486,-15.625000
9487,-15.625000
9488,-15.625000
9489,-15.625000
9490,-15.625000
9491,-15.625000
9492,-15.625000
9493,-15.625000
9494,-15.625000
9495,-15.625000
9496,-19.531250
9497,-19.531250
9498,-19.531250
9499,-19.531250
9500,-19.531250
9501,-19.531250
9502,-19.531250
9503,-19.531250
9504,-23.437500
9505,-23.437500
9506,-23.437500
9507,-23.437500
9508,-23.437500
9509,-23.437500
9510,-23.437500
9511,-23.437500
9512,-23.437500
9513,-23.437500
9514,-27.343750
9515,-27.343750
9516,-27.343750
9517,-27.343750
9518,-27.343750
9519,-27.343750
9520,-27.343750
9521,-27.343750
9522,-27.343750
9523,-31.250000
9524,-31.250000
9525,-31.250000
9526,-31.250000
9527,-31.250000
9528,-31.250000
9529,-31.250000
9530,-31.250000
9531,-35.156250
9532,-35.156250
9533,-35.156250
9534,-35.156250
9535,-35.156250
9536,-35.156250
9537,-35.156250
9538,-35.156250
9539,-35.156250
9540,-35.156250
9541,-35.156250
9542,-39.062500
9543,-39.062500
9544,-39.062500
9545,-39.062500
9546,-39.062500
9547,-39.062500
9548,-39.062500
9549,-42.968750
9550,-39.062500
9551,-39.062500
9552,-42.968750
9553,-42.968750
9554,-42.968750
9555,-42.968750
9556,-42.968750
9557,-42.968750
9558,-42.968750
9559,-42.968750
9560,-42.968750
9561,-42.968750
9562,-46.875000
9563,-46.875000
9564,-46.875000
9565,-46.875000
9566,-46.875000
9567,-46.875000
9568,-46.875000
9569,-46.875000
9570,-50.781250
9571,-50.781250
9572,-50.781250
9573,-46.875000
9574,-50.781250
9575,-50.781250
9576,-50.781250
9577,-50.781250
9578,-50.781250
9579,-50.781250
9580,-50.781250
9581,-50.781250
9582,-50.781250
9583,-54.687500
9584,-54.687500
9585,-54.687500
9586,-54.687500
9587,-54.687500
9588,-54.687500
9589,-54.687500
9590,-54.687500
9591,-54.687500
9592,-54.687500
9593,-54.687500
9594,-58.593750
9595,-58.593750
9596,-58.593750
9597,-58.593750
9598,-58.593750
9599,-58.593750
9600,-58.593750
9601,-58.593750
9602,-58.593750
9603,-58.593750
9604,-58.593750
9605,-58.593750
9606,-62.500000
9607,-62.500000
9608,-58.593750
9609,-58.593750
9610,-62.500000
9611,-62.500000
9612,-62.500000
9613,-62.500000
9614,-62.500000
9615,-62.500000
9616,-62.500000
9617,-62.500000
9618,-62.500000
9619,-62.500000
9620,-62.500000
9621,-66.406250
9622,-66.406250
9623,-62.500000
9624,-66.406250
9625,-66.406250
9626,-66.406250
9627,-66.406250
9628,-66.406250
9629,-66.406250
9630,-66.406250
9631,-66.406250
9632,-66.406250
9633,-70.312500
9634,-70.312500
9635,-70.312500
9636,-70.312500
9637,-70.312500
9638,-70.312500
9639,-70.312500
9640,-70.312500
9641,-70.312500
9642,-70.312500
9643,-70.312500
9644,-70.312500
9645,-70.312500
9646,-70.312500
9647,-70.312500
9648,-70.312500
9649,-70.312500
9650,-70.312500
9651,-74.218750
9652,-74.218750
9653,-74.218750
9654,-74.218750
9655,-74.218750
9656,-74.218750
9657,-74.218750
9658,-74.218750
9659,-74.218750
9660,-74.218750
9661,-74.218750
9662,-74.218750
9663,-74.218750
9664,-74.218750
9665,-74.218750
9666,-74.218750
9667,-74.218750
9668,-74.218750
9669,-74.218750
9670,-74.218750
9671,-74.218750
9672,-78.125000
9673,-74.218750
9674,-78.125000
9675,-78.125000
9676,-78.125000
9677,-78.125000
9678,-78.125000
9679,-78.125000
9680,-78.125000
9681,-78.125000
9682,-78.125000
9683,-78.125000
9684,-78.125000
9685,-78.125000
9686,-78.125000
9687,-78.125000
9688,-78.125000
9689,-78.125000
9690,-78.125000
9691,-78.125000
9692,-78.125000
9693,-78.125000
9694,-78.125000
9695,-78.125000
9696,-78.125000
9697,-78.125000
9698,-78.125000
9699,-78.125000
9700,-78.125000
9701,-78.125000
9702,-82.031250
9703,-78.125000
9704,-82.031250
9705,-78.125000
9706,-78.125000
9707,-78.125000
9708,-78.125000
9709,-82.031250
9710,-82.031250
9711,-82.031250
9712,-82.031250
9713,-82.031250
9714,-82.031250
9715,-82.031250
9716,-82.031250
9717,-82.031250
9718,-82.031250
9719,-82.031250
9720,-82.031250
9721,-82.031250
9722,-82.031250
9723,-82.031250
9724,-82.031250
9725,-82.031250
9726,-82.031250
9727,-78.125000
9728,-78.125000
9729,-82.031250
9730,-82.031250
9731,-82.031250
9732,-82.031250
9733,-82.031250
9734,-82.031250
9735,-82.031250
9736,-82.031250
9737,-82.031250
9738,-82.031250
9739,-82.031250
9740,-82.031250
9741,-82.031250
9742,-82.031250
9743,-82.031250
9744,-82.031250
9745,-78.125000
9746,-78.125000
9747,-78.125000
9748,-82.031250
9749,-82.031250
9750,-78.125000
9751,-82.031250
9752,-78.125000
9753,-78.125000
9754,-78.125000
9755,-78.125000
9756,-78.125000
9757,-78.125000
9758,-78.125000
9759,-82.031250
9760,-78.125000
9761,-78.125000
9762,-78.125000
9763,-78.125000
9764,-78.125000
9765,-78.125000
9766,-78.125000
9767,-78.125000
9768,-78.125000
9769,-78.125000
9770,-78.125000
9771,-78.125000
9772,-78.125000
9773,-78.125000
9774,-78.125000
9775,-78.125000
9776,-78.125000
9777,-78.125000
9778,-78.125000
9779,-78.125000
9780,-78.125000
9781,-78.125000
9782,-78.125000
9783,-78.125000
9784,-78.125000
9785,-74.218750
9786,-78.125000
9787,-74.218750
9788,-78.125000
9789,-74.218750
9790,-74.218750
9791,-74.218750
9792,-74.218750
9793,-74.218750
9794,-74.218750
9795,-74.218750
9796,-74.218750
9797,-74.218750
9798,-74.218750
9799,-74.218750
9800,-74.218750
9801,-74.218750
9802,-74.218750
9803,-74.218750
9804,-74.218750
9805,-74.218750
9806,-74.218750
9807,-74.218750
9808,-74.218750
9809,-70.312500
9810,-70.312500
9811,-70.312500
9812,-70.312500
9813,-70.312500
9814,-70.312500
9815,-70.312500
9816,-70.312500
9817,-70.312500
9818,-70.312500
9819,-70.312500
9820,-70.312500
9821,-70.312500
9822,-70.312500
9823,-70.312500
9824,-70.312500
9825,-66.406250
9826,-66.406250
9827,-66.406250
9828,-66.406250
9829,-66.406250
9830,-66.406250
9831,-66.406250
9832,-66.406250
9833,-66.406250
9834,-66.406250
9835,-66.406250
9836,-66.406250
9837,-62.500000
9838,-66.406250
9839,-62.500000
9840,-66.406250
9841,-62.500000
9842,-62.500000
9843,-62.500000
9844,-62.500000
9845,-62.500000
9846,-62.500000
9847,-62.500000
9848,-62.500000
9849,-62.500000
9850,-62.500000
9851,-58.593750
9852,-62.500000
9853,-58.593750
9854,-58.593750
9855,-58.593750
9856,-58.593750
9857,-58.593750
9858,-58.593750
9859,-58.593750
9860,-58.593750
9861,-58.593750
9862,-58.593750
9863,-54.687500
9864,-58.593750
9865,-54.687500
9866,-54.687500
9867,-54.687500
9868,-54.687500
9869,-54.687500
9870,-54.687500
9871,-54.687500
9872,-54.687500
9873,-54.687500
9874,-50.781250
9875,-50.781250
9876,-50.781250
9877,-50.781250
9878,-50.781250
9879,-50.781250
9880,-50.781250
9881,-50.781250
9882,-50.781250
9883,-46.875000
9884,-50.781250
9885,-46.875000
9886,-50.781250
9887,-46.875000
9888,-46.875000
9889,-46.875000
9890,-46.875000
9891,-46.875000
9892,-46.875000
9893,-42.968750
9894,-46.875000
9895,-46.875000
9896,-46.875000
9897,-42.968750
9898,-42.968750
9899,-42.968750
9900,-42.968750
9901,-42.968750
9902,-42.968750
9903,-42.968750
9904,-39.062500
9905,-39.062500
9906,-39.062500
9907,-39.062500
9908,-39.062500
9909,-39.062500
9910,-39.062500
9911,-39.062500
9912,-39.062500
9913,-39.062500
9914,-39.062500
9915,-35.156250
9916,-35.156250
9917,-35.156250
9918,-35.156250
9919,-35.156250
9920,-35.156250
9921,-35.156250
9922,-35.156250
9923,-35.156250
9924,-35.156250
9925,-31.250000
9926,-31.250000
9927,-31.250000
9928,-31.250000
9929,-31.250000
9930,-31.250000
9931,-31.250000
9932,-31.250000
9933,-31.250000
9934,-31.250000
9935,-27.343750
9936,-27.343750
9937,-27.343750
9938,-27.343750
9939,-27.343750
9940,-27.343750
9941,-27.343750
9942,-27.343750
9943,-27.343750
9944,-27.343750
9945,-23.437500
9946,-23.437500
9947,-27.343750
9948,-23.437500
9949,-23.437500
9950,-23.437500
9951,-23.437500
9952,-23.437500
9953,-23.437500
9954,-23.437500
9955,-19.531250
9956,-19.531250
9957,-19.531250
9958,-19.531250
9959,-19.531250
9960,-19.531250
9961,-15.625000
9962,-19.531250
9963,-15.625000
9964,-15.625000
9965,-15.625000
9966,-15.625000
9967,-15.625000
9968,-15.625000
9969,-15.625000
9970,-11.718750
9971,-11.718750
9972,-11.718750
9973,-11.718750
9974,-11.718750
9975,-11.718750
9976,-11.718750
9977,-11.718750
9978,-11.718750
9979,-11.718750
9980,-7.812500
9981,-7.812500
9982,-7.812500
9983,-7.812500
9984,-7.812500
9985,-7.812500
9986,-7.812500
9987,-7.812500
9988,-7.812500
9989,-7.812500
9990,-3.906250
9991,-3.906250
9992,-3.906250
9993,-3.906250
9994,-3.906250
9995,-3.906250
9996,-3.906250
9997,-3.906250
9998,-3.906250
9999,0.000000
10000,0.000000
