Data from Chemiepractica_Absorbance__20__11-41-53-159.txt Node

Date: Mon Dec 09 11:41:53 CET 2024
User: r0948668
Spectrometer: USB4F07138
Trigger mode: 4
Integration Time (sec): 6,000000E-3
Scans to average: 20
Electric dark correction enabled: true
Nonlinearity correction enabled: false
Boxcar width: 5
XAxis mode: Wavelengths
Number of Pixels in Spectrum: 3648
>>>>>Begin Spectral Data<<<<<
176,779	-0
176,999	-0
177,218	-0
177,438	-1,08609
177,658	-0,44106
177,878	-0,08986
178,097	-0,02015
178,317	-0,24905
178,537	-0,16387
178,757	-0,07385
178,976	0,11295
179,196	0,56864
179,416	-0
179,635	-0,19289
179,855	-0,02981
180,075	-0,03017
180,294	-0,07691
180,514	-0,08359
180,734	-0,03166
180,953	-0,01024
181,173	0,0014
181,392	-0,01002
181,612	-0,01077
181,832	0,02084
182,051	0,02262
182,271	0,02495
182,49	0,03456
182,71	0,04954
182,929	0,06746
183,149	0,05461
183,368	0,06454
183,588	0,06637
183,807	0,07672
184,027	0,09116
184,246	0,08528
184,466	0,07714
184,685	0,06815
184,905	0,05545
185,124	0,05215
185,344	0,0437
185,563	0,05543
185,782	0,04922
186,002	0,03999
186,221	0,04675
186,44	0,04438
186,66	0,03328
186,879	0,04891
187,099	0,04576
187,318	0,04448
187,537	0,04852
187,756	0,0563
187,976	0,04654
188,195	0,04418
188,414	0,05622
188,634	0,05188
188,853	0,05043
189,072	0,0571
189,291	0,04048
189,511	0,05493
189,73	0,06698
189,949	0,06968
190,168	0,06524
190,387	0,08435
190,607	0,07813
190,826	0,06337
191,045	0,05895
191,264	0,06016
191,483	0,05689
191,702	0,06827
191,921	0,05775
192,141	0,05574
192,36	0,04103
192,579	0,03064
192,798	0,0199
193,017	0,01514
193,236	0,02191
193,455	0,02472
193,674	0,03562
193,893	0,03464
194,112	0,03501
194,331	0,02445
194,55	0,01794
194,769	0,01926
194,988	0,02568
195,207	0,02625
195,426	0,02582
195,645	0,04388
195,864	0,04727
196,083	0,03189
196,302	0,02103
196,521	0,02574
196,739	0,02322
196,958	0,02797
197,177	0,03668
197,396	0,04824
197,615	0,04826
197,834	0,05293
198,053	0,02979
198,271	0,01677
198,49	0,0379
198,709	0,03912
198,928	0,03765
199,147	0,04771
199,365	0,0551
199,584	0,06948
199,803	0,05041
200,022	0,06661
200,24	0,04897
200,459	0,05194
200,678	0,05807
200,897	0,04198
201,115	0,06105
201,334	0,05445
201,553	0,05008
201,771	0,03359
201,99	0,00659
202,209	0,02628
202,427	0,01502
202,646	0,04008
202,864	0,03913
203,083	0,04039
203,302	0,04428
203,52	0,04403
203,739	0,03965
203,957	0,04653
204,176	0,04758
204,394	0,057
204,613	0,04892
204,831	0,05703
205,05	0,04726
205,268	0,05672
205,487	0,05015
205,705	0,04454
205,924	0,0394
206,142	0,05265
206,361	0,05234
206,579	0,05889
206,798	0,06559
207,016	0,06405
207,234	0,04684
207,453	0,06501
207,671	0,07041
207,89	0,0716
208,108	0,08005
208,326	0,07572
208,545	0,06514
208,763	0,0696
208,981	0,06499
209,2	0,04655
209,418	0,05887
209,636	0,06811
209,855	0,06241
210,073	0,0453
210,291	0,04704
210,509	0,0357
210,728	0,02989
210,946	0,03024
211,164	0,02339
211,382	0,03442
211,6	0,05306
211,819	0,04502
212,037	0,03294
212,255	0,01135
212,473	0,02353
212,691	0,02351
212,909	0,02935
213,128	0,02246
213,346	0,02939
213,564	0,03659
213,782	0,02425
214	0,03586
214,218	0,03562
214,436	0,054
214,654	0,06087
214,872	0,04719
215,09	0,04677
215,308	0,05402
215,526	0,0704
215,744	0,05129
215,962	0,03763
216,18	0,03407
216,398	0,02056
216,616	0,00905
216,834	0,01048
217,052	0,02129
217,27	0,01808
217,488	0,02067
217,706	0,02703
217,924	0,03221
218,142	0,03977
218,36	0,05843
218,578	0,07278
218,795	0,05738
219,013	0,06483
219,231	0,04102
219,449	0,03205
219,667	0,03117
219,885	0,02887
220,102	0,01936
220,32	0,01475
220,538	0,0265
220,756	0,00789
220,973	0,01468
221,191	0,02003
221,409	0,02864
221,627	0,03928
221,844	0,04135
222,062	0,05989
222,28	0,07014
222,497	0,05323
222,715	0,04569
222,933	0,03253
223,15	0,03177
223,368	0,01575
223,586	0,03957
223,803	0,03889
224,021	0,03591
224,239	0,04327
224,456	0,0372
224,674	0,02084
224,891	0,04463
225,109	0,04903
225,326	0,05633
225,544	0,06664
225,762	0,06378
225,979	0,05441
226,197	0,05888
226,414	0,05358
226,632	0,04494
226,849	0,03836
227,066	0,05346
227,284	0,03713
227,501	0,04791
227,719	0,05222
227,936	0,04491
228,154	0,05741
228,371	0,05123
228,588	0,04632
228,806	0,0548
229,023	0,06408
229,241	0,07464
229,458	0,07338
229,675	0,07969
229,893	0,06903
230,11	0,07123
230,327	0,07407
230,545	0,07325
230,762	0,07388
230,979	0,06959
231,196	0,06813
231,414	0,05545
231,631	0,04697
231,848	0,03708
232,065	0,03414
232,283	0,02958
232,5	0,01152
232,717	0,01103
232,934	0,00422
233,151	0,00157
233,368	-0,0059
233,586	-0,01132
233,803	-0,00885
234,02	-0,00136
234,237	0,00228
234,454	0,00653
234,671	0,03313
234,888	0,04153
235,105	0,04086
235,322	0,04628
235,54	0,05296
235,757	0,07273
235,974	0,08225
236,191	0,08566
236,408	0,07828
236,625	0,08331
236,842	0,08021
237,059	0,05956
237,276	0,04594
237,493	0,0626
237,71	0,06027
237,926	0,04469
238,143	0,03312
238,36	0,0245
238,577	0,02085
238,794	0,02826
239,011	0,02675
239,228	0,03016
239,445	0,03258
239,662	0,05882
239,878	0,05319
240,095	0,05295
240,312	0,08113
240,529	0,07979
240,746	0,08859
240,963	0,08599
241,179	0,07806
241,396	0,08454
241,613	0,07511
241,83	0,07398
242,046	0,06831
242,263	0,06878
242,48	0,07452
242,697	0,05587
242,913	0,06094
243,13	0,05197
243,347	0,06663
243,563	0,07048
243,78	0,06681
243,997	0,08206
244,213	0,08607
244,43	0,09288
244,646	0,10552
244,863	0,1057
245,08	0,10826
245,296	0,10643
245,513	0,11211
245,729	0,10993
245,946	0,11745
246,162	0,10764
246,379	0,10078
246,595	0,08866
246,812	0,07495
247,028	0,06818
247,245	0,06615
247,461	0,06198
247,678	0,05064
247,894	0,05719
248,111	0,04156
248,327	0,04246
248,544	0,05627
248,76	0,05678
248,976	0,06416
249,193	0,05829
249,409	0,05472
249,626	0,04866
249,842	0,05548
250,058	0,06855
250,275	0,06354
250,491	0,06628
250,707	0,07233
250,924	0,07022
251,14	0,06726
251,356	0,0738
251,572	0,07755
251,789	0,07845
252,005	0,07882
252,221	0,08087
252,437	0,07787
252,654	0,07475
252,87	0,07874
253,086	0,06774
253,302	0,06178
253,518	0,06342
253,735	0,05355
253,951	0,05554
254,167	0,04508
254,383	0,03944
254,599	0,03144
254,815	0,0324
255,031	0,02561
255,247	0,01923
255,463	0,01743
255,68	0,02713
255,896	0,02829
256,112	0,04048
256,328	0,0369
256,544	0,03642
256,76	0,05322
256,976	0,04829
257,192	0,05262
257,408	0,0626
257,624	0,06254
257,84	0,06464
258,056	0,06009
258,272	0,05864
258,487	0,04227
258,703	0,04798
258,919	0,05945
259,135	0,05102
259,351	0,05639
259,567	0,0532
259,783	0,04922
259,999	0,05305
260,215	0,0521
260,43	0,04049
260,646	0,04269
260,862	0,05619
261,078	0,05589
261,294	0,04005
261,509	0,04757
261,725	0,05743
261,941	0,05819
262,157	0,06472
262,372	0,06084
262,588	0,05973
262,804	0,07522
263,019	0,06935
263,235	0,0685
263,451	0,06915
263,667	0,08061
263,882	0,08331
264,098	0,08865
264,313	0,08959
264,529	0,08371
264,745	0,09793
264,96	0,09535
265,176	0,0936
265,391	0,09101
265,607	0,09721
265,823	0,09368
266,038	0,09549
266,254	0,08857
266,469	0,07695
266,685	0,07081
266,9	0,06069
267,116	0,05587
267,331	0,06996
267,547	0,06106
267,762	0,06329
267,978	0,05166
268,193	0,06021
268,408	0,06617
268,624	0,07121
268,839	0,08174
269,055	0,07857
269,27	0,08476
269,485	0,09316
269,701	0,08698
269,916	0,09441
270,132	0,09952
270,347	0,10067
270,562	0,09264
270,777	0,08222
270,993	0,08018
271,208	0,06687
271,423	0,08149
271,639	0,09783
271,854	0,07932
272,069	0,07421
272,284	0,07212
272,5	0,06413
272,715	0,06094
272,93	0,05743
273,145	0,05937
273,36	0,06141
273,576	0,067
273,791	0,05617
274,006	0,02804
274,221	0,04096
274,436	0,04041
274,651	0,04399
274,866	0,05208
275,081	0,05966
275,296	0,05877
275,512	0,05054
275,727	0,0474
275,942	0,03929
276,157	0,04125
276,372	0,06384
276,587	0,06553
276,802	0,0674
277,017	0,06068
277,232	0,05543
277,447	0,05657
277,662	0,06347
277,877	0,05985
278,092	0,05818
278,306	0,07065
278,521	0,07632
278,736	0,06807
278,951	0,07
279,166	0,06415
279,381	0,06585
279,596	0,06811
279,811	0,06144
280,025	0,05501
280,24	0,06058
280,455	0,05881
280,67	0,05048
280,885	0,03951
281,099	0,03995
281,314	0,02865
281,529	0,0358
281,744	0,04128
281,959	0,04053
282,173	0,04751
282,388	0,05557
282,603	0,05261
282,817	0,05699
283,032	0,0631
283,247	0,06414
283,461	0,07158
283,676	0,06728
283,891	0,06394
284,105	0,0708
284,32	0,07722
284,535	0,07048
284,749	0,06638
284,964	0,08128
285,178	0,07459
285,393	0,075
285,607	0,07891
285,822	0,07376
286,036	0,09335
286,251	0,08876
286,465	0,08377
286,68	0,08128
286,894	0,08624
287,109	0,09878
287,323	0,07951
287,538	0,08547
287,752	0,06948
287,967	0,06576
288,181	0,06404
288,396	0,06283
288,61	0,07291
288,824	0,06591
289,039	0,06401
289,253	0,05867
289,467	0,04563
289,682	0,05865
289,896	0,05846
290,11	0,06839
290,325	0,07984
290,539	0,0679
290,753	0,05367
290,968	0,04321
291,182	0,03875
291,396	0,03447
291,61	0,03948
291,825	0,04333
292,039	0,04131
292,253	0,0418
292,467	0,04182
292,681	0,03127
292,896	0,04028
293,11	0,04212
293,324	0,05499
293,538	0,06919
293,752	0,0751
293,966	0,071
294,18	0,06737
294,394	0,06299
294,608	0,0647
294,823	0,06733
295,037	0,07406
295,251	0,07431
295,465	0,07515
295,679	0,05983
295,893	0,05253
296,107	0,04694
296,321	0,05039
296,535	0,0505
296,749	0,05043
296,963	0,03909
297,177	0,03318
297,391	0,02441
297,604	0,01961
297,818	0,01925
298,032	0,02749
298,246	0,02211
298,46	0,03292
298,674	0,03525
298,888	0,03928
299,102	0,04101
299,315	0,05139
299,529	0,05824
299,743	0,06486
299,957	0,0709
300,171	0,07072
300,385	0,0663
300,598	0,07132
300,812	0,0622
301,026	0,05749
301,24	0,05786
301,453	0,05426
301,667	0,05438
301,881	0,05319
302,094	0,0471
302,308	0,05113
302,522	0,05938
302,735	0,05356
302,949	0,0564
303,163	0,05505
303,376	0,054
303,59	0,05605
303,803	0,05818
304,017	0,04205
304,231	0,04332
304,444	0,0465
304,658	0,03895
304,871	0,03278
305,085	0,03776
305,298	0,03283
305,512	0,04191
305,725	0,04357
305,939	0,036
306,152	0,02584
306,366	0,02585
306,579	0,02921
306,793	0,03254
307,006	0,03614
307,22	0,02864
307,433	0,02895
307,646	0,03143
307,86	0,02606
308,073	0,02608
308,286	0,02413
308,5	0,03683
308,713	0,03718
308,926	0,03461
309,14	0,03654
309,353	0,03165
309,566	0,03424
309,78	0,03527
309,993	0,03604
310,206	0,04015
310,419	0,0431
310,633	0,04599
310,846	0,05538
311,059	0,06092
311,272	0,05897
311,486	0,05978
311,699	0,05713
311,912	0,05899
312,125	0,05947
312,338	0,05158
312,551	0,04276
312,764	0,03714
312,978	0,04791
313,191	0,03759
313,404	0,03821
313,617	0,03492
313,83	0,03288
314,043	0,04055
314,256	0,04681
314,469	0,04917
314,682	0,05356
314,895	0,05253
315,108	0,05914
315,321	0,05462
315,534	0,04183
315,747	0,04485
315,96	0,05323
316,173	0,04634
316,386	0,05201
316,599	0,04925
316,812	0,05004
317,025	0,05685
317,237	0,0629
317,45	0,05309
317,663	0,05048
317,876	0,06452
318,089	0,06945
318,302	0,0608
318,515	0,0609
318,727	0,05308
318,94	0,04926
319,153	0,04001
319,366	0,04101
319,578	0,03877
319,791	0,04886
320,004	0,04748
320,217	0,04693
320,429	0,05009
320,642	0,05499
320,855	0,05607
321,067	0,05345
321,28	0,05622
321,493	0,0676
321,705	0,06122
321,918	0,06341
322,131	0,05325
322,343	0,05195
322,556	0,06018
322,768	0,04185
322,981	0,03188
323,194	0,03135
323,406	0,0364
323,619	0,02969
323,831	0,03048
324,044	0,02759
324,256	0,02744
324,469	0,02525
324,681	0,03196
324,894	0,02054
325,106	0,03395
325,319	0,03214
325,531	0,03334
325,743	0,02551
325,956	0,02878
326,168	0,02201
326,381	0,02475
326,593	0,01944
326,805	0,02726
327,018	0,02142
327,23	0,01178
327,442	0,01155
327,655	0,01168
327,867	0,0094
328,079	0,0112
328,292	0,01455
328,504	0,01982
328,716	0,01308
328,928	0,0256
329,141	0,02972
329,353	0,02316
329,565	0,03728
329,777	0,0355
329,99	0,04772
330,202	0,05794
330,414	0,05581
330,626	0,05828
330,838	0,05485
331,05	0,05662
331,263	0,04765
331,475	0,04407
331,687	0,0487
331,899	0,05003
332,111	0,05164
332,323	0,04444
332,535	0,03859
332,747	0,04498
332,959	0,03959
333,171	0,03914
333,383	0,04044
333,595	0,04106
333,807	0,04311
334,019	0,04359
334,231	0,04034
334,443	0,03115
334,655	0,03192
334,867	0,03269
335,079	0,03546
335,291	0,02468
335,503	0,02749
335,714	0,02216
335,926	0,02688
336,138	0,01733
336,35	0,01437
336,562	0,01859
336,774	0,02474
336,986	0,02667
337,197	0,03263
337,409	0,03025
337,621	0,03742
337,833	0,03744
338,044	0,05239
338,256	0,05058
338,468	0,06049
338,68	0,06364
338,891	0,05937
339,103	0,05698
339,315	0,04949
339,526	0,03236
339,738	0,02618
339,95	0,02995
340,161	0,03814
340,373	0,02602
340,585	0,01816
340,796	0,01038
341,008	0,01268
341,219	0,00788
341,431	0,0087
341,642	0,01824
341,854	0,03127
342,065	0,04003
342,277	0,03558
342,489	0,03218
342,7	0,04134
342,912	0,04812
343,123	0,04876
343,334	0,04958
343,546	0,04351
343,757	0,04787
343,969	0,03823
344,18	0,03365
344,392	0,0325
344,603	0,04318
344,814	0,03639
345,026	0,03795
345,237	0,03918
345,448	0,04419
345,66	0,03225
345,871	0,04164
346,082	0,04896
346,294	0,05371
346,505	0,05251
346,716	0,05181
346,927	0,05698
347,139	0,05753
347,35	0,05048
347,561	0,05031
347,772	0,04839
347,984	0,05607
348,195	0,05585
348,406	0,042
348,617	0,04879
348,828	0,05104
349,039	0,04695
349,251	0,03835
349,462	0,03301
349,673	0,02998
349,884	0,02484
350,095	0,03052
350,306	0,03203
350,517	0,03414
350,728	0,03718
350,939	0,03488
351,15	0,03143
351,361	0,03562
351,572	0,04286
351,783	0,04482
351,994	0,04806
352,205	0,05292
352,416	0,05235
352,627	0,05706
352,838	0,05802
353,049	0,06494
353,26	0,05861
353,471	0,05458
353,682	0,0513
353,893	0,04377
354,103	0,04853
354,314	0,04309
354,525	0,04205
354,736	0,03964
354,947	0,03005
355,157	0,03122
355,368	0,02929
355,579	0,02599
355,79	0,03418
356,001	0,03819
356,211	0,03953
356,422	0,02591
356,633	0,03467
356,843	0,03465
357,054	0,02967
357,265	0,03998
357,476	0,03541
357,686	0,02974
357,897	0,03988
358,107	0,03632
358,318	0,03549
358,529	0,0307
358,739	0,04392
358,95	0,03837
359,16	0,03918
359,371	0,03744
359,582	0,02971
359,792	0,03706
360,003	0,03504
360,213	0,02581
360,424	0,02909
360,634	0,03167
360,845	0,03126
361,055	0,03595
361,266	0,03865
361,476	0,04448
361,686	0,05142
361,897	0,05765
362,107	0,05266
362,318	0,05728
362,528	0,06079
362,738	0,05401
362,949	0,05141
363,159	0,05624
363,369	0,04973
363,58	0,04491
363,79	0,03825
364	0,03312
364,211	0,02503
364,421	0,02355
364,631	0,02956
364,842	0,02424
365,052	0,02982
365,262	0,02488
365,472	0,02957
365,682	0,02989
365,893	0,034
366,103	0,03998
366,313	0,04556
366,523	0,04782
366,733	0,04483
366,943	0,04249
367,154	0,04884
367,364	0,05333
367,574	0,06159
367,784	0,05789
367,994	0,05911
368,204	0,06274
368,414	0,05398
368,624	0,05209
368,834	0,05718
369,044	0,06071
369,254	0,05849
369,464	0,0574
369,674	0,05305
369,884	0,04091
370,094	0,03655
370,304	0,03018
370,514	0,02986
370,724	0,03252
370,934	0,02644
371,144	0,02044
371,353	0,01977
371,563	0,02038
371,773	0,02255
371,983	0,01896
372,193	0,02579
372,403	0,02905
372,612	0,02981
372,822	0,02595
373,032	0,02342
373,242	0,02755
373,452	0,03316
373,661	0,03727
373,871	0,0363
374,081	0,03646
374,29	0,04085
374,5	0,03993
374,71	0,03765
374,92	0,04174
375,129	0,04404
375,339	0,04305
375,549	0,04586
375,758	0,04482
375,968	0,04088
376,177	0,03947
376,387	0,03746
376,597	0,03832
376,806	0,03907
377,016	0,03652
377,225	0,03276
377,435	0,02866
377,644	0,02893
377,854	0,02577
378,063	0,02527
378,273	0,02665
378,482	0,02681
378,692	0,02987
378,901	0,03009
379,111	0,02956
379,32	0,0324
379,529	0,03623
379,739	0,04075
379,948	0,04312
380,158	0,0457
380,367	0,04873
380,576	0,05024
380,786	0,04514
380,995	0,04758
381,204	0,04563
381,414	0,04887
381,623	0,04851
381,832	0,04549
382,041	0,04184
382,251	0,04167
382,46	0,03984
382,669	0,033
382,878	0,0336
383,088	0,03827
383,297	0,03422
383,506	0,0329
383,715	0,02615
383,924	0,02528
384,133	0,02728
384,342	0,02835
384,552	0,0305
384,761	0,03335
384,97	0,03794
385,179	0,03709
385,388	0,03818
385,597	0,03661
385,806	0,03681
386,015	0,04059
386,224	0,04271
386,433	0,03971
386,642	0,03561
386,851	0,03343
387,06	0,02994
387,269	0,02836
387,478	0,02834
387,687	0,02858
387,896	0,02938
388,105	0,02672
388,314	0,0242
388,523	0,02173
388,731	0,02422
388,94	0,02852
389,149	0,02923
389,358	0,03288
389,567	0,03312
389,776	0,03023
389,984	0,02809
390,193	0,02881
390,402	0,0281
390,611	0,02811
390,819	0,02611
391,028	0,02948
391,237	0,03015
391,446	0,02841
391,654	0,02747
391,863	0,02635
392,072	0,02608
392,28	0,02424
392,489	0,02159
392,698	0,02104
392,906	0,02134
393,115	0,021
393,324	0,01759
393,532	0,01582
393,741	0,01702
393,949	0,01462
394,158	0,0141
394,366	0,01529
394,575	0,016
394,783	0,01901
394,992	0,01996
395,2	0,01953
395,409	0,02435
395,617	0,02156
395,826	0,02191
396,034	0,01697
396,243	0,01936
396,451	0,02095
396,66	0,02398
396,868	0,02523
397,076	0,02043
397,285	0,0182
397,493	0,01806
397,701	0,01552
397,91	0,01513
398,118	0,01632
398,326	0,02197
398,535	0,01674
398,743	0,01483
398,951	0,01177
399,159	0,0129
399,368	0,01709
399,576	0,02129
399,784	0,023
399,992	0,02254
400,201	0,0236
400,409	0,01982
400,617	0,01636
400,825	0,01985
401,033	0,02038
401,241	0,01997
401,45	0,02021
401,658	0,02059
401,866	0,02159
402,074	0,02161
402,282	0,02246
402,49	0,02153
402,698	0,02476
402,906	0,02476
403,114	0,02288
403,322	0,0228
403,53	0,02392
403,738	0,02129
403,946	0,01837
404,154	0,01417
404,362	0,01323
404,57	0,01151
404,778	0,00963
404,986	0,00839
405,194	0,01048
405,402	0,01264
405,609	0,01123
405,817	0,00912
406,025	0,0108
406,233	0,01432
406,441	0,01775
406,649	0,01683
406,856	0,01726
407,064	0,02097
407,272	0,02057
407,48	0,01969
407,687	0,01726
407,895	0,02035
408,103	0,01984
408,311	0,01875
408,518	0,0148
408,726	0,01449
408,934	0,01533
409,141	0,01669
409,349	0,01374
409,557	0,01525
409,764	0,01431
409,972	0,0161
410,18	0,01246
410,387	0,01743
410,595	0,01741
410,802	0,01818
411,01	0,01776
411,217	0,01757
411,425	0,01735
411,632	0,01802
411,84	0,01788
412,047	0,01724
412,255	0,01544
412,462	0,01772
412,67	0,01535
412,877	0,01555
413,085	0,01685
413,292	0,01752
413,499	0,01896
413,707	0,01892
413,914	0,02022
414,122	0,01789
414,329	0,02095
414,536	0,0217
414,744	0,02048
414,951	0,02022
415,158	0,02098
415,366	0,01919
415,573	0,01832
415,78	0,01828
415,987	0,01713
416,195	0,01817
416,402	0,01846
416,609	0,01795
416,816	0,01824
417,023	0,01903
417,231	0,01921
417,438	0,0189
417,645	0,0191
417,852	0,01774
418,059	0,01639
418,266	0,01531
418,473	0,01465
418,68	0,01718
418,888	0,01602
419,095	0,01688
419,302	0,01684
419,509	0,01541
419,716	0,01537
419,923	0,01648
420,13	0,01683
420,337	0,01778
420,544	0,01856
420,751	0,01713
420,958	0,0163
421,165	0,0167
421,371	0,01514
421,578	0,01454
421,785	0,01446
421,992	0,0138
422,199	0,01499
422,406	0,01712
422,613	0,01606
422,82	0,01686
423,026	0,01759
423,233	0,0172
423,44	0,01642
423,647	0,01797
423,854	0,01877
424,06	0,0185
424,267	0,01887
424,474	0,01737
424,681	0,01675
424,887	0,01765
425,094	0,01856
425,301	0,02031
425,507	0,01892
425,714	0,01904
425,921	0,01763
426,127	0,01586
426,334	0,01683
426,54	0,01686
426,747	0,01705
426,954	0,01663
427,16	0,01579
427,367	0,01403
427,573	0,01257
427,78	0,01356
427,986	0,0144
428,193	0,01427
428,399	0,01614
428,606	0,01536
428,812	0,01691
429,019	0,01615
429,225	0,01578
429,432	0,0171
429,638	0,01846
429,845	0,01844
430,051	0,01951
430,257	0,01829
430,464	0,01928
430,67	0,01903
430,876	0,01995
431,083	0,01924
431,289	0,02158
431,495	0,02273
431,702	0,02162
431,908	0,02052
432,114	0,02086
432,32	0,01952
432,527	0,02055
432,733	0,02087
432,939	0,02013
433,145	0,01995
433,351	0,02014
433,558	0,01897
433,764	0,01853
433,97	0,01814
434,176	0,01814
434,382	0,01913
434,588	0,01933
434,794	0,01802
435,001	0,01739
435,207	0,0183
435,413	0,01815
435,619	0,01759
435,825	0,01722
436,031	0,01728
436,237	0,01919
436,443	0,02025
436,649	0,01949
436,855	0,01971
437,061	0,02112
437,267	0,02253
437,473	0,02241
437,679	0,02404
437,884	0,02314
438,09	0,02284
438,296	0,0218
438,502	0,01981
438,708	0,01952
438,914	0,01918
439,12	0,0199
439,325	0,01995
439,531	0,01973
439,737	0,01917
439,943	0,01839
440,149	0,01942
440,354	0,02083
440,56	0,02133
440,766	0,02204
440,972	0,02278
441,177	0,02343
441,383	0,02406
441,589	0,02387
441,794	0,02326
442	0,02476
442,206	0,0248
442,411	0,0242
442,617	0,02309
442,822	0,02404
443,028	0,02382
443,234	0,02442
443,439	0,02463
443,645	0,02344
443,85	0,02415
444,056	0,0246
444,261	0,02429
444,467	0,02444
444,672	0,02582
444,878	0,02736
445,083	0,02747
445,289	0,02776
445,494	0,02692
445,699	0,02685
445,905	0,0271
446,11	0,02758
446,316	0,02778
446,521	0,02783
446,726	0,02832
446,932	0,02786
447,137	0,02824
447,342	0,02873
447,548	0,02867
447,753	0,02944
447,958	0,0292
448,164	0,02934
448,369	0,02819
448,574	0,028
448,779	0,02739
448,984	0,02662
449,19	0,0268
449,395	0,02539
449,6	0,02529
449,805	0,02588
450,01	0,02553
450,215	0,02555
450,421	0,02702
450,626	0,02735
450,831	0,02702
451,036	0,02752
451,241	0,0291
451,446	0,02935
451,651	0,03023
451,856	0,02999
452,061	0,03063
452,266	0,03116
452,471	0,03268
452,676	0,03223
452,881	0,03269
453,086	0,03425
453,291	0,03522
453,496	0,03456
453,701	0,03475
453,906	0,03508
454,111	0,0354
454,316	0,03544
454,52	0,03518
454,725	0,03414
454,93	0,03419
455,135	0,0348
455,34	0,03424
455,545	0,03428
455,749	0,03484
455,954	0,03485
456,159	0,03516
456,364	0,03617
456,568	0,03655
456,773	0,03736
456,978	0,03822
457,182	0,03941
457,387	0,03963
457,592	0,03968
457,796	0,03965
458,001	0,04
458,206	0,04051
458,41	0,04079
458,615	0,03967
458,82	0,04002
459,024	0,04069
459,229	0,04123
459,433	0,04092
459,638	0,04098
459,842	0,04198
460,047	0,04269
460,251	0,04318
460,456	0,04288
460,66	0,04329
460,865	0,04433
461,069	0,04467
461,274	0,04473
461,478	0,04485
461,682	0,04536
461,887	0,04614
462,091	0,0461
462,296	0,04659
462,5	0,04638
462,704	0,04765
462,909	0,04727
463,113	0,04731
463,317	0,04707
463,522	0,04775
463,726	0,04806
463,93	0,04806
464,134	0,04807
464,339	0,04802
464,543	0,04831
464,747	0,04858
464,951	0,0488
465,155	0,04948
465,36	0,0502
465,564	0,05083
465,768	0,05052
465,972	0,0513
466,176	0,05175
466,38	0,0525
466,584	0,05338
466,788	0,05339
466,993	0,05354
467,197	0,05419
467,401	0,0548
467,605	0,05501
467,809	0,05528
468,013	0,05602
468,217	0,05594
468,421	0,05638
468,625	0,05656
468,829	0,05685
469,033	0,05723
469,236	0,05837
469,44	0,05799
469,644	0,05829
469,848	0,05851
470,052	0,05983
470,256	0,0592
470,46	0,06006
470,664	0,06021
470,867	0,06097
471,071	0,06137
471,275	0,06207
471,479	0,06232
471,683	0,06328
471,886	0,06382
472,09	0,06447
472,294	0,06461
472,497	0,06598
472,701	0,0661
472,905	0,06691
473,109	0,06728
473,312	0,0674
473,516	0,06791
473,719	0,0682
473,923	0,06846
474,127	0,06898
474,33	0,06922
474,534	0,06944
474,737	0,0698
474,941	0,07009
475,145	0,07025
475,348	0,07081
475,552	0,07203
475,755	0,07232
475,959	0,07325
476,162	0,07418
476,366	0,07455
476,569	0,0752
476,772	0,07603
476,976	0,07693
477,179	0,07793
477,383	0,07888
477,586	0,07911
477,789	0,07943
477,993	0,08017
478,196	0,08073
478,399	0,08147
478,603	0,08238
478,806	0,08366
479,009	0,08393
479,213	0,08401
479,416	0,08433
479,619	0,08509
479,822	0,0859
480,026	0,08682
480,229	0,08746
480,432	0,08809
480,635	0,08848
480,838	0,08904
481,041	0,08854
481,245	0,08911
481,448	0,08977
481,651	0,09095
481,854	0,09147
482,057	0,0921
482,26	0,09279
482,463	0,09368
482,666	0,09427
482,869	0,09497
483,072	0,09561
483,275	0,09693
483,478	0,09759
483,681	0,09896
483,884	0,09918
484,087	0,10001
484,29	0,10105
484,493	0,10184
484,696	0,10229
484,899	0,10305
485,102	0,10386
485,305	0,10441
485,508	0,10524
485,71	0,10647
485,913	0,10696
486,116	0,10796
486,319	0,10888
486,522	0,10931
486,725	0,10993
486,927	0,11084
487,13	0,11159
487,333	0,11243
487,536	0,11334
487,738	0,11438
487,941	0,11498
488,144	0,11579
488,346	0,11629
488,549	0,11687
488,752	0,11779
488,954	0,1188
489,157	0,11934
489,359	0,11994
489,562	0,12038
489,765	0,12144
489,967	0,12196
490,17	0,12281
490,372	0,12347
490,575	0,12443
490,777	0,12525
490,98	0,12605
491,182	0,1263
491,385	0,12735
491,587	0,12844
491,79	0,1296
491,992	0,13009
492,195	0,13113
492,397	0,13192
492,599	0,13287
492,802	0,13383
493,004	0,13492
493,207	0,13575
493,409	0,13706
493,611	0,13809
493,814	0,1392
494,016	0,1399
494,218	0,1408
494,42	0,1417
494,623	0,14287
494,825	0,14369
495,027	0,14436
495,229	0,14512
495,432	0,14599
495,634	0,14676
495,836	0,1477
496,038	0,1484
496,24	0,14954
496,442	0,15067
496,645	0,15164
496,847	0,15251
497,049	0,15374
497,251	0,15494
497,453	0,15601
497,655	0,15705
497,857	0,15835
498,059	0,15945
498,261	0,16033
498,463	0,16124
498,665	0,16225
498,867	0,16334
499,069	0,1642
499,271	0,16501
499,473	0,16603
499,675	0,16711
499,877	0,16834
500,079	0,16913
500,281	0,16992
500,482	0,17114
500,684	0,17237
500,886	0,17337
501,088	0,17442
501,29	0,17582
501,492	0,17711
501,693	0,17854
501,895	0,17985
502,097	0,18084
502,299	0,18212
502,5	0,18345
502,702	0,18466
502,904	0,18607
503,106	0,18748
503,307	0,18867
503,509	0,18961
503,711	0,19091
503,912	0,19195
504,114	0,19276
504,315	0,19398
504,517	0,19513
504,719	0,19645
504,92	0,19769
505,122	0,19844
505,323	0,19932
505,525	0,20062
505,726	0,2018
505,928	0,20278
506,129	0,20433
506,331	0,20561
506,532	0,20696
506,734	0,20822
506,935	0,20948
507,137	0,21072
507,338	0,2121
507,539	0,2137
507,741	0,21498
507,942	0,21637
508,143	0,21803
508,345	0,21925
508,546	0,2208
508,747	0,22227
508,949	0,2238
509,15	0,22508
509,351	0,22633
509,553	0,22765
509,754	0,22919
509,955	0,23055
510,156	0,23217
510,357	0,23335
510,559	0,23467
510,76	0,23611
510,961	0,23767
511,162	0,23913
511,363	0,24061
511,564	0,24226
511,766	0,24403
511,967	0,24552
512,168	0,24704
512,369	0,24848
512,57	0,25008
512,771	0,25157
512,972	0,25302
513,173	0,2544
513,374	0,25577
513,575	0,25726
513,776	0,25889
513,977	0,26
514,178	0,26127
514,379	0,26278
514,58	0,26427
514,781	0,26586
514,981	0,26741
515,182	0,26881
515,383	0,27043
515,584	0,27206
515,785	0,2737
515,986	0,27521
516,187	0,277
516,387	0,27854
516,588	0,27998
516,789	0,28162
516,99	0,28321
517,19	0,28466
517,391	0,28646
517,592	0,28826
517,793	0,2899
517,993	0,29157
518,194	0,29324
518,395	0,29477
518,595	0,29663
518,796	0,29836
518,996	0,29973
519,197	0,30105
519,398	0,3026
519,598	0,30429
519,799	0,30564
519,999	0,30721
520,2	0,3088
520,4	0,31005
520,601	0,31198
520,801	0,31345
521,002	0,31504
521,202	0,3168
521,403	0,31863
521,603	0,32028
521,804	0,32157
522,004	0,32301
522,204	0,32476
522,405	0,3263
522,605	0,32811
522,806	0,32952
523,006	0,33128
523,206	0,33301
523,407	0,33466
523,607	0,33614
523,807	0,33793
524,007	0,33967
524,208	0,34145
524,408	0,3429
524,608	0,34472
524,808	0,34644
525,009	0,34813
525,209	0,34955
525,409	0,35103
525,609	0,35256
525,809	0,35447
526,009	0,35577
526,209	0,35722
526,41	0,35872
526,61	0,36048
526,81	0,36188
527,01	0,36327
527,21	0,36464
527,41	0,36625
527,61	0,3678
527,81	0,36932
528,01	0,37058
528,21	0,37215
528,41	0,37367
528,61	0,37507
528,81	0,37629
529,01	0,37771
529,21	0,37929
529,41	0,38093
529,609	0,3823
529,809	0,38379
530,009	0,38512
530,209	0,38668
530,409	0,38803
530,609	0,38966
530,808	0,39127
531,008	0,39292
531,208	0,39429
531,408	0,3956
531,608	0,39673
531,807	0,39814
532,007	0,3996
532,207	0,40089
532,406	0,40206
532,606	0,4035
532,806	0,40484
533,005	0,40631
533,205	0,40727
533,405	0,40836
533,604	0,40979
533,804	0,41133
534,003	0,41273
534,203	0,41375
534,403	0,41502
534,602	0,41627
534,802	0,41753
535,001	0,41848
535,201	0,4194
535,4	0,42072
535,6	0,42229
535,799	0,42327
535,998	0,42452
536,198	0,4255
536,397	0,42654
536,597	0,42778
536,796	0,42905
536,995	0,43028
537,195	0,43147
537,394	0,43249
537,594	0,43366
537,793	0,43447
537,992	0,43589
538,191	0,43682
538,391	0,43816
538,59	0,43943
538,789	0,44047
538,988	0,44136
539,188	0,44232
539,387	0,44353
539,586	0,44492
539,785	0,44613
539,984	0,44713
540,184	0,44796
540,383	0,44912
540,582	0,45008
540,781	0,45121
540,98	0,45245
541,179	0,45378
541,378	0,45485
541,577	0,45576
541,776	0,45662
541,975	0,45748
542,174	0,45862
542,373	0,45941
542,572	0,46001
542,771	0,4609
542,97	0,46169
543,169	0,46223
543,368	0,4628
543,567	0,46353
543,766	0,46444
543,965	0,46501
544,164	0,4659
544,362	0,46678
544,561	0,46758
544,76	0,46855
544,959	0,46948
545,158	0,47033
545,356	0,47112
545,555	0,47184
545,754	0,47257
545,953	0,47316
546,151	0,47396
546,35	0,47473
546,549	0,47506
546,748	0,47564
546,946	0,47611
547,145	0,47629
547,344	0,47673
547,542	0,47708
547,741	0,47787
547,939	0,47833
548,138	0,47874
548,337	0,47907
548,535	0,47926
548,734	0,47972
548,932	0,48009
549,131	0,48068
549,329	0,48128
549,528	0,48184
549,726	0,48237
549,925	0,48282
550,123	0,48333
550,322	0,48396
550,52	0,48457
550,718	0,48498
550,917	0,48553
551,115	0,48593
551,313	0,48626
551,512	0,48669
551,71	0,48717
551,908	0,48775
552,107	0,4882
552,305	0,48873
552,503	0,48927
552,702	0,48954
552,9	0,49012
553,098	0,49076
553,296	0,49163
553,495	0,49216
553,693	0,49247
553,891	0,49282
554,089	0,49348
554,287	0,49387
554,485	0,49446
554,683	0,4949
554,882	0,49559
555,08	0,49619
555,278	0,49658
555,476	0,49686
555,674	0,49738
555,872	0,49816
556,07	0,49873
556,268	0,49929
556,466	0,49986
556,664	0,50026
556,862	0,50072
557,06	0,50146
557,258	0,50192
557,456	0,50285
557,654	0,50368
557,851	0,50426
558,049	0,50469
558,247	0,50544
558,445	0,50606
558,643	0,50663
558,841	0,50732
559,039	0,50797
559,236	0,50864
559,434	0,50917
559,632	0,50971
559,83	0,51042
560,027	0,51123
560,225	0,51209
560,423	0,5129
560,62	0,51356
560,818	0,51428
561,016	0,51501
561,213	0,51601
561,411	0,51677
561,609	0,51774
561,806	0,5184
562,004	0,51906
562,202	0,51988
562,399	0,52064
562,597	0,52115
562,794	0,5221
562,992	0,52288
563,189	0,52357
563,387	0,52453
563,584	0,52544
563,782	0,52621
563,979	0,52711
564,177	0,52808
564,374	0,52925
564,571	0,53028
564,769	0,53152
564,966	0,53235
565,164	0,53366
565,361	0,53481
565,558	0,5355
565,756	0,53649
565,953	0,53762
566,15	0,53879
566,347	0,54001
566,545	0,54088
566,742	0,542
566,939	0,54289
567,136	0,54409
567,334	0,5449
567,531	0,54618
567,728	0,54725
567,925	0,54845
568,122	0,54985
568,319	0,55091
568,517	0,5519
568,714	0,55299
568,911	0,55407
569,108	0,55545
569,305	0,55665
569,502	0,55811
569,699	0,55963
569,896	0,56138
570,093	0,56274
570,29	0,56413
570,487	0,5654
570,684	0,56703
570,881	0,56877
571,078	0,5704
571,275	0,57192
571,472	0,57349
571,669	0,57472
571,866	0,57592
572,062	0,57705
572,259	0,57854
572,456	0,57978
572,653	0,58147
572,85	0,58279
573,047	0,58417
573,243	0,58562
573,44	0,58692
573,637	0,58846
573,834	0,59016
574,03	0,59183
574,227	0,59344
574,424	0,59498
574,62	0,59647
574,817	0,59802
575,014	0,5998
575,21	0,6014
575,407	0,60306
575,604	0,60474
575,8	0,60635
575,997	0,608
576,193	0,60956
576,39	0,61116
576,586	0,61289
576,783	0,61457
576,979	0,61602
577,176	0,61748
577,372	0,61913
577,569	0,62069
577,765	0,62244
577,962	0,62398
578,158	0,62568
578,355	0,6272
578,551	0,62897
578,747	0,63051
578,944	0,63211
579,14	0,63381
579,336	0,63543
579,533	0,63695
579,729	0,63852
579,925	0,63984
580,122	0,64139
580,318	0,64284
580,514	0,64434
580,71	0,64567
580,906	0,64706
581,103	0,64875
581,299	0,65011
581,495	0,65121
581,691	0,65263
581,887	0,65406
582,084	0,65571
582,28	0,65714
582,476	0,65835
582,672	0,65966
582,868	0,66118
583,064	0,66246
583,26	0,66346
583,456	0,66453
583,652	0,6657
583,848	0,66684
584,044	0,66789
584,24	0,6687
584,436	0,66945
584,632	0,67036
584,828	0,67119
585,024	0,67175
585,22	0,67242
585,416	0,67336
585,611	0,67445
585,807	0,6752
586,003	0,67579
586,199	0,67637
586,395	0,67717
586,591	0,67786
586,786	0,67848
586,982	0,67889
587,178	0,67952
587,374	0,67992
587,569	0,68027
587,765	0,68057
587,961	0,68122
588,156	0,68137
588,352	0,68153
588,548	0,6814
588,743	0,68135
588,939	0,68151
589,135	0,68156
589,33	0,68148
589,526	0,68144
589,721	0,68122
589,917	0,68093
590,112	0,68048
590,308	0,68035
590,503	0,68017
590,699	0,68014
590,894	0,68018
591,09	0,67977
591,285	0,67922
591,481	0,67859
591,676	0,67818
591,872	0,67748
592,067	0,67674
592,262	0,67606
592,458	0,67539
592,653	0,67461
592,848	0,67359
593,044	0,67239
593,239	0,67128
593,434	0,67054
593,629	0,66943
593,825	0,66817
594,02	0,66688
594,215	0,66572
594,41	0,66436
594,606	0,6628
594,801	0,66116
594,996	0,65972
595,191	0,65816
595,386	0,65638
595,581	0,65457
595,777	0,65305
595,972	0,65132
596,167	0,64955
596,362	0,64749
596,557	0,64557
596,752	0,64358
596,947	0,64157
597,142	0,63941
597,337	0,63732
597,532	0,63508
597,727	0,63262
597,922	0,63009
598,117	0,62765
598,312	0,62522
598,507	0,62308
598,701	0,62047
598,896	0,6177
599,091	0,61497
599,286	0,61235
599,481	0,60942
599,676	0,60676
599,87	0,60398
600,065	0,60106
600,26	0,59811
600,455	0,59526
600,65	0,59191
600,844	0,58881
601,039	0,58543
601,234	0,58228
601,428	0,57925
601,623	0,5761
601,818	0,57288
602,012	0,57003
602,207	0,56698
602,402	0,56381
602,596	0,56043
602,791	0,55709
602,985	0,55375
603,18	0,55093
603,374	0,54762
603,569	0,544
603,763	0,54078
603,958	0,53759
604,152	0,53373
604,347	0,52993
604,541	0,52622
604,736	0,52267
604,93	0,51912
605,125	0,51526
605,319	0,51137
605,513	0,50748
605,708	0,50386
605,902	0,49995
606,096	0,4959
606,291	0,49211
606,485	0,48839
606,679	0,48471
606,874	0,48077
607,068	0,47714
607,262	0,47355
607,456	0,46976
607,65	0,46609
607,845	0,46214
608,039	0,45828
608,233	0,45434
608,427	0,4505
608,621	0,44682
608,815	0,44291
609,01	0,43919
609,204	0,43516
609,398	0,43141
609,592	0,42785
609,786	0,42423
609,98	0,42072
610,174	0,41715
610,368	0,41368
610,562	0,41007
610,756	0,40623
610,95	0,40261
611,144	0,39883
611,338	0,39528
611,532	0,39146
611,726	0,38759
611,919	0,38377
612,113	0,38
612,307	0,37605
612,501	0,37217
612,695	0,36849
612,889	0,36489
613,082	0,36111
613,276	0,35757
613,47	0,35397
613,664	0,35037
613,857	0,34661
614,051	0,34295
614,245	0,33928
614,439	0,33568
614,632	0,33224
614,826	0,32846
615,02	0,3248
615,213	0,32121
615,407	0,31765
615,6	0,314
615,794	0,31065
615,988	0,3072
616,181	0,30359
616,375	0,3002
616,568	0,29684
616,762	0,29346
616,955	0,2903
617,149	0,28698
617,342	0,28366
617,536	0,2804
617,729	0,27719
617,923	0,27393
618,116	0,2708
618,309	0,26778
618,503	0,26463
618,696	0,26158
618,889	0,25859
619,083	0,25541
619,276	0,25229
619,469	0,24926
619,663	0,24631
619,856	0,24347
620,049	0,24048
620,242	0,23758
620,436	0,23457
620,629	0,2317
620,822	0,22878
621,015	0,22576
621,209	0,22303
621,402	0,22035
621,595	0,21771
621,788	0,21489
621,981	0,2121
622,174	0,20946
622,367	0,20679
622,56	0,20409
622,753	0,20147
622,946	0,19887
623,139	0,19635
623,332	0,19386
623,525	0,19124
623,718	0,18871
623,911	0,18635
624,104	0,18392
624,297	0,1814
624,49	0,17911
624,683	0,1769
624,876	0,17451
625,069	0,17221
625,262	0,17007
625,454	0,16783
625,647	0,16563
625,84	0,16342
626,033	0,16137
626,226	0,15931
626,418	0,1572
626,611	0,15509
626,804	0,15294
626,997	0,15089
627,189	0,14887
627,382	0,14667
627,575	0,1447
627,767	0,14289
627,96	0,14104
628,153	0,13898
628,345	0,13695
628,538	0,13514
628,731	0,13331
628,923	0,13152
629,116	0,12973
629,308	0,12782
629,501	0,12602
629,693	0,12435
629,886	0,1225
630,078	0,12059
630,271	0,11896
630,463	0,11725
630,656	0,11561
630,848	0,11397
631,04	0,11238
631,233	0,11084
631,425	0,10938
631,617	0,10789
631,81	0,10613
632,002	0,10458
632,194	0,1032
632,387	0,10165
632,579	0,10025
632,771	0,09869
632,964	0,09723
633,156	0,0958
633,348	0,09434
633,54	0,09305
633,732	0,09171
633,925	0,09057
634,117	0,08947
634,309	0,08814
634,501	0,08681
634,693	0,08551
634,885	0,08433
635,077	0,08314
635,269	0,08187
635,462	0,08075
635,654	0,07958
635,846	0,0785
636,038	0,07719
636,23	0,07599
636,422	0,07493
636,614	0,07384
636,806	0,07288
636,997	0,07195
637,189	0,07082
637,381	0,06982
637,573	0,06875
637,765	0,0677
637,957	0,06663
638,149	0,06571
638,341	0,06476
638,532	0,06379
638,724	0,06297
638,916	0,06202
639,108	0,061
639,299	0,0603
639,491	0,0593
639,683	0,05854
639,875	0,05774
640,066	0,05696
640,258	0,05605
640,45	0,05518
640,641	0,05447
640,833	0,05357
641,025	0,05273
641,216	0,05191
641,408	0,05097
641,599	0,05038
641,791	0,04965
641,982	0,04886
642,174	0,0481
642,366	0,04753
642,557	0,04673
642,748	0,04588
642,94	0,0452
643,131	0,04445
643,323	0,04384
643,514	0,04325
643,706	0,04272
643,897	0,04202
644,088	0,04139
644,28	0,04083
644,471	0,04019
644,662	0,03965
644,854	0,03915
645,045	0,03871
645,236	0,03815
645,428	0,03751
645,619	0,03691
645,81	0,0362
646,001	0,0356
646,193	0,03511
646,384	0,03455
646,575	0,034
646,766	0,03353
646,957	0,033
647,148	0,03238
647,339	0,03193
647,531	0,03161
647,722	0,03112
647,913	0,03067
648,104	0,03035
648,295	0,02988
648,486	0,02937
648,677	0,02888
648,868	0,02843
649,059	0,02805
649,25	0,02762
649,441	0,02729
649,632	0,02671
649,823	0,02643
650,013	0,0261
650,204	0,02557
650,395	0,02512
650,586	0,02482
650,777	0,02459
650,968	0,02424
651,159	0,02386
651,349	0,02352
651,54	0,02298
651,731	0,02261
651,922	0,02228
652,112	0,02184
652,303	0,02156
652,494	0,02135
652,684	0,02095
652,875	0,02059
653,066	0,02029
653,256	0,02002
653,447	0,01972
653,638	0,01963
653,828	0,01949
654,019	0,01909
654,209	0,01887
654,4	0,01862
654,59	0,01839
654,781	0,01827
654,972	0,01795
655,162	0,01776
655,352	0,01737
655,543	0,01708
655,733	0,01678
655,924	0,01652
656,114	0,01636
656,305	0,01604
656,495	0,01579
656,685	0,01545
656,876	0,01518
657,066	0,01498
657,256	0,01476
657,447	0,01475
657,637	0,01463
657,827	0,01444
658,017	0,01421
658,208	0,01399
658,398	0,01386
658,588	0,01371
658,778	0,01362
658,968	0,01343
659,159	0,01325
659,349	0,01301
659,539	0,01267
659,729	0,01249
659,919	0,01232
660,109	0,01215
660,299	0,01204
660,489	0,01197
660,679	0,01184
660,869	0,01157
661,059	0,01141
661,249	0,01128
661,439	0,01113
661,629	0,01102
661,819	0,01085
662,009	0,01068
662,199	0,0106
662,389	0,01033
662,579	0,01008
662,769	0,00977
662,959	0,0097
663,149	0,00951
663,338	0,00938
663,528	0,00923
663,718	0,00911
663,908	0,00894
664,097	0,00876
664,287	0,00856
664,477	0,00844
664,667	0,00828
664,856	0,00829
665,046	0,00821
665,236	0,0081
665,425	0,00802
665,615	0,00796
665,805	0,00793
665,994	0,00794
666,184	0,00789
666,373	0,00783
666,563	0,00783
666,753	0,00783
666,942	0,00769
667,132	0,00752
667,321	0,00744
667,511	0,00721
667,7	0,00709
667,889	0,00682
668,079	0,00676
668,268	0,00667
668,458	0,00652
668,647	0,00631
668,836	0,00616
669,026	0,0061
669,215	0,00593
669,404	0,00587
669,594	0,00582
669,783	0,00577
669,972	0,00582
670,162	0,00561
670,351	0,0055
670,54	0,00538
670,729	0,00537
670,919	0,00529
671,108	0,00525
671,297	0,00528
671,486	0,00523
671,675	0,0052
671,864	0,00514
672,053	0,00511
672,243	0,0051
672,432	0,00501
672,621	0,005
672,81	0,00492
672,999	0,00484
673,188	0,00491
673,377	0,0048
673,566	0,00473
673,755	0,00467
673,944	0,00456
674,133	0,00437
674,322	0,0043
674,51	0,00432
674,699	0,00424
674,888	0,00417
675,077	0,00414
675,266	0,00389
675,455	0,00386
675,644	0,00378
675,832	0,00371
676,021	0,00362
676,21	0,00366
676,399	0,00351
676,587	0,00343
676,776	0,00339
676,965	0,00333
677,153	0,00336
677,342	0,00333
677,531	0,00327
677,719	0,00321
677,908	0,00321
678,097	0,00324
678,285	0,00316
678,474	0,00321
678,662	0,00322
678,851	0,00322
679,039	0,00321
679,228	0,00309
679,416	0,00308
679,605	0,00304
679,793	0,00303
679,982	0,00293
680,17	0,00295
680,359	0,00296
680,547	0,00292
680,736	0,00291
680,924	0,0029
681,112	0,00283
681,301	0,00282
681,489	0,00283
681,677	0,00284
681,866	0,0028
682,054	0,00283
682,242	0,00274
682,43	0,0028
682,619	0,00272
682,807	0,00255
682,995	0,00249
683,183	0,00241
683,371	0,00242
683,559	0,00234
683,748	0,00225
683,936	0,00233
684,124	0,00228
684,312	0,0022
684,5	0,00193
684,688	0,00205
684,876	0,0021
685,064	0,00194
685,252	0,00204
685,44	0,00202
685,628	0,00197
685,816	0,00198
686,004	0,00187
686,192	0,0018
686,38	0,00182
686,568	0,0019
686,756	0,00171
686,944	0,00164
687,131	0,00174
687,319	0,0017
687,507	0,00154
687,695	0,00144
687,883	0,00134
688,07	0,00131
688,258	0,00132
688,446	0,00125
688,634	0,00123
688,821	0,00124
689,009	0,00116
689,197	0,00116
689,384	0,00113
689,572	0,00122
689,76	0,00132
689,947	0,00142
690,135	0,00143
690,323	0,00143
690,51	0,00142
690,698	0,00143
690,885	0,00152
691,073	0,00159
691,26	0,00148
691,448	0,00147
691,635	0,00149
691,823	0,00142
692,01	0,00129
692,197	0,00113
692,385	0,00112
692,572	0,00119
692,76	0,00115
692,947	0,00109
693,134	0,00118
693,322	0,00111
693,509	0,00101
693,696	0,00089
693,884	0,00088
694,071	0,00096
694,258	0,00102
694,445	0,00097
694,633	0,00091
694,82	0,00085
695,007	0,00081
695,194	0,00075
695,381	0,0008
695,568	0,00081
695,756	0,00082
695,943	0,0008
696,13	0,00067
696,317	0,00067
696,504	0,00072
696,691	0,00071
696,878	0,00073
697,065	0,00064
697,252	0,00068
697,439	0,00075
697,626	0,00083
697,813	0,00082
698	0,00079
698,187	0,00084
698,374	0,00078
698,561	0,00072
698,747	0,00067
698,934	0,00061
699,121	0,00072
699,308	0,00053
699,495	0,00047
699,682	0,00033
699,868	0,00026
700,055	0,00017
700,242	0,00008
700,429	0,00004
700,615	-0,00002
700,802	-0,00009
700,989	-0,00016
701,175	-0,00034
701,362	-0,00026
701,549	-0,00029
701,735	-0,00026
701,922	-0,0002
702,108	-0,00013
702,295	-0,00012
702,482	-0,00014
702,668	-0,00006
702,855	-0,00005
703,041	0,00004
703,228	0,00008
703,414	0,00008
703,601	0,00009
703,787	0,00008
703,973	-0,00005
704,16	-0,00018
704,346	-0,00015
704,533	-0,00014
704,719	-0,00022
704,905	-0,00025
705,092	-0,00028
705,278	-0,00026
705,464	-0,00023
705,65	-0,00023
705,837	-0,00027
706,023	-0,0002
706,209	-0,00005
706,395	-0,00001
706,582	0,00003
706,768	-0
706,954	0,00012
707,14	0,00012
707,326	0,0001
707,512	-0,00001
707,698	-0,00005
707,885	-0,00007
708,071	-0,00007
708,257	-0,0001
708,443	-0,00015
708,629	-0,00011
708,815	-0,00009
709,001	-0,00021
709,187	-0,00024
709,373	-0,0002
709,559	-0,00023
709,745	-0,00026
709,93	-0,00033
710,116	-0,00031
710,302	-0,00037
710,488	-0,00031
710,674	-0,0003
710,86	-0,00031
711,046	-0,00026
711,231	-0,00026
711,417	-0,00027
711,603	-0,0003
711,789	-0,00033
711,974	-0,00021
712,16	-0,00029
712,346	-0,00035
712,532	-0,00037
712,717	-0,00046
712,903	-0,00053
713,089	-0,00051
713,274	-0,00052
713,46	-0,00064
713,645	-0,00051
713,831	-0,00048
714,016	-0,0005
714,202	-0,00047
714,388	-0,00032
714,573	-0,00039
714,759	-0,00036
714,944	-0,00036
715,129	-0,00046
715,315	-0,0005
715,5	-0,00048
715,686	-0,00051
715,871	-0,00048
716,057	-0,00047
716,242	-0,00039
716,427	-0,00055
716,613	-0,00052
716,798	-0,0006
716,983	-0,00056
717,168	-0,0005
717,354	-0,00043
717,539	-0,00038
717,724	-0,00037
717,909	-0,00036
718,095	-0,00041
718,28	-0,00047
718,465	-0,00041
718,65	-0,0005
718,835	-0,00049
719,02	-0,00054
719,206	-0,00058
719,391	-0,00061
719,576	-0,00073
719,761	-0,00079
719,946	-0,00083
720,131	-0,00087
720,316	-0,00092
720,501	-0,00087
720,686	-0,00077
720,871	-0,00071
721,056	-0,00072
721,241	-0,00087
721,426	-0,00093
721,61	-0,00081
721,795	-0,00077
721,98	-0,00083
722,165	-0,00077
722,35	-0,00065
722,535	-0,0007
722,719	-0,00078
722,904	-0,00081
723,089	-0,00078
723,274	-0,00058
723,458	-0,00066
723,643	-0,0006
723,828	-0,00065
724,013	-0,00068
724,197	-0,00077
724,382	-0,00079
724,567	-0,00081
724,751	-0,00084
724,936	-0,00085
725,12	-0,00085
725,305	-0,00085
725,489	-0,00077
725,674	-0,00086
725,859	-0,00081
726,043	-0,00071
726,228	-0,00059
726,412	-0,00068
726,596	-0,00069
726,781	-0,00059
726,965	-0,00058
727,15	-0,0005
727,334	-0,0006
727,518	-0,00064
727,703	-0,00064
727,887	-0,00068
728,072	-0,00071
728,256	-0,00077
728,44	-0,0007
728,624	-0,00074
728,809	-0,00089
728,993	-0,00087
729,177	-0,00097
729,361	-0,00095
729,546	-0,00089
729,73	-0,00089
729,914	-0,00102
730,098	-0,00107
730,282	-0,00111
730,466	-0,00114
730,65	-0,00104
730,834	-0,00101
731,019	-0,00107
731,203	-0,00109
731,387	-0,0011
731,571	-0,00127
731,755	-0,00129
731,939	-0,00123
732,123	-0,0013
732,306	-0,00125
732,49	-0,00126
732,674	-0,00129
732,858	-0,00125
733,042	-0,00125
733,226	-0,00118
733,41	-0,00115
733,594	-0,00107
733,778	-0,00106
733,961	-0,00098
734,145	-0,00081
734,329	-0,00075
734,513	-0,00071
734,696	-0,00074
734,88	-0,00077
735,064	-0,00068
735,247	-0,00076
735,431	-0,00082
735,615	-0,00081
735,798	-0,00076
735,982	-0,00078
736,166	-0,00081
736,349	-0,00095
736,533	-0,001
736,716	-0,00098
736,9	-0,00104
737,083	-0,00119
737,267	-0,0012
737,45	-0,00127
737,634	-0,00126
737,817	-0,00133
738,001	-0,00138
738,184	-0,00148
738,368	-0,0014
738,551	-0,00153
738,734	-0,00164
738,918	-0,00157
739,101	-0,0015
739,284	-0,00153
739,468	-0,00147
739,651	-0,00148
739,834	-0,00149
740,018	-0,00159
740,201	-0,00166
740,384	-0,00168
740,567	-0,00158
740,75	-0,00151
740,934	-0,00157
741,117	-0,00158
741,3	-0,00154
741,483	-0,00153
741,666	-0,00153
741,849	-0,00151
742,032	-0,00149
742,215	-0,00143
742,399	-0,00137
742,582	-0,00145
742,765	-0,00146
742,948	-0,00137
743,131	-0,00138
743,314	-0,00145
743,496	-0,0014
743,679	-0,00138
743,862	-0,00135
744,045	-0,00119
744,228	-0,00113
744,411	-0,00127
744,594	-0,00123
744,777	-0,00123
744,959	-0,00125
745,142	-0,00114
745,325	-0,00103
745,508	-0,00112
745,691	-0,00107
745,873	-0,00116
746,056	-0,00125
746,239	-0,00137
746,421	-0,00125
746,604	-0,00129
746,787	-0,00124
746,969	-0,00128
747,152	-0,00142
747,335	-0,00152
747,517	-0,00145
747,7	-0,00145
747,882	-0,00142
748,065	-0,00144
748,247	-0,00128
748,43	-0,0014
748,612	-0,00135
748,795	-0,0014
748,977	-0,00138
749,16	-0,00144
749,342	-0,00135
749,524	-0,00137
749,707	-0,00144
749,889	-0,00141
750,072	-0,00144
750,254	-0,00144
750,436	-0,00144
750,619	-0,00159
750,801	-0,00164
750,983	-0,00167
751,165	-0,00161
751,348	-0,00169
751,53	-0,00176
751,712	-0,00181
751,894	-0,0019
752,076	-0,00187
752,259	-0,00191
752,441	-0,00185
752,623	-0,00174
752,805	-0,00182
752,987	-0,0019
753,169	-0,00189
753,351	-0,00195
753,533	-0,00194
753,715	-0,00191
753,897	-0,00194
754,079	-0,0019
754,261	-0,00189
754,443	-0,00196
754,625	-0,00196
754,807	-0,00185
754,989	-0,00171
755,171	-0,00173
755,353	-0,00155
755,534	-0,00161
755,716	-0,00159
755,898	-0,0016
756,08	-0,00158
756,262	-0,0017
756,443	-0,00181
756,625	-0,00177
756,807	-0,0018
756,989	-0,00181
757,17	-0,00183
757,352	-0,00189
757,534	-0,00175
757,715	-0,0018
757,897	-0,00175
758,079	-0,00181
758,26	-0,00174
758,442	-0,00154
758,623	-0,00165
758,805	-0,00158
758,987	-0,00165
759,168	-0,00173
759,35	-0,00173
759,531	-0,0017
759,713	-0,00171
759,894	-0,00179
760,075	-0,0018
760,257	-0,00189
760,438	-0,00195
760,62	-0,00185
760,801	-0,00193
760,982	-0,00192
761,164	-0,0019
761,345	-0,00191
761,526	-0,002
761,708	-0,00192
761,889	-0,00184
762,07	-0,00189
762,251	-0,00174
762,433	-0,00179
762,614	-0,00186
762,795	-0,00184
762,976	-0,00189
763,157	-0,00179
763,338	-0,00189
763,52	-0,00188
763,701	-0,00195
763,882	-0,00201
764,063	-0,00188
764,244	-0,00186
764,425	-0,0018
764,606	-0,00186
764,787	-0,00186
764,968	-0,00187
765,149	-0,00194
765,33	-0,00191
765,511	-0,002
765,692	-0,00197
765,873	-0,00193
766,053	-0,00208
766,234	-0,00212
766,415	-0,00209
766,596	-0,00209
766,777	-0,00215
766,958	-0,00214
767,138	-0,00214
767,319	-0,00216
767,5	-0,00201
767,681	-0,00219
767,861	-0,00216
768,042	-0,00217
768,223	-0,00219
768,403	-0,00226
768,584	-0,00221
768,765	-0,00221
768,945	-0,0023
769,126	-0,00221
769,307	-0,00214
769,487	-0,00215
769,668	-0,00202
769,848	-0,00207
770,029	-0,00198
770,209	-0,00208
770,39	-0,00212
770,57	-0,00208
770,751	-0,00202
770,931	-0,00199
771,111	-0,00221
771,292	-0,00226
771,472	-0,00227
771,653	-0,00234
771,833	-0,00224
772,013	-0,0023
772,194	-0,00225
772,374	-0,00226
772,554	-0,00227
772,734	-0,0023
772,915	-0,00216
773,095	-0,00204
773,275	-0,00204
773,455	-0,00207
773,635	-0,00207
773,816	-0,00214
773,996	-0,00206
774,176	-0,00192
774,356	-0,00191
774,536	-0,00188
774,716	-0,00195
774,896	-0,00206
775,076	-0,00209
775,256	-0,00203
775,436	-0,00206
775,616	-0,00198
775,796	-0,00199
775,976	-0,00203
776,156	-0,00209
776,336	-0,00205
776,516	-0,0022
776,696	-0,0022
776,876	-0,00204
777,056	-0,00205
777,235	-0,00213
777,415	-0,00204
777,595	-0,00217
777,775	-0,00207
777,955	-0,00218
778,134	-0,00228
778,314	-0,00226
778,494	-0,00214
778,674	-0,00206
778,853	-0,00219
779,033	-0,00216
779,213	-0,00209
779,392	-0,00221
779,572	-0,00207
779,751	-0,00226
779,931	-0,00214
780,111	-0,00207
780,29	-0,00215
780,47	-0,00219
780,649	-0,00223
780,829	-0,00223
781,008	-0,00221
781,188	-0,0022
781,367	-0,00214
781,546	-0,00221
781,726	-0,0022
781,905	-0,00223
782,085	-0,00222
782,264	-0,00219
782,443	-0,0022
782,623	-0,00209
782,802	-0,002
782,981	-0,00195
783,161	-0,002
783,34	-0,00204
783,519	-0,00191
783,698	-0,00188
783,878	-0,00186
784,057	-0,00189
784,236	-0,00177
784,415	-0,00174
784,594	-0,00171
784,773	-0,00184
784,952	-0,00183
785,132	-0,00187
785,311	-0,00182
785,49	-0,00204
785,669	-0,00205
785,848	-0,00191
786,027	-0,00186
786,206	-0,00193
786,385	-0,002
786,564	-0,00215
786,743	-0,00208
786,922	-0,00212
787,1	-0,00212
787,279	-0,00215
787,458	-0,00205
787,637	-0,00197
787,816	-0,00211
787,995	-0,0023
788,174	-0,0023
788,352	-0,00218
788,531	-0,00203
788,71	-0,00206
788,889	-0,00218
789,067	-0,00224
789,246	-0,00224
789,425	-0,00223
789,603	-0,00226
789,782	-0,00232
789,961	-0,00219
790,139	-0,00214
790,318	-0,00215
790,496	-0,00219
790,675	-0,002
790,853	-0,00192
791,032	-0,00192
791,211	-0,00187
791,389	-0,00182
791,568	-0,0017
791,746	-0,00165
791,924	-0,00164
792,103	-0,00183
792,281	-0,00191
792,46	-0,00195
792,638	-0,00209
792,816	-0,00202
792,995	-0,00189
793,173	-0,00192
793,351	-0,00197
793,53	-0,00198
793,708	-0,00201
793,886	-0,00201
794,064	-0,00193
794,243	-0,00184
794,421	-0,00186
794,599	-0,00189
794,777	-0,00205
794,955	-0,00221
795,133	-0,00227
795,312	-0,00229
795,49	-0,00248
795,668	-0,00249
795,846	-0,00251
796,024	-0,00249
796,202	-0,00261
796,38	-0,0026
796,558	-0,00266
796,736	-0,00265
796,914	-0,00252
797,092	-0,00251
797,27	-0,00247
797,448	-0,00244
797,626	-0,00246
797,803	-0,00258
797,981	-0,00268
798,159	-0,00266
798,337	-0,00268
798,515	-0,00264
798,693	-0,00263
798,87	-0,00268
799,048	-0,0027
799,226	-0,00271
799,404	-0,00265
799,581	-0,00277
799,759	-0,0027
799,937	-0,00262
800,114	-0,00261
800,292	-0,00273
800,469	-0,00267
800,647	-0,00269
800,825	-0,00273
801,002	-0,00277
801,18	-0,00289
801,357	-0,00291
801,535	-0,00285
801,712	-0,00292
801,89	-0,00302
802,067	-0,00303
802,245	-0,003
802,422	-0,00309
802,6	-0,00308
802,777	-0,00309
802,954	-0,00309
803,132	-0,00292
803,309	-0,00297
803,486	-0,00292
803,664	-0,00294
803,841	-0,00286
804,018	-0,00286
804,195	-0,00281
804,373	-0,00289
804,55	-0,00284
804,727	-0,00281
804,904	-0,00276
805,081	-0,00288
805,259	-0,00288
805,436	-0,00292
805,613	-0,00282
805,79	-0,00283
805,967	-0,00281
806,144	-0,00286
806,321	-0,00279
806,498	-0,00269
806,675	-0,00264
806,852	-0,00262
807,029	-0,00251
807,206	-0,00253
807,383	-0,00245
807,56	-0,00245
807,737	-0,00249
807,914	-0,00253
808,091	-0,00246
808,268	-0,00228
808,444	-0,00243
808,621	-0,00252
808,798	-0,00276
808,975	-0,00283
809,152	-0,00291
809,328	-0,00294
809,505	-0,00301
809,682	-0,00304
809,858	-0,00308
810,035	-0,0031
810,212	-0,00337
810,388	-0,00339
810,565	-0,00325
810,742	-0,00312
810,918	-0,0031
811,095	-0,00292
811,271	-0,00288
811,448	-0,0028
811,625	-0,00265
811,801	-0,00265
811,978	-0,00258
812,154	-0,00264
812,33	-0,00247
812,507	-0,00253
812,683	-0,00249
812,86	-0,00251
813,036	-0,0025
813,212	-0,00252
813,389	-0,00264
813,565	-0,00273
813,741	-0,00263
813,918	-0,00263
814,094	-0,00243
814,27	-0,00245
814,447	-0,00244
814,623	-0,00245
814,799	-0,00252
814,975	-0,00254
815,151	-0,00256
815,328	-0,0026
815,504	-0,00259
815,68	-0,00273
815,856	-0,00276
816,032	-0,00274
816,208	-0,00295
816,384	-0,00304
816,56	-0,00305
816,736	-0,00306
816,912	-0,00304
817,088	-0,00296
817,264	-0,00294
817,44	-0,00291
817,616	-0,00299
817,792	-0,00299
817,968	-0,00305
818,144	-0,00276
818,32	-0,00271
818,495	-0,0025
818,671	-0,00257
818,847	-0,00267
819,023	-0,00269
819,199	-0,00248
819,374	-0,00234
819,55	-0,00225
819,726	-0,00214
819,902	-0,00218
820,077	-0,00234
820,253	-0,0023
820,429	-0,0025
820,604	-0,0021
820,78	-0,00199
820,956	-0,00201
821,131	-0,00219
821,307	-0,00224
821,482	-0,00221
821,658	-0,00219
821,833	-0,00233
822,009	-0,00244
822,184	-0,00249
822,36	-0,00251
822,535	-0,00292
822,711	-0,00309
822,886	-0,00306
823,061	-0,00309
823,237	-0,00315
823,412	-0,00313
823,587	-0,00337
823,763	-0,00333
823,938	-0,00331
824,113	-0,00332
824,289	-0,00325
824,464	-0,00312
824,639	-0,00297
824,814	-0,00309
824,99	-0,00306
825,165	-0,00306
825,34	-0,00298
825,515	-0,00284
825,69	-0,00275
825,865	-0,00265
826,04	-0,0026
826,215	-0,00251
826,39	-0,00225
826,566	-0,00232
826,741	-0,00222
826,916	-0,0022
827,091	-0,00229
827,265	-0,00226
827,44	-0,0023
827,615	-0,00227
827,79	-0,00247
827,965	-0,00263
828,14	-0,00268
828,315	-0,00284
828,49	-0,00274
828,665	-0,00287
828,839	-0,00299
829,014	-0,00307
829,189	-0,00325
829,364	-0,00312
829,538	-0,00292
829,713	-0,00277
829,888	-0,00257
830,063	-0,00261
830,237	-0,00278
830,412	-0,00276
830,587	-0,00272
830,761	-0,00249
830,936	-0,00234
831,11	-0,00228
831,285	-0,00259
831,459	-0,0027
831,634	-0,00282
831,809	-0,0028
831,983	-0,00305
832,157	-0,00293
832,332	-0,00313
832,506	-0,00297
832,681	-0,00307
832,855	-0,00312
833,03	-0,00324
833,204	-0,00316
833,378	-0,00329
833,553	-0,00322
833,727	-0,00315
833,901	-0,00306
834,076	-0,00304
834,25	-0,00316
834,424	-0,00323
834,598	-0,00321
834,773	-0,00319
834,947	-0,003
835,121	-0,00296
835,295	-0,00295
835,469	-0,00296
835,643	-0,00322
835,817	-0,0031
835,991	-0,00325
836,166	-0,0031
836,34	-0,0029
836,514	-0,00297
836,688	-0,00295
836,862	-0,003
837,036	-0,00303
837,21	-0,00284
837,384	-0,00279
837,557	-0,0026
837,731	-0,00265
837,905	-0,00256
838,079	-0,00263
838,253	-0,00299
838,427	-0,00294
838,601	-0,00301
838,774	-0,00308
838,948	-0,00315
839,122	-0,00316
839,296	-0,00317
839,469	-0,00317
839,643	-0,00309
839,817	-0,00327
839,991	-0,00343
840,164	-0,00317
840,338	-0,00338
840,512	-0,00319
840,685	-0,00299
840,859	-0,00305
841,032	-0,00317
841,206	-0,00316
841,379	-0,0032
841,553	-0,00328
841,726	-0,00294
841,9	-0,00257
842,073	-0,0027
842,247	-0,00258
842,42	-0,00278
842,594	-0,00276
842,767	-0,0026
842,94	-0,00248
843,114	-0,00235
843,287	-0,00229
843,46	-0,00245
843,634	-0,00269
843,807	-0,00273
843,98	-0,00273
844,154	-0,00255
844,327	-0,00259
844,5	-0,00274
844,673	-0,0027
844,846	-0,00287
845,02	-0,003
845,193	-0,00318
845,366	-0,00303
845,539	-0,00311
845,712	-0,00308
845,885	-0,00335
846,058	-0,0035
846,231	-0,00357
846,404	-0,00354
846,577	-0,00353
846,75	-0,0034
846,923	-0,00335
847,096	-0,0033
847,269	-0,00321
847,442	-0,00307
847,615	-0,00304
847,788	-0,00283
847,961	-0,00275
848,133	-0,0026
848,306	-0,00263
848,479	-0,00264
848,652	-0,0028
848,825	-0,00292
848,997	-0,00278
849,17	-0,0028
849,343	-0,00285
849,515	-0,0029
849,688	-0,00304
849,861	-0,00304
850,033	-0,00299
850,206	-0,00283
850,379	-0,00291
850,551	-0,00282
850,724	-0,00269
850,896	-0,00287
851,069	-0,00287
851,241	-0,00296
851,414	-0,00292
851,586	-0,00285
851,759	-0,00288
851,931	-0,00298
852,104	-0,0031
852,276	-0,00317
852,449	-0,00327
852,621	-0,00333
852,793	-0,00335
852,966	-0,00339
853,138	-0,00307
853,31	-0,00334
853,483	-0,00309
853,655	-0,00314
853,827	-0,00313
853,999	-0,00302
854,172	-0,00297
854,344	-0,00281
854,516	-0,00286
854,688	-0,00285
854,86	-0,00293
855,032	-0,00313
855,204	-0,00306
855,377	-0,00319
855,549	-0,00316
855,721	-0,00323
855,893	-0,00335
856,065	-0,0034
856,237	-0,00355
856,409	-0,00356
856,581	-0,00356
856,753	-0,00334
856,924	-0,00336
857,096	-0,00328
857,268	-0,00311
857,44	-0,00314
857,612	-0,00306
857,784	-0,0032
857,956	-0,00303
858,127	-0,00285
858,299	-0,00289
858,471	-0,0028
858,643	-0,00292
858,814	-0,00297
858,986	-0,00303
859,158	-0,00329
859,33	-0,00322
859,501	-0,00333
859,673	-0,00325
859,844	-0,00326
860,016	-0,00332
860,188	-0,00335
860,359	-0,00329
860,531	-0,00327
860,702	-0,00327
860,874	-0,00318
861,045	-0,00313
861,217	-0,00327
861,388	-0,00316
861,56	-0,00331
861,731	-0,00349
861,902	-0,00374
862,074	-0,00361
862,245	-0,00364
862,417	-0,00381
862,588	-0,00376
862,759	-0,0038
862,931	-0,00389
863,102	-0,00375
863,273	-0,00373
863,444	-0,00362
863,616	-0,00344
863,787	-0,00328
863,958	-0,00329
864,129	-0,00337
864,3	-0,00341
864,471	-0,00351
864,642	-0,00349
864,814	-0,00364
864,985	-0,00379
865,156	-0,00383
865,327	-0,00403
865,498	-0,00396
865,669	-0,00385
865,84	-0,00375
866,011	-0,00375
866,182	-0,00365
866,353	-0,00359
866,523	-0,00373
866,694	-0,00324
866,865	-0,00298
867,036	-0,0031
867,207	-0,003
867,378	-0,00315
867,549	-0,00336
867,719	-0,00368
867,89	-0,00368
868,061	-0,00358
868,232	-0,0037
868,402	-0,00358
868,573	-0,0041
868,744	-0,00426
868,914	-0,00418
869,085	-0,00425
869,256	-0,00421
869,426	-0,00436
869,597	-0,00411
869,767	-0,00411
869,938	-0,00408
870,108	-0,00386
870,279	-0,00389
870,449	-0,0037
870,62	-0,00369
870,79	-0,00369
870,961	-0,00321
871,131	-0,00327
871,302	-0,00297
871,472	-0,00299
871,642	-0,00285
871,813	-0,00308
871,983	-0,00313
872,153	-0,00324
872,324	-0,00319
872,494	-0,00338
872,664	-0,00369
872,835	-0,00369
873,005	-0,0034
873,175	-0,00347
873,345	-0,0036
873,515	-0,00387
873,685	-0,00372
873,856	-0,00358
874,026	-0,00334
874,196	-0,00318
874,366	-0,0031
874,536	-0,00292
874,706	-0,00333
874,876	-0,00394
875,046	-0,00393
875,216	-0,00382
875,386	-0,00341
875,556	-0,00329
875,726	-0,00346
875,896	-0,00374
876,066	-0,004
876,236	-0,00409
876,405	-0,00374
876,575	-0,00365
876,745	-0,00326
876,915	-0,00307
877,085	-0,00297
877,254	-0,00343
877,424	-0,00351
877,594	-0,00357
877,764	-0,00352
877,933	-0,00318
878,103	-0,00297
878,273	-0,00282
878,442	-0,00287
878,612	-0,00283
878,781	-0,00303
878,951	-0,0029
879,121	-0,0028
879,29	-0,00301
879,46	-0,00298
879,629	-0,00272
879,799	-0,00299
879,968	-0,0028
880,138	-0,00287
880,307	-0,00279
880,476	-0,00292
880,646	-0,00299
880,815	-0,00321
880,985	-0,00321
881,154	-0,00308
881,323	-0,00307
881,493	-0,00325
881,662	-0,00358
881,831	-0,00326
882	-0,00365
882,17	-0,00355
882,339	-0,0038
882,508	-0,00374
882,677	-0,00345
882,846	-0,0032
883,016	-0,00337
883,185	-0,00322
883,354	-0,00312
883,523	-0,00301
883,692	-0,00346
883,861	-0,00332
884,03	-0,00363
884,199	-0,00325
884,368	-0,00313
884,537	-0,00368
884,706	-0,00368
884,875	-0,00327
885,044	-0,00322
885,213	-0,00317
885,382	-0,00301
885,55	-0,00354
885,719	-0,00369
885,888	-0,00367
886,057	-0,004
886,226	-0,00398
886,395	-0,00351
886,563	-0,00362
886,732	-0,00398
886,901	-0,00412
887,069	-0,00413
887,238	-0,00399
887,407	-0,00344
887,575	-0,00296
887,744	-0,00286
887,913	-0,00301
888,081	-0,00297
888,25	-0,00282
888,418	-0,00293
888,587	-0,00302
888,755	-0,00323
888,924	-0,00323
889,092	-0,00321
889,261	-0,00332
889,429	-0,00379
889,598	-0,00369
889,766	-0,00323
889,935	-0,00327
890,103	-0,00402
890,271	-0,00403
890,44	-0,00386
890,608	-0,0042
890,776	-0,00413
890,944	-0,00409
891,113	-0,0041
891,281	-0,00398
891,449	-0,00401
891,617	-0,00445
891,786	-0,0046
891,954	-0,00427
892,122	-0,0037
892,29	-0,00353
892,458	-0,00333
892,626	-0,00338
892,794	-0,00349
892,962	-0,00344
893,13	-0,00339
893,298	-0,00326
893,466	-0,00266
