Data from Chemiepractica_Absorbance__30__11-45-13-138.txt Node

Date: Mon Dec 09 11:45:13 CET 2024
User: r0948668
Spectrometer: USB4F07138
Trigger mode: 4
Integration Time (sec): 6,000000E-3
Scans to average: 20
Electric dark correction enabled: true
Nonlinearity correction enabled: false
Boxcar width: 5
XAxis mode: Wavelengths
Number of Pixels in Spectrum: 3648
>>>>>Begin Spectral Data<<<<<
176,779	-0
176,999	-0
177,218	-0
177,438	-1,14133
177,658	-0,53331
177,878	-0,23987
178,097	0,07234
178,317	0,033
178,537	0,33461
178,757	0,01961
178,976	0,27799
179,196	-0
179,416	-0,07348
179,635	0,36073
179,855	0,09458
180,075	0,06372
180,294	0,02979
180,514	-0
180,734	0,02181
180,953	0,01792
181,173	0,02933
181,392	0,012
181,612	0,01689
181,832	0,02728
182,051	0,01527
182,271	0,01153
182,49	0,00443
182,71	-0,00062
182,929	0,00495
183,149	-0,00345
183,368	0,00866
183,588	0,00761
183,807	0,00998
184,027	0,01407
184,246	0,00657
184,466	0,01594
184,685	0,02974
184,905	0,03354
185,124	0,0372
185,344	0,04403
185,563	0,05582
185,782	0,05587
186,002	0,03993
186,221	0,03247
186,44	0,02693
186,66	0,02843
186,879	0,03851
187,099	0,02621
187,318	0,02411
187,537	0,02541
187,756	0,02034
187,976	0,01695
188,195	0,00296
188,414	0,01434
188,634	0,02458
188,853	0,02904
189,072	0,0269
189,291	0,00593
189,511	0,01927
189,73	0,01986
189,949	0,01578
190,168	0,01852
190,387	0,02025
190,607	0,0234
190,826	0,02331
191,045	0,02018
191,264	0,02369
191,483	0,01782
191,702	0,01635
191,921	-0,00079
192,141	0,00886
192,36	0,00414
192,579	0,00946
192,798	0,01672
193,017	0,00485
193,236	0,01676
193,455	0,01358
193,674	0,01093
193,893	0,01833
194,112	0,03128
194,331	0,02551
194,55	0,02896
194,769	0,03225
194,988	0,02719
195,207	0,01723
195,426	0,03489
195,645	0,02038
195,864	0,02896
196,083	0,01604
196,302	0,01326
196,521	0,01175
196,739	0,02089
196,958	0,01875
197,177	0,02331
197,396	0,02308
197,615	0,03508
197,834	0,01293
198,053	0,01529
198,271	0,01192
198,49	0,03238
198,709	0,03578
198,928	0,02712
199,147	0,02449
199,365	0,03001
199,584	0,02548
199,803	0,01258
200,022	0,00319
200,24	0,00758
200,459	0,00708
200,678	0,01324
200,897	0,00269
201,115	-0,00468
201,334	-0
201,553	-0,00458
201,771	-0,01691
201,99	-0,02297
202,209	-0,00181
202,427	0,00181
202,646	0,02008
202,864	0,02671
203,083	0,00834
203,302	0,02618
203,52	0,03689
203,739	0,03935
203,957	0,05106
204,176	0,04661
204,394	0,06287
204,613	0,05354
204,831	0,06636
205,05	0,06253
205,268	0,05948
205,487	0,06569
205,705	0,05016
205,924	0,05406
206,142	0,0603
206,361	0,05835
206,579	0,06246
206,798	0,06484
207,016	0,06833
207,234	0,0541
207,453	0,05484
207,671	0,06832
207,89	0,06342
208,108	0,06751
208,326	0,05032
208,545	0,04603
208,763	0,04102
208,981	0,03293
209,2	0,01115
209,418	0,0039
209,636	0,00129
209,855	-0,00623
210,073	-0,02628
210,291	-0,0326
210,509	-0,03168
210,728	-0,03159
210,946	-0,02878
211,164	-0,02426
211,382	-0,01767
211,6	-0,00084
211,819	-0,00426
212,037	-0,0121
212,255	-0,01499
212,473	0,00293
212,691	0,01666
212,909	0,01714
213,128	0,01697
213,346	0,01309
213,564	0,01738
213,782	0,02231
214	0,0287
214,218	0,04054
214,436	0,06072
214,654	0,064
214,872	0,05176
215,09	0,04183
215,308	0,05597
215,526	0,06677
215,744	0,05607
215,962	0,05451
216,18	0,04348
216,398	0,04828
216,616	0,05251
216,834	0,05084
217,052	0,04352
217,27	0,03992
217,488	0,04739
217,706	0,05029
217,924	0,04079
218,142	0,04795
218,36	0,04858
218,578	0,06754
218,795	0,05279
219,013	0,04201
219,231	0,03348
219,449	0,03284
219,667	0,02746
219,885	0,0305
220,102	0,03042
220,32	0,04224
220,538	0,05223
220,756	0,04391
220,973	0,04759
221,191	0,05089
221,409	0,06286
221,627	0,06029
221,844	0,06806
222,062	0,07404
222,28	0,08624
222,497	0,07273
222,715	0,0608
222,933	0,05519
223,15	0,04852
223,368	0,03964
223,586	0,04254
223,803	0,03761
224,021	0,03268
224,239	0,03431
224,456	0,0371
224,674	0,02084
224,891	0,03143
225,109	0,04301
225,326	0,03924
225,544	0,05007
225,762	0,0434
225,979	0,04702
226,197	0,04543
226,414	0,04848
226,632	0,04043
226,849	0,03308
227,066	0,03702
227,284	0,02937
227,501	0,02673
227,719	0,03264
227,936	0,03945
228,154	0,0514
228,371	0,0405
228,588	0,04446
228,806	0,05865
229,023	0,06927
229,241	0,07754
229,458	0,07472
229,675	0,07817
229,893	0,06719
230,11	0,07313
230,327	0,06395
230,545	0,05745
230,762	0,05671
230,979	0,0493
231,196	0,04374
231,414	0,0356
231,631	0,0282
231,848	0,02407
232,065	0,01385
232,283	0,01677
232,5	0,00553
232,717	0,00478
232,934	-0,00441
233,151	0,00718
233,368	0,00339
233,586	-0,00358
233,803	0,00028
234,02	0,00972
234,237	0,00918
234,454	0,01909
234,671	0,03907
234,888	0,04666
235,105	0,04614
235,322	0,05899
235,54	0,05217
235,757	0,06493
235,974	0,07306
236,191	0,07564
236,408	0,07959
236,625	0,08837
236,842	0,07828
237,059	0,05811
237,276	0,03949
237,493	0,05088
237,71	0,05388
237,926	0,04521
238,143	0,04272
238,36	0,03776
238,577	0,02478
238,794	0,01749
239,011	0,02115
239,228	0,0292
239,445	0,03836
239,662	0,05829
239,878	0,04806
240,095	0,04418
240,312	0,06638
240,529	0,07117
240,746	0,06306
240,963	0,07493
241,179	0,0731
241,396	0,07543
241,613	0,06337
241,83	0,0509
242,046	0,04051
242,263	0,0338
242,48	0,02904
242,697	0,01563
242,913	0,0111
243,13	0,0113
243,347	0,01425
243,563	0,02203
243,78	0,01484
243,997	0,02744
244,213	0,03568
244,43	0,04767
244,646	0,06217
244,863	0,06489
245,08	0,06515
245,296	0,05727
245,513	0,06322
245,729	0,05877
245,946	0,05197
246,162	0,05045
246,379	0,04251
246,595	0,03256
246,812	0,03233
247,028	0,03522
247,245	0,03927
247,461	0,03279
247,678	0,03815
247,894	0,04414
248,111	0,05207
248,327	0,05998
248,544	0,0573
248,76	0,06188
248,976	0,0829
249,193	0,07134
249,409	0,06652
249,626	0,0528
249,842	0,06177
250,058	0,06138
250,275	0,05924
250,491	0,0491
250,707	0,03902
250,924	0,0365
251,14	0,03414
251,356	0,0327
251,572	0,03603
251,789	0,03722
252,005	0,04485
252,221	0,05624
252,437	0,05099
252,654	0,04579
252,87	0,04765
253,086	0,05738
253,302	0,0645
253,518	0,07248
253,735	0,06084
253,951	0,0608
254,167	0,05805
254,383	0,05625
254,599	0,03978
254,815	0,04788
255,031	0,03983
255,247	0,03465
255,463	0,02276
255,68	0,03097
255,896	0,02888
256,112	0,02803
256,328	0,02227
256,544	0,03326
256,76	0,04532
256,976	0,04235
257,192	0,04326
257,408	0,05373
257,624	0,06089
257,84	0,06416
258,056	0,0612
258,272	0,05747
258,487	0,05255
258,703	0,06372
258,919	0,05789
259,135	0,04394
259,351	0,04793
259,567	0,05311
259,783	0,04503
259,999	0,04956
260,215	0,05845
260,43	0,04146
260,646	0,0413
260,862	0,0595
261,078	0,04072
261,294	0,02486
261,509	0,04455
261,725	0,05655
261,941	0,05148
262,157	0,06854
262,372	0,06694
262,588	0,0568
262,804	0,07631
263,019	0,07572
263,235	0,06229
263,451	0,08096
263,667	0,08857
263,882	0,08154
264,098	0,07624
264,313	0,07548
264,529	0,07075
264,745	0,07305
264,96	0,068
265,176	0,06122
265,391	0,04596
265,607	0,0517
265,823	0,03739
266,038	0,03907
266,254	0,03453
266,469	0,03852
266,685	0,02281
266,9	0,01513
267,116	0,01559
267,331	0,033
267,547	0,03034
267,762	0,03903
267,978	0,04519
268,193	0,04426
268,408	0,04453
268,624	0,04344
268,839	0,0289
269,055	0,03884
269,27	0,0487
269,485	0,04332
269,701	0,03893
269,916	0,03627
270,132	0,04685
270,347	0,03493
270,562	0,04583
270,777	0,04145
270,993	0,04686
271,208	0,05133
271,423	0,05998
271,639	0,06655
271,854	0,06205
272,069	0,06083
272,284	0,06481
272,5	0,05132
272,715	0,05602
272,93	0,04801
273,145	0,04354
273,36	0,03119
273,576	0,04262
273,791	0,02946
274,006	0,02269
274,221	0,02286
274,436	0,01353
274,651	0,00706
274,866	0,01858
275,081	0,0317
275,296	0,03519
275,512	0,04373
275,727	0,05854
275,942	0,05418
276,157	0,05724
276,372	0,04895
276,587	0,05768
276,802	0,07575
277,017	0,07257
277,232	0,06762
277,447	0,05672
277,662	0,05305
277,877	0,0487
278,092	0,0343
278,306	0,03536
278,521	0,0408
278,736	0,04414
278,951	0,03823
279,166	0,01801
279,381	0,01842
279,596	0,02464
279,811	0,0231
280,025	0,01198
280,24	0,01104
280,455	0,01561
280,67	0,00901
280,885	0,01298
281,099	0,0129
281,314	0,00532
281,529	0,0125
281,744	0,03196
281,959	0,02367
282,173	0,02958
282,388	0,05128
282,603	0,04594
282,817	0,05156
283,032	0,05621
283,247	0,04719
283,461	0,04507
283,676	0,04811
283,891	0,04509
284,105	0,04104
284,32	0,04739
284,535	0,0311
284,749	0,02539
284,964	0,045
285,178	0,04116
285,393	0,04608
285,607	0,03813
285,822	0,04376
286,036	0,04879
286,251	0,05297
286,465	0,05217
286,68	0,05261
286,894	0,05646
287,109	0,06449
287,323	0,04643
287,538	0,03759
287,752	0,03675
287,967	0,04913
288,181	0,03839
288,396	0,04999
288,61	0,05104
288,824	0,05519
289,039	0,04961
289,253	0,05555
289,467	0,04403
289,682	0,04918
289,896	0,06104
290,11	0,0513
290,325	0,04695
290,539	0,05049
290,753	0,04201
290,968	0,03718
291,182	0,01531
291,396	0,01033
291,61	0,01316
291,825	0,01891
292,039	0,01728
292,253	0,02057
292,467	0,02707
292,681	0,02653
292,896	0,02384
293,11	0,01567
293,324	0,02265
293,538	0,04436
293,752	0,0558
293,966	0,04919
294,18	0,04657
294,394	0,04593
294,608	0,04821
294,823	0,04562
295,037	0,04782
295,251	0,05033
295,465	0,05688
295,679	0,04825
295,893	0,03423
296,107	0,02386
296,321	0,03985
296,535	0,03228
296,749	0,03286
296,963	0,01843
297,177	0,01503
297,391	0,01493
297,604	0,00957
297,818	0,00458
298,032	0,00398
298,246	-0,00404
298,46	-0,00124
298,674	-0,01368
298,888	0,00956
299,102	0,01794
299,315	0,02953
299,529	0,04064
299,743	0,04244
299,957	0,04669
300,171	0,05305
300,385	0,06351
300,598	0,07417
300,812	0,07296
301,026	0,06491
301,24	0,0565
301,453	0,04751
301,667	0,04598
301,881	0,03843
302,094	0,03688
302,308	0,03767
302,522	0,04196
302,735	0,03464
302,949	0,03586
303,163	0,03553
303,376	0,04254
303,59	0,03577
303,803	0,0303
304,017	0,03407
304,231	0,03227
304,444	0,03533
304,658	0,03436
304,871	0,03605
305,085	0,03751
305,298	0,03532
305,512	0,03919
305,725	0,0403
305,939	0,03363
306,152	0,03226
306,366	0,01437
306,579	0,02123
306,793	0,01991
307,006	0,02744
307,22	0,0211
307,433	0,0226
307,646	0,019
307,86	0,01696
308,073	0,02153
308,286	0,02274
308,5	0,03326
308,713	0,03297
308,926	0,0342
309,14	0,02962
309,353	0,02597
309,566	0,02212
309,78	0,01378
309,993	0,02111
310,206	0,02997
310,419	0,02244
310,633	0,02111
310,846	0,02757
311,059	0,0436
311,272	0,03882
311,486	0,03569
311,699	0,03321
311,912	0,03313
312,125	0,04037
312,338	0,03479
312,551	0,03052
312,764	0,03834
312,978	0,0495
313,191	0,04553
313,404	0,03063
313,617	0,0251
313,83	0,03314
314,043	0,03726
314,256	0,03567
314,469	0,03481
314,682	0,03226
314,895	0,02976
315,108	0,03204
315,321	0,01844
315,534	0,01488
315,747	0,02258
315,96	0,02593
316,173	0,02381
316,386	0,01889
316,599	0,02514
316,812	0,03164
317,025	0,0399
317,237	0,03936
317,45	0,02733
317,663	0,0329
317,876	0,03676
318,089	0,03296
318,302	0,03199
318,515	0,02409
318,727	0,01734
318,94	0,01649
319,153	0,00559
319,366	0,00253
319,578	0,00066
319,791	0,01097
320,004	0,00272
320,217	0,00634
320,429	0,01344
320,642	0,01139
320,855	0,00981
321,067	0,01818
321,28	0,01146
321,493	0,01985
321,705	0,01099
321,918	0,01524
322,131	0,01417
322,343	0,01872
322,556	0,01433
322,768	0,00795
322,981	0,01437
323,194	0,02358
323,406	0,01927
323,619	0,02195
323,831	0,02105
324,044	0,03504
324,256	0,03315
324,469	0,02406
324,681	0,02974
324,894	0,0227
325,106	0,02828
325,319	0,01683
325,531	0,0152
325,743	0,01054
325,956	0,01466
326,168	0,00983
326,381	0,00615
326,593	-0,00015
326,805	0,00848
327,018	0,00633
327,23	0,00714
327,442	0,00846
327,655	0,00611
327,867	0,00363
328,079	0,00173
328,292	0,00277
328,504	0,00951
328,716	0,00483
328,928	0,01847
329,141	0,01696
329,353	0,02051
329,565	0,02286
329,777	0,01937
329,99	0,03249
330,202	0,04201
330,414	0,04738
330,626	0,05006
330,838	0,05111
331,05	0,05275
331,263	0,04765
331,475	0,05266
331,687	0,04814
331,899	0,05237
332,111	0,06034
332,323	0,06072
332,535	0,062
332,747	0,07016
332,959	0,06301
333,171	0,06239
333,383	0,06134
333,595	0,05827
333,807	0,05325
334,019	0,05642
334,231	0,05821
334,443	0,04804
334,655	0,04328
334,867	0,03915
335,079	0,0341
335,291	0,03124
335,503	0,0321
335,714	0,03645
335,926	0,03872
336,138	0,03381
336,35	0,02527
336,562	0,0214
336,774	0,02424
336,986	0,02254
337,197	0,01966
337,409	0,01591
337,621	0,01822
337,833	0,00878
338,044	0,0111
338,256	0,00601
338,468	0,00767
338,68	0,01426
338,891	0,00831
339,103	-0,00007
339,315	-0,002
339,526	0,00065
339,738	0,00608
339,95	0,00054
340,161	0,0119
340,373	0,00342
340,585	0,00298
340,796	0,00235
341,008	-0,00093
341,219	0,01179
341,431	0,01991
341,642	0,01912
341,854	0,02098
342,065	0,0275
342,277	0,0335
342,489	0,03171
342,7	0,03626
342,912	0,03928
343,123	0,04224
343,334	0,04515
343,546	0,02645
343,757	0,02382
343,969	0,02821
344,18	0,02441
344,392	0,02052
344,603	0,03063
344,814	0,03028
345,026	0,0359
345,237	0,03401
345,448	0,03316
345,66	0,03578
345,871	0,0458
346,082	0,04976
346,294	0,04629
346,505	0,04557
346,716	0,04296
346,927	0,03232
347,139	0,03327
347,35	0,02589
347,561	0,02837
347,772	0,02908
347,984	0,03187
348,195	0,03643
348,406	0,02903
348,617	0,039
348,828	0,0433
349,039	0,03822
349,251	0,04121
349,462	0,0389
349,673	0,03438
349,884	0,04263
350,095	0,04288
350,306	0,03428
350,517	0,03512
350,728	0,04355
350,939	0,03593
351,15	0,03296
351,361	0,03675
351,572	0,04183
351,783	0,0392
351,994	0,044
352,205	0,03739
352,416	0,03129
352,627	0,03732
352,838	0,03053
353,049	0,03199
353,26	0,03692
353,471	0,03087
353,682	0,02976
353,893	0,02453
354,103	0,02906
354,314	0,02456
354,525	0,02196
354,736	0,02814
354,947	0,02731
355,157	0,02584
355,368	0,02269
355,579	0,0156
355,79	0,01831
356,001	0,01143
356,211	0,01552
356,422	0,00172
356,633	0,01115
356,843	0,01308
357,054	0,01077
357,265	0,01754
357,476	0,02486
357,686	0,0226
357,897	0,02889
358,107	0,03218
358,318	0,04387
358,529	0,04574
358,739	0,06322
358,95	0,06273
359,16	0,06328
359,371	0,06206
359,582	0,04881
359,792	0,04544
360,003	0,04491
360,213	0,03614
360,424	0,03736
360,634	0,03596
360,845	0,0277
361,055	0,0243
361,266	0,02432
361,476	0,03299
361,686	0,03697
361,897	0,04362
362,107	0,04278
362,318	0,0442
362,528	0,05159
362,738	0,04112
362,949	0,03865
363,159	0,04521
363,369	0,03753
363,58	0,03254
363,79	0,02417
364	0,01999
364,211	0,02003
364,421	0,01565
364,631	0,02282
364,842	0,0161
365,052	0,02168
365,262	0,0186
365,472	0,01518
365,682	0,02311
365,893	0,02562
366,103	0,03017
366,313	0,03122
366,523	0,03148
366,733	0,03462
366,943	0,02966
367,154	0,03329
367,364	0,04182
367,574	0,04759
367,784	0,0491
367,994	0,05097
368,204	0,05361
368,414	0,05266
368,624	0,05468
368,834	0,0561
369,044	0,06329
369,254	0,06049
369,464	0,06235
369,674	0,05683
369,884	0,04891
370,094	0,04466
370,304	0,03684
370,514	0,03449
370,724	0,02688
370,934	0,02514
371,144	0,02077
371,353	0,01722
371,563	0,02062
371,773	0,02502
371,983	0,02256
372,193	0,03034
372,403	0,0337
372,612	0,03363
372,822	0,03181
373,032	0,03448
373,242	0,03354
373,452	0,03489
373,661	0,03605
373,871	0,03412
374,081	0,03094
374,29	0,03368
374,5	0,02991
374,71	0,02446
374,92	0,02885
375,129	0,03012
375,339	0,03132
375,549	0,02973
375,758	0,03024
375,968	0,02744
376,177	0,02362
376,387	0,02211
376,597	0,02417
376,806	0,02812
377,016	0,03502
377,225	0,03079
377,435	0,02601
377,644	0,0226
377,854	0,02677
378,063	0,02891
378,273	0,02915
378,482	0,03443
378,692	0,03891
378,901	0,0356
379,111	0,03389
379,32	0,03172
379,529	0,03372
379,739	0,03645
379,948	0,0407
380,158	0,03836
380,367	0,04045
380,576	0,04049
380,786	0,03637
380,995	0,03635
381,204	0,03842
381,414	0,03882
381,623	0,04013
381,832	0,03902
382,041	0,0401
382,251	0,0391
382,46	0,03881
382,669	0,02996
382,878	0,02614
383,088	0,02667
383,297	0,02265
383,506	0,01982
383,715	0,01729
383,924	0,01416
384,133	0,01212
384,342	0,01504
384,552	0,01528
384,761	0,01993
384,97	0,02477
385,179	0,03021
385,388	0,03361
385,597	0,03249
385,806	0,03646
386,015	0,03604
386,224	0,03812
386,433	0,03753
386,642	0,032
386,851	0,0319
387,06	0,0284
387,269	0,02657
387,478	0,02797
387,687	0,02415
387,896	0,02584
388,105	0,02225
388,314	0,01924
388,523	0,01628
388,731	0,02101
388,94	0,02558
389,149	0,0254
389,358	0,02508
389,567	0,0276
389,776	0,02411
389,984	0,02528
390,193	0,02478
390,402	0,02479
390,611	0,02848
390,819	0,03043
391,028	0,03043
391,237	0,02841
391,446	0,02654
391,654	0,0271
391,863	0,02538
392,072	0,02481
392,28	0,02553
392,489	0,02737
392,698	0,02733
392,906	0,0269
393,115	0,02368
393,324	0,02373
393,532	0,02244
393,741	0,0205
393,949	0,01778
394,158	0,01648
394,366	0,01624
394,575	0,0155
394,783	0,01084
394,992	0,01177
395,2	0,00837
395,409	0,01128
395,617	0,00768
395,826	0,01208
396,034	0,01258
396,243	0,0149
396,451	0,01493
396,66	0,01869
396,868	0,0178
397,076	0,01956
397,285	0,01749
397,493	0,01928
397,701	0,01855
397,91	0,01993
398,118	0,01791
398,326	0,0176
398,535	0,01483
398,743	0,01673
398,951	0,01494
399,159	0,01616
399,368	0,0179
399,576	0,01855
399,784	0,02083
399,992	0,02082
400,201	0,01911
400,409	0,01772
400,617	0,01962
400,825	0,02413
401,033	0,02288
401,241	0,02282
401,45	0,0227
401,658	0,02412
401,866	0,02634
402,074	0,02443
402,282	0,02456
402,49	0,024
402,698	0,02463
402,906	0,02368
403,114	0,02054
403,322	0,02061
403,53	0,02109
403,738	0,02095
403,946	0,01742
404,154	0,01469
404,362	0,01675
404,57	0,01402
404,778	0,01347
404,986	0,01389
405,194	0,01485
405,402	0,01649
405,609	0,01526
405,817	0,01241
406,025	0,0142
406,233	0,01696
406,441	0,01815
406,649	0,01713
406,856	0,01997
407,064	0,02105
407,272	0,02042
407,48	0,01863
407,687	0,01857
407,895	0,01966
408,103	0,02146
408,311	0,02054
408,518	0,01756
408,726	0,01819
408,934	0,01768
409,141	0,01575
409,349	0,01401
409,557	0,01289
409,764	0,01349
409,972	0,01367
410,18	0,01197
410,387	0,01116
410,595	0,01133
410,802	0,01005
411,01	0,00786
411,217	0,00724
411,425	0,00852
411,632	0,01087
411,84	0,01194
412,047	0,01129
412,255	0,00894
412,462	0,01053
412,67	0,01258
412,877	0,01247
413,085	0,01272
413,292	0,01296
413,499	0,01366
413,707	0,01267
413,914	0,01228
414,122	0,01065
414,329	0,01181
414,536	0,01381
414,744	0,01402
414,951	0,01153
415,158	0,01187
415,366	0,01271
415,573	0,01267
415,78	0,01341
415,987	0,01344
416,195	0,01367
416,402	0,01412
416,609	0,01455
416,816	0,01491
417,023	0,01454
417,231	0,01701
417,438	0,01703
417,645	0,01692
417,852	0,01736
418,059	0,01759
418,266	0,01753
418,473	0,0166
418,68	0,01854
418,888	0,01738
419,095	0,01631
419,302	0,01634
419,509	0,01347
419,716	0,01261
419,923	0,01236
420,13	0,01229
420,337	0,01135
420,544	0,01216
420,751	0,0126
420,958	0,01242
421,165	0,01371
421,371	0,01269
421,578	0,01222
421,785	0,01354
421,992	0,01434
422,199	0,01518
422,406	0,01596
422,613	0,01607
422,82	0,01619
423,026	0,01594
423,233	0,01502
423,44	0,01346
423,647	0,01479
423,854	0,01456
424,06	0,01442
424,267	0,01247
424,474	0,01183
424,681	0,00993
424,887	0,00941
425,094	0,00865
425,301	0,01057
425,507	0,00963
425,714	0,00932
425,921	0,00809
426,127	0,00815
426,334	0,00852
426,54	0,00915
426,747	0,01082
426,954	0,01124
427,16	0,01133
427,367	0,01152
427,573	0,01013
427,78	0,01064
427,986	0,01162
428,193	0,01101
428,399	0,01199
428,606	0,00993
428,812	0,01035
429,019	0,00947
429,225	0,01069
429,432	0,01151
429,638	0,01101
429,845	0,01063
430,051	0,01142
430,257	0,00993
430,464	0,01157
430,67	0,01137
430,876	0,01253
431,083	0,01354
431,289	0,01364
431,495	0,01347
431,702	0,01265
431,908	0,01303
432,114	0,01225
432,32	0,01122
432,527	0,01142
432,733	0,01112
432,939	0,01094
433,145	0,01202
433,351	0,01161
433,558	0,01133
433,764	0,01213
433,97	0,01156
434,176	0,01124
434,382	0,01354
434,588	0,01349
434,794	0,01321
435,001	0,01362
435,207	0,01363
435,413	0,01255
435,619	0,01216
435,825	0,01203
436,031	0,01095
436,237	0,01194
436,443	0,01321
436,649	0,01228
436,855	0,01243
437,061	0,01329
437,267	0,01334
437,473	0,0131
437,679	0,01392
437,884	0,01323
438,09	0,01285
438,296	0,01281
438,502	0,012
438,708	0,01083
438,914	0,01069
439,12	0,01161
439,325	0,01249
439,531	0,01265
439,737	0,01291
439,943	0,0127
440,149	0,01278
440,354	0,01301
440,56	0,01272
440,766	0,01248
440,972	0,01346
441,177	0,01393
441,383	0,01336
441,589	0,01345
441,794	0,01304
442	0,01289
442,206	0,01308
442,411	0,01379
442,617	0,01442
442,822	0,01522
443,028	0,0157
443,234	0,01597
443,439	0,01578
443,645	0,01633
443,85	0,01667
444,056	0,01677
444,261	0,01754
444,467	0,01723
444,672	0,01763
444,878	0,01814
445,083	0,01826
445,289	0,01885
445,494	0,01933
445,699	0,0196
445,905	0,01989
446,11	0,01974
446,316	0,01996
446,521	0,01983
446,726	0,02017
446,932	0,01939
447,137	0,01914
447,342	0,01919
447,548	0,01924
447,753	0,01871
447,958	0,01934
448,164	0,01799
448,369	0,01747
448,574	0,01711
448,779	0,01658
448,984	0,01708
449,19	0,01765
449,395	0,01767
449,6	0,01707
449,805	0,01699
450,01	0,01677
450,215	0,01621
450,421	0,01678
450,626	0,01701
450,831	0,01704
451,036	0,0171
451,241	0,017
451,446	0,01638
451,651	0,01715
451,856	0,01749
452,061	0,01795
452,266	0,01861
452,471	0,01845
452,676	0,01936
452,881	0,01987
453,086	0,02028
453,291	0,02079
453,496	0,02055
453,701	0,02138
453,906	0,02092
454,111	0,0205
454,316	0,02009
454,52	0,01991
454,725	0,01954
454,93	0,01927
455,135	0,01942
455,34	0,01953
455,545	0,01962
455,749	0,01997
455,954	0,01947
456,159	0,01945
456,364	0,02127
456,568	0,02147
456,773	0,02181
456,978	0,02271
457,182	0,02322
457,387	0,02278
457,592	0,02305
457,796	0,02263
458,001	0,02291
458,206	0,02376
458,41	0,02393
458,615	0,02287
458,82	0,02352
459,024	0,02427
459,229	0,02474
459,433	0,02493
459,638	0,02555
459,842	0,02562
460,047	0,02559
460,251	0,02557
460,456	0,02502
460,66	0,02488
460,865	0,02516
461,069	0,02486
461,274	0,02425
461,478	0,02365
461,682	0,02292
461,887	0,02306
462,091	0,02316
462,296	0,02465
462,5	0,02525
462,704	0,02605
462,909	0,02589
463,113	0,0258
463,317	0,02658
463,522	0,02718
463,726	0,02773
463,93	0,02789
464,134	0,0275
464,339	0,02782
464,543	0,02701
464,747	0,02659
464,951	0,0271
465,155	0,02791
465,36	0,02894
465,564	0,02843
465,768	0,02805
465,972	0,02894
466,176	0,02908
466,38	0,02989
466,584	0,0303
466,788	0,03048
466,993	0,03086
467,197	0,03063
467,401	0,03098
467,605	0,03034
467,809	0,03141
468,013	0,0321
468,217	0,03185
468,421	0,03207
468,625	0,03211
468,829	0,0319
469,033	0,03242
469,236	0,03285
469,44	0,03286
469,644	0,03318
469,848	0,03352
470,052	0,03321
470,256	0,03274
470,46	0,03278
470,664	0,03347
470,867	0,03385
471,071	0,0341
471,275	0,03449
471,479	0,03479
471,683	0,03486
471,886	0,03506
472,09	0,03557
472,294	0,03565
472,497	0,03605
472,701	0,03598
472,905	0,03609
473,109	0,03634
473,312	0,03664
473,516	0,03735
473,719	0,03736
473,923	0,03828
474,127	0,03855
474,33	0,0386
474,534	0,03909
474,737	0,03969
474,941	0,04047
475,145	0,04051
475,348	0,04059
475,552	0,04065
475,755	0,0402
475,959	0,04064
476,162	0,04055
476,366	0,04041
476,569	0,04074
476,772	0,04115
476,976	0,04134
477,179	0,04168
477,383	0,04225
477,586	0,04223
477,789	0,04276
477,993	0,04366
478,196	0,0439
478,399	0,04442
478,603	0,0452
478,806	0,04565
479,009	0,04569
479,213	0,04567
479,416	0,04581
479,619	0,04661
479,822	0,04738
480,026	0,04812
480,229	0,04813
480,432	0,04863
480,635	0,04861
480,838	0,04907
481,041	0,04889
481,245	0,04902
481,448	0,04928
481,651	0,0497
481,854	0,04973
482,057	0,04981
482,26	0,05008
482,463	0,05069
482,666	0,05102
482,869	0,0515
483,072	0,0517
483,275	0,0525
483,478	0,05299
483,681	0,05395
483,884	0,05411
484,087	0,05449
484,29	0,0553
484,493	0,05559
484,696	0,05556
484,899	0,05602
485,102	0,05647
485,305	0,05673
485,508	0,05739
485,71	0,05799
485,913	0,05824
486,116	0,05875
486,319	0,0592
486,522	0,05935
486,725	0,0596
486,927	0,06045
487,13	0,06107
487,333	0,0618
487,536	0,06219
487,738	0,0626
487,941	0,06289
488,144	0,06352
488,346	0,06419
488,549	0,06425
488,752	0,06485
488,954	0,06582
489,157	0,06577
489,359	0,06594
489,562	0,0661
489,765	0,06654
489,967	0,06702
490,17	0,06782
490,372	0,06816
490,575	0,06833
490,777	0,06919
490,98	0,06961
491,182	0,06954
491,385	0,07036
491,587	0,07081
491,79	0,0713
491,992	0,07172
492,195	0,07197
492,397	0,07221
492,599	0,07266
492,802	0,0731
493,004	0,07347
493,207	0,0739
493,409	0,07472
493,611	0,07511
493,814	0,07553
494,016	0,07597
494,218	0,07638
494,42	0,07689
494,623	0,07748
494,825	0,07807
495,027	0,07853
495,229	0,07926
495,432	0,07971
495,634	0,08013
495,836	0,08078
496,038	0,08159
496,24	0,08213
496,442	0,0825
496,645	0,08313
496,847	0,0838
497,049	0,08414
497,251	0,08472
497,453	0,08533
497,655	0,08595
497,857	0,08657
498,059	0,08715
498,261	0,08731
498,463	0,0881
498,665	0,0893
498,867	0,0899
499,069	0,09021
499,271	0,09089
499,473	0,09165
499,675	0,09216
499,877	0,09277
500,079	0,09329
500,281	0,09362
500,482	0,09454
500,684	0,09512
500,886	0,09539
501,088	0,09589
501,29	0,09671
501,492	0,09742
501,693	0,09806
501,895	0,09852
502,097	0,09912
502,299	0,0997
502,5	0,1006
502,702	0,10127
502,904	0,1022
503,106	0,10307
503,307	0,10379
503,509	0,10441
503,711	0,10504
503,912	0,10586
504,114	0,10666
504,315	0,10728
504,517	0,10816
504,719	0,10867
504,92	0,10923
505,122	0,10959
505,323	0,10997
505,525	0,1106
505,726	0,11136
505,928	0,11196
506,129	0,11273
506,331	0,11343
506,532	0,11435
506,734	0,11493
506,935	0,11568
507,137	0,11643
507,338	0,11696
507,539	0,11779
507,741	0,1187
507,942	0,11937
508,143	0,12016
508,345	0,12083
508,546	0,12139
508,747	0,12203
508,949	0,12274
509,15	0,12346
509,351	0,12406
509,553	0,12472
509,754	0,12548
509,955	0,12601
510,156	0,12689
510,357	0,12758
510,559	0,12824
510,76	0,12907
510,961	0,13016
511,162	0,13094
511,363	0,13179
511,564	0,13262
511,766	0,13373
511,967	0,13479
512,168	0,13566
512,369	0,13635
512,57	0,13717
512,771	0,13825
512,972	0,13903
513,173	0,13963
513,374	0,14053
513,575	0,14148
513,776	0,14238
513,977	0,14291
514,178	0,14347
514,379	0,14423
514,58	0,14502
514,781	0,14606
514,981	0,14679
515,182	0,14749
515,383	0,14839
515,584	0,14931
515,785	0,15008
515,986	0,15099
516,187	0,15218
516,387	0,15307
516,588	0,15426
516,789	0,15502
516,99	0,15586
517,19	0,15663
517,391	0,15798
517,592	0,15893
517,793	0,15967
517,993	0,16066
518,194	0,16164
518,395	0,16245
518,595	0,16344
518,796	0,16424
518,996	0,16541
519,197	0,16623
519,398	0,16692
519,598	0,16756
519,799	0,16826
519,999	0,16917
520,2	0,1702
520,4	0,17083
520,601	0,17179
520,801	0,17264
521,002	0,17347
521,202	0,17418
521,403	0,17504
521,603	0,17626
521,804	0,17722
522,004	0,17806
522,204	0,17894
522,405	0,17971
522,605	0,18071
522,806	0,18155
523,006	0,18255
523,206	0,18334
523,407	0,18439
523,607	0,18544
523,807	0,18614
524,007	0,18699
524,208	0,18788
524,408	0,18866
524,608	0,18956
524,808	0,19039
525,009	0,19144
525,209	0,19216
525,409	0,19311
525,609	0,19376
525,809	0,19457
526,009	0,19558
526,209	0,19629
526,41	0,19722
526,61	0,19848
526,81	0,19927
527,01	0,20012
527,21	0,20082
527,41	0,20181
527,61	0,2028
527,81	0,20367
528,01	0,20463
528,21	0,20555
528,41	0,2065
528,61	0,20734
528,81	0,20789
529,01	0,20859
529,21	0,20951
529,41	0,21024
529,609	0,21092
529,809	0,21152
530,009	0,21249
530,209	0,21329
530,409	0,21364
530,609	0,2145
530,808	0,21525
531,008	0,21618
531,208	0,21709
531,408	0,21796
531,608	0,21869
531,807	0,21952
532,007	0,22052
532,207	0,22098
532,406	0,22179
532,606	0,22294
532,806	0,22398
533,005	0,22445
533,205	0,22484
533,405	0,22547
533,604	0,22606
533,804	0,22685
534,003	0,22779
534,203	0,22826
534,403	0,22896
534,602	0,22939
534,802	0,22983
535,001	0,23034
535,201	0,23126
535,4	0,23195
535,6	0,23257
535,799	0,23308
535,998	0,2338
536,198	0,23421
536,397	0,23497
536,597	0,23585
536,796	0,23656
536,995	0,23725
537,195	0,23782
537,394	0,23835
537,594	0,23925
537,793	0,24
537,992	0,24085
538,191	0,24156
538,391	0,24227
538,59	0,24282
538,789	0,24337
538,988	0,24382
539,188	0,24434
539,387	0,24506
539,586	0,24589
539,785	0,24638
539,984	0,24704
540,184	0,24754
540,383	0,24817
540,582	0,2487
540,781	0,24944
540,98	0,25007
541,179	0,2508
541,378	0,25149
541,577	0,25183
541,776	0,25229
541,975	0,2529
542,174	0,25338
542,373	0,2538
542,572	0,25393
542,771	0,25436
542,97	0,25468
543,169	0,25508
543,368	0,25538
543,567	0,25589
543,766	0,25634
543,965	0,25678
544,164	0,25701
544,362	0,25759
544,561	0,25811
544,76	0,25877
544,959	0,2592
545,158	0,25979
545,356	0,26003
545,555	0,26062
545,754	0,26085
545,953	0,26116
546,151	0,2617
546,35	0,26212
546,549	0,26213
546,748	0,26242
546,946	0,26274
547,145	0,26314
547,344	0,26333
547,542	0,26371
547,741	0,26403
547,939	0,26424
548,138	0,26455
548,337	0,26461
548,535	0,26496
548,734	0,26538
548,932	0,26567
549,131	0,26601
549,329	0,26628
549,528	0,26651
549,726	0,26684
549,925	0,26694
550,123	0,26743
550,322	0,26782
550,52	0,26815
550,718	0,26837
550,917	0,26862
551,115	0,26879
551,313	0,26907
551,512	0,26942
551,71	0,26964
551,908	0,26995
552,107	0,2705
552,305	0,2706
552,503	0,27082
552,702	0,27097
552,9	0,27119
553,098	0,27147
553,296	0,27197
553,495	0,27227
553,693	0,27251
553,891	0,27302
554,089	0,27321
554,287	0,27334
554,485	0,27371
554,683	0,27387
554,882	0,27444
555,08	0,27481
555,278	0,27517
555,476	0,27531
555,674	0,27556
555,872	0,27583
556,07	0,27605
556,268	0,2765
556,466	0,27676
556,664	0,27707
556,862	0,2776
557,06	0,27793
557,258	0,27813
557,456	0,27857
557,654	0,27892
557,851	0,27921
558,049	0,2793
558,247	0,2796
558,445	0,2799
558,643	0,28023
558,841	0,2808
559,039	0,28115
559,236	0,28139
559,434	0,28193
559,632	0,28206
559,83	0,28258
560,027	0,28291
560,225	0,28345
560,423	0,28387
560,62	0,28432
560,818	0,28449
561,016	0,28479
561,213	0,28514
561,411	0,28543
561,609	0,28587
561,806	0,28647
562,004	0,28666
562,202	0,28691
562,399	0,28745
562,597	0,28785
562,794	0,28818
562,992	0,28884
563,189	0,28925
563,387	0,28974
563,584	0,29047
563,782	0,29099
563,979	0,29131
564,177	0,29201
564,374	0,29275
564,571	0,29331
564,769	0,29383
564,966	0,2943
565,164	0,29503
565,361	0,29546
565,558	0,29592
565,756	0,29631
565,953	0,29682
566,15	0,29759
566,347	0,29823
566,545	0,29897
566,742	0,29962
566,939	0,30023
567,136	0,30088
567,334	0,30124
567,531	0,30207
567,728	0,30283
567,925	0,3036
568,122	0,30434
568,319	0,30485
568,517	0,30543
568,714	0,30582
568,911	0,30629
569,108	0,30708
569,305	0,30785
569,502	0,3086
569,699	0,30923
569,896	0,30983
570,093	0,31049
570,29	0,31119
570,487	0,31209
570,684	0,31313
570,881	0,31403
571,078	0,31505
571,275	0,31583
571,472	0,31668
571,669	0,31749
571,866	0,31812
572,062	0,319
572,259	0,31977
572,456	0,3205
572,653	0,32127
572,85	0,32186
573,047	0,32265
573,243	0,32325
573,44	0,32399
573,637	0,32477
573,834	0,32579
574,03	0,32698
574,227	0,32797
574,424	0,32895
574,62	0,32981
574,817	0,33075
575,014	0,33166
575,21	0,3325
575,407	0,33356
575,604	0,33444
575,8	0,33549
575,997	0,33629
576,193	0,33702
576,39	0,33777
576,586	0,33868
576,783	0,33959
576,979	0,34035
577,176	0,34112
577,372	0,34211
577,569	0,34277
577,765	0,3437
577,962	0,34449
578,158	0,34538
578,355	0,34617
578,551	0,34711
578,747	0,34793
578,944	0,34892
579,14	0,34973
579,336	0,35066
579,533	0,35158
579,729	0,3526
579,925	0,35336
580,122	0,3541
580,318	0,35479
580,514	0,35557
580,71	0,35634
580,906	0,35714
581,103	0,35798
581,299	0,35868
581,495	0,35931
581,691	0,3601
581,887	0,36095
582,084	0,36176
582,28	0,36257
582,476	0,36361
582,672	0,36418
582,868	0,36479
583,064	0,36548
583,26	0,366
583,456	0,36691
583,652	0,36766
583,848	0,36816
584,044	0,36858
584,24	0,36917
584,436	0,36972
584,632	0,36986
584,828	0,37076
585,024	0,37149
585,22	0,372
585,416	0,37243
585,611	0,37279
585,807	0,37311
586,003	0,37375
586,199	0,37404
586,395	0,37435
586,591	0,37473
586,786	0,37548
586,982	0,37565
587,178	0,37579
587,374	0,37605
587,569	0,37639
587,765	0,37663
587,961	0,37708
588,156	0,37723
588,352	0,37748
588,548	0,37772
588,743	0,37772
588,939	0,37759
589,135	0,37763
589,33	0,37765
589,526	0,37771
589,721	0,37775
589,917	0,37771
590,112	0,37751
590,308	0,37733
590,503	0,3774
590,699	0,37724
590,894	0,3772
591,09	0,37713
591,285	0,37697
591,481	0,37667
591,676	0,37641
591,872	0,37598
592,067	0,37548
592,262	0,37519
592,458	0,37484
592,653	0,37431
592,848	0,37384
593,044	0,37345
593,239	0,3729
593,434	0,37215
593,629	0,3716
593,825	0,37088
594,02	0,37043
594,215	0,36982
594,41	0,36907
594,606	0,36829
594,801	0,36763
594,996	0,36683
595,191	0,366
595,386	0,36516
595,581	0,36447
595,777	0,36372
595,972	0,36267
596,167	0,36155
596,362	0,36055
596,557	0,35957
596,752	0,35862
596,947	0,35737
597,142	0,35618
597,337	0,35489
597,532	0,35372
597,727	0,35246
597,922	0,35125
598,117	0,35013
598,312	0,34873
598,507	0,34754
598,701	0,34593
598,896	0,34436
599,091	0,34302
599,286	0,34163
599,481	0,33984
599,676	0,33833
599,87	0,33679
600,065	0,33521
600,26	0,33361
600,455	0,33214
600,65	0,33051
600,844	0,32901
601,039	0,32734
601,234	0,32562
601,428	0,32386
601,623	0,32251
601,818	0,32086
602,012	0,3193
602,207	0,31745
602,402	0,31567
602,596	0,31368
602,791	0,31191
602,985	0,31031
603,18	0,3085
603,374	0,30673
603,569	0,30483
603,763	0,30306
603,958	0,301
604,152	0,2991
604,347	0,29708
604,541	0,29513
604,736	0,29324
604,93	0,29106
605,125	0,28887
605,319	0,2868
605,513	0,2847
605,708	0,28288
605,902	0,28058
606,096	0,27866
606,291	0,27651
606,485	0,27443
606,679	0,2723
606,874	0,27029
607,068	0,26848
607,262	0,26647
607,456	0,26462
607,65	0,26251
607,845	0,26033
608,039	0,25845
608,233	0,25625
608,427	0,25419
608,621	0,25222
608,815	0,25026
609,01	0,24822
609,204	0,24603
609,398	0,24399
609,592	0,24177
609,786	0,23997
609,98	0,23802
610,174	0,236
610,368	0,23411
610,562	0,23183
610,756	0,22977
610,95	0,22766
611,144	0,2256
611,338	0,22358
611,532	0,22143
611,726	0,21942
611,919	0,21719
612,113	0,21496
612,307	0,21271
612,501	0,21056
612,695	0,20872
612,889	0,20662
613,082	0,20464
613,276	0,20254
613,47	0,20055
613,664	0,19855
613,857	0,19652
614,051	0,19456
614,245	0,19269
614,439	0,19078
614,632	0,18891
614,826	0,18689
615,02	0,18497
615,213	0,18307
615,407	0,18122
615,6	0,17925
615,794	0,17731
615,988	0,17534
616,181	0,1735
616,375	0,17161
616,568	0,16977
616,762	0,16783
616,955	0,16616
617,149	0,16415
617,342	0,16226
617,536	0,16039
617,729	0,15859
617,923	0,157
618,116	0,15528
618,309	0,15344
618,503	0,15173
618,696	0,14991
618,889	0,14824
619,083	0,14636
619,276	0,14477
619,469	0,14299
619,663	0,14133
619,856	0,13962
620,049	0,13787
620,242	0,13635
620,436	0,13467
620,629	0,13309
620,822	0,13163
621,015	0,1299
621,209	0,12839
621,402	0,12694
621,595	0,12548
621,788	0,12396
621,981	0,12239
622,174	0,12086
622,367	0,11938
622,56	0,11794
622,753	0,11645
622,946	0,11496
623,139	0,11363
623,332	0,11227
623,525	0,11073
623,718	0,10936
623,911	0,10809
624,104	0,10682
624,297	0,10543
624,49	0,10413
624,683	0,10283
624,876	0,10147
625,069	0,10012
625,262	0,09883
625,454	0,09738
625,647	0,09628
625,84	0,09492
626,033	0,09373
626,226	0,09256
626,418	0,0914
626,611	0,09012
626,804	0,0889
626,997	0,08775
627,189	0,08664
627,382	0,08551
627,575	0,0845
627,767	0,08342
627,96	0,08247
628,153	0,0813
628,345	0,08022
628,538	0,07912
628,731	0,07805
628,923	0,07708
629,116	0,07609
629,308	0,07506
629,501	0,07408
629,693	0,07312
629,886	0,07214
630,078	0,07111
630,271	0,07025
630,463	0,06932
630,656	0,06842
630,848	0,06741
631,04	0,0664
631,233	0,06553
631,425	0,06475
631,617	0,06371
631,81	0,0628
632,002	0,06178
632,194	0,06095
632,387	0,06004
632,579	0,05924
632,771	0,05836
632,964	0,0577
633,156	0,05689
633,348	0,05587
633,54	0,05507
633,732	0,05432
633,925	0,05351
634,117	0,05293
634,309	0,05225
634,501	0,05151
634,693	0,05073
634,885	0,0501
635,077	0,04944
635,269	0,04882
635,462	0,04839
635,654	0,04765
635,846	0,04711
636,038	0,04654
636,23	0,04582
636,422	0,04514
636,614	0,04445
636,806	0,04381
636,997	0,04318
637,189	0,04245
637,381	0,0418
637,573	0,0412
637,765	0,04065
637,957	0,04007
638,149	0,0395
638,341	0,03905
638,532	0,03849
638,724	0,03791
638,916	0,03746
639,108	0,03684
639,299	0,03638
639,491	0,03587
639,683	0,03539
639,875	0,03499
640,066	0,03454
640,258	0,03403
640,45	0,03347
640,641	0,03308
640,833	0,0327
641,025	0,03227
641,216	0,03196
641,408	0,03148
641,599	0,03105
641,791	0,03065
641,982	0,03016
642,174	0,02966
642,366	0,02926
642,557	0,02879
642,748	0,02821
642,94	0,02781
643,131	0,02727
643,323	0,02685
643,514	0,02649
643,706	0,02617
643,897	0,02576
644,088	0,02544
644,28	0,02512
644,471	0,02479
644,662	0,02453
644,854	0,02425
645,045	0,02392
645,236	0,02359
645,428	0,02328
645,619	0,02286
645,81	0,02247
646,001	0,02202
646,193	0,02165
646,384	0,02132
646,575	0,02103
646,766	0,02073
646,957	0,02043
647,148	0,02012
647,339	0,01988
647,531	0,01958
647,722	0,01931
647,913	0,01901
648,104	0,01883
648,295	0,0185
648,486	0,01816
648,677	0,01775
648,868	0,01746
649,059	0,01722
649,25	0,01696
649,441	0,01678
649,632	0,01644
649,823	0,0163
650,013	0,01615
650,204	0,0158
650,395	0,01558
650,586	0,01542
650,777	0,01535
650,968	0,01509
651,159	0,0149
651,349	0,01467
651,54	0,01434
651,731	0,01413
651,922	0,01391
652,112	0,01368
652,303	0,0136
652,494	0,01344
652,684	0,01326
652,875	0,01305
653,066	0,01299
653,256	0,0128
653,447	0,01257
653,638	0,01249
653,828	0,01239
654,019	0,01222
654,209	0,01204
654,4	0,01182
654,59	0,01171
654,781	0,01161
654,972	0,01145
655,162	0,01122
655,352	0,01112
655,543	0,01093
655,733	0,01078
655,924	0,01066
656,114	0,01049
656,305	0,01035
656,495	0,01029
656,685	0,01008
656,876	0,00996
657,066	0,00982
657,256	0,00973
657,447	0,00957
657,637	0,00957
657,827	0,00943
658,017	0,0093
658,208	0,00913
658,398	0,00894
658,588	0,00868
658,778	0,00867
658,968	0,00846
659,159	0,00835
659,349	0,00816
659,539	0,00793
659,729	0,00777
659,919	0,00775
660,109	0,00764
660,299	0,00761
660,489	0,00762
660,679	0,00764
660,869	0,00746
661,059	0,00743
661,249	0,00723
661,439	0,0071
661,629	0,00705
661,819	0,00695
662,009	0,00677
662,199	0,00663
662,389	0,0065
662,579	0,00637
662,769	0,00621
662,959	0,00617
663,149	0,00612
663,338	0,00615
663,528	0,00613
663,718	0,00608
663,908	0,00601
664,097	0,00587
664,287	0,00581
664,477	0,00569
664,667	0,00553
664,856	0,00546
665,046	0,00531
665,236	0,0052
665,425	0,00509
665,615	0,00506
665,805	0,00509
665,994	0,00502
666,184	0,00502
666,373	0,00502
666,563	0,00498
666,753	0,00499
666,942	0,00494
667,132	0,00478
667,321	0,00465
667,511	0,00466
667,7	0,00454
667,889	0,0043
668,079	0,00429
668,268	0,00424
668,458	0,00414
668,647	0,00409
668,836	0,00402
669,026	0,00396
669,215	0,00395
669,404	0,00398
669,594	0,00385
669,783	0,00383
669,972	0,00386
670,162	0,00377
670,351	0,00367
670,54	0,00353
670,729	0,00354
670,919	0,00346
671,108	0,0034
671,297	0,00343
671,486	0,00335
671,675	0,00327
671,864	0,00319
672,053	0,0032
672,243	0,00315
672,432	0,00312
672,621	0,00317
672,81	0,00314
672,999	0,0032
673,188	0,00323
673,377	0,00312
673,566	0,00309
673,755	0,00315
673,944	0,00305
674,133	0,00288
674,322	0,00291
674,51	0,00298
674,699	0,00296
674,888	0,00283
675,077	0,00268
675,266	0,00262
675,455	0,00265
675,644	0,00259
675,832	0,00242
676,021	0,00237
676,21	0,00246
676,399	0,00229
676,587	0,00215
676,776	0,00208
676,965	0,00208
677,153	0,00211
677,342	0,0021
677,531	0,00206
677,719	0,00201
677,908	0,00203
678,097	0,00206
678,285	0,00191
678,474	0,00198
678,662	0,002
678,851	0,00195
679,039	0,00183
679,228	0,00177
679,416	0,00179
679,605	0,00177
679,793	0,00183
679,982	0,0018
680,17	0,00175
680,359	0,00191
680,547	0,00189
680,736	0,0018
680,924	0,00179
681,112	0,00189
681,301	0,00194
681,489	0,00185
681,677	0,00179
681,866	0,00166
682,054	0,00155
682,242	0,00151
682,43	0,00152
682,619	0,00137
682,807	0,00134
682,995	0,0013
683,183	0,00121
683,371	0,00119
683,559	0,00118
683,748	0,00122
683,936	0,00129
684,124	0,00139
684,312	0,00141
684,5	0,00119
684,688	0,00133
684,876	0,00134
685,064	0,00125
685,252	0,00126
685,44	0,00122
685,628	0,0012
685,816	0,00119
686,004	0,00112
686,192	0,00111
686,38	0,00104
686,568	0,00119
686,756	0,00102
686,944	0,00099
687,131	0,00113
687,319	0,00115
687,507	0,00111
687,695	0,00099
687,883	0,00093
688,07	0,00098
688,258	0,001
688,446	0,00096
688,634	0,0009
688,821	0,00098
689,009	0,00097
689,197	0,00087
689,384	0,00081
689,572	0,00076
689,76	0,00081
689,947	0,00075
690,135	0,0007
690,323	0,0007
690,51	0,00076
690,698	0,00072
690,885	0,0007
691,073	0,00066
691,26	0,00056
691,448	0,00062
691,635	0,00072
691,823	0,00069
692,01	0,00067
692,197	0,00059
692,385	0,00053
692,572	0,00046
692,76	0,0004
692,947	0,00046
693,134	0,00057
693,322	0,00062
693,509	0,00046
693,696	0,00029
693,884	0,00031
694,071	0,00034
694,258	0,00039
694,445	0,00035
694,633	0,00032
694,82	0,00031
695,007	0,00034
695,194	0,00029
695,381	0,00027
695,568	0,0003
695,756	0,00039
695,943	0,00035
696,13	0,0003
696,317	0,00035
696,504	0,00036
696,691	0,00039
696,878	0,00042
697,065	0,0003
697,252	0,0003
697,439	0,00029
697,626	0,00034
697,813	0,00029
698	0,00028
698,187	0,00026
698,374	0,00025
698,561	0,00026
698,747	0,00028
698,934	0,00026
699,121	0,00032
699,308	0,00016
699,495	0,0002
699,682	0,00019
699,868	0,00021
700,055	0,00013
700,242	0,00013
700,429	-0,00002
700,615	-0,00015
700,802	-0,00021
700,989	-0,00028
701,175	-0,00042
701,362	-0,00033
701,549	-0,00039
701,735	-0,00048
701,922	-0,00051
702,108	-0,00042
702,295	-0,00042
702,482	-0,00041
702,668	-0,00023
702,855	-0,00025
703,041	-0,00017
703,228	-0,00009
703,414	-0,00007
703,601	-0,00003
703,787	0,00008
703,973	-0,00003
704,16	-0,00016
704,346	-0,00014
704,533	-0,00012
704,719	-0,00022
704,905	-0,00029
705,092	-0,00031
705,278	-0,00031
705,464	-0,00037
705,65	-0,00035
705,837	-0,00048
706,023	-0,00036
706,209	-0,00024
706,395	-0,00024
706,582	-0,00026
706,768	-0,0003
706,954	-0,00018
707,14	-0,0002
707,326	-0,00027
707,512	-0,00029
707,698	-0,00028
707,885	-0,0003
708,071	-0,00039
708,257	-0,00046
708,443	-0,00049
708,629	-0,00036
708,815	-0,00038
709,001	-0,00049
709,187	-0,00055
709,373	-0,00048
709,559	-0,0004
709,745	-0,00047
709,93	-0,00047
710,116	-0,0005
710,302	-0,00046
710,488	-0,0004
710,674	-0,00049
710,86	-0,00048
711,046	-0,00043
711,231	-0,00037
711,417	-0,00039
711,603	-0,00047
711,789	-0,00052
711,974	-0,00045
712,16	-0,0005
712,346	-0,0006
712,532	-0,00062
712,717	-0,00069
712,903	-0,00073
713,089	-0,00072
713,274	-0,00082
713,46	-0,00093
713,645	-0,00092
713,831	-0,00082
714,016	-0,00081
714,202	-0,0006
714,388	-0,00043
714,573	-0,00055
714,759	-0,00054
714,944	-0,00054
715,129	-0,00061
715,315	-0,00049
715,5	-0,00051
715,686	-0,00051
715,871	-0,00054
716,057	-0,00053
716,242	-0,00053
716,427	-0,00071
716,613	-0,00065
716,798	-0,00068
716,983	-0,00062
717,168	-0,00047
717,354	-0,00048
717,539	-0,00043
717,724	-0,00044
717,909	-0,00054
718,095	-0,0006
718,28	-0,00071
718,465	-0,0006
718,65	-0,00062
718,835	-0,00069
719,02	-0,00069
719,206	-0,00079
719,391	-0,00081
719,576	-0,00087
719,761	-0,00085
719,946	-0,0008
720,131	-0,00078
720,316	-0,00082
720,501	-0,0009
720,686	-0,00085
720,871	-0,00072
721,056	-0,00072
721,241	-0,00082
721,426	-0,00088
721,61	-0,00084
721,795	-0,00087
721,98	-0,00092
722,165	-0,00093
722,35	-0,00079
722,535	-0,00087
722,719	-0,00097
722,904	-0,00102
723,089	-0,00104
723,274	-0,00093
723,458	-0,00098
723,643	-0,00099
723,828	-0,00102
724,013	-0,00104
724,197	-0,00106
724,382	-0,00124
724,567	-0,00111
724,751	-0,00104
724,936	-0,00109
725,12	-0,00111
725,305	-0,00123
725,489	-0,00118
725,674	-0,0012
725,859	-0,00111
726,043	-0,00109
726,228	-0,00106
726,412	-0,00105
726,596	-0,00108
726,781	-0,00104
726,965	-0,00101
727,15	-0,00097
727,334	-0,00097
727,518	-0,00094
727,703	-0,00084
727,887	-0,00098
728,072	-0,00095
728,256	-0,0009
728,44	-0,00087
728,624	-0,00094
728,809	-0,00101
728,993	-0,00098
729,177	-0,00101
729,361	-0,00098
729,546	-0,00103
729,73	-0,00105
729,914	-0,00112
730,098	-0,0012
730,282	-0,00135
730,466	-0,00131
730,65	-0,00124
730,834	-0,00119
731,019	-0,00128
731,203	-0,00129
731,387	-0,00124
731,571	-0,0013
731,755	-0,00142
731,939	-0,00129
732,123	-0,00124
732,306	-0,00119
732,49	-0,00136
732,674	-0,00139
732,858	-0,00148
733,042	-0,00144
733,226	-0,00142
733,41	-0,00142
733,594	-0,0013
733,778	-0,00129
733,961	-0,00119
734,145	-0,0012
734,329	-0,00112
734,513	-0,00098
734,696	-0,0009
734,88	-0,00089
735,064	-0,00093
735,247	-0,00106
735,431	-0,00106
735,615	-0,00119
735,798	-0,00111
735,982	-0,00117
736,166	-0,00115
736,349	-0,00129
736,533	-0,0013
736,716	-0,00128
736,9	-0,0013
737,083	-0,00128
737,267	-0,00126
737,45	-0,00132
737,634	-0,00125
737,817	-0,00124
738,001	-0,00129
738,184	-0,00126
738,368	-0,00116
738,551	-0,00121
738,734	-0,00129
738,918	-0,00121
739,101	-0,00108
739,284	-0,00104
739,468	-0,00103
739,651	-0,00093
739,834	-0,00092
740,018	-0,00099
740,201	-0,00101
740,384	-0,00099
740,567	-0,00096
740,75	-0,00089
740,934	-0,00107
741,117	-0,00118
741,3	-0,00112
741,483	-0,00114
741,666	-0,00122
741,849	-0,00127
742,032	-0,00124
742,215	-0,00127
742,399	-0,00132
742,582	-0,00132
742,765	-0,00138
742,948	-0,00123
743,131	-0,00116
743,314	-0,00127
743,496	-0,00126
743,679	-0,00124
743,862	-0,00127
744,045	-0,00123
744,228	-0,00124
744,411	-0,00131
744,594	-0,00133
744,777	-0,00133
744,959	-0,0014
745,142	-0,00139
745,325	-0,00121
745,508	-0,00127
745,691	-0,00123
745,873	-0,00127
746,056	-0,00121
746,239	-0,00115
746,421	-0,00103
746,604	-0,00107
746,787	-0,0011
746,969	-0,00097
747,152	-0,00109
747,335	-0,0013
747,517	-0,00122
747,7	-0,00128
747,882	-0,0012
748,065	-0,0013
748,247	-0,00134
748,43	-0,00148
748,612	-0,00139
748,795	-0,00141
748,977	-0,00149
749,16	-0,00154
749,342	-0,00144
749,524	-0,00143
749,707	-0,00146
749,889	-0,00154
750,072	-0,00157
750,254	-0,00158
750,436	-0,00154
750,619	-0,00156
750,801	-0,00156
750,983	-0,00162
751,165	-0,00157
751,348	-0,00154
751,53	-0,00163
751,712	-0,00159
751,894	-0,00157
752,076	-0,00147
752,259	-0,00149
752,441	-0,0015
752,623	-0,00152
752,805	-0,00154
752,987	-0,00157
753,169	-0,00148
753,351	-0,00165
753,533	-0,00163
753,715	-0,00171
753,897	-0,0018
754,079	-0,00182
754,261	-0,00183
754,443	-0,00185
754,625	-0,00181
754,807	-0,00182
754,989	-0,00167
755,171	-0,00168
755,353	-0,00164
755,534	-0,00167
755,716	-0,00162
755,898	-0,0016
756,08	-0,0016
756,262	-0,00157
756,443	-0,00169
756,625	-0,00165
756,807	-0,00164
756,989	-0,0018
757,17	-0,00191
757,352	-0,00189
757,534	-0,00172
757,715	-0,00168
757,897	-0,00168
758,079	-0,00165
758,26	-0,00174
758,442	-0,00164
758,623	-0,00177
758,805	-0,00175
758,987	-0,0017
759,168	-0,00176
759,35	-0,00182
759,531	-0,00195
759,713	-0,00204
759,894	-0,00212
760,075	-0,00226
760,257	-0,00227
760,438	-0,00233
760,62	-0,00236
760,801	-0,00244
760,982	-0,00243
761,164	-0,0024
761,345	-0,00231
761,526	-0,00228
761,708	-0,00225
761,889	-0,00214
762,07	-0,00206
762,251	-0,00195
762,433	-0,00189
762,614	-0,00179
762,795	-0,00177
762,976	-0,00177
763,157	-0,00167
763,338	-0,00177
763,52	-0,00182
763,701	-0,00188
763,882	-0,00193
764,063	-0,00191
764,244	-0,0019
764,425	-0,00184
764,606	-0,00188
764,787	-0,00193
764,968	-0,00193
765,149	-0,00205
765,33	-0,00199
765,511	-0,00193
765,692	-0,00194
765,873	-0,00185
766,053	-0,00195
766,234	-0,00204
766,415	-0,00212
766,596	-0,00227
766,777	-0,00223
766,958	-0,00235
767,138	-0,00228
767,319	-0,00232
767,5	-0,00232
767,681	-0,00244
767,861	-0,00242
768,042	-0,00237
768,223	-0,00233
768,403	-0,00239
768,584	-0,00227
768,765	-0,00233
768,945	-0,00237
769,126	-0,00233
769,307	-0,0023
769,487	-0,00236
769,668	-0,00232
769,848	-0,00243
770,029	-0,00245
770,209	-0,00257
770,39	-0,0025
770,57	-0,0025
770,751	-0,00243
770,931	-0,00238
771,111	-0,00253
771,292	-0,00255
771,472	-0,00255
771,653	-0,0025
771,833	-0,00251
772,013	-0,00249
772,194	-0,0023
772,374	-0,00237
772,554	-0,00234
772,734	-0,00237
772,915	-0,00229
773,095	-0,00214
773,275	-0,00215
773,455	-0,00213
773,635	-0,00211
773,816	-0,00205
773,996	-0,00201
774,176	-0,00209
774,356	-0,00203
774,536	-0,00213
774,716	-0,0021
774,896	-0,00212
775,076	-0,00222
775,256	-0,00219
775,436	-0,00215
775,616	-0,00215
775,796	-0,00208
775,976	-0,00205
776,156	-0,0021
776,336	-0,00206
776,516	-0,00205
776,696	-0,00221
776,876	-0,00211
777,056	-0,00213
777,235	-0,00225
777,415	-0,00221
777,595	-0,00225
777,775	-0,00238
777,955	-0,00254
778,134	-0,00257
778,314	-0,00264
778,494	-0,00264
778,674	-0,00245
778,853	-0,00262
779,033	-0,00256
779,213	-0,00253
779,392	-0,00263
779,572	-0,00265
779,751	-0,0027
779,931	-0,00261
780,111	-0,00258
780,29	-0,00266
780,47	-0,00258
780,649	-0,0027
780,829	-0,00258
781,008	-0,00251
781,188	-0,00238
781,367	-0,00229
781,546	-0,00225
781,726	-0,00221
781,905	-0,00228
782,085	-0,00231
782,264	-0,00223
782,443	-0,00225
782,623	-0,00212
782,802	-0,00221
782,981	-0,00234
783,161	-0,00248
783,34	-0,00262
783,519	-0,00246
783,698	-0,00241
783,878	-0,0023
784,057	-0,00227
784,236	-0,00212
784,415	-0,00208
784,594	-0,00213
784,773	-0,00204
784,952	-0,00189
785,132	-0,00181
785,311	-0,00155
785,49	-0,00173
785,669	-0,00174
785,848	-0,00182
786,027	-0,0018
786,206	-0,0019
786,385	-0,0019
786,564	-0,00194
786,743	-0,00203
786,922	-0,00203
787,1	-0,00202
787,279	-0,00215
787,458	-0,00214
787,637	-0,00213
787,816	-0,00209
787,995	-0,00216
788,174	-0,00223
788,352	-0,0023
788,531	-0,00228
788,71	-0,00216
788,889	-0,00234
789,067	-0,00244
789,246	-0,00259
789,425	-0,00252
789,603	-0,00257
789,782	-0,00263
789,961	-0,00254
790,139	-0,00244
790,318	-0,00246
790,496	-0,00241
790,675	-0,00245
790,853	-0,00235
791,032	-0,00238
791,211	-0,00224
791,389	-0,00229
791,568	-0,00214
791,746	-0,00202
791,924	-0,00206
792,103	-0,00215
792,281	-0,00219
792,46	-0,00216
792,638	-0,00217
792,816	-0,00216
792,995	-0,00207
793,173	-0,00219
793,351	-0,00232
793,53	-0,00241
793,708	-0,00244
793,886	-0,00252
794,064	-0,00246
794,243	-0,00232
794,421	-0,00244
794,599	-0,0024
794,777	-0,00253
794,955	-0,00257
795,133	-0,00245
795,312	-0,00241
795,49	-0,00241
795,668	-0,00241
795,846	-0,00244
796,024	-0,00234
796,202	-0,00242
796,38	-0,00247
796,558	-0,00259
796,736	-0,00258
796,914	-0,00254
797,092	-0,00261
797,27	-0,00262
797,448	-0,00271
797,626	-0,00276
797,803	-0,00276
797,981	-0,00298
798,159	-0,00301
798,337	-0,00303
798,515	-0,003
798,693	-0,00299
798,87	-0,00307
799,048	-0,00317
799,226	-0,00311
799,404	-0,00309
799,581	-0,00305
799,759	-0,003
799,937	-0,00304
800,114	-0,00304
800,292	-0,00299
800,469	-0,00285
800,647	-0,00287
800,825	-0,00281
801,002	-0,00281
801,18	-0,00292
801,357	-0,00295
801,535	-0,00302
801,712	-0,003
801,89	-0,00289
802,067	-0,003
802,245	-0,0031
802,422	-0,00336
802,6	-0,00321
802,777	-0,00311
802,954	-0,00306
803,132	-0,00302
803,309	-0,00304
803,486	-0,00295
803,664	-0,00295
803,841	-0,00278
804,018	-0,00265
804,195	-0,00255
804,373	-0,00255
804,55	-0,00258
804,727	-0,00274
804,904	-0,00272
805,081	-0,00255
805,259	-0,00259
805,436	-0,00274
805,613	-0,00273
805,79	-0,00296
805,967	-0,00302
806,144	-0,00307
806,321	-0,00308
806,498	-0,00302
806,675	-0,00295
806,852	-0,00294
807,029	-0,00293
807,206	-0,00282
807,383	-0,00277
807,56	-0,00283
807,737	-0,0028
807,914	-0,00283
808,091	-0,0028
808,268	-0,00265
808,444	-0,0027
808,621	-0,00277
808,798	-0,00295
808,975	-0,00307
809,152	-0,00321
809,328	-0,00325
809,505	-0,00317
809,682	-0,00319
809,858	-0,00318
810,035	-0,00325
810,212	-0,00339
810,388	-0,00339
810,565	-0,00326
810,742	-0,00311
810,918	-0,0031
811,095	-0,00303
811,271	-0,00298
811,448	-0,00302
811,625	-0,00295
811,801	-0,00303
811,978	-0,00292
812,154	-0,00299
812,33	-0,00293
812,507	-0,00296
812,683	-0,00301
812,86	-0,00289
813,036	-0,00291
813,212	-0,00284
813,389	-0,0028
813,565	-0,00292
813,741	-0,0028
813,918	-0,00278
814,094	-0,00256
814,27	-0,00269
814,447	-0,00273
814,623	-0,00275
814,799	-0,00283
814,975	-0,00277
815,151	-0,00286
815,328	-0,00295
815,504	-0,00284
815,68	-0,00285
815,856	-0,00282
816,032	-0,0028
816,208	-0,00291
816,384	-0,00302
816,56	-0,00296
816,736	-0,00314
816,912	-0,00317
817,088	-0,00314
817,264	-0,00314
817,44	-0,00321
817,616	-0,00317
817,792	-0,00326
817,968	-0,00325
818,144	-0,00286
818,32	-0,00272
818,495	-0,00265
818,671	-0,00249
818,847	-0,00261
819,023	-0,00255
819,199	-0,00237
819,374	-0,0022
819,55	-0,00233
819,726	-0,00228
819,902	-0,00246
820,077	-0,00276
820,253	-0,00277
820,429	-0,00285
820,604	-0,00271
820,78	-0,00252
820,956	-0,00259
821,131	-0,00278
821,307	-0,00276
821,482	-0,00281
821,658	-0,00268
821,833	-0,00287
822,009	-0,00287
822,184	-0,00294
822,36	-0,00297
822,535	-0,00319
822,711	-0,00335
822,886	-0,00337
823,061	-0,00332
823,237	-0,00348
823,412	-0,00333
823,587	-0,00355
823,763	-0,00338
823,938	-0,00343
824,113	-0,00348
824,289	-0,0035
824,464	-0,00337
824,639	-0,00319
824,814	-0,00327
824,99	-0,00338
825,165	-0,00338
825,34	-0,00328
825,515	-0,00317
825,69	-0,00305
825,865	-0,00296
826,04	-0,00287
826,215	-0,00255
826,39	-0,00235
826,566	-0,00249
826,741	-0,00237
826,916	-0,0021
827,091	-0,00216
827,265	-0,0023
827,44	-0,00249
827,615	-0,0024
827,79	-0,00249
827,965	-0,00243
828,14	-0,00252
828,315	-0,00269
828,49	-0,0026
828,665	-0,00269
828,839	-0,00287
829,014	-0,00272
829,189	-0,00274
829,364	-0,00262
829,538	-0,00261
829,713	-0,00269
829,888	-0,00281
830,063	-0,00293
830,237	-0,00316
830,412	-0,00312
830,587	-0,00289
830,761	-0,00277
830,936	-0,00282
831,11	-0,00276
831,285	-0,00277
831,459	-0,00297
831,634	-0,00283
831,809	-0,00268
831,983	-0,00283
832,157	-0,00267
832,332	-0,00281
832,506	-0,00294
832,681	-0,00318
832,855	-0,00337
833,03	-0,00346
833,204	-0,00352
833,378	-0,00348
833,553	-0,00342
833,727	-0,00344
833,901	-0,00338
834,076	-0,00331
834,25	-0,00337
834,424	-0,00335
834,598	-0,00305
834,773	-0,0028
834,947	-0,00263
835,121	-0,00249
835,295	-0,00232
835,469	-0,00239
835,643	-0,00256
835,817	-0,00251
835,991	-0,00266
836,166	-0,00265
836,34	-0,00258
836,514	-0,00266
836,688	-0,00281
836,862	-0,00281
837,036	-0,00298
837,21	-0,00322
837,384	-0,0032
837,557	-0,00306
837,731	-0,003
837,905	-0,00305
838,079	-0,00299
838,253	-0,00311
838,427	-0,00331
838,601	-0,0034
838,774	-0,0036
838,948	-0,00352
839,122	-0,00327
839,296	-0,00315
839,469	-0,00311
839,643	-0,00337
839,817	-0,00341
839,991	-0,00345
840,164	-0,00343
840,338	-0,0034
840,512	-0,00327
840,685	-0,0033
840,859	-0,00333
841,032	-0,00347
841,206	-0,00359
841,379	-0,00368
841,553	-0,00343
841,726	-0,00308
841,9	-0,00285
842,073	-0,00286
842,247	-0,00279
842,42	-0,00275
842,594	-0,00238
842,767	-0,00238
842,94	-0,00233
843,114	-0,00224
843,287	-0,00213
843,46	-0,00204
843,634	-0,00245
843,807	-0,00252
843,98	-0,00262
844,154	-0,00263
844,327	-0,00265
844,5	-0,00283
844,673	-0,00274
844,846	-0,0028
845,02	-0,00287
845,193	-0,00314
845,366	-0,00327
845,539	-0,00318
845,712	-0,00315
845,885	-0,0032
846,058	-0,00321
846,231	-0,00335
846,404	-0,00339
846,577	-0,00344
846,75	-0,00335
846,923	-0,00322
847,096	-0,00311
847,269	-0,00312
847,442	-0,00301
847,615	-0,00293
847,788	-0,00291
847,961	-0,00285
848,133	-0,00272
848,306	-0,00268
848,479	-0,0026
848,652	-0,00258
848,825	-0,00282
848,997	-0,00279
849,17	-0,00284
849,343	-0,00284
849,515	-0,00311
849,688	-0,00307
849,861	-0,00302
850,033	-0,003
850,206	-0,00295
850,379	-0,00301
850,551	-0,00303
850,724	-0,00299
850,896	-0,00301
851,069	-0,00304
851,241	-0,00296
851,414	-0,00286
851,586	-0,00296
851,759	-0,00295
851,931	-0,00295
852,104	-0,00316
852,276	-0,00332
852,449	-0,0032
852,621	-0,0032
852,793	-0,00324
852,966	-0,00315
853,138	-0,00323
853,31	-0,0033
853,483	-0,00316
853,655	-0,0032
853,827	-0,0034
853,999	-0,00343
854,172	-0,00334
854,344	-0,00348
854,516	-0,00339
854,688	-0,00339
854,86	-0,00356
855,032	-0,00366
855,204	-0,00352
855,377	-0,00371
855,549	-0,00371
855,721	-0,00363
855,893	-0,00372
856,065	-0,00376
856,237	-0,00385
856,409	-0,00405
856,581	-0,00402
856,753	-0,00375
856,924	-0,00356
857,096	-0,00346
857,268	-0,00314
857,44	-0,00323
857,612	-0,0032
857,784	-0,003
857,956	-0,00277
858,127	-0,00268
858,299	-0,00274
858,471	-0,00263
858,643	-0,00277
858,814	-0,00293
858,986	-0,00308
859,158	-0,00318
859,33	-0,0031
859,501	-0,00317
859,673	-0,00313
859,844	-0,00326
860,016	-0,00313
860,188	-0,00292
860,359	-0,00288
860,531	-0,00296
860,702	-0,00307
860,874	-0,00309
861,045	-0,00314
861,217	-0,00349
861,388	-0,00329
861,56	-0,00336
861,731	-0,00349
861,902	-0,00369
862,074	-0,00374
862,245	-0,00363
862,417	-0,00355
862,588	-0,00357
862,759	-0,00366
862,931	-0,00361
863,102	-0,00341
863,273	-0,00345
863,444	-0,00354
863,616	-0,00346
863,787	-0,00367
863,958	-0,00386
864,129	-0,00422
864,3	-0,00417
864,471	-0,00414
864,642	-0,00394
864,814	-0,00407
864,985	-0,00406
865,156	-0,00435
865,327	-0,00445
865,498	-0,00431
865,669	-0,00416
865,84	-0,00414
866,011	-0,00403
866,182	-0,00419
866,353	-0,00426
866,523	-0,00456
866,694	-0,00431
866,865	-0,00406
867,036	-0,00397
867,207	-0,00373
867,378	-0,00422
867,549	-0,00427
867,719	-0,00426
867,89	-0,00442
868,061	-0,00424
868,232	-0,00416
868,402	-0,00387
868,573	-0,00405
868,744	-0,00399
868,914	-0,00409
869,085	-0,0043
869,256	-0,00405
869,426	-0,00419
869,597	-0,0039
869,767	-0,00375
869,938	-0,00395
870,108	-0,00371
870,279	-0,00389
870,449	-0,00408
870,62	-0,00447
870,79	-0,00426
870,961	-0,00408
871,131	-0,00393
871,302	-0,00343
871,472	-0,00362
871,642	-0,00354
871,813	-0,00338
871,983	-0,00362
872,153	-0,00361
872,324	-0,00338
872,494	-0,00315
872,664	-0,00334
872,835	-0,00312
873,005	-0,0032
873,175	-0,00349
873,345	-0,00341
873,515	-0,0036
873,685	-0,00373
873,856	-0,00355
874,026	-0,00373
874,196	-0,00364
874,366	-0,00384
874,536	-0,00364
874,706	-0,00387
874,876	-0,00402
875,046	-0,00405
875,216	-0,00433
875,386	-0,00396
875,556	-0,00346
875,726	-0,00344
875,896	-0,00331
876,066	-0,00336
876,236	-0,00337
876,405	-0,00334
876,575	-0,00351
876,745	-0,00347
876,915	-0,00308
877,085	-0,00272
877,254	-0,00284
877,424	-0,00313
877,594	-0,0034
877,764	-0,0035
877,933	-0,0037
878,103	-0,0038
878,273	-0,0038
878,442	-0,00384
878,612	-0,0037
878,781	-0,00401
878,951	-0,00401
879,121	-0,00395
879,29	-0,00434
879,46	-0,0041
879,629	-0,00374
879,799	-0,00367
879,968	-0,00327
880,138	-0,00318
880,307	-0,00283
880,476	-0,00276
880,646	-0,00302
880,815	-0,00334
880,985	-0,00354
881,154	-0,00316
881,323	-0,00316
881,493	-0,00341
881,662	-0,00389
881,831	-0,00398
882	-0,00435
882,17	-0,00455
882,339	-0,00469
882,508	-0,00468
882,677	-0,00431
882,846	-0,00415
883,016	-0,00433
883,185	-0,00441
883,354	-0,00429
883,523	-0,00394
883,692	-0,00379
883,861	-0,00344
884,03	-0,00406
884,199	-0,00399
884,368	-0,00343
884,537	-0,0039
884,706	-0,004
884,875	-0,00405
885,044	-0,00394
885,213	-0,00386
885,382	-0,00397
885,55	-0,0044
885,719	-0,00462
885,888	-0,00404
886,057	-0,0042
886,226	-0,00484
886,395	-0,00456
886,563	-0,00473
886,732	-0,00469
886,901	-0,0048
887,069	-0,00485
887,238	-0,00462
887,407	-0,00447
887,575	-0,00428
887,744	-0,00408
887,913	-0,00407
888,081	-0,00364
888,25	-0,00337
888,418	-0,00327
888,587	-0,00335
888,755	-0,00358
888,924	-0,00361
889,092	-0,0036
889,261	-0,0038
889,429	-0,00394
889,598	-0,00412
889,766	-0,00379
889,935	-0,00403
890,103	-0,00462
890,271	-0,00466
890,44	-0,00478
890,608	-0,00495
890,776	-0,00492
890,944	-0,00504
891,113	-0,0047
891,281	-0,00472
891,449	-0,00487
891,617	-0,00527
891,786	-0,00508
891,954	-0,00458
892,122	-0,00425
892,29	-0,00405
892,458	-0,00384
892,626	-0,00379
892,794	-0,0037
892,962	-0,00377
893,13	-0,0037
893,298	-0,0033
893,466	-0,00284
