Data from Chemiepractica_Absorbance__18__11-41-13-137.txt Node

Date: Mon Dec 09 11:41:13 CET 2024
User: r0948668
Spectrometer: USB4F07138
Trigger mode: 4
Integration Time (sec): 6,000000E-3
Scans to average: 20
Electric dark correction enabled: true
Nonlinearity correction enabled: false
Boxcar width: 5
XAxis mode: Wavelengths
Number of Pixels in Spectrum: 3648
>>>>>Begin Spectral Data<<<<<
176,779	-0
176,999	-0
177,218	-0
177,438	-1,61278
177,658	-0,84854
177,878	-0,51047
178,097	-0,21315
178,317	-0,24282
178,537	0,14876
178,757	0,14136
178,976	0,03115
179,196	0,1831
179,416	-0
179,635	-0,05
179,855	0,05825
180,075	0,0428
180,294	-0,00213
180,514	-0,00334
180,734	0,03775
180,953	0,02241
181,173	0,04179
181,392	0,03617
181,612	0,02788
181,832	0,04949
182,051	0,05452
182,271	0,0346
182,49	0,02411
182,71	0,01383
182,929	0,02483
183,149	0,01118
183,368	0,02334
183,588	0,02479
183,807	0,04316
184,027	0,05928
184,246	0,04021
184,466	0,04541
184,685	0,06112
184,905	0,05399
185,124	0,0631
185,344	0,05907
185,563	0,06378
185,782	0,06121
186,002	0,04831
186,221	0,02383
186,44	0,01323
186,66	0,00952
186,879	0,01577
187,099	0,01394
187,318	0,01629
187,537	0,01968
187,756	0,01725
187,976	0,0062
188,195	0,00781
188,414	0,02197
188,634	0,04678
188,853	0,04759
189,072	0,05769
189,291	0,04704
189,511	0,05233
189,73	0,06029
189,949	0,06201
190,168	0,06502
190,387	0,07886
190,607	0,06826
190,826	0,05379
191,045	0,0399
191,264	0,0398
191,483	0,0223
191,702	0,02443
191,921	0,01524
192,141	0,02368
192,36	0,02053
192,579	0,01528
192,798	0,01736
193,017	0,013
193,236	0,03368
193,455	0,02906
193,674	0,02562
193,893	0,02948
194,112	0,03316
194,331	0,02648
194,55	0,02391
194,769	0,01879
194,988	0,01446
195,207	0,018
195,426	0,03373
195,645	0,02631
195,864	0,02196
196,083	0,01149
196,302	0,00329
196,521	0,00073
196,739	0,00222
196,958	-0,00045
197,177	0,00216
197,396	0,01313
197,615	-0,0022
197,834	-0,02343
198,053	-0,03153
198,271	-0,03108
198,49	-0,01276
198,709	0,00616
198,928	0,01118
199,147	0,01169
199,365	0,01997
199,584	0,02327
199,803	0,00377
200,022	0,01794
200,24	0,02279
200,459	0,02376
200,678	0,02704
200,897	0,02406
201,115	0,02419
201,334	0,03033
201,553	0,0297
201,771	0,02013
201,99	0,01639
202,209	0,04084
202,427	0,03466
202,646	0,04161
202,864	0,03918
203,083	0,03879
203,302	0,04154
203,52	0,0545
203,739	0,04095
203,957	0,05092
204,176	0,05443
204,394	0,05936
204,613	0,05489
204,831	0,06236
205,05	0,06263
205,268	0,07851
205,487	0,08362
205,705	0,07043
205,924	0,0564
206,142	0,05873
206,361	0,0667
206,579	0,06729
206,798	0,06828
207,016	0,0665
207,234	0,06011
207,453	0,06524
207,671	0,05667
207,89	0,05989
208,108	0,06779
208,326	0,05214
208,545	0,04679
208,763	0,04299
208,981	0,04137
209,2	0,02748
209,418	0,02929
209,636	0,02199
209,855	0,01575
210,073	0,01541
210,291	0,00205
210,509	0,00127
210,728	0,00622
210,946	0,01853
211,164	-0,00254
211,382	0,00093
211,6	0,01297
211,819	0,00055
212,037	0,00593
212,255	0,00015
212,473	-0,00226
212,691	0,00474
212,909	0,01294
213,128	0,01113
213,346	0,00804
213,564	0,02802
213,782	0,02401
214	0,04013
214,218	0,04754
214,436	0,04527
214,654	0,04719
214,872	0,03349
215,09	0,02463
215,308	0,02236
215,526	0,03072
215,744	0,02277
215,962	0,01572
216,18	0,0074
216,398	-0,00606
216,616	-0,00419
216,834	0,00382
217,052	0,01197
217,27	0,02337
217,488	0,0336
217,706	0,04214
217,924	0,0415
218,142	0,04519
218,36	0,05563
218,578	0,0735
218,795	0,06782
219,013	0,06514
219,231	0,05749
219,449	0,05244
219,667	0,04717
219,885	0,04525
220,102	0,045
220,32	0,05616
220,538	0,06545
220,756	0,05479
220,973	0,06479
221,191	0,06626
221,409	0,06244
221,627	0,05799
221,844	0,05705
222,062	0,05757
222,28	0,0652
222,497	0,05826
222,715	0,04972
222,933	0,03507
223,15	0,02744
223,368	0,01529
223,586	0,02192
223,803	0,02939
224,021	0,02881
224,239	0,03316
224,456	0,0407
224,674	0,03097
224,891	0,03219
225,109	0,03319
225,326	0,03865
225,544	0,05443
225,762	0,04145
225,979	0,03867
226,197	0,03533
226,414	0,03933
226,632	0,03275
226,849	0,03348
227,066	0,04457
227,284	0,04323
227,501	0,04631
227,719	0,05221
227,936	0,0386
228,154	0,05469
228,371	0,06114
228,588	0,05876
228,806	0,06649
229,023	0,07399
229,241	0,07171
229,458	0,07582
229,675	0,07826
229,893	0,05861
230,11	0,0602
230,327	0,0515
230,545	0,04418
230,762	0,02437
230,979	0,0374
231,196	0,03181
231,414	0,01882
231,631	0,0169
231,848	-0,00279
232,065	-0,00968
232,283	-0,00101
232,5	0,00302
232,717	-0,00267
232,934	-0,00106
233,151	0,01402
233,368	0,00025
233,586	-0,00232
233,803	0,00969
234,02	0,02579
234,237	0,03822
234,454	0,04438
234,671	0,05943
234,888	0,05612
235,105	0,0774
235,322	0,0806
235,54	0,08091
235,757	0,09879
235,974	0,0951
236,191	0,09144
236,408	0,07963
236,625	0,07801
236,842	0,07132
237,059	0,06398
237,276	0,05039
237,493	0,04674
237,71	0,04306
237,926	0,02921
238,143	0,01524
238,36	0,0259
238,577	0,02021
238,794	0,01484
239,011	0,01073
239,228	0,01887
239,445	0,0184
239,662	0,03286
239,878	0,03493
240,095	0,03717
240,312	0,05063
240,529	0,05506
240,746	0,04579
240,963	0,05298
241,179	0,06041
241,396	0,06813
241,613	0,06122
241,83	0,05851
242,046	0,04953
242,263	0,0536
242,48	0,04941
242,697	0,04781
242,913	0,04438
243,13	0,03972
243,347	0,04072
243,563	0,04042
243,78	0,04817
243,997	0,05288
244,213	0,05216
244,43	0,06819
244,646	0,06639
244,863	0,06973
245,08	0,0669
245,296	0,06952
245,513	0,07429
245,729	0,07284
245,946	0,06105
246,162	0,0467
246,379	0,0441
246,595	0,04624
246,812	0,03188
247,028	0,03888
247,245	0,03784
247,461	0,03511
247,678	0,03215
247,894	0,04513
248,111	0,03423
248,327	0,03792
248,544	0,04723
248,76	0,04965
248,976	0,0498
249,193	0,04683
249,409	0,02894
249,626	0,0289
249,842	0,0332
250,058	0,03602
250,275	0,02958
250,491	0,03663
250,707	0,05339
250,924	0,05463
251,14	0,05524
251,356	0,05961
251,572	0,05796
251,789	0,06549
252,005	0,06429
252,221	0,06214
252,437	0,04957
252,654	0,04539
252,87	0,04374
253,086	0,04193
253,302	0,03686
253,518	0,03558
253,735	0,02102
253,951	0,02376
254,167	0,02555
254,383	0,01802
254,599	0,01788
254,815	0,03387
255,031	0,02896
255,247	0,01456
255,463	0,00519
255,68	0,01664
255,896	0,02083
256,112	0,02665
256,328	0,01934
256,544	0,0241
256,76	0,03684
256,976	0,04021
257,192	0,02809
257,408	0,02811
257,624	0,03833
257,84	0,04276
258,056	0,03423
258,272	0,03042
258,487	0,02724
258,703	0,0338
258,919	0,03478
259,135	0,0325
259,351	0,03549
259,567	0,047
259,783	0,05366
259,999	0,06046
260,215	0,05231
260,43	0,05026
260,646	0,06163
260,862	0,07573
261,078	0,07445
261,294	0,05823
261,509	0,06619
261,725	0,06853
261,941	0,06675
262,157	0,07008
262,372	0,06551
262,588	0,07079
262,804	0,07467
263,019	0,06617
263,235	0,05991
263,451	0,05998
263,667	0,06575
263,882	0,06628
264,098	0,05915
264,313	0,06347
264,529	0,05684
264,745	0,06297
264,96	0,06158
265,176	0,05764
265,391	0,0517
265,607	0,06261
265,823	0,06093
266,038	0,06488
266,254	0,0608
266,469	0,07651
266,685	0,06999
266,9	0,06713
267,116	0,06469
267,331	0,0676
267,547	0,07151
267,762	0,0675
267,978	0,05333
268,193	0,06252
268,408	0,06323
268,624	0,05609
268,839	0,04923
269,055	0,04352
269,27	0,04355
269,485	0,03757
269,701	0,03882
269,916	0,0383
270,132	0,05212
270,347	0,0531
270,562	0,05413
270,777	0,05141
270,993	0,06416
271,208	0,05632
271,423	0,07388
271,639	0,08668
271,854	0,08574
272,069	0,07978
272,284	0,07321
272,5	0,06799
272,715	0,0819
272,93	0,0753
273,145	0,06925
273,36	0,06317
273,576	0,07539
273,791	0,06354
274,006	0,05129
274,221	0,05188
274,436	0,05875
274,651	0,06054
274,866	0,0653
275,081	0,066
275,296	0,06586
275,512	0,07162
275,727	0,07464
275,942	0,0584
276,157	0,05444
276,372	0,06393
276,587	0,07699
276,802	0,07237
277,017	0,06859
277,232	0,07058
277,447	0,06861
277,662	0,06748
277,877	0,06775
278,092	0,0572
278,306	0,06624
278,521	0,06575
278,736	0,04844
278,951	0,03966
279,166	0,02732
279,381	0,02994
279,596	0,0242
279,811	0,01762
280,025	0,0131
280,24	0,02265
280,455	0,02967
280,67	0,02464
280,885	0,02702
281,099	0,03443
281,314	0,03195
281,529	0,05338
281,744	0,06178
281,959	0,05981
282,173	0,06254
282,388	0,07602
282,603	0,0643
282,817	0,06095
283,032	0,06354
283,247	0,0505
283,461	0,04348
283,676	0,04265
283,891	0,03592
284,105	0,03776
284,32	0,0386
284,535	0,04451
284,749	0,04171
284,964	0,05058
285,178	0,05347
285,393	0,05923
285,607	0,06547
285,822	0,0789
286,036	0,08064
286,251	0,07793
286,465	0,06785
286,68	0,07016
286,894	0,05726
287,109	0,05568
287,323	0,04303
287,538	0,04347
287,752	0,03355
287,967	0,04474
288,181	0,0363
288,396	0,03721
288,61	0,03923
288,824	0,04732
289,039	0,0496
289,253	0,05937
289,467	0,05563
289,682	0,04994
289,896	0,05454
290,11	0,06526
290,325	0,05901
290,539	0,05554
290,753	0,0602
290,968	0,05833
291,182	0,04533
291,396	0,03998
291,61	0,03756
291,825	0,0442
292,039	0,0477
292,253	0,03455
292,467	0,02592
292,681	0,02012
292,896	0,02803
293,11	0,02054
293,324	0,02466
293,538	0,033
293,752	0,03513
293,966	0,03333
294,18	0,02795
294,394	0,03148
294,608	0,04028
294,823	0,0409
295,037	0,05076
295,251	0,0477
295,465	0,05479
295,679	0,04986
295,893	0,05156
296,107	0,04582
296,321	0,05346
296,535	0,05054
296,749	0,04791
296,963	0,03703
297,177	0,03779
297,391	0,04398
297,604	0,0393
297,818	0,03944
298,032	0,03229
298,246	0,01789
298,46	0,02266
298,674	0,01916
298,888	0,02493
299,102	0,03464
299,315	0,04679
299,529	0,05471
299,743	0,05307
299,957	0,05779
300,171	0,04717
300,385	0,05787
300,598	0,0644
300,812	0,06275
301,026	0,05467
301,24	0,05546
301,453	0,0506
301,667	0,04209
301,881	0,03617
302,094	0,02983
302,308	0,03331
302,522	0,04371
302,735	0,04337
302,949	0,05387
303,163	0,05421
303,376	0,05741
303,59	0,06242
303,803	0,05849
304,017	0,07254
304,231	0,07371
304,444	0,07845
304,658	0,0763
304,871	0,08367
305,085	0,08081
305,298	0,06488
305,512	0,05967
305,725	0,05809
305,939	0,05628
306,152	0,05312
306,366	0,03289
306,579	0,03199
306,793	0,03377
307,006	0,03737
307,22	0,02275
307,433	0,02402
307,646	0,02786
307,86	0,02684
308,073	0,0294
308,286	0,01594
308,5	0,02263
308,713	0,02324
308,926	0,01799
309,14	0,01065
309,353	0,00325
309,566	0,00719
309,78	0,00323
309,993	0,00371
310,206	0,00969
310,419	0,01963
310,633	0,03086
310,846	0,04116
311,059	0,04825
311,272	0,05078
311,486	0,0526
311,699	0,05174
311,912	0,05122
312,125	0,05446
312,338	0,05217
312,551	0,05115
312,764	0,04446
312,978	0,04634
313,191	0,037
313,404	0,02894
313,617	0,031
313,83	0,03458
314,043	0,04307
314,256	0,0448
314,469	0,04106
314,682	0,04848
314,895	0,05176
315,108	0,0525
315,321	0,04833
315,534	0,05173
315,747	0,06039
315,96	0,06799
316,173	0,07021
316,386	0,06991
316,599	0,07468
316,812	0,08454
317,025	0,08024
317,237	0,07782
317,45	0,07316
317,663	0,06546
317,876	0,06452
318,089	0,07249
318,302	0,05717
318,515	0,04301
318,727	0,03576
318,94	0,03179
319,153	0,02023
319,366	0,01894
319,578	0,01306
319,791	0,02249
320,004	0,02158
320,217	0,02121
320,429	0,01904
320,642	0,02572
320,855	0,02942
321,067	0,02987
321,28	0,02653
321,493	0,02835
321,705	0,02846
321,918	0,03877
322,131	0,03539
322,343	0,04669
322,556	0,04839
322,768	0,03823
322,981	0,03371
323,194	0,03742
323,406	0,04154
323,619	0,04102
323,831	0,05309
324,044	0,05705
324,256	0,05344
324,469	0,0484
324,681	0,04087
324,894	0,03807
325,106	0,04243
325,319	0,04045
325,531	0,04052
325,743	0,03505
325,956	0,03852
326,168	0,02694
326,381	0,01904
326,593	0,01825
326,805	0,02015
327,018	0,03124
327,23	0,02924
327,442	0,02933
327,655	0,02268
327,867	0,01937
328,079	0,01868
328,292	0,02088
328,504	0,03106
328,716	0,03279
328,928	0,043
329,141	0,03923
329,353	0,02731
329,565	0,02996
329,777	0,03142
329,99	0,04336
330,202	0,05218
330,414	0,0511
330,626	0,05183
330,838	0,05118
331,05	0,04911
331,263	0,0334
331,475	0,0501
331,687	0,05125
331,899	0,05195
332,111	0,05095
332,323	0,04956
332,535	0,04456
332,747	0,05216
332,959	0,04466
333,171	0,04306
333,383	0,04998
333,595	0,05467
333,807	0,04185
334,019	0,03213
334,231	0,03265
334,443	0,02346
334,655	0,0276
334,867	0,02255
335,079	0,02844
335,291	0,02061
335,503	0,01588
335,714	0,01389
335,926	0,01736
336,138	0,01365
336,35	0,01915
336,562	0,017
336,774	0,02585
336,986	0,02329
337,197	0,02433
337,409	0,01545
337,621	0,02168
337,833	0,02482
338,044	0,03184
338,256	0,02247
338,468	0,02882
338,68	0,02875
338,891	0,01798
339,103	0,01111
339,315	0,01504
339,526	0,01773
339,738	0,0099
339,95	0,00816
340,161	0,01134
340,373	-0,004
340,585	-0,00339
340,796	-0,00838
341,008	-0,0075
341,219	0,00368
341,431	0,01148
341,642	0,00793
341,854	0,01014
342,065	0,02026
342,277	0,02425
342,489	0,02524
342,7	0,03666
342,912	0,03803
343,123	0,04055
343,334	0,04521
343,546	0,03908
343,757	0,04288
343,969	0,03916
344,18	0,0315
344,392	0,03017
344,603	0,03793
344,814	0,0383
345,026	0,04345
345,237	0,0418
345,448	0,04097
345,66	0,04142
345,871	0,05143
346,082	0,05427
346,294	0,0555
346,505	0,06256
346,716	0,06084
346,927	0,06021
347,139	0,05573
347,35	0,04598
347,561	0,05026
347,772	0,05149
347,984	0,0548
348,195	0,05156
348,406	0,0445
348,617	0,05303
348,828	0,05374
349,039	0,05041
349,251	0,0514
349,462	0,04641
349,673	0,03772
349,884	0,02947
350,095	0,02688
350,306	0,02157
350,517	0,02398
350,728	0,02264
350,939	0,01753
351,15	0,01336
351,361	0,01675
351,572	0,01933
351,783	0,02557
351,994	0,03123
352,205	0,03967
352,416	0,04295
352,627	0,04414
352,838	0,03846
353,049	0,04569
353,26	0,04858
353,471	0,04861
353,682	0,05099
353,893	0,0489
354,103	0,04662
354,314	0,04435
354,525	0,04585
354,736	0,04515
354,947	0,04359
355,157	0,04145
355,368	0,03626
355,579	0,03025
355,79	0,03248
356,001	0,02954
356,211	0,03129
356,422	0,02215
356,633	0,03515
356,843	0,029
357,054	0,02631
357,265	0,02988
357,476	0,0373
357,686	0,03535
357,897	0,04564
358,107	0,04449
358,318	0,04762
358,529	0,04759
358,739	0,06017
358,95	0,04581
359,16	0,05186
359,371	0,05009
359,582	0,04975
359,792	0,04909
360,003	0,04467
360,213	0,0354
360,424	0,03795
360,634	0,04479
360,845	0,03995
361,055	0,03816
361,266	0,04566
361,476	0,04767
361,686	0,04791
361,897	0,04651
362,107	0,04801
362,318	0,05899
362,528	0,05755
362,738	0,05157
362,949	0,04295
363,159	0,04571
363,369	0,03964
363,58	0,03341
363,79	0,02705
364	0,0284
364,211	0,02871
364,421	0,0225
364,631	0,02573
364,842	0,02249
365,052	0,0303
365,262	0,02532
365,472	0,02442
365,682	0,03046
365,893	0,03561
366,103	0,04486
366,313	0,04284
366,523	0,0464
366,733	0,04335
366,943	0,03668
367,154	0,04592
367,364	0,04951
367,574	0,05413
367,784	0,05557
367,994	0,05162
368,204	0,05124
368,414	0,0494
368,624	0,05236
368,834	0,04909
369,044	0,05244
369,254	0,0515
369,464	0,04567
369,674	0,03784
369,884	0,03722
370,094	0,02978
370,304	0,02619
370,514	0,02692
370,724	0,02442
370,934	0,0162
371,144	0,01253
371,353	0,01443
371,563	0,01537
371,773	0,01787
371,983	0,01624
372,193	0,01642
372,403	0,02344
372,612	0,02708
372,822	0,02625
373,032	0,02486
373,242	0,03439
373,452	0,03505
373,661	0,03995
373,871	0,03685
374,081	0,0394
374,29	0,04383
374,5	0,04024
374,71	0,02974
374,92	0,02906
375,129	0,02878
375,339	0,02597
375,549	0,0226
375,758	0,02383
375,968	0,01586
376,177	0,01804
376,387	0,01109
376,597	0,0098
376,806	0,01388
377,016	0,02091
377,225	0,02391
377,435	0,02382
377,644	0,02669
377,854	0,02851
378,063	0,03156
378,273	0,03203
378,482	0,03263
378,692	0,03763
378,901	0,03793
379,111	0,0371
379,32	0,03892
379,529	0,03505
379,739	0,03766
379,948	0,0385
380,158	0,04133
380,367	0,03999
380,576	0,04239
380,786	0,03593
380,995	0,03993
381,204	0,04431
381,414	0,04604
381,623	0,0453
381,832	0,04847
382,041	0,04451
382,251	0,04178
382,46	0,03649
382,669	0,03445
382,878	0,03553
383,088	0,04066
383,297	0,03727
383,506	0,03374
383,715	0,03046
383,924	0,02701
384,133	0,02718
384,342	0,03135
384,552	0,03234
384,761	0,03408
384,97	0,03612
385,179	0,03753
385,388	0,03771
385,597	0,03638
385,806	0,03295
386,015	0,03437
386,224	0,03714
386,433	0,03456
386,642	0,02798
386,851	0,0276
387,06	0,02628
387,269	0,02755
387,478	0,02425
387,687	0,02288
387,896	0,02057
388,105	0,02072
388,314	0,01722
388,523	0,01385
388,731	0,01475
388,94	0,01784
389,149	0,01879
389,358	0,02161
389,567	0,02325
389,776	0,02409
389,984	0,02335
390,193	0,02544
390,402	0,02667
390,611	0,02937
390,819	0,03071
391,028	0,02967
391,237	0,03173
391,446	0,0289
391,654	0,0287
391,863	0,02566
392,072	0,026
392,28	0,02672
392,489	0,02447
392,698	0,02232
392,906	0,02271
393,115	0,02439
393,324	0,02598
393,532	0,02499
393,741	0,02493
393,949	0,02011
394,158	0,0185
394,366	0,01756
394,575	0,01578
394,783	0,01755
394,992	0,0187
395,2	0,01679
395,409	0,01605
395,617	0,01271
395,826	0,01246
396,034	0,01207
396,243	0,01714
396,451	0,01771
396,66	0,0182
396,868	0,01823
397,076	0,01604
397,285	0,01513
397,493	0,01679
397,701	0,01814
397,91	0,01846
398,118	0,01842
398,326	0,02018
398,535	0,01574
398,743	0,01635
398,951	0,01576
399,159	0,0183
399,368	0,02142
399,576	0,02092
399,784	0,02189
399,992	0,01884
400,201	0,01954
400,409	0,01892
400,617	0,02008
400,825	0,02412
401,033	0,02302
401,241	0,02497
401,45	0,02316
401,658	0,0241
401,866	0,02736
402,074	0,02558
402,282	0,02772
402,49	0,02867
402,698	0,02949
402,906	0,02756
403,114	0,02351
403,322	0,02389
403,53	0,02413
403,738	0,02539
403,946	0,02146
404,154	0,01703
404,362	0,01688
404,57	0,01505
404,778	0,01346
404,986	0,01445
405,194	0,01401
405,402	0,01818
405,609	0,01849
405,817	0,01454
406,025	0,01754
406,233	0,02089
406,441	0,02386
406,649	0,02398
406,856	0,02407
407,064	0,02438
407,272	0,02224
407,48	0,02272
407,687	0,02173
407,895	0,02257
408,103	0,02422
408,311	0,02105
408,518	0,01785
408,726	0,01944
408,934	0,02144
409,141	0,0227
409,349	0,01991
409,557	0,02112
409,764	0,02197
409,972	0,02169
410,18	0,01841
410,387	0,01965
410,595	0,01929
410,802	0,01941
411,01	0,01636
411,217	0,01409
411,425	0,01416
411,632	0,01672
411,84	0,01531
412,047	0,01321
412,255	0,01205
412,462	0,01447
412,67	0,01355
412,877	0,01519
413,085	0,01525
413,292	0,01566
413,499	0,01803
413,707	0,01632
413,914	0,01695
414,122	0,01633
414,329	0,01858
414,536	0,01886
414,744	0,01753
414,951	0,01823
415,158	0,01685
415,366	0,01636
415,573	0,01631
415,78	0,01467
415,987	0,01503
416,195	0,01632
416,402	0,01707
416,609	0,0165
416,816	0,01793
417,023	0,01929
417,231	0,01994
417,438	0,0217
417,645	0,02214
417,852	0,02208
418,059	0,02213
418,266	0,0215
418,473	0,01989
418,68	0,02036
418,888	0,01999
419,095	0,01887
419,302	0,01869
419,509	0,01757
419,716	0,01601
419,923	0,01693
420,13	0,01688
420,337	0,0193
420,544	0,02094
420,751	0,01943
420,958	0,01948
421,165	0,01942
421,371	0,01846
421,578	0,01813
421,785	0,01778
421,992	0,0183
422,199	0,01852
422,406	0,0202
422,613	0,018
422,82	0,01602
423,026	0,01721
423,233	0,01687
423,44	0,01534
423,647	0,01523
423,854	0,01449
424,06	0,01429
424,267	0,01359
424,474	0,01327
424,681	0,01261
424,887	0,01205
425,094	0,01289
425,301	0,01448
425,507	0,01398
425,714	0,01529
425,921	0,01607
426,127	0,01495
426,334	0,01472
426,54	0,01583
426,747	0,01636
426,954	0,01505
427,16	0,01516
427,367	0,01506
427,573	0,01497
427,78	0,01552
427,986	0,01579
428,193	0,01495
428,399	0,01911
428,606	0,01984
428,812	0,01961
429,019	0,01867
429,225	0,0202
429,432	0,02232
429,638	0,02345
429,845	0,02258
430,051	0,02285
430,257	0,02166
430,464	0,02269
430,67	0,02042
430,876	0,02056
431,083	0,02099
431,289	0,02183
431,495	0,02158
431,702	0,01958
431,908	0,01816
432,114	0,01722
432,32	0,01741
432,527	0,0172
432,733	0,01637
432,939	0,01663
433,145	0,01659
433,351	0,01638
433,558	0,0166
433,764	0,01689
433,97	0,01689
434,176	0,01725
434,382	0,01979
434,588	0,01977
434,794	0,02004
435,001	0,02139
435,207	0,02172
435,413	0,02099
435,619	0,0207
435,825	0,01982
436,031	0,01974
436,237	0,0212
436,443	0,02244
436,649	0,02171
436,855	0,02203
437,061	0,02361
437,267	0,02225
437,473	0,02178
437,679	0,02293
437,884	0,02241
438,09	0,02241
438,296	0,02107
438,502	0,01973
438,708	0,01915
438,914	0,01874
439,12	0,01868
439,325	0,01879
439,531	0,02036
439,737	0,02042
439,943	0,02007
440,149	0,02053
440,354	0,02192
440,56	0,0231
440,766	0,02385
440,972	0,02428
441,177	0,02471
441,383	0,02449
441,589	0,02533
441,794	0,02485
442	0,02497
442,206	0,02603
442,411	0,02606
442,617	0,02536
442,822	0,02629
443,028	0,02607
443,234	0,02703
443,439	0,02739
443,645	0,02812
443,85	0,02757
444,056	0,02793
444,261	0,02884
444,467	0,02916
444,672	0,02886
444,878	0,02997
445,083	0,02983
445,289	0,03013
445,494	0,02898
445,699	0,02879
445,905	0,02901
446,11	0,02963
446,316	0,02955
446,521	0,02917
446,726	0,0286
446,932	0,02906
447,137	0,02869
447,342	0,02882
447,548	0,02876
447,753	0,02936
447,958	0,02956
448,164	0,02877
448,369	0,02838
448,574	0,02853
448,779	0,02861
448,984	0,02892
449,19	0,03026
449,395	0,03053
449,6	0,03044
449,805	0,03115
450,01	0,03092
450,215	0,03077
450,421	0,03209
450,626	0,03236
450,831	0,03208
451,036	0,03215
451,241	0,03265
451,446	0,03135
451,651	0,03186
451,856	0,03204
452,061	0,03257
452,266	0,03347
452,471	0,03435
452,676	0,03421
452,881	0,03452
453,086	0,03574
453,291	0,03701
453,496	0,03695
453,701	0,03755
453,906	0,03711
454,111	0,03657
454,316	0,03666
454,52	0,0368
454,725	0,03645
454,93	0,03702
455,135	0,03731
455,34	0,03713
455,545	0,03717
455,749	0,03758
455,954	0,03764
456,159	0,03852
456,364	0,04065
456,568	0,0408
456,773	0,04121
456,978	0,04226
457,182	0,04287
457,387	0,04341
457,592	0,04418
457,796	0,0439
458,001	0,04466
458,206	0,04568
458,41	0,04557
458,615	0,04511
458,82	0,04545
459,024	0,04626
459,229	0,04649
459,433	0,04595
459,638	0,04547
459,842	0,0458
460,047	0,04638
460,251	0,04624
460,456	0,04567
460,66	0,04673
460,865	0,04711
461,069	0,04777
461,274	0,04716
461,478	0,04701
461,682	0,04785
461,887	0,04892
462,091	0,04901
462,296	0,04961
462,5	0,04989
462,704	0,05132
462,909	0,05068
463,113	0,05101
463,317	0,05149
463,522	0,05305
463,726	0,05417
463,93	0,05481
464,134	0,05514
464,339	0,05552
464,543	0,05559
464,747	0,05609
464,951	0,0565
465,155	0,05758
465,36	0,05843
465,564	0,05861
465,768	0,05838
465,972	0,05886
466,176	0,05875
466,38	0,05947
466,584	0,06026
466,788	0,06076
466,993	0,06081
467,197	0,06072
467,401	0,06085
467,605	0,06063
467,809	0,06126
468,013	0,06191
468,217	0,06203
468,421	0,0622
468,625	0,0619
468,829	0,06238
469,033	0,0629
469,236	0,06411
469,44	0,06383
469,644	0,06398
469,848	0,06448
470,052	0,06473
470,256	0,06463
470,46	0,06499
470,664	0,06581
470,867	0,06688
471,071	0,06702
471,275	0,06746
471,479	0,06761
471,683	0,06875
471,886	0,06944
472,09	0,06987
472,294	0,07013
472,497	0,071
472,701	0,0713
472,905	0,07214
473,109	0,07303
473,312	0,07367
473,516	0,07457
473,719	0,07512
473,923	0,07598
474,127	0,07704
474,33	0,07753
474,534	0,07825
474,737	0,07899
474,941	0,07957
475,145	0,07971
475,348	0,07984
475,552	0,0806
475,755	0,08104
475,959	0,08192
476,162	0,0826
476,366	0,08301
476,569	0,08377
476,772	0,08469
476,976	0,08514
477,179	0,08637
477,383	0,08712
477,586	0,0875
477,789	0,08776
477,993	0,08883
478,196	0,08916
478,399	0,09017
478,603	0,09086
478,806	0,09191
479,009	0,09206
479,213	0,09266
479,416	0,09283
479,619	0,09382
479,822	0,0948
480,026	0,09603
480,229	0,09632
480,432	0,09714
480,635	0,09741
480,838	0,09815
481,041	0,09856
481,245	0,0994
481,448	0,09977
481,651	0,10079
481,854	0,10137
482,057	0,10166
482,26	0,10219
482,463	0,10278
482,666	0,10362
482,869	0,10428
483,072	0,10543
483,275	0,10625
483,478	0,10681
483,681	0,10829
483,884	0,10911
484,087	0,10981
484,29	0,11113
484,493	0,11212
484,696	0,11311
484,899	0,11405
485,102	0,11513
485,305	0,11534
485,508	0,11628
485,71	0,11756
485,913	0,1182
486,116	0,11869
486,319	0,11965
486,522	0,12021
486,725	0,12115
486,927	0,12216
487,13	0,12309
487,333	0,12391
487,536	0,12503
487,738	0,126
487,941	0,12689
488,144	0,12805
488,346	0,1292
488,549	0,13001
488,752	0,13086
488,954	0,13188
489,157	0,13264
489,359	0,13353
489,562	0,13425
489,765	0,13503
489,967	0,13581
490,17	0,13677
490,372	0,13743
490,575	0,13811
490,777	0,13916
490,98	0,14001
491,182	0,14047
491,385	0,14151
491,587	0,14231
491,79	0,14356
491,992	0,1444
492,195	0,14531
492,397	0,14609
492,599	0,14695
492,802	0,1481
493,004	0,1496
493,207	0,15093
493,409	0,15203
493,611	0,15305
493,814	0,15387
494,016	0,15453
494,218	0,15561
494,42	0,15649
494,623	0,15757
494,825	0,15873
495,027	0,15959
495,229	0,1603
495,432	0,16117
495,634	0,1621
495,836	0,16303
496,038	0,16415
496,24	0,16523
496,442	0,16629
496,645	0,16756
496,847	0,16867
497,049	0,16986
497,251	0,17106
497,453	0,1719
497,655	0,17317
497,857	0,17463
498,059	0,1756
498,261	0,17699
498,463	0,17837
498,665	0,17968
498,867	0,18062
499,069	0,18175
499,271	0,18273
499,473	0,18424
499,675	0,18557
499,877	0,18668
500,079	0,18782
500,281	0,18907
500,482	0,19019
500,684	0,19155
500,886	0,19265
501,088	0,19405
501,29	0,19532
501,492	0,1966
501,693	0,19762
501,895	0,19867
502,097	0,20018
502,299	0,20131
502,5	0,20291
502,702	0,20401
502,904	0,20543
503,106	0,20694
503,307	0,20829
503,509	0,20967
503,711	0,21109
503,912	0,2127
504,114	0,2143
504,315	0,21545
504,517	0,2168
504,719	0,21798
504,92	0,2194
505,122	0,22039
505,323	0,22147
505,525	0,22292
505,726	0,22427
505,928	0,22572
506,129	0,22668
506,331	0,22806
506,532	0,22977
506,734	0,2313
506,935	0,23272
507,137	0,23411
507,338	0,23553
507,539	0,23707
507,741	0,23854
507,942	0,24003
508,143	0,24167
508,345	0,24325
508,546	0,24463
508,747	0,24609
508,949	0,24759
509,15	0,24897
509,351	0,25062
509,553	0,25218
509,754	0,25365
509,955	0,25497
510,156	0,25668
510,357	0,25808
510,559	0,25981
510,76	0,26116
510,961	0,26267
511,162	0,26431
511,363	0,26618
511,564	0,26755
511,766	0,26925
511,967	0,27115
512,168	0,27309
512,369	0,27493
512,57	0,2765
512,771	0,27826
512,972	0,28017
513,173	0,28183
513,374	0,28338
513,575	0,28494
513,776	0,28701
513,977	0,2882
514,178	0,28981
514,379	0,2912
514,58	0,29253
514,781	0,29421
514,981	0,29563
515,182	0,29736
515,383	0,29907
515,584	0,30083
515,785	0,30234
515,986	0,30404
516,187	0,30629
516,387	0,30792
516,588	0,30998
516,789	0,31181
516,99	0,31335
517,19	0,3154
517,391	0,31702
517,592	0,31884
517,793	0,32049
517,993	0,32247
518,194	0,32408
518,395	0,32586
518,595	0,32803
518,796	0,32975
518,996	0,33147
519,197	0,3335
519,398	0,33519
519,598	0,33715
519,799	0,33887
519,999	0,34074
520,2	0,34268
520,4	0,34435
520,601	0,34614
520,801	0,34757
521,002	0,34915
521,202	0,35113
521,403	0,35303
521,603	0,35477
521,804	0,35616
522,004	0,35769
522,204	0,35944
522,405	0,36093
522,605	0,36264
522,806	0,36437
523,006	0,36616
523,206	0,36814
523,407	0,37
523,607	0,37162
523,807	0,37338
524,007	0,37533
524,208	0,37719
524,408	0,37891
524,608	0,38068
524,808	0,38267
525,009	0,38437
525,209	0,38616
525,409	0,38793
525,609	0,38913
525,809	0,3911
526,009	0,39246
526,209	0,39423
526,41	0,39625
526,61	0,39832
526,81	0,39996
527,01	0,40172
527,21	0,4034
527,41	0,40507
527,61	0,40647
527,81	0,40845
528,01	0,41
528,21	0,41196
528,41	0,41367
528,61	0,41501
528,81	0,41637
529,01	0,41815
529,21	0,41961
529,41	0,42087
529,609	0,42225
529,809	0,42388
530,009	0,42568
530,209	0,42731
530,409	0,42881
530,609	0,43027
530,808	0,43191
531,008	0,43369
531,208	0,43524
531,408	0,43679
531,608	0,4387
531,807	0,44014
532,007	0,44189
532,207	0,44299
532,406	0,44428
532,606	0,44597
532,806	0,44746
533,005	0,44875
533,205	0,44977
533,405	0,45092
533,604	0,45248
533,804	0,45395
534,003	0,45577
534,203	0,45696
534,403	0,45814
534,602	0,45934
534,802	0,46049
535,001	0,46185
535,201	0,46331
535,4	0,46479
535,6	0,46636
535,799	0,46747
535,998	0,46874
536,198	0,46974
536,397	0,47108
536,597	0,47239
536,796	0,47397
536,995	0,47524
537,195	0,4765
537,394	0,47767
537,594	0,47895
537,793	0,48031
537,992	0,48172
538,191	0,4827
538,391	0,48414
538,59	0,48511
538,789	0,48642
538,988	0,48719
539,188	0,48843
539,387	0,48984
539,586	0,49111
539,785	0,49238
539,984	0,49354
540,184	0,49432
540,383	0,49587
540,582	0,49697
540,781	0,4986
540,98	0,50001
541,179	0,50167
541,378	0,50276
541,577	0,50348
541,776	0,50478
541,975	0,50577
542,174	0,5068
542,373	0,50811
542,572	0,50869
542,771	0,50964
542,97	0,51036
543,169	0,51093
543,368	0,51155
543,567	0,51225
543,766	0,51327
543,965	0,51384
544,164	0,51476
544,362	0,51573
544,561	0,51672
544,76	0,51766
544,959	0,51864
545,158	0,51956
545,356	0,52052
545,555	0,52139
545,754	0,52247
545,953	0,52317
546,151	0,52408
546,35	0,52461
546,549	0,52492
546,748	0,52529
546,946	0,52598
547,145	0,52638
547,344	0,52698
547,542	0,52738
547,741	0,52802
547,939	0,5284
548,138	0,52897
548,337	0,52936
548,535	0,52987
548,734	0,53036
548,932	0,53086
549,131	0,531
549,329	0,53172
549,528	0,53217
549,726	0,53274
549,925	0,53311
550,123	0,53379
550,322	0,53439
550,52	0,53501
550,718	0,53565
550,917	0,53643
551,115	0,53705
551,313	0,53801
551,512	0,53822
551,71	0,53871
551,908	0,53933
552,107	0,54012
552,305	0,54057
552,503	0,54122
552,702	0,54151
552,9	0,54215
553,098	0,54263
553,296	0,54331
553,495	0,54391
553,693	0,5447
553,891	0,54523
554,089	0,54588
554,287	0,54618
554,485	0,54671
554,683	0,54701
554,882	0,54775
555,08	0,54823
555,278	0,54871
555,476	0,54899
555,674	0,54957
555,872	0,54998
556,07	0,55044
556,268	0,55111
556,466	0,55145
556,664	0,55208
556,862	0,55285
557,06	0,55351
557,258	0,5541
557,456	0,55491
557,654	0,55596
557,851	0,55658
558,049	0,55722
558,247	0,55828
558,445	0,55882
558,643	0,55961
558,841	0,56045
559,039	0,56118
559,236	0,56189
559,434	0,56261
559,632	0,56322
559,83	0,56408
560,027	0,56485
560,225	0,56565
560,423	0,56652
560,62	0,56738
560,818	0,56829
561,016	0,56923
561,213	0,57038
561,411	0,57143
561,609	0,57225
561,806	0,57335
562,004	0,57402
562,202	0,57503
562,399	0,57608
562,597	0,57661
562,794	0,57769
562,992	0,57869
563,189	0,57931
563,387	0,58011
563,584	0,58105
563,782	0,58219
563,979	0,58313
564,177	0,58409
564,374	0,58516
564,571	0,58629
564,769	0,58764
564,966	0,58849
565,164	0,58979
565,361	0,59095
565,558	0,59185
565,756	0,59276
565,953	0,594
566,15	0,5951
566,347	0,59647
566,545	0,59755
566,742	0,59886
566,939	0,59957
567,136	0,60087
567,334	0,60216
567,531	0,60344
567,728	0,60476
567,925	0,60615
568,122	0,60744
568,319	0,60879
568,517	0,60999
568,714	0,61122
568,911	0,61266
569,108	0,61463
569,305	0,61621
569,502	0,61759
569,699	0,61928
569,896	0,62095
570,093	0,62255
570,29	0,62408
570,487	0,62567
570,684	0,62737
570,881	0,62905
571,078	0,63026
571,275	0,63172
571,472	0,63318
571,669	0,63453
571,866	0,63593
572,062	0,63731
572,259	0,63891
572,456	0,64027
572,653	0,64184
572,85	0,64342
573,047	0,64508
573,243	0,64686
573,44	0,64837
573,637	0,64995
573,834	0,65187
574,03	0,65373
574,227	0,65543
574,424	0,65711
574,62	0,65884
574,817	0,66064
575,014	0,66216
575,21	0,6637
575,407	0,66545
575,604	0,66741
575,8	0,66935
575,997	0,67117
576,193	0,67281
576,39	0,67481
576,586	0,67666
576,783	0,67853
576,979	0,68039
577,176	0,6824
577,372	0,68429
577,569	0,68621
577,765	0,6879
577,962	0,6896
578,158	0,69133
578,355	0,69316
578,551	0,69497
578,747	0,69673
578,944	0,69852
579,14	0,70005
579,336	0,70189
579,533	0,70368
579,729	0,70522
579,925	0,707
580,122	0,70843
580,318	0,71002
580,514	0,71162
580,71	0,71324
580,906	0,71481
581,103	0,71648
581,299	0,71809
581,495	0,71953
581,691	0,72098
581,887	0,72249
582,084	0,72392
582,28	0,72571
582,476	0,72722
582,672	0,72848
582,868	0,72978
583,064	0,73086
583,26	0,73238
583,456	0,73365
583,652	0,73469
583,848	0,73621
584,044	0,73728
584,24	0,73828
584,436	0,73936
584,632	0,74029
584,828	0,74142
585,024	0,74228
585,22	0,74342
585,416	0,74389
585,611	0,74495
585,807	0,74572
586,003	0,74647
586,199	0,74718
586,395	0,74802
586,591	0,74881
586,786	0,74973
586,982	0,75041
587,178	0,75094
587,374	0,7512
587,569	0,75184
587,765	0,75217
587,961	0,75263
588,156	0,75274
588,352	0,75322
588,548	0,75334
588,743	0,75335
588,939	0,75308
589,135	0,75296
589,33	0,75289
589,526	0,75314
589,721	0,75292
589,917	0,75257
590,112	0,75223
590,308	0,75189
590,503	0,7516
590,699	0,75129
590,894	0,75077
591,09	0,75054
591,285	0,75002
591,481	0,74956
591,676	0,74885
591,872	0,74809
592,067	0,74734
592,262	0,74663
592,458	0,74593
592,653	0,74499
592,848	0,74393
593,044	0,74307
593,239	0,74185
593,434	0,74048
593,629	0,73916
593,825	0,73774
594,02	0,73643
594,215	0,73489
594,41	0,73332
594,606	0,73127
594,801	0,72919
594,996	0,72737
595,191	0,72544
595,386	0,72359
595,581	0,72172
595,777	0,71974
595,972	0,7177
596,167	0,71559
596,362	0,71354
596,557	0,7113
596,752	0,70931
596,947	0,7071
597,142	0,70474
597,337	0,7024
597,532	0,6999
597,727	0,69738
597,922	0,69468
598,117	0,69212
598,312	0,6893
598,507	0,68665
598,701	0,68372
598,896	0,68088
599,091	0,67817
599,286	0,67536
599,481	0,6721
599,676	0,66911
599,87	0,6659
600,065	0,66257
600,26	0,65926
600,455	0,65627
600,65	0,65287
600,844	0,6495
601,039	0,64612
601,234	0,64265
601,428	0,63901
601,623	0,63548
601,818	0,63174
602,012	0,6285
602,207	0,62505
602,402	0,6216
602,596	0,61766
602,791	0,61382
602,985	0,61036
603,18	0,60649
603,374	0,60282
603,569	0,59899
603,763	0,59529
603,958	0,59153
604,152	0,58753
604,347	0,58361
604,541	0,57944
604,736	0,57563
604,93	0,57158
605,125	0,56732
605,319	0,56342
605,513	0,5591
605,708	0,55505
605,902	0,55069
606,096	0,54639
606,291	0,5423
606,485	0,53797
606,679	0,53414
606,874	0,52981
607,068	0,52574
607,262	0,52166
607,456	0,51748
607,65	0,51327
607,845	0,50913
608,039	0,50503
608,233	0,50077
608,427	0,49635
608,621	0,49235
608,815	0,48804
609,01	0,48403
609,204	0,47985
609,398	0,47571
609,592	0,47156
609,786	0,46756
609,98	0,46362
610,174	0,45967
610,368	0,45585
610,562	0,45171
610,756	0,44768
610,95	0,44347
611,144	0,43945
611,338	0,43532
611,532	0,43108
611,726	0,42688
611,919	0,42274
612,113	0,41838
612,307	0,41404
612,501	0,40973
612,695	0,40588
612,889	0,40157
613,082	0,39738
613,276	0,39302
613,47	0,38916
613,664	0,38523
613,857	0,381
614,051	0,37698
614,245	0,37306
614,439	0,36919
614,632	0,36538
614,826	0,36131
615,02	0,35738
615,213	0,35363
615,407	0,34987
615,6	0,34586
615,794	0,34192
615,988	0,33827
616,181	0,33446
616,375	0,33074
616,568	0,32686
616,762	0,32303
616,955	0,31943
617,149	0,31586
617,342	0,3122
617,536	0,30866
617,729	0,30518
617,923	0,30169
618,116	0,29833
618,309	0,29476
618,503	0,29139
618,696	0,28799
618,889	0,28466
619,083	0,28117
619,276	0,27783
619,469	0,2744
619,663	0,27101
619,856	0,26759
620,049	0,26433
620,242	0,26114
620,436	0,25787
620,629	0,25468
620,822	0,25177
621,015	0,24851
621,209	0,24549
621,402	0,24237
621,595	0,23931
621,788	0,23642
621,981	0,23356
622,174	0,23073
622,367	0,22763
622,56	0,2247
622,753	0,22169
622,946	0,21864
623,139	0,2159
623,332	0,21313
623,525	0,2104
623,718	0,20768
623,911	0,20492
624,104	0,20222
624,297	0,19935
624,49	0,19677
624,683	0,1942
624,876	0,1917
625,069	0,18913
625,262	0,1867
625,454	0,18419
625,647	0,18179
625,84	0,1793
626,033	0,17701
626,226	0,17463
626,418	0,17244
626,611	0,17024
626,804	0,16798
626,997	0,16574
627,189	0,16361
627,382	0,16133
627,575	0,15915
627,767	0,15693
627,96	0,15495
628,153	0,15266
628,345	0,15046
628,538	0,14839
628,731	0,14622
628,923	0,14423
629,116	0,14224
629,308	0,14012
629,501	0,13808
629,693	0,13615
629,886	0,13426
630,078	0,13221
630,271	0,13042
630,463	0,12868
630,656	0,12683
630,848	0,12509
631,04	0,12333
631,233	0,12156
631,425	0,11992
631,617	0,11811
631,81	0,11649
632,002	0,11484
632,194	0,11329
632,387	0,11158
632,579	0,10999
632,771	0,10833
632,964	0,10674
633,156	0,1052
633,348	0,10358
633,54	0,10217
633,732	0,10082
633,925	0,0993
634,117	0,09797
634,309	0,09651
634,501	0,09521
634,693	0,09371
634,885	0,09228
635,077	0,09081
635,269	0,08945
635,462	0,08828
635,654	0,08695
635,846	0,08567
636,038	0,08437
636,23	0,08296
636,422	0,08172
636,614	0,08046
636,806	0,07933
636,997	0,07823
637,189	0,07722
637,381	0,07608
637,573	0,07488
637,765	0,07379
637,957	0,07264
638,149	0,07161
638,341	0,07074
638,532	0,06968
638,724	0,0687
638,916	0,06777
639,108	0,06678
639,299	0,06577
639,491	0,06467
639,683	0,06385
639,875	0,06291
640,066	0,06207
640,258	0,06107
640,45	0,06
640,641	0,05934
640,833	0,05843
641,025	0,05758
641,216	0,0567
641,408	0,05577
641,599	0,05509
641,791	0,05428
641,982	0,05346
642,174	0,05263
642,366	0,05196
642,557	0,0512
642,748	0,05025
642,94	0,04947
643,131	0,04858
643,323	0,04789
643,514	0,0473
643,706	0,04667
643,897	0,04591
644,088	0,0452
644,28	0,04463
644,471	0,04383
644,662	0,04326
644,854	0,04266
645,045	0,04209
645,236	0,04146
645,428	0,04091
645,619	0,04029
645,81	0,03958
646,001	0,03888
646,193	0,03833
646,384	0,03766
646,575	0,03711
646,766	0,03651
646,957	0,03586
647,148	0,03529
647,339	0,03483
647,531	0,03431
647,722	0,03378
647,913	0,03332
648,104	0,03286
648,295	0,03234
648,486	0,03187
648,677	0,03137
648,868	0,03093
649,059	0,03057
649,25	0,03013
649,441	0,02973
649,632	0,02916
649,823	0,02881
650,013	0,0284
650,204	0,02798
650,395	0,02747
650,586	0,02706
650,777	0,02671
650,968	0,02626
651,159	0,02588
651,349	0,02539
651,54	0,02492
651,731	0,02451
651,922	0,02415
652,112	0,02368
652,303	0,02332
652,494	0,02306
652,684	0,02276
652,875	0,02244
653,066	0,02218
653,256	0,02188
653,447	0,0216
653,638	0,02132
653,828	0,02107
654,019	0,02068
654,209	0,02044
654,4	0,02014
654,59	0,01988
654,781	0,01963
654,972	0,01925
655,162	0,01903
655,352	0,01862
655,543	0,01835
655,733	0,01805
655,924	0,01791
656,114	0,01763
656,305	0,01739
656,495	0,01719
656,685	0,01683
656,876	0,01662
657,066	0,01651
657,256	0,01625
657,447	0,01613
657,637	0,01598
657,827	0,01586
658,017	0,0157
658,208	0,01547
658,398	0,0152
658,588	0,01497
658,778	0,01482
658,968	0,01456
659,159	0,01433
659,349	0,014
659,539	0,01374
659,729	0,01341
659,919	0,01321
660,109	0,01289
660,299	0,01285
660,489	0,01284
660,679	0,01266
660,869	0,01254
661,059	0,01234
661,249	0,01217
661,439	0,01201
661,629	0,01181
661,819	0,01176
662,009	0,01159
662,199	0,01138
662,389	0,01107
662,579	0,01078
662,769	0,01059
662,959	0,01045
663,149	0,01028
663,338	0,01016
663,528	0,01009
663,718	0,01009
663,908	0,00989
664,097	0,00966
664,287	0,00953
664,477	0,00949
664,667	0,00928
664,856	0,00916
665,046	0,00895
665,236	0,00891
665,425	0,00877
665,615	0,00868
665,805	0,00855
665,994	0,00859
666,184	0,0085
666,373	0,00846
666,563	0,00837
666,753	0,00832
666,942	0,00826
667,132	0,00811
667,321	0,00789
667,511	0,0078
667,7	0,00764
667,889	0,00736
668,079	0,00716
668,268	0,00714
668,458	0,00696
668,647	0,00684
668,836	0,00676
669,026	0,00658
669,215	0,00647
669,404	0,00648
669,594	0,00637
669,783	0,00633
669,972	0,00634
670,162	0,00626
670,351	0,00601
670,54	0,00592
670,729	0,00571
670,919	0,00561
671,108	0,00557
671,297	0,00555
671,486	0,00544
671,675	0,00538
671,864	0,00535
672,053	0,00535
672,243	0,00528
672,432	0,00528
672,621	0,00525
672,81	0,00524
672,999	0,00524
673,188	0,00531
673,377	0,0053
673,566	0,00514
673,755	0,00506
673,944	0,00488
674,133	0,0047
674,322	0,00469
674,51	0,00467
674,699	0,00462
674,888	0,00456
675,077	0,00443
675,266	0,00423
675,455	0,00415
675,644	0,0041
675,832	0,00406
676,021	0,00401
676,21	0,00401
676,399	0,00385
676,587	0,00378
676,776	0,00369
676,965	0,00361
677,153	0,00363
677,342	0,00357
677,531	0,00348
677,719	0,00346
677,908	0,00348
678,097	0,00353
678,285	0,00348
678,474	0,00348
678,662	0,00355
678,851	0,00349
679,039	0,00347
679,228	0,0034
679,416	0,00346
679,605	0,00341
679,793	0,00346
679,982	0,0034
680,17	0,00321
680,359	0,00324
680,547	0,00321
680,736	0,00311
680,924	0,00315
681,112	0,00307
681,301	0,00311
681,489	0,003
681,677	0,00305
681,866	0,00294
682,054	0,00283
682,242	0,00285
682,43	0,00286
682,619	0,00277
682,807	0,00262
682,995	0,00249
683,183	0,00249
683,371	0,00249
683,559	0,00246
683,748	0,00238
683,936	0,00232
684,124	0,00229
684,312	0,00219
684,5	0,00199
684,688	0,00216
684,876	0,00218
685,064	0,00209
685,252	0,00206
685,44	0,00195
685,628	0,00197
685,816	0,002
686,004	0,00194
686,192	0,00196
686,38	0,00199
686,568	0,00199
686,756	0,00171
686,944	0,00174
687,131	0,00182
687,319	0,00185
687,507	0,0018
687,695	0,00167
687,883	0,00158
688,07	0,0016
688,258	0,00158
688,446	0,00163
688,634	0,00173
688,821	0,00184
689,009	0,00178
689,197	0,00176
689,384	0,00171
689,572	0,00163
689,76	0,00168
689,947	0,00166
690,135	0,00169
690,323	0,00168
690,51	0,00157
690,698	0,00143
690,885	0,00147
691,073	0,00145
691,26	0,00133
691,448	0,00133
691,635	0,00139
691,823	0,00137
692,01	0,00129
692,197	0,00113
692,385	0,0011
692,572	0,00107
692,76	0,00113
692,947	0,00113
693,134	0,00115
693,322	0,0012
693,509	0,00104
693,696	0,00094
693,884	0,00095
694,071	0,00097
694,258	0,00102
694,445	0,00099
694,633	0,00101
694,82	0,00086
695,007	0,00071
695,194	0,00068
695,381	0,00063
695,568	0,00067
695,756	0,00075
695,943	0,00073
696,13	0,00064
696,317	0,00067
696,504	0,00069
696,691	0,0007
696,878	0,00079
697,065	0,00072
697,252	0,00073
697,439	0,00082
697,626	0,00081
697,813	0,00075
698	0,00066
698,187	0,00063
698,374	0,00059
698,561	0,00053
698,747	0,00059
698,934	0,00051
699,121	0,00065
699,308	0,00055
699,495	0,00051
699,682	0,00057
699,868	0,00048
700,055	0,00043
700,242	0,0004
700,429	0,00031
700,615	0,00026
700,802	0,00007
700,989	0,00015
701,175	0,00004
701,362	0,00003
701,549	-0,00002
701,735	-0,00007
701,922	-0,0001
702,108	0
702,295	0,00002
702,482	0,00008
702,668	0,00022
702,855	0,00026
703,041	0,00025
703,228	0,0003
703,414	0,00033
703,601	0,00038
703,787	0,00031
703,973	0,0003
704,16	0,00018
704,346	0,00027
704,533	0,00018
704,719	0,00004
704,905	0,00002
705,092	-0
705,278	-0,00003
705,464	-0,00007
705,65	-0,00011
705,837	-0,00016
706,023	-0,00015
706,209	-0,00008
706,395	-0,00013
706,582	-0,00013
706,768	-0,00007
706,954	0,00003
707,14	-0,00007
707,326	-0,00011
707,512	-0,00024
707,698	-0,00018
707,885	-0,0002
708,071	-0,00015
708,257	-0,00023
708,443	-0,0002
708,629	-0,0002
708,815	-0,00028
709,001	-0,00043
709,187	-0,00044
709,373	-0,0004
709,559	-0,0003
709,745	-0,00039
709,93	-0,00039
710,116	-0,00038
710,302	-0,00024
710,488	-0,00027
710,674	-0,00021
710,86	-0,00021
711,046	-0,00009
711,231	-0,00015
711,417	-0,00021
711,603	-0,00025
711,789	-0,00034
711,974	-0,00031
712,16	-0,00043
712,346	-0,00055
712,532	-0,00059
712,717	-0,0007
712,903	-0,00077
713,089	-0,00079
713,274	-0,00066
713,46	-0,00074
713,645	-0,00068
713,831	-0,00055
714,016	-0,00056
714,202	-0,0005
714,388	-0,00031
714,573	-0,00036
714,759	-0,00033
714,944	-0,00032
715,129	-0,00044
715,315	-0,0005
715,5	-0,00052
715,686	-0,00057
715,871	-0,00055
716,057	-0,00058
716,242	-0,0005
716,427	-0,00061
716,613	-0,00051
716,798	-0,00053
716,983	-0,00049
717,168	-0,00042
717,354	-0,00038
717,539	-0,00031
717,724	-0,00029
717,909	-0,0003
718,095	-0,00022
718,28	-0,00034
718,465	-0,0004
718,65	-0,00041
718,835	-0,00049
719,02	-0,00056
719,206	-0,00056
719,391	-0,00058
719,576	-0,00066
719,761	-0,00072
719,946	-0,00081
720,131	-0,00088
720,316	-0,00082
720,501	-0,00082
720,686	-0,00084
720,871	-0,00071
721,056	-0,00065
721,241	-0,00078
721,426	-0,00088
721,61	-0,00089
721,795	-0,00085
721,98	-0,00087
722,165	-0,00082
722,35	-0,00072
722,535	-0,00076
722,719	-0,00079
722,904	-0,00079
723,089	-0,00084
723,274	-0,00079
723,458	-0,00082
723,643	-0,00072
723,828	-0,00077
724,013	-0,00079
724,197	-0,00089
724,382	-0,00102
724,567	-0,001
724,751	-0,00095
724,936	-0,00107
725,12	-0,00112
725,305	-0,00106
725,489	-0,00101
725,674	-0,00109
725,859	-0,00109
726,043	-0,00106
726,228	-0,00093
726,412	-0,00087
726,596	-0,00092
726,781	-0,00093
726,965	-0,00086
727,15	-0,00071
727,334	-0,00084
727,518	-0,00084
727,703	-0,00075
727,887	-0,0007
728,072	-0,00067
728,256	-0,00069
728,44	-0,00076
728,624	-0,00073
728,809	-0,0008
728,993	-0,00079
729,177	-0,00081
729,361	-0,00075
729,546	-0,00072
729,73	-0,00074
729,914	-0,00086
730,098	-0,00098
730,282	-0,00114
730,466	-0,00118
730,65	-0,00117
730,834	-0,00122
731,019	-0,00132
731,203	-0,00136
731,387	-0,00134
731,571	-0,00149
731,755	-0,00156
731,939	-0,00148
732,123	-0,00148
732,306	-0,00137
732,49	-0,00132
732,674	-0,00135
732,858	-0,00135
733,042	-0,00128
733,226	-0,00121
733,41	-0,00119
733,594	-0,001
733,778	-0,00098
733,961	-0,00093
734,145	-0,00082
734,329	-0,00073
734,513	-0,00071
734,696	-0,00068
734,88	-0,00071
735,064	-0,00075
735,247	-0,00088
735,431	-0,00091
735,615	-0,00105
735,798	-0,00105
735,982	-0,00104
736,166	-0,00105
736,349	-0,0012
736,533	-0,00123
736,716	-0,00129
736,9	-0,00126
737,083	-0,00127
737,267	-0,00138
737,45	-0,00144
737,634	-0,00142
737,817	-0,00147
738,001	-0,00165
738,184	-0,00173
738,368	-0,00172
738,551	-0,00181
738,734	-0,00176
738,918	-0,00172
739,101	-0,00155
739,284	-0,00148
739,468	-0,00144
739,651	-0,00139
739,834	-0,00136
740,018	-0,00126
740,201	-0,00124
740,384	-0,00128
740,567	-0,00122
740,75	-0,0013
740,934	-0,00141
741,117	-0,00156
741,3	-0,0015
741,483	-0,00152
741,666	-0,00151
741,849	-0,00156
742,032	-0,00162
742,215	-0,00168
742,399	-0,00168
742,582	-0,00171
742,765	-0,00162
742,948	-0,00146
743,131	-0,00141
743,314	-0,00156
743,496	-0,00162
743,679	-0,00163
743,862	-0,00157
744,045	-0,00154
744,228	-0,00147
744,411	-0,00137
744,594	-0,00133
744,777	-0,00136
744,959	-0,0014
745,142	-0,00129
745,325	-0,00116
745,508	-0,00109
745,691	-0,00106
745,873	-0,00113
746,056	-0,00109
746,239	-0,00114
746,421	-0,00107
746,604	-0,00108
746,787	-0,00111
746,969	-0,00114
747,152	-0,00132
747,335	-0,00136
747,517	-0,00129
747,7	-0,00134
747,882	-0,00127
748,065	-0,00142
748,247	-0,0013
748,43	-0,0015
748,612	-0,00153
748,795	-0,00154
748,977	-0,00159
749,16	-0,00155
749,342	-0,00151
749,524	-0,00154
749,707	-0,00146
749,889	-0,00152
750,072	-0,00149
750,254	-0,0016
750,436	-0,00159
750,619	-0,0015
750,801	-0,00158
750,983	-0,00159
751,165	-0,00165
751,348	-0,00158
751,53	-0,00171
751,712	-0,00185
751,894	-0,00179
752,076	-0,00166
752,259	-0,00161
752,441	-0,00154
752,623	-0,00164
752,805	-0,00161
752,987	-0,00164
753,169	-0,00155
753,351	-0,00178
753,533	-0,00168
753,715	-0,00165
753,897	-0,00175
754,079	-0,00176
754,261	-0,00175
754,443	-0,00184
754,625	-0,00178
754,807	-0,00169
754,989	-0,00156
755,171	-0,00158
755,353	-0,00148
755,534	-0,00161
755,716	-0,00164
755,898	-0,00163
756,08	-0,00165
756,262	-0,00171
756,443	-0,00183
756,625	-0,00185
756,807	-0,00189
756,989	-0,00192
757,17	-0,00194
757,352	-0,00187
757,534	-0,0017
757,715	-0,00167
757,897	-0,00162
758,079	-0,00167
758,26	-0,00162
758,442	-0,0014
758,623	-0,00147
758,805	-0,00144
758,987	-0,00151
759,168	-0,00162
759,35	-0,00173
759,531	-0,00175
759,713	-0,00183
759,894	-0,00193
760,075	-0,00202
760,257	-0,0022
760,438	-0,0023
760,62	-0,00233
760,801	-0,00241
760,982	-0,00239
761,164	-0,00239
761,345	-0,00238
761,526	-0,00243
761,708	-0,00238
761,889	-0,00229
762,07	-0,00226
762,251	-0,00209
762,433	-0,002
762,614	-0,00197
762,795	-0,00192
762,976	-0,00187
763,157	-0,00181
763,338	-0,00178
763,52	-0,00183
763,701	-0,00185
763,882	-0,00188
764,063	-0,00173
764,244	-0,00176
764,425	-0,00171
764,606	-0,00176
764,787	-0,00181
764,968	-0,00196
765,149	-0,00206
765,33	-0,00204
765,511	-0,00203
765,692	-0,00206
765,873	-0,00203
766,053	-0,0022
766,234	-0,00221
766,415	-0,00227
766,596	-0,00229
766,777	-0,00228
766,958	-0,00225
767,138	-0,00212
767,319	-0,00216
767,5	-0,00212
767,681	-0,00222
767,861	-0,00219
768,042	-0,00217
768,223	-0,00219
768,403	-0,00222
768,584	-0,00214
768,765	-0,00211
768,945	-0,00211
769,126	-0,00212
769,307	-0,00216
769,487	-0,00219
769,668	-0,00199
769,848	-0,00206
770,029	-0,00199
770,209	-0,00206
770,39	-0,0021
770,57	-0,00207
770,751	-0,00212
770,931	-0,00206
771,111	-0,00214
771,292	-0,00207
771,472	-0,00206
771,653	-0,00209
771,833	-0,0021
772,013	-0,00213
772,194	-0,00202
772,374	-0,00212
772,554	-0,00223
772,734	-0,00216
772,915	-0,00212
773,095	-0,00207
773,275	-0,00206
773,455	-0,00205
773,635	-0,00221
773,816	-0,00215
773,996	-0,00204
774,176	-0,002
774,356	-0,00194
774,536	-0,00192
774,716	-0,00191
774,896	-0,00198
775,076	-0,00201
775,256	-0,00202
775,436	-0,00191
775,616	-0,00178
775,796	-0,00178
775,976	-0,00182
776,156	-0,00188
776,336	-0,00176
776,516	-0,00177
776,696	-0,00182
776,876	-0,00177
777,056	-0,00183
777,235	-0,00186
777,415	-0,00196
777,595	-0,00208
777,775	-0,00216
777,955	-0,00231
778,134	-0,00244
778,314	-0,00239
778,494	-0,00238
778,674	-0,00237
778,853	-0,0025
779,033	-0,00248
779,213	-0,00256
779,392	-0,00265
779,572	-0,00253
779,751	-0,00259
779,931	-0,00253
780,111	-0,00247
780,29	-0,00268
780,47	-0,00264
780,649	-0,00273
780,829	-0,00267
781,008	-0,00256
781,188	-0,0025
781,367	-0,00248
781,546	-0,0025
781,726	-0,0024
781,905	-0,00234
782,085	-0,0023
782,264	-0,00221
782,443	-0,00216
782,623	-0,0021
782,802	-0,00203
782,981	-0,00209
783,161	-0,00215
783,34	-0,00214
783,519	-0,00205
783,698	-0,002
783,878	-0,00206
784,057	-0,00214
784,236	-0,0021
784,415	-0,00211
784,594	-0,00205
784,773	-0,00212
784,952	-0,00208
785,132	-0,00203
785,311	-0,0019
785,49	-0,00202
785,669	-0,00207
785,848	-0,00199
786,027	-0,00196
786,206	-0,00195
786,385	-0,00201
786,564	-0,00207
786,743	-0,00203
786,922	-0,00208
787,1	-0,00215
787,279	-0,00223
787,458	-0,00214
787,637	-0,00212
787,816	-0,00216
787,995	-0,00214
788,174	-0,00214
788,352	-0,00201
788,531	-0,00201
788,71	-0,00205
788,889	-0,00202
789,067	-0,00203
789,246	-0,00203
789,425	-0,0021
789,603	-0,00219
789,782	-0,00227
789,961	-0,00226
790,139	-0,00225
790,318	-0,00245
790,496	-0,00245
790,675	-0,00241
790,853	-0,00244
791,032	-0,00243
791,211	-0,00248
791,389	-0,00246
791,568	-0,00234
791,746	-0,00226
791,924	-0,0023
792,103	-0,00236
792,281	-0,00229
792,46	-0,0022
792,638	-0,00221
792,816	-0,00213
792,995	-0,00201
793,173	-0,00199
793,351	-0,00197
793,53	-0,0019
793,708	-0,00183
793,886	-0,00181
794,064	-0,00175
794,243	-0,0017
794,421	-0,0018
794,599	-0,00186
794,777	-0,00198
794,955	-0,0021
795,133	-0,0021
795,312	-0,00221
795,49	-0,00232
795,668	-0,0024
795,846	-0,00242
796,024	-0,00248
796,202	-0,00253
796,38	-0,00249
796,558	-0,00256
796,736	-0,00255
796,914	-0,00253
797,092	-0,00255
797,27	-0,0025
797,448	-0,0026
797,626	-0,00263
797,803	-0,00272
797,981	-0,00282
798,159	-0,00287
798,337	-0,00286
798,515	-0,00286
798,693	-0,00286
798,87	-0,0029
799,048	-0,00289
799,226	-0,00296
799,404	-0,00304
799,581	-0,00305
799,759	-0,00295
799,937	-0,00292
800,114	-0,00285
800,292	-0,00302
800,469	-0,00281
800,647	-0,0028
800,825	-0,0028
801,002	-0,00287
801,18	-0,00293
801,357	-0,00281
801,535	-0,00284
801,712	-0,00292
801,89	-0,00293
802,067	-0,00302
802,245	-0,00295
802,422	-0,00312
802,6	-0,00317
802,777	-0,00313
802,954	-0,00315
803,132	-0,00304
803,309	-0,00302
803,486	-0,00304
803,664	-0,00297
803,841	-0,00284
804,018	-0,00275
804,195	-0,00279
804,373	-0,00283
804,55	-0,00274
804,727	-0,00273
804,904	-0,0027
805,081	-0,0027
805,259	-0,00273
805,436	-0,00286
805,613	-0,00293
805,79	-0,00311
805,967	-0,00321
806,144	-0,00321
806,321	-0,00326
806,498	-0,0032
806,675	-0,00314
806,852	-0,00317
807,029	-0,00309
807,206	-0,00317
807,383	-0,00295
807,56	-0,00294
807,737	-0,00288
807,914	-0,00288
808,091	-0,00272
808,268	-0,00253
808,444	-0,00249
808,621	-0,00256
808,798	-0,00261
808,975	-0,00264
809,152	-0,00258
809,328	-0,0025
809,505	-0,00252
809,682	-0,00251
809,858	-0,00253
810,035	-0,00264
810,212	-0,00284
810,388	-0,00305
810,565	-0,00289
810,742	-0,00281
810,918	-0,00289
811,095	-0,00292
811,271	-0,00311
811,448	-0,00313
811,625	-0,00324
811,801	-0,00316
811,978	-0,00315
812,154	-0,00312
812,33	-0,00304
812,507	-0,00307
812,683	-0,00296
812,86	-0,00286
813,036	-0,00274
813,212	-0,00266
813,389	-0,00266
813,565	-0,00252
813,741	-0,00247
813,918	-0,00244
814,094	-0,00229
814,27	-0,00237
814,447	-0,00256
814,623	-0,00265
814,799	-0,0027
814,975	-0,00277
815,151	-0,00287
815,328	-0,00281
815,504	-0,00272
815,68	-0,00277
815,856	-0,00275
816,032	-0,00277
816,208	-0,00272
816,384	-0,00263
816,56	-0,00268
816,736	-0,0028
816,912	-0,0028
817,088	-0,0028
817,264	-0,00282
817,44	-0,00302
817,616	-0,00305
817,792	-0,0031
817,968	-0,00302
818,144	-0,00289
818,32	-0,00286
818,495	-0,0028
818,671	-0,00273
818,847	-0,00284
819,023	-0,00276
819,199	-0,00263
819,374	-0,00241
819,55	-0,00243
819,726	-0,00241
819,902	-0,00243
820,077	-0,00245
820,253	-0,00241
820,429	-0,00245
820,604	-0,0023
820,78	-0,00218
820,956	-0,00223
821,131	-0,00243
821,307	-0,00255
821,482	-0,00255
821,658	-0,00242
821,833	-0,00274
822,009	-0,003
822,184	-0,00319
822,36	-0,00311
822,535	-0,00326
822,711	-0,00328
822,886	-0,00323
823,061	-0,00321
823,237	-0,00315
823,412	-0,00314
823,587	-0,00337
823,763	-0,00322
823,938	-0,00306
824,113	-0,00311
824,289	-0,00322
824,464	-0,00317
824,639	-0,00327
824,814	-0,00335
824,99	-0,0033
825,165	-0,00345
825,34	-0,00328
825,515	-0,00313
825,69	-0,00309
825,865	-0,00304
826,04	-0,00276
826,215	-0,00256
826,39	-0,00237
826,566	-0,00209
826,741	-0,00183
826,916	-0,00171
827,091	-0,00164
827,265	-0,0017
827,44	-0,00177
827,615	-0,00171
827,79	-0,00188
827,965	-0,00207
828,14	-0,00219
828,315	-0,00228
828,49	-0,00233
828,665	-0,00247
828,839	-0,00273
829,014	-0,00284
829,189	-0,00304
829,364	-0,00305
829,538	-0,00311
829,713	-0,00305
829,888	-0,00293
830,063	-0,00292
830,237	-0,00305
830,412	-0,0031
830,587	-0,00318
830,761	-0,00291
830,936	-0,00287
831,11	-0,00278
831,285	-0,003
831,459	-0,00289
831,634	-0,00284
831,809	-0,00283
831,983	-0,00296
832,157	-0,00304
832,332	-0,00309
832,506	-0,00304
832,681	-0,00323
832,855	-0,00325
833,03	-0,00315
833,204	-0,00296
833,378	-0,00306
833,553	-0,00315
833,727	-0,00315
833,901	-0,00308
834,076	-0,00291
834,25	-0,00301
834,424	-0,00292
834,598	-0,00267
834,773	-0,00253
834,947	-0,00249
835,121	-0,00241
835,295	-0,00238
835,469	-0,00245
835,643	-0,00272
835,817	-0,00277
835,991	-0,00305
836,166	-0,00307
836,34	-0,00309
836,514	-0,0033
836,688	-0,00319
836,862	-0,00325
837,036	-0,0035
837,21	-0,0034
837,384	-0,00312
837,557	-0,00282
837,731	-0,0028
837,905	-0,00263
838,079	-0,0027
838,253	-0,00288
838,427	-0,00283
838,601	-0,00295
838,774	-0,00312
838,948	-0,00298
839,122	-0,00309
839,296	-0,00321
839,469	-0,00321
839,643	-0,00322
839,817	-0,00318
839,991	-0,00312
840,164	-0,00293
840,338	-0,00302
840,512	-0,00298
840,685	-0,00277
840,859	-0,00288
841,032	-0,00288
841,206	-0,00283
841,379	-0,00293
841,553	-0,00279
841,726	-0,00279
841,9	-0,00264
842,073	-0,00268
842,247	-0,00255
842,42	-0,00276
842,594	-0,00286
842,767	-0,0028
842,94	-0,00283
843,114	-0,00276
843,287	-0,00273
843,46	-0,00293
843,634	-0,00296
843,807	-0,00303
843,98	-0,003
844,154	-0,00316
844,327	-0,00308
844,5	-0,00305
844,673	-0,00293
844,846	-0,00297
845,02	-0,00302
845,193	-0,00314
845,366	-0,00301
845,539	-0,00314
845,712	-0,00318
845,885	-0,00338
846,058	-0,00334
846,231	-0,00349
846,404	-0,00357
846,577	-0,00365
846,75	-0,00338
846,923	-0,00334
847,096	-0,0033
847,269	-0,00321
847,442	-0,00301
847,615	-0,00289
847,788	-0,00285
847,961	-0,0027
848,133	-0,00236
848,306	-0,00222
848,479	-0,00214
848,652	-0,0024
848,825	-0,00261
848,997	-0,00252
849,17	-0,00274
849,343	-0,00277
849,515	-0,00285
849,688	-0,00284
849,861	-0,00288
850,033	-0,00289
850,206	-0,00295
850,379	-0,00294
850,551	-0,00274
850,724	-0,00268
850,896	-0,0029
851,069	-0,00268
851,241	-0,00289
851,414	-0,00272
851,586	-0,00275
851,759	-0,00285
851,931	-0,00302
852,104	-0,0032
852,276	-0,0033
852,449	-0,00361
852,621	-0,00355
852,793	-0,00343
852,966	-0,00347
853,138	-0,00325
853,31	-0,00343
853,483	-0,00339
853,655	-0,00337
853,827	-0,00364
853,999	-0,00345
854,172	-0,00336
854,344	-0,00321
854,516	-0,00308
854,688	-0,003
854,86	-0,00312
855,032	-0,00324
855,204	-0,00313
855,377	-0,00292
855,549	-0,00307
855,721	-0,0028
855,893	-0,00289
856,065	-0,00285
856,237	-0,00301
856,409	-0,00307
856,581	-0,0032
856,753	-0,00294
856,924	-0,00291
857,096	-0,00293
857,268	-0,00285
857,44	-0,00268
857,612	-0,00263
857,784	-0,00255
857,956	-0,00258
858,127	-0,00254
858,299	-0,00254
858,471	-0,0026
858,643	-0,0029
858,814	-0,00287
858,986	-0,00307
859,158	-0,0033
859,33	-0,00328
859,501	-0,00342
859,673	-0,00344
859,844	-0,00327
860,016	-0,00338
860,188	-0,00337
860,359	-0,00308
860,531	-0,00293
860,702	-0,00298
860,874	-0,00309
861,045	-0,00324
861,217	-0,00317
861,388	-0,00301
861,56	-0,00317
861,731	-0,00348
861,902	-0,00343
862,074	-0,00348
862,245	-0,00361
862,417	-0,00375
862,588	-0,00392
862,759	-0,00356
862,931	-0,00352
863,102	-0,00363
863,273	-0,00356
863,444	-0,00358
863,616	-0,0035
863,787	-0,00339
863,958	-0,0034
864,129	-0,00358
864,3	-0,00372
864,471	-0,00344
864,642	-0,00354
864,814	-0,00351
864,985	-0,00351
865,156	-0,00368
865,327	-0,00351
865,498	-0,00328
865,669	-0,00326
865,84	-0,00334
866,011	-0,00301
866,182	-0,00294
866,353	-0,00304
866,523	-0,00323
866,694	-0,00314
866,865	-0,00319
867,036	-0,00308
867,207	-0,0033
867,378	-0,00384
867,549	-0,00402
867,719	-0,0042
867,89	-0,00464
868,061	-0,00456
868,232	-0,0048
868,402	-0,00501
868,573	-0,0051
868,744	-0,00493
868,914	-0,00499
869,085	-0,00495
869,256	-0,00469
869,426	-0,00484
869,597	-0,0047
869,767	-0,00432
869,938	-0,00428
870,108	-0,004
870,279	-0,00366
870,449	-0,00374
870,62	-0,00395
870,79	-0,004
870,961	-0,0038
871,131	-0,00368
871,302	-0,00313
871,472	-0,00304
871,642	-0,00321
871,813	-0,00323
871,983	-0,00304
872,153	-0,00325
872,324	-0,00333
872,494	-0,00328
872,664	-0,00329
872,835	-0,00295
873,005	-0,00315
873,175	-0,00349
873,345	-0,00338
873,515	-0,00345
873,685	-0,00371
873,856	-0,00388
874,026	-0,0037
874,196	-0,00338
874,366	-0,00339
874,536	-0,00331
874,706	-0,0038
874,876	-0,00373
875,046	-0,00374
875,216	-0,0037
875,386	-0,00342
875,556	-0,00291
875,726	-0,00315
875,896	-0,00317
876,066	-0,00315
876,236	-0,00336
876,405	-0,00345
876,575	-0,00349
876,745	-0,00343
876,915	-0,00302
877,085	-0,00317
877,254	-0,00334
877,424	-0,00325
877,594	-0,0031
877,764	-0,00282
877,933	-0,00304
878,103	-0,00285
878,273	-0,0025
878,442	-0,00231
878,612	-0,00238
878,781	-0,00254
878,951	-0,00253
879,121	-0,00275
879,29	-0,00335
879,46	-0,00319
879,629	-0,00337
879,799	-0,00333
879,968	-0,0033
880,138	-0,00344
880,307	-0,00339
880,476	-0,00307
880,646	-0,00353
880,815	-0,00366
880,985	-0,00351
881,154	-0,00352
881,323	-0,00364
881,493	-0,00379
881,662	-0,00375
881,831	-0,00381
882	-0,0041
882,17	-0,00407
882,339	-0,00457
882,508	-0,00431
882,677	-0,00388
882,846	-0,00371
883,016	-0,00365
883,185	-0,00371
883,354	-0,00372
883,523	-0,00394
883,692	-0,00382
883,861	-0,00351
884,03	-0,00404
884,199	-0,00384
884,368	-0,00379
884,537	-0,00424
884,706	-0,00452
884,875	-0,00438
885,044	-0,00422
885,213	-0,004
885,382	-0,00401
885,55	-0,00433
885,719	-0,00454
885,888	-0,00411
886,057	-0,00446
886,226	-0,00461
886,395	-0,00422
886,563	-0,00432
886,732	-0,00429
886,901	-0,00454
887,069	-0,00475
887,238	-0,0045
887,407	-0,00441
887,575	-0,00443
887,744	-0,00435
887,913	-0,00413
888,081	-0,0041
888,25	-0,00429
888,418	-0,00423
888,587	-0,00458
888,755	-0,0044
888,924	-0,00402
889,092	-0,00413
889,261	-0,00403
889,429	-0,00399
889,598	-0,00421
889,766	-0,00405
889,935	-0,00377
890,103	-0,00394
890,271	-0,00396
890,44	-0,00354
890,608	-0,00382
890,776	-0,0042
890,944	-0,00412
891,113	-0,00418
891,281	-0,00439
891,449	-0,00448
891,617	-0,00471
891,786	-0,00498
891,954	-0,00497
892,122	-0,00456
892,29	-0,00447
892,458	-0,00452
892,626	-0,00449
892,794	-0,00463
892,962	-0,00458
893,13	-0,00445
893,298	-0,00429
893,466	-0,00404
