Data from Chemiepractica_Absorbance__25__11-43-33-146.txt Node

Date: Mon Dec 09 11:43:33 CET 2024
User: r0948668
Spectrometer: USB4F07138
Trigger mode: 4
Integration Time (sec): 6,000000E-3
Scans to average: 20
Electric dark correction enabled: true
Nonlinearity correction enabled: false
Boxcar width: 5
XAxis mode: Wavelengths
Number of Pixels in Spectrum: 3648
>>>>>Begin Spectral Data<<<<<
176,779	-0,2185
176,999	-0
177,218	-0
177,438	-1,02436
177,658	-0,1697
177,878	1,12371
178,097	1,04435
178,317	0,45035
178,537	0,2583
178,757	0,14609
178,976	0,15108
179,196	-0,35984
179,416	0,37491
179,635	0,78336
179,855	0,21529
180,075	0,14035
180,294	0,02432
180,514	0,02494
180,734	0,06777
180,953	0,09978
181,173	0,10301
181,392	0,0784
181,612	0,06911
181,832	0,07515
182,051	0,05234
182,271	0,04578
182,49	0,02683
182,71	0,03437
182,929	0,03303
183,149	0,01896
183,368	0,02363
183,588	0,01223
183,807	0,0232
184,027	0,0407
184,246	0,04117
184,466	0,04342
184,685	0,05112
184,905	0,06059
185,124	0,06794
185,344	0,06478
185,563	0,08806
185,782	0,09432
186,002	0,09625
186,221	0,08537
186,44	0,07013
186,66	0,05852
186,879	0,06846
187,099	0,07158
187,318	0,0685
187,537	0,06984
187,756	0,076
187,976	0,05137
188,195	0,03335
188,414	0,03864
188,634	0,05259
188,853	0,0506
189,072	0,05238
189,291	0,04306
189,511	0,04591
189,73	0,06215
189,949	0,06375
190,168	0,06325
190,387	0,08229
190,607	0,08428
190,826	0,06822
191,045	0,05927
191,264	0,0688
191,483	0,06512
191,702	0,06892
191,921	0,06545
192,141	0,05808
192,36	0,04139
192,579	0,04007
192,798	0,03734
193,017	0,03049
193,236	0,04973
193,455	0,0469
193,674	0,04472
193,893	0,04792
194,112	0,05478
194,331	0,04433
194,55	0,04097
194,769	0,03958
194,988	0,04541
195,207	0,04994
195,426	0,05231
195,645	0,04517
195,864	0,0524
196,083	0,0518
196,302	0,05743
196,521	0,05583
196,739	0,05807
196,958	0,04761
197,177	0,05741
197,396	0,06307
197,615	0,05664
197,834	0,04339
198,053	0,0375
198,271	0,02447
198,49	0,02343
198,709	0,02058
198,928	0,02444
199,147	0,02752
199,365	0,04763
199,584	0,04617
199,803	0,03743
200,022	0,04179
200,24	0,04823
200,459	0,05508
200,678	0,068
200,897	0,05488
201,115	0,05341
201,334	0,05984
201,553	0,04754
201,771	0,04462
201,99	0,03919
202,209	0,04376
202,427	0,03312
202,646	0,04228
202,864	0,04307
203,083	0,03046
203,302	0,04983
203,52	0,06816
203,739	0,0543
203,957	0,0716
204,176	0,06847
204,394	0,07716
204,613	0,07413
204,831	0,08235
205,05	0,0874
205,268	0,08781
205,487	0,08822
205,705	0,09211
205,924	0,08749
206,142	0,09134
206,361	0,09203
206,579	0,0883
206,798	0,08714
207,016	0,08196
207,234	0,07716
207,453	0,07955
207,671	0,09136
207,89	0,09193
208,108	0,08653
208,326	0,06637
208,545	0,05748
208,763	0,05813
208,981	0,05301
209,2	0,04099
209,418	0,03997
209,636	0,03412
209,855	0,02145
210,073	0,00768
210,291	0,00009
210,509	-0,00095
210,728	0,00323
210,946	0,00405
211,164	0,00063
211,382	0,00271
211,6	0,02391
211,819	0,02259
212,037	0,0159
212,255	0,01028
212,473	0,011
212,691	0,0236
212,909	0,02111
213,128	0,01755
213,346	0,02189
213,564	0,02524
213,782	0,02872
214	0,03048
214,218	0,03035
214,436	0,03895
214,654	0,04097
214,872	0,03766
215,09	0,02604
215,308	0,03463
215,526	0,05423
215,744	0,05854
215,962	0,06175
216,18	0,05292
216,398	0,04384
216,616	0,04024
216,834	0,05433
217,052	0,0537
217,27	0,04622
217,488	0,04365
217,706	0,04377
217,924	0,02467
218,142	0,01801
218,36	0,0182
218,578	0,02316
218,795	0,01902
219,013	0,02826
219,231	0,01399
219,449	0,01496
219,667	0,02136
219,885	0,027
220,102	0,02759
220,32	0,02527
220,538	0,03023
220,756	0,01866
220,973	0,03776
221,191	0,03772
221,409	0,0338
221,627	0,04281
221,844	0,0477
222,062	0,04258
222,28	0,04257
222,497	0,02654
222,715	0,04601
222,933	0,03381
223,15	0,02976
223,368	0,02525
223,586	0,03857
223,803	0,04761
224,021	0,05038
224,239	0,04108
224,456	0,03984
224,674	0,04322
224,891	0,04845
225,109	0,03942
225,326	0,03456
225,544	0,04076
225,762	0,02613
225,979	0,02164
226,197	0,01956
226,414	0,01146
226,632	0,01508
226,849	0,01017
227,066	0,01843
227,284	0,02411
227,501	0,0254
227,719	0,04874
227,936	0,04703
228,154	0,04975
228,371	0,03926
228,588	0,04192
228,806	0,0503
229,023	0,05153
229,241	0,06682
229,458	0,06445
229,675	0,05134
229,893	0,04391
230,11	0,04171
230,327	0,03752
230,545	0,04687
230,762	0,05422
230,979	0,05724
231,196	0,05244
231,414	0,05653
231,631	0,04573
231,848	0,03076
232,065	0,03634
232,283	0,03074
232,5	0,02833
232,717	0,02855
232,934	0,02157
233,151	0,02481
233,368	0,006
233,586	0,00432
233,803	0,00109
234,02	0,01704
234,237	0,01975
234,454	0,02506
234,671	0,05034
234,888	0,04749
235,105	0,06378
235,322	0,06414
235,54	0,06072
235,757	0,08625
235,974	0,08663
236,191	0,08022
236,408	0,07352
236,625	0,08088
236,842	0,08808
237,059	0,08804
237,276	0,07432
237,493	0,06525
237,71	0,07804
237,926	0,07311
238,143	0,04917
238,36	0,05171
238,577	0,0548
238,794	0,04796
239,011	0,04794
239,228	0,04798
239,445	0,03442
239,662	0,06053
239,878	0,07887
240,095	0,06319
240,312	0,06687
240,529	0,07812
240,746	0,08194
240,963	0,08975
241,179	0,09078
241,396	0,10667
241,613	0,09256
241,83	0,08706
242,046	0,06824
242,263	0,0511
242,48	0,0526
242,697	0,04802
242,913	0,04613
243,13	0,0329
243,347	0,03705
243,563	0,03891
243,78	0,0347
243,997	0,04405
244,213	0,04813
244,43	0,06647
244,646	0,08077
244,863	0,0796
245,08	0,08634
245,296	0,08168
245,513	0,08533
245,729	0,0798
245,946	0,08591
246,162	0,07601
246,379	0,0656
246,595	0,06376
246,812	0,0539
247,028	0,04819
247,245	0,04953
247,461	0,0397
247,678	0,03966
247,894	0,04439
248,111	0,04363
248,327	0,04436
248,544	0,04855
248,76	0,06729
248,976	0,07332
249,193	0,06848
249,409	0,06225
249,626	0,06616
249,842	0,07672
250,058	0,08393
250,275	0,07489
250,491	0,07142
250,707	0,06595
250,924	0,07071
251,14	0,0535
251,356	0,052
251,572	0,0561
251,789	0,05989
252,005	0,05656
252,221	0,05177
252,437	0,04698
252,654	0,04466
252,87	0,03792
253,086	0,05274
253,302	0,04532
253,518	0,06155
253,735	0,06081
253,951	0,05487
254,167	0,04761
254,383	0,03979
254,599	0,03969
254,815	0,04255
255,031	0,04701
255,247	0,04105
255,463	0,02278
255,68	0,03168
255,896	0,02466
256,112	0,02057
256,328	0,02481
256,544	0,02978
256,76	0,04112
256,976	0,04211
257,192	0,05024
257,408	0,05445
257,624	0,07598
257,84	0,08253
258,056	0,07992
258,272	0,0801
258,487	0,07761
258,703	0,07488
258,919	0,07585
259,135	0,07351
259,351	0,07539
259,567	0,07527
259,783	0,07725
259,999	0,07102
260,215	0,06642
260,43	0,05734
260,646	0,06104
260,862	0,07669
261,078	0,07566
261,294	0,07079
261,509	0,07675
261,725	0,07389
261,941	0,06944
262,157	0,06796
262,372	0,06729
262,588	0,06782
262,804	0,07466
263,019	0,0743
263,235	0,06715
263,451	0,07453
263,667	0,07826
263,882	0,07875
264,098	0,08012
264,313	0,08274
264,529	0,07269
264,745	0,07742
264,96	0,07572
265,176	0,07366
265,391	0,07143
265,607	0,07861
265,823	0,06965
266,038	0,07184
266,254	0,06616
266,469	0,07048
266,685	0,05767
266,9	0,07126
267,116	0,0702
267,331	0,08081
267,547	0,08337
267,762	0,07274
267,978	0,06051
268,193	0,06547
268,408	0,07114
268,624	0,07049
268,839	0,06947
269,055	0,06556
269,27	0,06248
269,485	0,06282
269,701	0,05783
269,916	0,05767
270,132	0,07203
270,347	0,07742
270,562	0,07748
270,777	0,06903
270,993	0,07109
271,208	0,07162
271,423	0,08963
271,639	0,09186
271,854	0,08068
272,069	0,0759
272,284	0,07105
272,5	0,06217
272,715	0,05971
272,93	0,06442
273,145	0,06374
273,36	0,06001
273,576	0,06372
273,791	0,04985
274,006	0,05369
274,221	0,06292
274,436	0,07168
274,651	0,06838
274,866	0,0782
275,081	0,08421
275,296	0,07754
275,512	0,07235
275,727	0,07824
275,942	0,06866
276,157	0,08394
276,372	0,07687
276,587	0,08845
276,802	0,08508
277,017	0,08653
277,232	0,08519
277,447	0,08354
277,662	0,08595
277,877	0,08829
278,092	0,07823
278,306	0,07083
278,521	0,06418
278,736	0,06528
278,951	0,05215
279,166	0,04686
279,381	0,04636
279,596	0,04148
279,811	0,03413
280,025	0,02883
280,24	0,03223
280,455	0,03973
280,67	0,04615
280,885	0,03598
281,099	0,02641
281,314	0,02273
281,529	0,02188
281,744	0,02559
281,959	0,0212
282,173	0,03066
282,388	0,04553
282,603	0,04003
282,817	0,04351
283,032	0,05127
283,247	0,04837
283,461	0,0619
283,676	0,0549
283,891	0,06222
284,105	0,06658
284,32	0,07517
284,535	0,07052
284,749	0,06118
284,964	0,07105
285,178	0,06698
285,393	0,06844
285,607	0,07393
285,822	0,0723
286,036	0,08952
286,251	0,07699
286,465	0,07821
286,68	0,07748
286,894	0,07615
287,109	0,07538
287,323	0,05924
287,538	0,05161
287,752	0,04401
287,967	0,05215
288,181	0,04506
288,396	0,0408
288,61	0,05529
288,824	0,05503
289,039	0,05327
289,253	0,05548
289,467	0,05331
289,682	0,06462
289,896	0,07338
290,11	0,0681
290,325	0,06342
290,539	0,05902
290,753	0,05663
290,968	0,04493
291,182	0,03665
291,396	0,03641
291,61	0,0352
291,825	0,03498
292,039	0,0298
292,253	0,03188
292,467	0,03
292,681	0,03056
292,896	0,03416
293,11	0,02526
293,324	0,04062
293,538	0,04549
293,752	0,05049
293,966	0,04908
294,18	0,04301
294,394	0,04269
294,608	0,04718
294,823	0,05413
295,037	0,05279
295,251	0,06059
295,465	0,07463
295,679	0,06185
295,893	0,06628
296,107	0,05573
296,321	0,06259
296,535	0,06662
296,749	0,06326
296,963	0,05173
297,177	0,04998
297,391	0,04254
297,604	0,03241
297,818	0,02321
298,032	0,02384
298,246	0,01125
298,46	0,01529
298,674	0,01268
298,888	0,01725
299,102	0,03055
299,315	0,04041
299,529	0,04677
299,743	0,05801
299,957	0,06528
300,171	0,06402
300,385	0,06318
300,598	0,07173
300,812	0,06816
301,026	0,0648
301,24	0,06204
301,453	0,04825
301,667	0,03775
301,881	0,04254
302,094	0,03674
302,308	0,03067
302,522	0,03911
302,735	0,04353
302,949	0,04001
303,163	0,03814
303,376	0,03586
303,59	0,04892
303,803	0,05349
304,017	0,06275
304,231	0,05635
304,444	0,06684
304,658	0,07675
304,871	0,07428
305,085	0,07678
305,298	0,06892
305,512	0,07251
305,725	0,07603
305,939	0,06556
306,152	0,05789
306,366	0,04368
306,579	0,0388
306,793	0,03807
307,006	0,03247
307,22	0,03381
307,433	0,02488
307,646	0,03162
307,86	0,03472
308,073	0,0322
308,286	0,02994
308,5	0,03774
308,713	0,03775
308,926	0,0391
309,14	0,02787
309,353	0,0344
309,566	0,03125
309,78	0,02877
309,993	0,02539
310,206	0,01868
310,419	0,02407
310,633	0,02614
310,846	0,03135
311,059	0,04164
311,272	0,04817
311,486	0,04988
311,699	0,03894
311,912	0,03813
312,125	0,05069
312,338	0,0511
312,551	0,05601
312,764	0,05508
312,978	0,06362
313,191	0,06227
313,404	0,05549
313,617	0,04574
313,83	0,04612
314,043	0,056
314,256	0,05881
314,469	0,05317
314,682	0,05669
314,895	0,06255
315,108	0,06554
315,321	0,05108
315,534	0,05038
315,747	0,05896
315,96	0,06305
316,173	0,06541
316,386	0,05566
316,599	0,05549
316,812	0,05783
317,025	0,05732
317,237	0,05402
317,45	0,04365
317,663	0,0503
317,876	0,05729
318,089	0,05442
318,302	0,04717
318,515	0,04423
318,727	0,04402
318,94	0,04181
319,153	0,03339
319,366	0,04026
319,578	0,03829
319,791	0,04914
320,004	0,04231
320,217	0,04167
320,429	0,04463
320,642	0,04761
320,855	0,04569
321,067	0,04444
321,28	0,04877
321,493	0,05465
321,705	0,04201
321,918	0,04218
322,131	0,03613
322,343	0,03517
322,556	0,03221
322,768	0,03125
322,981	0,03345
323,194	0,03875
323,406	0,0409
323,619	0,03122
323,831	0,0399
324,044	0,04707
324,256	0,04314
324,469	0,0386
324,681	0,05457
324,894	0,05207
325,106	0,05602
325,319	0,05168
325,531	0,05457
325,743	0,04929
325,956	0,05198
326,168	0,04966
326,381	0,05237
326,593	0,05239
326,805	0,06078
327,018	0,05318
327,23	0,05258
327,442	0,05592
327,655	0,05355
327,867	0,04146
328,079	0,04769
328,292	0,05028
328,504	0,04239
328,716	0,03164
328,928	0,03524
329,141	0,03963
329,353	0,03207
329,565	0,02794
329,777	0,02308
329,99	0,03538
330,202	0,04373
330,414	0,04377
330,626	0,04607
330,838	0,05296
331,05	0,05408
331,263	0,05121
331,475	0,04636
331,687	0,04877
331,899	0,05731
332,111	0,05248
332,323	0,04587
332,535	0,04329
332,747	0,04617
332,959	0,03723
333,171	0,03278
333,383	0,03633
333,595	0,03614
333,807	0,03802
334,019	0,04054
334,231	0,03465
334,443	0,02632
334,655	0,02906
334,867	0,03068
335,079	0,03952
335,291	0,04033
335,503	0,04549
335,714	0,0467
335,926	0,05404
336,138	0,05083
336,35	0,04831
336,562	0,05154
336,774	0,06458
336,986	0,06
337,197	0,05803
337,409	0,05121
337,621	0,051
337,833	0,04688
338,044	0,05132
338,256	0,04218
338,468	0,04199
338,68	0,04046
338,891	0,0354
339,103	0,02487
339,315	0,02466
339,526	0,02465
339,738	0,01096
339,95	0,01321
340,161	0,0215
340,373	0,0034
340,585	0,00166
340,796	0,00081
341,008	0,00477
341,219	0,01389
341,431	0,01989
341,642	0,01605
341,854	0,02402
342,065	0,04031
342,277	0,04021
342,489	0,0338
342,7	0,05075
342,912	0,05501
343,123	0,05012
343,334	0,04709
343,546	0,0369
343,757	0,03954
343,969	0,03814
344,18	0,02879
344,392	0,01994
344,603	0,02744
344,814	0,02878
345,026	0,03007
345,237	0,02564
345,448	0,02726
345,66	0,02756
345,871	0,03183
346,082	0,0334
346,294	0,03732
346,505	0,04404
346,716	0,04701
346,927	0,04228
347,139	0,04118
347,35	0,03599
347,561	0,03652
347,772	0,03243
347,984	0,03227
348,195	0,03277
348,406	0,02621
348,617	0,02702
348,828	0,02158
349,039	0,02208
349,251	0,02162
349,462	0,01544
349,673	0,00768
349,884	0,01157
350,095	0,02425
350,306	0,0269
350,517	0,0342
350,728	0,03312
350,939	0,04075
351,15	0,04651
351,361	0,0485
351,572	0,05436
351,783	0,05948
351,994	0,06738
352,205	0,06879
352,416	0,05789
352,627	0,06164
352,838	0,05775
353,049	0,06586
353,26	0,06825
353,471	0,06633
353,682	0,06362
353,893	0,06111
354,103	0,06257
354,314	0,06127
354,525	0,05759
354,736	0,06117
354,947	0,05542
355,157	0,05093
355,368	0,04697
355,579	0,03442
355,79	0,03134
356,001	0,02908
356,211	0,03154
356,422	0,02907
356,633	0,03462
356,843	0,03677
357,054	0,02962
357,265	0,03166
357,476	0,03756
357,686	0,03524
357,897	0,0454
358,107	0,04364
358,318	0,04782
358,529	0,04522
358,739	0,04993
358,95	0,04185
359,16	0,04278
359,371	0,04923
359,582	0,0433
359,792	0,0436
360,003	0,04056
360,213	0,03827
360,424	0,04079
360,634	0,04116
360,845	0,04276
361,055	0,04375
361,266	0,04809
361,476	0,05499
361,686	0,05217
361,897	0,06022
362,107	0,05664
362,318	0,06266
362,528	0,05792
362,738	0,05742
362,949	0,05744
363,159	0,05688
363,369	0,04924
363,58	0,04487
363,79	0,03243
364	0,03401
364,211	0,02106
364,421	0,02275
364,631	0,02499
364,842	0,02833
365,052	0,02792
365,262	0,02195
365,472	0,022
365,682	0,02861
365,893	0,03091
366,103	0,0429
366,313	0,04573
366,523	0,06167
366,733	0,0567
366,943	0,05727
367,154	0,05651
367,364	0,06789
367,574	0,07006
367,784	0,0728
367,994	0,07248
368,204	0,07601
368,414	0,07352
368,624	0,06785
368,834	0,06397
369,044	0,06728
369,254	0,06454
369,464	0,06037
369,674	0,05092
369,884	0,04728
370,094	0,0402
370,304	0,03635
370,514	0,03481
370,724	0,02778
370,934	0,03099
371,144	0,02388
371,353	0,0234
371,563	0,0226
371,773	0,02414
371,983	0,02361
372,193	0,03195
372,403	0,03718
372,612	0,03797
372,822	0,03754
373,032	0,04059
373,242	0,04702
373,452	0,05211
373,661	0,05431
373,871	0,05144
374,081	0,05243
374,29	0,0551
374,5	0,04966
374,71	0,04704
374,92	0,04679
375,129	0,04568
375,339	0,04421
375,549	0,0365
375,758	0,03609
375,968	0,03206
376,177	0,03316
376,387	0,03085
376,597	0,03149
376,806	0,03622
377,016	0,03092
377,225	0,0313
377,435	0,02859
377,644	0,02832
377,854	0,03214
378,063	0,03401
378,273	0,03416
378,482	0,0336
378,692	0,03798
378,901	0,03607
379,111	0,03455
379,32	0,04369
379,529	0,04324
379,739	0,0486
379,948	0,04846
380,158	0,04932
380,367	0,05373
380,576	0,05758
380,786	0,05457
380,995	0,05283
381,204	0,05505
381,414	0,05483
381,623	0,05321
381,832	0,05161
382,041	0,04825
382,251	0,05201
382,46	0,04997
382,669	0,04412
382,878	0,04452
383,088	0,04714
383,297	0,04655
383,506	0,04426
383,715	0,04119
383,924	0,03763
384,133	0,03786
384,342	0,04172
384,552	0,03975
384,761	0,04397
384,97	0,0453
385,179	0,04444
385,388	0,04714
385,597	0,04642
385,806	0,04813
386,015	0,04944
386,224	0,05034
386,433	0,05233
386,642	0,04821
386,851	0,04574
387,06	0,04116
387,269	0,04013
387,478	0,03766
387,687	0,03592
387,896	0,03433
388,105	0,02804
388,314	0,02277
388,523	0,02145
388,731	0,01918
388,94	0,01896
389,149	0,02096
389,358	0,01981
389,567	0,02065
389,776	0,02054
389,984	0,01913
390,193	0,02323
390,402	0,02485
390,611	0,02868
390,819	0,02625
391,028	0,02918
391,237	0,02847
391,446	0,02729
391,654	0,02864
391,863	0,02738
392,072	0,0257
392,28	0,0276
392,489	0,02598
392,698	0,02743
392,906	0,0271
393,115	0,02827
393,324	0,02717
393,532	0,02982
393,741	0,02838
393,949	0,02588
394,158	0,02544
394,366	0,02725
394,575	0,02556
394,783	0,02349
394,992	0,02371
395,2	0,0227
395,409	0,02703
395,617	0,02394
395,826	0,02452
396,034	0,02293
396,243	0,0243
396,451	0,02321
396,66	0,02534
396,868	0,02362
397,076	0,02435
397,285	0,01941
397,493	0,01921
397,701	0,01448
397,91	0,01497
398,118	0,01363
398,326	0,01682
398,535	0,0155
398,743	0,01685
398,951	0,0142
399,159	0,01601
399,368	0,018
399,576	0,02105
399,784	0,02325
399,992	0,02414
400,201	0,02427
400,409	0,02353
400,617	0,02511
400,825	0,02757
401,033	0,02759
401,241	0,02947
401,45	0,03065
401,658	0,02901
401,866	0,03294
402,074	0,03049
402,282	0,03119
402,49	0,03013
402,698	0,03229
402,906	0,02758
403,114	0,02437
403,322	0,02383
403,53	0,02403
403,738	0,023
403,946	0,0226
404,154	0,01871
404,362	0,02198
404,57	0,02299
404,778	0,02371
404,986	0,0212
405,194	0,0216
405,402	0,02368
405,609	0,02329
405,817	0,02128
406,025	0,02208
406,233	0,02282
406,441	0,02434
406,649	0,02202
406,856	0,02203
407,064	0,02319
407,272	0,02254
407,48	0,02317
407,687	0,02189
407,895	0,02279
408,103	0,02347
408,311	0,02142
408,518	0,01918
408,726	0,02052
408,934	0,02031
409,141	0,01851
409,349	0,01594
409,557	0,0185
409,764	0,01817
409,972	0,01877
410,18	0,0164
410,387	0,01558
410,595	0,01649
410,802	0,01743
411,01	0,01708
411,217	0,01624
411,425	0,01694
411,632	0,01739
411,84	0,01704
412,047	0,01539
412,255	0,01517
412,462	0,0172
412,67	0,01784
412,877	0,01866
413,085	0,01791
413,292	0,01629
413,499	0,01901
413,707	0,01888
413,914	0,01958
414,122	0,01847
414,329	0,0217
414,536	0,02144
414,744	0,0202
414,951	0,01939
415,158	0,01828
415,366	0,01879
415,573	0,01867
415,78	0,01676
415,987	0,01624
416,195	0,01677
416,402	0,01544
416,609	0,01492
416,816	0,01563
417,023	0,01628
417,231	0,01754
417,438	0,01712
417,645	0,01662
417,852	0,01583
418,059	0,01557
418,266	0,01382
418,473	0,01296
418,68	0,01444
418,888	0,01428
419,095	0,0141
419,302	0,01409
419,509	0,01314
419,716	0,01241
419,923	0,01323
420,13	0,01298
420,337	0,01379
420,544	0,01499
420,751	0,01482
420,958	0,01398
421,165	0,01407
421,371	0,01259
421,578	0,01233
421,785	0,01247
421,992	0,01386
422,199	0,0138
422,406	0,01494
422,613	0,01482
422,82	0,01647
423,026	0,01652
423,233	0,01784
423,44	0,01641
423,647	0,01827
423,854	0,01828
424,06	0,0179
424,267	0,01685
424,474	0,01634
424,681	0,01618
424,887	0,01576
425,094	0,01491
425,301	0,01717
425,507	0,01577
425,714	0,01652
425,921	0,01474
426,127	0,01404
426,334	0,01404
426,54	0,0153
426,747	0,01595
426,954	0,0149
427,16	0,01529
427,367	0,01551
427,573	0,01391
427,78	0,01321
427,986	0,01323
428,193	0,01368
428,399	0,015
428,606	0,01518
428,812	0,01568
429,019	0,01563
429,225	0,0175
429,432	0,01821
429,638	0,01859
429,845	0,01773
430,051	0,01916
430,257	0,0188
430,464	0,01886
430,67	0,01853
430,876	0,01874
431,083	0,01907
431,289	0,01872
431,495	0,01902
431,702	0,01836
431,908	0,01661
432,114	0,01668
432,32	0,01634
432,527	0,01618
432,733	0,01639
432,939	0,01624
433,145	0,01586
433,351	0,01603
433,558	0,01673
433,764	0,01645
433,97	0,01596
434,176	0,01686
434,382	0,0179
434,588	0,01762
434,794	0,01753
435,001	0,01808
435,207	0,01787
435,413	0,01784
435,619	0,01667
435,825	0,01574
436,031	0,01589
436,237	0,01728
436,443	0,01761
436,649	0,01707
436,855	0,01782
437,061	0,01909
437,267	0,01966
437,473	0,01991
437,679	0,02127
437,884	0,02073
438,09	0,02101
438,296	0,01943
438,502	0,01788
438,708	0,01768
438,914	0,01744
439,12	0,01745
439,325	0,01717
439,531	0,0164
439,737	0,01675
439,943	0,01621
440,149	0,01692
440,354	0,01692
440,56	0,01734
440,766	0,01754
440,972	0,01812
441,177	0,01851
441,383	0,01861
441,589	0,0183
441,794	0,01863
442	0,01846
442,206	0,01882
442,411	0,01888
442,617	0,01944
442,822	0,01991
443,028	0,01965
443,234	0,02045
443,439	0,02083
443,645	0,02052
443,85	0,02062
444,056	0,02027
444,261	0,02088
444,467	0,02067
444,672	0,0209
444,878	0,02098
445,083	0,02124
445,289	0,02185
445,494	0,02068
445,699	0,02051
445,905	0,02039
446,11	0,02089
446,316	0,02151
446,521	0,02117
446,726	0,02115
446,932	0,02108
447,137	0,02126
447,342	0,02123
447,548	0,02124
447,753	0,02135
447,958	0,02204
448,164	0,02192
448,369	0,02165
448,574	0,0211
448,779	0,02111
448,984	0,02134
449,19	0,02157
449,395	0,02096
449,6	0,02084
449,805	0,02124
450,01	0,02248
450,215	0,02202
450,421	0,02315
450,626	0,02361
450,831	0,02347
451,036	0,02366
451,241	0,02369
451,446	0,02334
451,651	0,02422
451,856	0,02537
452,061	0,02523
452,266	0,02429
452,471	0,02497
452,676	0,02516
452,881	0,02567
453,086	0,02642
453,291	0,02643
453,496	0,02614
453,701	0,0267
453,906	0,0265
454,111	0,02579
454,316	0,02687
454,52	0,02747
454,725	0,02669
454,93	0,0265
455,135	0,02652
455,34	0,02623
455,545	0,02646
455,749	0,02756
455,954	0,0278
456,159	0,02832
456,364	0,02976
456,568	0,02919
456,773	0,02981
456,978	0,03097
457,182	0,03144
457,387	0,03182
457,592	0,03221
457,796	0,03237
458,001	0,03196
458,206	0,03224
458,41	0,03238
458,615	0,03142
458,82	0,03168
459,024	0,03196
459,229	0,03177
459,433	0,03138
459,638	0,0313
459,842	0,03219
460,047	0,0324
460,251	0,03246
460,456	0,03254
460,66	0,03306
460,865	0,03357
461,069	0,03369
461,274	0,03337
461,478	0,03368
461,682	0,03443
461,887	0,03507
462,091	0,03485
462,296	0,03566
462,5	0,03647
462,704	0,03688
462,909	0,03641
463,113	0,03622
463,317	0,03669
463,522	0,03713
463,726	0,0376
463,93	0,03806
464,134	0,03785
464,339	0,038
464,543	0,03772
464,747	0,03794
464,951	0,03798
465,155	0,03878
465,36	0,03946
465,564	0,03931
465,768	0,03969
465,972	0,04033
466,176	0,04006
466,38	0,03987
466,584	0,04073
466,788	0,04127
466,993	0,04159
467,197	0,04183
467,401	0,04197
467,605	0,04208
467,809	0,04271
468,013	0,04307
468,217	0,04307
468,421	0,04384
468,625	0,045
468,829	0,04486
469,033	0,04497
469,236	0,04565
469,44	0,04577
469,644	0,04554
469,848	0,04615
470,052	0,04701
470,256	0,04686
470,46	0,04717
470,664	0,04735
470,867	0,04733
471,071	0,04789
471,275	0,04834
471,479	0,04779
471,683	0,04837
471,886	0,04941
472,09	0,04995
472,294	0,0497
472,497	0,05026
472,701	0,05007
472,905	0,05011
473,109	0,05083
473,312	0,05117
473,516	0,05198
473,719	0,05276
473,923	0,05302
474,127	0,0531
474,33	0,05278
474,534	0,05331
474,737	0,05389
474,941	0,05455
475,145	0,05498
475,348	0,05483
475,552	0,05492
475,755	0,05476
475,959	0,0554
476,162	0,05614
476,366	0,05663
476,569	0,0573
476,772	0,05755
476,976	0,05759
477,179	0,05835
477,383	0,05872
477,586	0,05934
477,789	0,05984
477,993	0,06054
478,196	0,06048
478,399	0,0606
478,603	0,06094
478,806	0,06149
479,009	0,06179
479,213	0,06212
479,416	0,06242
479,619	0,06326
479,822	0,06396
480,026	0,06486
480,229	0,06505
480,432	0,06563
480,635	0,06616
480,838	0,06679
481,041	0,06676
481,245	0,06734
481,448	0,06781
481,651	0,06818
481,854	0,06854
482,057	0,06865
482,26	0,06878
482,463	0,06947
482,666	0,07026
482,869	0,07073
483,072	0,07109
483,275	0,07207
483,478	0,07254
483,681	0,07352
483,884	0,07398
484,087	0,07439
484,29	0,07517
484,493	0,07572
484,696	0,07636
484,899	0,07683
485,102	0,07735
485,305	0,07795
485,508	0,07858
485,71	0,07932
485,913	0,07993
486,116	0,08051
486,319	0,08139
486,522	0,08182
486,725	0,08239
486,927	0,08305
487,13	0,08367
487,333	0,08441
487,536	0,08495
487,738	0,08569
487,941	0,08624
488,144	0,0869
488,346	0,08769
488,549	0,08785
488,752	0,08881
488,954	0,08967
489,157	0,09
489,359	0,09031
489,562	0,09084
489,765	0,09129
489,967	0,09173
490,17	0,09222
490,372	0,09268
490,575	0,09302
490,777	0,09406
490,98	0,09422
491,182	0,09471
491,385	0,09538
491,587	0,09611
491,79	0,09678
491,992	0,09743
492,195	0,09799
492,397	0,09864
492,599	0,09912
492,802	0,0998
493,004	0,10039
493,207	0,1011
493,409	0,10202
493,611	0,10265
493,814	0,10349
494,016	0,10396
494,218	0,10479
494,42	0,10542
494,623	0,10625
494,825	0,10704
495,027	0,10759
495,229	0,10817
495,432	0,10881
495,634	0,10942
495,836	0,11016
496,038	0,11088
496,24	0,11171
496,442	0,11225
496,645	0,11303
496,847	0,11373
497,049	0,11438
497,251	0,11528
497,453	0,11616
497,655	0,11697
497,857	0,11768
498,059	0,11866
498,261	0,11941
498,463	0,12047
498,665	0,12152
498,867	0,12235
499,069	0,12323
499,271	0,12388
499,473	0,12496
499,675	0,12573
499,877	0,1266
500,079	0,12738
500,281	0,12804
500,482	0,12906
500,684	0,12967
500,886	0,13035
501,088	0,13102
501,29	0,132
501,492	0,13307
501,693	0,13409
501,895	0,13498
502,097	0,13586
502,299	0,13646
502,5	0,13713
502,702	0,13774
502,904	0,13871
503,106	0,13987
503,307	0,14072
503,509	0,14141
503,711	0,14242
503,912	0,14303
504,114	0,14376
504,315	0,14466
504,517	0,14571
504,719	0,1468
504,92	0,14789
505,122	0,14878
505,323	0,14928
505,525	0,15044
505,726	0,15167
505,928	0,15247
506,129	0,15347
506,331	0,15447
506,532	0,15549
506,734	0,15644
506,935	0,15756
507,137	0,15813
507,338	0,15904
507,539	0,16013
507,741	0,16122
507,942	0,16189
508,143	0,1629
508,345	0,16378
508,546	0,16458
508,747	0,16575
508,949	0,16695
509,15	0,16755
509,351	0,16888
509,553	0,16967
509,754	0,17089
509,955	0,17158
510,156	0,17261
510,357	0,1735
510,559	0,1746
510,76	0,17603
510,961	0,17724
511,162	0,17818
511,363	0,17942
511,564	0,18018
511,766	0,18168
511,967	0,18301
512,168	0,18423
512,369	0,18546
512,57	0,18664
512,771	0,18807
512,972	0,18891
513,173	0,18991
513,374	0,19115
513,575	0,19227
513,776	0,19374
513,977	0,19452
514,178	0,19529
514,379	0,19657
514,58	0,19763
514,781	0,19897
514,981	0,20005
515,182	0,20115
515,383	0,20208
515,584	0,2033
515,785	0,20464
515,986	0,20554
516,187	0,20709
516,387	0,20829
516,588	0,20947
516,789	0,21069
516,99	0,21195
517,19	0,21293
517,391	0,21438
517,592	0,21553
517,793	0,21653
517,993	0,21795
518,194	0,21932
518,395	0,22048
518,595	0,22174
518,796	0,22277
518,996	0,22407
519,197	0,22504
519,398	0,2261
519,598	0,22741
519,799	0,22867
519,999	0,22988
520,2	0,23095
520,4	0,23191
520,601	0,23325
520,801	0,23463
521,002	0,23582
521,202	0,23711
521,403	0,23849
521,603	0,23986
521,804	0,24077
522,004	0,24213
522,204	0,24329
522,405	0,24439
522,605	0,24583
522,806	0,24686
523,006	0,24794
523,206	0,24942
523,407	0,25051
523,607	0,25154
523,807	0,2527
524,007	0,25404
524,208	0,25526
524,408	0,25643
524,608	0,25763
524,808	0,25903
525,009	0,26038
525,209	0,26152
525,409	0,26279
525,609	0,2639
525,809	0,26544
526,009	0,26661
526,209	0,26784
526,41	0,26909
526,61	0,27061
526,81	0,27164
527,01	0,27259
527,21	0,27353
527,41	0,27471
527,61	0,27552
527,81	0,27661
528,01	0,27746
528,21	0,27863
528,41	0,27968
528,61	0,28062
528,81	0,28142
529,01	0,28262
529,21	0,28378
529,41	0,2849
529,609	0,28591
529,809	0,28704
530,009	0,28817
530,209	0,28932
530,409	0,29035
530,609	0,29146
530,808	0,29241
531,008	0,29374
531,208	0,2948
531,408	0,2959
531,608	0,29687
531,807	0,29783
532,007	0,29898
532,207	0,29982
532,406	0,30078
532,606	0,30197
532,806	0,30307
533,005	0,30422
533,205	0,30501
533,405	0,30586
533,604	0,30688
533,804	0,30779
534,003	0,30882
534,203	0,30955
534,403	0,31034
534,602	0,3113
534,802	0,31217
535,001	0,31307
535,201	0,31373
535,4	0,31453
535,6	0,31553
535,799	0,31621
535,998	0,31721
536,198	0,31804
536,397	0,31917
536,597	0,3203
536,796	0,32115
536,995	0,3219
537,195	0,32262
537,394	0,32371
537,594	0,32456
537,793	0,32537
537,992	0,3264
538,191	0,32722
538,391	0,32819
538,59	0,32894
538,789	0,32968
538,988	0,3304
539,188	0,33108
539,387	0,33193
539,586	0,33281
539,785	0,3337
539,984	0,33456
540,184	0,33537
540,383	0,33639
540,582	0,33717
540,781	0,33803
540,98	0,33905
541,179	0,33991
541,378	0,34081
541,577	0,3415
541,776	0,34208
541,975	0,34286
542,174	0,34348
542,373	0,34406
542,572	0,34446
542,771	0,34509
542,97	0,34557
543,169	0,34608
543,368	0,34656
543,567	0,34701
543,766	0,34747
543,965	0,34807
544,164	0,34851
544,362	0,34929
544,561	0,35001
544,76	0,3506
544,959	0,3514
545,158	0,35205
545,356	0,35243
545,555	0,35311
545,754	0,35382
545,953	0,35433
546,151	0,35502
546,35	0,35569
546,549	0,35612
546,748	0,3565
546,946	0,35682
547,145	0,35704
547,344	0,35744
547,542	0,35794
547,741	0,35838
547,939	0,3585
548,138	0,35894
548,337	0,35914
548,535	0,35935
548,734	0,35961
548,932	0,35975
549,131	0,36018
549,329	0,36068
549,528	0,36115
549,726	0,36144
549,925	0,36164
550,123	0,36227
550,322	0,36277
550,52	0,36347
550,718	0,36377
550,917	0,36413
551,115	0,36438
551,313	0,36486
551,512	0,36528
551,71	0,36562
551,908	0,36612
552,107	0,36664
552,305	0,36706
552,503	0,36746
552,702	0,36752
552,9	0,36798
553,098	0,3683
553,296	0,36905
553,495	0,3695
553,693	0,36965
553,891	0,37004
554,089	0,37041
554,287	0,37083
554,485	0,37127
554,683	0,37156
554,882	0,37183
555,08	0,37234
555,278	0,373
555,476	0,3733
555,674	0,37358
555,872	0,37399
556,07	0,37427
556,268	0,37488
556,466	0,37534
556,664	0,37574
556,862	0,37618
557,06	0,377
557,258	0,37743
557,456	0,37808
557,654	0,37863
557,851	0,37911
558,049	0,37935
558,247	0,38003
558,445	0,3805
558,643	0,38097
558,841	0,38152
559,039	0,38202
559,236	0,38235
559,434	0,38285
559,632	0,38305
559,83	0,3837
560,027	0,38423
560,225	0,38493
560,423	0,38526
560,62	0,38586
560,818	0,38621
561,016	0,38666
561,213	0,38737
561,411	0,38792
561,609	0,3884
561,806	0,38893
562,004	0,38928
562,202	0,38998
562,399	0,39084
562,597	0,39146
562,794	0,39195
562,992	0,39265
563,189	0,39332
563,387	0,39393
563,584	0,39445
563,782	0,39502
563,979	0,39579
564,177	0,39665
564,374	0,39719
564,571	0,39784
564,769	0,39862
564,966	0,3994
565,164	0,40017
565,361	0,40072
565,558	0,4015
565,756	0,4022
565,953	0,40305
566,15	0,40395
566,347	0,40474
566,545	0,40558
566,742	0,40639
566,939	0,40725
567,136	0,40787
567,334	0,40875
567,531	0,4098
567,728	0,41069
567,925	0,41184
568,122	0,4129
568,319	0,4137
568,517	0,41456
568,714	0,41552
568,911	0,4165
569,108	0,41744
569,305	0,41856
569,502	0,41951
569,699	0,4205
569,896	0,42142
570,093	0,42242
570,29	0,42357
570,487	0,4244
570,684	0,42545
570,881	0,42669
571,078	0,42763
571,275	0,42872
571,472	0,42984
571,669	0,43109
571,866	0,43219
572,062	0,43327
572,259	0,43424
572,456	0,43506
572,653	0,43618
572,85	0,43734
573,047	0,43819
573,243	0,43949
573,44	0,44054
573,637	0,44164
573,834	0,44246
574,03	0,44358
574,227	0,44469
574,424	0,44599
574,62	0,44708
574,817	0,44847
575,014	0,44949
575,21	0,45067
575,407	0,45162
575,604	0,45283
575,8	0,454
575,997	0,45558
576,193	0,45655
576,39	0,45776
576,586	0,45899
576,783	0,46043
576,979	0,4616
577,176	0,46293
577,372	0,46424
577,569	0,46551
577,765	0,46684
577,962	0,46816
578,158	0,46918
578,355	0,47065
578,551	0,47182
578,747	0,47292
578,944	0,47419
579,14	0,47536
579,336	0,47665
579,533	0,47783
579,729	0,47897
579,925	0,48006
580,122	0,48115
580,318	0,48204
580,514	0,48309
580,71	0,4842
580,906	0,48542
581,103	0,48654
581,299	0,48757
581,495	0,48829
581,691	0,48918
581,887	0,49018
582,084	0,49124
582,28	0,4921
582,476	0,49327
582,672	0,49416
582,868	0,49531
583,064	0,49616
583,26	0,49711
583,456	0,4981
583,652	0,49909
583,848	0,50039
584,044	0,50114
584,24	0,50175
584,436	0,5027
584,632	0,50349
584,828	0,50432
585,024	0,50488
585,22	0,50559
585,416	0,50606
585,611	0,50667
585,807	0,50729
586,003	0,50762
586,199	0,50825
586,395	0,50882
586,591	0,50925
586,786	0,50996
586,982	0,51028
587,178	0,5107
587,374	0,51092
587,569	0,51133
587,765	0,51153
587,961	0,51166
588,156	0,51177
588,352	0,51203
588,548	0,51225
588,743	0,51232
588,939	0,51186
589,135	0,51225
589,33	0,51209
589,526	0,51213
589,721	0,51192
589,917	0,51191
590,112	0,51178
590,308	0,51149
590,503	0,51134
590,699	0,51109
590,894	0,51093
591,09	0,51087
591,285	0,51049
591,481	0,51024
591,676	0,50987
591,872	0,50941
592,067	0,50871
592,262	0,5083
592,458	0,50784
592,653	0,50725
592,848	0,50666
593,044	0,50596
593,239	0,50514
593,434	0,50423
593,629	0,50338
593,825	0,50244
594,02	0,5018
594,215	0,50108
594,41	0,50005
594,606	0,49906
594,801	0,49803
594,996	0,4969
595,191	0,49574
595,386	0,49457
595,581	0,4933
595,777	0,49212
595,972	0,49081
596,167	0,48927
596,362	0,48772
596,557	0,48635
596,752	0,48499
596,947	0,4833
597,142	0,48185
597,337	0,48006
597,532	0,47844
597,727	0,47686
597,922	0,47513
598,117	0,47348
598,312	0,47193
598,507	0,47001
598,701	0,46792
598,896	0,46589
599,091	0,46387
599,286	0,46187
599,481	0,45964
599,676	0,45767
599,87	0,45557
600,065	0,45339
600,26	0,45106
600,455	0,4486
600,65	0,44652
600,844	0,44437
601,039	0,44207
601,234	0,43994
601,428	0,43752
601,623	0,43546
601,818	0,43314
602,012	0,43072
602,207	0,42832
602,402	0,426
602,596	0,42343
602,791	0,42094
602,985	0,41863
603,18	0,41596
603,374	0,41338
603,569	0,41081
603,763	0,40831
603,958	0,40559
604,152	0,40288
604,347	0,40014
604,541	0,39747
604,736	0,39484
604,93	0,39217
605,125	0,38924
605,319	0,38654
605,513	0,38365
605,708	0,38097
605,902	0,37809
606,096	0,37532
606,291	0,37257
606,485	0,36972
606,679	0,36702
606,874	0,36413
607,068	0,36123
607,262	0,35849
607,456	0,35579
607,65	0,35306
607,845	0,35016
608,039	0,34735
608,233	0,3444
608,427	0,34155
608,621	0,33882
608,815	0,33577
609,01	0,3331
609,204	0,33032
609,398	0,32763
609,592	0,32481
609,786	0,32205
609,98	0,31942
610,174	0,31682
610,368	0,31409
610,562	0,31126
610,756	0,30856
610,95	0,30589
611,144	0,30304
611,338	0,30016
611,532	0,29721
611,726	0,29443
611,919	0,29166
612,113	0,28883
612,307	0,28581
612,501	0,28307
612,695	0,28028
612,889	0,27741
613,082	0,27459
613,276	0,27186
613,47	0,2693
613,664	0,26658
613,857	0,26369
614,051	0,2609
614,245	0,25813
614,439	0,2554
614,632	0,25268
614,826	0,24988
615,02	0,24718
615,213	0,24463
615,407	0,24204
615,6	0,23929
615,794	0,23665
615,988	0,2341
616,181	0,23144
616,375	0,22885
616,568	0,22629
616,762	0,22373
616,955	0,22134
617,149	0,21893
617,342	0,21624
617,536	0,21369
617,729	0,21123
617,923	0,20884
618,116	0,20655
618,309	0,20415
618,503	0,20184
618,696	0,19961
618,889	0,19742
619,083	0,19504
619,276	0,1927
619,469	0,19046
619,663	0,18826
619,856	0,18606
620,049	0,18395
620,242	0,18176
620,436	0,17959
620,629	0,17745
620,822	0,17532
621,015	0,17304
621,209	0,17098
621,402	0,16888
621,595	0,16697
621,788	0,16507
621,981	0,16299
622,174	0,16079
622,367	0,15874
622,56	0,15671
622,753	0,15458
622,946	0,1525
623,139	0,15068
623,332	0,14873
623,525	0,14672
623,718	0,14471
623,911	0,14273
624,104	0,14101
624,297	0,13921
624,49	0,13753
624,683	0,13579
624,876	0,13416
625,069	0,1324
625,262	0,13069
625,454	0,12896
625,647	0,12732
625,84	0,12558
626,033	0,12396
626,226	0,12229
626,418	0,12064
626,611	0,119
626,804	0,11735
626,997	0,11568
627,189	0,11405
627,382	0,11247
627,575	0,1111
627,767	0,10969
627,96	0,10835
628,153	0,10683
628,345	0,10537
628,538	0,10396
628,731	0,10246
628,923	0,10117
629,116	0,09984
629,308	0,09848
629,501	0,09713
629,693	0,09579
629,886	0,09447
630,078	0,09304
630,271	0,09184
630,463	0,09048
630,656	0,08925
630,848	0,08799
631,04	0,08667
631,233	0,08557
631,425	0,08446
631,617	0,08319
631,81	0,08189
632,002	0,08074
632,194	0,07974
632,387	0,07859
632,579	0,0775
632,771	0,07636
632,964	0,07535
633,156	0,07426
633,348	0,07311
633,54	0,07219
633,732	0,07119
633,925	0,07024
634,117	0,06934
634,309	0,06835
634,501	0,06738
634,693	0,06639
634,885	0,06544
635,077	0,06445
635,269	0,06353
635,462	0,06258
635,654	0,06167
635,846	0,0609
636,038	0,06003
636,23	0,0591
636,422	0,05826
636,614	0,05736
636,806	0,05663
636,997	0,056
637,189	0,05527
637,381	0,05458
637,573	0,05392
637,765	0,05317
637,957	0,05231
638,149	0,05153
638,341	0,05086
638,532	0,05001
638,724	0,0493
638,916	0,04872
639,108	0,04789
639,299	0,04724
639,491	0,04639
639,683	0,04569
639,875	0,04497
640,066	0,04431
640,258	0,04368
640,45	0,04302
640,641	0,04259
640,833	0,04206
641,025	0,0414
641,216	0,04065
641,408	0,03998
641,599	0,03953
641,791	0,03903
641,982	0,03857
642,174	0,03813
642,366	0,03761
642,557	0,03695
642,748	0,03624
642,94	0,03562
643,131	0,03498
643,323	0,03466
643,514	0,03422
643,706	0,03377
643,897	0,03329
644,088	0,03272
644,28	0,03218
644,471	0,03174
644,662	0,03141
644,854	0,03103
645,045	0,03063
645,236	0,03015
645,428	0,0297
645,619	0,0292
645,81	0,02874
646,001	0,02817
646,193	0,02777
646,384	0,0273
646,575	0,02688
646,766	0,02634
646,957	0,0259
647,148	0,02553
647,339	0,0253
647,531	0,02497
647,722	0,02459
647,913	0,02417
648,104	0,02389
648,295	0,02352
648,486	0,02322
648,677	0,02285
648,868	0,02267
649,059	0,02237
649,25	0,022
649,441	0,0216
649,632	0,02115
649,823	0,02096
650,013	0,02068
650,204	0,02032
650,395	0,01996
650,586	0,01973
650,777	0,01939
650,968	0,01901
651,159	0,0188
651,349	0,01846
651,54	0,01812
651,731	0,01781
651,922	0,01753
652,112	0,01727
652,303	0,01703
652,494	0,01692
652,684	0,0166
652,875	0,01647
653,066	0,01631
653,256	0,01606
653,447	0,01595
653,638	0,0158
653,828	0,01561
654,019	0,01539
654,209	0,01516
654,4	0,01501
654,59	0,01479
654,781	0,01467
654,972	0,0144
655,162	0,01423
655,352	0,014
655,543	0,01381
655,733	0,01368
655,924	0,01363
656,114	0,01337
656,305	0,01325
656,495	0,01299
656,685	0,01273
656,876	0,01254
657,066	0,01237
657,256	0,01223
657,447	0,01216
657,637	0,01189
657,827	0,01163
658,017	0,0114
658,208	0,01124
658,398	0,01106
658,588	0,01096
658,778	0,01082
658,968	0,01061
659,159	0,01045
659,349	0,01019
659,539	0,00992
659,729	0,00991
659,919	0,00987
660,109	0,00972
660,299	0,00964
660,489	0,00961
660,679	0,00946
660,869	0,00926
661,059	0,00916
661,249	0,009
661,439	0,00881
661,629	0,0087
661,819	0,00854
662,009	0,00839
662,199	0,00833
662,389	0,00811
662,579	0,0079
662,769	0,00774
662,959	0,00767
663,149	0,00754
663,338	0,00758
663,528	0,00758
663,718	0,00746
663,908	0,00724
664,097	0,00707
664,287	0,00687
664,477	0,00683
664,667	0,00672
664,856	0,0067
665,046	0,0067
665,236	0,00666
665,425	0,00654
665,615	0,00647
665,805	0,00649
665,994	0,00649
666,184	0,00648
666,373	0,00644
666,563	0,00646
666,753	0,00644
666,942	0,00631
667,132	0,00608
667,321	0,00602
667,511	0,00591
667,7	0,00581
667,889	0,0055
668,079	0,00548
668,268	0,00545
668,458	0,00543
668,647	0,00531
668,836	0,0052
669,026	0,00516
669,215	0,00513
669,404	0,0051
669,594	0,00499
669,783	0,00493
669,972	0,00513
670,162	0,00507
670,351	0,00491
670,54	0,00473
670,729	0,00463
670,919	0,00457
671,108	0,00454
671,297	0,00453
671,486	0,00443
671,675	0,00433
671,864	0,00426
672,053	0,0041
672,243	0,00404
672,432	0,00396
672,621	0,00397
672,81	0,00389
672,999	0,00379
673,188	0,00387
673,377	0,00374
673,566	0,00372
673,755	0,00376
673,944	0,0037
674,133	0,00358
674,322	0,00353
674,51	0,00347
674,699	0,00347
674,888	0,0034
675,077	0,00339
675,266	0,0032
675,455	0,0033
675,644	0,00319
675,832	0,00309
676,021	0,00302
676,21	0,00303
676,399	0,00288
676,587	0,00286
676,776	0,00273
676,965	0,0027
677,153	0,00263
677,342	0,0025
677,531	0,00234
677,719	0,00226
677,908	0,00233
678,097	0,00236
678,285	0,00233
678,474	0,00239
678,662	0,00242
678,851	0,00248
679,039	0,00244
679,228	0,0025
679,416	0,00265
679,605	0,00262
679,793	0,00268
679,982	0,00258
680,17	0,00249
680,359	0,00255
680,547	0,00249
680,736	0,00244
680,924	0,00245
681,112	0,00245
681,301	0,00242
681,489	0,0023
681,677	0,00235
681,866	0,00227
682,054	0,00221
682,242	0,00223
682,43	0,00216
682,619	0,00212
682,807	0,00209
682,995	0,00194
683,183	0,00188
683,371	0,00194
683,559	0,0019
683,748	0,00183
683,936	0,0018
684,124	0,00177
684,312	0,00161
684,5	0,00148
684,688	0,00158
684,876	0,00145
685,064	0,00139
685,252	0,0014
685,44	0,00124
685,628	0,00119
685,816	0,00114
686,004	0,00113
686,192	0,00114
686,38	0,00117
686,568	0,00117
686,756	0,00101
686,944	0,00108
687,131	0,00113
687,319	0,00122
687,507	0,00118
687,695	0,00119
687,883	0,00116
688,07	0,00117
688,258	0,00116
688,446	0,0012
688,634	0,0013
688,821	0,00131
689,009	0,00123
689,197	0,00123
689,384	0,00114
689,572	0,0012
689,76	0,00121
689,947	0,00127
690,135	0,00122
690,323	0,00123
690,51	0,00118
690,698	0,00112
690,885	0,00114
691,073	0,00116
691,26	0,00116
691,448	0,00107
691,635	0,00097
691,823	0,00092
692,01	0,00085
692,197	0,0008
692,385	0,00074
692,572	0,00076
692,76	0,00072
692,947	0,00063
693,134	0,00069
693,322	0,00058
693,509	0,00054
693,696	0,00054
693,884	0,00056
694,071	0,00058
694,258	0,00058
694,445	0,00063
694,633	0,0006
694,82	0,00048
695,007	0,00053
695,194	0,00047
695,381	0,00049
695,568	0,00051
695,756	0,0005
695,943	0,00043
696,13	0,00037
696,317	0,00042
696,504	0,00039
696,691	0,00037
696,878	0,00039
697,065	0,00028
697,252	0,00029
697,439	0,00027
697,626	0,0004
697,813	0,00039
698	0,00036
698,187	0,00027
698,374	0,00027
698,561	0,00027
698,747	0,00028
698,934	0,00033
699,121	0,00037
699,308	0,0003
699,495	0,0003
699,682	0,00021
699,868	0,0002
700,055	0,00015
700,242	0,00017
700,429	0,00005
700,615	-0,00002
700,802	-0,00009
700,989	-0,00014
701,175	-0,0002
701,362	-0,00016
701,549	-0,00021
701,735	-0,00029
701,922	-0,00033
702,108	-0,0003
702,295	-0,00037
702,482	-0,00036
702,668	-0,00026
702,855	-0,00024
703,041	-0,00019
703,228	-0,00013
703,414	-0,00012
703,601	-0,00009
703,787	0,00001
703,973	-0,00001
704,16	-0,00003
704,346	0,00014
704,533	0,00011
704,719	-0,00006
704,905	-0,00011
705,092	-0,00015
705,278	-0,00009
705,464	-0,00011
705,65	-0,00008
705,837	-0,00014
706,023	-0,00011
706,209	-0,00006
706,395	-0,00011
706,582	-0,00012
706,768	-0,00009
706,954	0
707,14	-0,00006
707,326	-0,00014
707,512	-0,00019
707,698	-0,00022
707,885	-0,00031
708,071	-0,00035
708,257	-0,00039
708,443	-0,00034
708,629	-0,00029
708,815	-0,00025
709,001	-0,00029
709,187	-0,00031
709,373	-0,0003
709,559	-0,00035
709,745	-0,00037
709,93	-0,00039
710,116	-0,00034
710,302	-0,00025
710,488	-0,0003
710,674	-0,0003
710,86	-0,00037
711,046	-0,00039
711,231	-0,00038
711,417	-0,00034
711,603	-0,00035
711,789	-0,00033
711,974	-0,00026
712,16	-0,00029
712,346	-0,00034
712,532	-0,00042
712,717	-0,00048
712,903	-0,00047
713,089	-0,00054
713,274	-0,00055
713,46	-0,00065
713,645	-0,0006
713,831	-0,00051
714,016	-0,00058
714,202	-0,00056
714,388	-0,0004
714,573	-0,00041
714,759	-0,00042
714,944	-0,00044
715,129	-0,00049
715,315	-0,00051
715,5	-0,00048
715,686	-0,0005
715,871	-0,00064
716,057	-0,00057
716,242	-0,00052
716,427	-0,00077
716,613	-0,00078
716,798	-0,00079
716,983	-0,00074
717,168	-0,00063
717,354	-0,00051
717,539	-0,00054
717,724	-0,00058
717,909	-0,00049
718,095	-0,00051
718,28	-0,00061
718,465	-0,00056
718,65	-0,00049
718,835	-0,00055
719,02	-0,00062
719,206	-0,00069
719,391	-0,00072
719,576	-0,00082
719,761	-0,00083
719,946	-0,00092
720,131	-0,00094
720,316	-0,00088
720,501	-0,00086
720,686	-0,00084
720,871	-0,00071
721,056	-0,00072
721,241	-0,00068
721,426	-0,00076
721,61	-0,00072
721,795	-0,00069
721,98	-0,00072
722,165	-0,00068
722,35	-0,0007
722,535	-0,00084
722,719	-0,00094
722,904	-0,00102
723,089	-0,00095
723,274	-0,00096
723,458	-0,00091
723,643	-0,00081
723,828	-0,00087
724,013	-0,0009
724,197	-0,00099
724,382	-0,00097
724,567	-0,00094
724,751	-0,0009
724,936	-0,00087
725,12	-0,00093
725,305	-0,00091
725,489	-0,00093
725,674	-0,00103
725,859	-0,00093
726,043	-0,00089
726,228	-0,00073
726,412	-0,00078
726,596	-0,00074
726,781	-0,00069
726,965	-0,00068
727,15	-0,00056
727,334	-0,00065
727,518	-0,00076
727,703	-0,00065
727,887	-0,00075
728,072	-0,0007
728,256	-0,00086
728,44	-0,00086
728,624	-0,00082
728,809	-0,001
728,993	-0,00105
729,177	-0,00111
729,361	-0,00106
729,546	-0,00101
729,73	-0,00101
729,914	-0,00101
730,098	-0,00106
730,282	-0,00107
730,466	-0,00106
730,65	-0,00106
730,834	-0,00104
731,019	-0,00103
731,203	-0,00105
731,387	-0,00103
731,571	-0,00114
731,755	-0,0013
731,939	-0,00132
732,123	-0,00137
732,306	-0,00135
732,49	-0,00144
732,674	-0,00148
732,858	-0,00146
733,042	-0,00156
733,226	-0,00151
733,41	-0,00142
733,594	-0,00132
733,778	-0,00125
733,961	-0,00121
734,145	-0,00116
734,329	-0,00109
734,513	-0,00103
734,696	-0,00103
734,88	-0,00102
735,064	-0,001
735,247	-0,00112
735,431	-0,00114
735,615	-0,00119
735,798	-0,00114
735,982	-0,00107
736,166	-0,00104
736,349	-0,0011
736,533	-0,00114
736,716	-0,00103
736,9	-0,001
737,083	-0,00095
737,267	-0,00091
737,45	-0,00103
737,634	-0,00091
737,817	-0,00099
738,001	-0,00104
738,184	-0,00109
738,368	-0,00111
738,551	-0,0012
738,734	-0,00137
738,918	-0,00136
739,101	-0,00122
739,284	-0,00127
739,468	-0,00128
739,651	-0,00129
739,834	-0,00126
740,018	-0,00137
740,201	-0,00142
740,384	-0,00133
740,567	-0,00125
740,75	-0,00115
740,934	-0,00128
741,117	-0,00149
741,3	-0,00139
741,483	-0,00133
741,666	-0,00141
741,849	-0,00147
742,032	-0,0014
742,215	-0,00139
742,399	-0,00138
742,582	-0,00134
742,765	-0,00137
742,948	-0,00121
743,131	-0,00113
743,314	-0,00127
743,496	-0,00135
743,679	-0,00126
743,862	-0,00116
744,045	-0,00117
744,228	-0,00109
744,411	-0,00117
744,594	-0,00117
744,777	-0,00118
744,959	-0,00123
745,142	-0,0012
745,325	-0,00105
745,508	-0,00107
745,691	-0,00105
745,873	-0,00112
746,056	-0,00108
746,239	-0,00114
746,421	-0,00111
746,604	-0,00124
746,787	-0,0012
746,969	-0,00126
747,152	-0,00139
747,335	-0,0015
747,517	-0,00139
747,7	-0,00136
747,882	-0,0013
748,065	-0,00137
748,247	-0,00133
748,43	-0,00144
748,612	-0,0014
748,795	-0,00147
748,977	-0,00153
749,16	-0,00151
749,342	-0,00141
749,524	-0,00147
749,707	-0,00154
749,889	-0,00164
750,072	-0,00172
750,254	-0,00175
750,436	-0,00166
750,619	-0,0016
750,801	-0,00163
750,983	-0,00155
751,165	-0,00152
751,348	-0,00163
751,53	-0,00169
751,712	-0,00169
751,894	-0,00169
752,076	-0,00157
752,259	-0,00161
752,441	-0,0017
752,623	-0,00175
752,805	-0,00179
752,987	-0,00187
753,169	-0,00194
753,351	-0,00196
753,533	-0,00192
753,715	-0,00191
753,897	-0,00195
754,079	-0,00197
754,261	-0,00193
754,443	-0,00194
754,625	-0,00185
754,807	-0,00179
754,989	-0,00164
755,171	-0,0015
755,353	-0,0015
755,534	-0,00158
755,716	-0,00161
755,898	-0,00159
756,08	-0,00157
756,262	-0,00162
756,443	-0,0018
756,625	-0,00188
756,807	-0,00195
756,989	-0,00207
757,17	-0,00218
757,352	-0,00213
757,534	-0,00201
757,715	-0,00206
757,897	-0,00215
758,079	-0,00213
758,26	-0,00208
758,442	-0,00181
758,623	-0,00182
758,805	-0,00178
758,987	-0,00182
759,168	-0,00185
759,35	-0,00191
759,531	-0,00187
759,713	-0,00185
759,894	-0,00181
760,075	-0,00191
760,257	-0,00209
760,438	-0,00217
760,62	-0,00221
760,801	-0,0022
760,982	-0,00217
761,164	-0,00209
761,345	-0,0021
761,526	-0,00217
761,708	-0,00217
761,889	-0,00207
762,07	-0,00204
762,251	-0,00185
762,433	-0,00184
762,614	-0,00181
762,795	-0,00179
762,976	-0,00171
763,157	-0,00163
763,338	-0,00169
763,52	-0,00174
763,701	-0,00174
763,882	-0,00188
764,063	-0,00182
764,244	-0,00183
764,425	-0,00187
764,606	-0,00192
764,787	-0,00192
764,968	-0,00201
765,149	-0,00221
765,33	-0,00216
765,511	-0,00216
765,692	-0,00223
765,873	-0,00213
766,053	-0,00226
766,234	-0,0023
766,415	-0,00228
766,596	-0,00233
766,777	-0,00241
766,958	-0,00246
767,138	-0,00236
767,319	-0,00234
767,5	-0,0023
767,681	-0,0024
767,861	-0,00232
768,042	-0,00228
768,223	-0,00229
768,403	-0,00229
768,584	-0,00215
768,765	-0,00212
768,945	-0,00213
769,126	-0,00211
769,307	-0,00211
769,487	-0,00213
769,668	-0,00205
769,848	-0,00222
770,029	-0,00219
770,209	-0,00225
770,39	-0,00228
770,57	-0,00237
770,751	-0,00242
770,931	-0,00236
771,111	-0,00248
771,292	-0,00256
771,472	-0,00247
771,653	-0,00238
771,833	-0,00238
772,013	-0,00242
772,194	-0,00226
772,374	-0,00224
772,554	-0,0023
772,734	-0,0022
772,915	-0,00208
773,095	-0,00195
773,275	-0,0019
773,455	-0,00199
773,635	-0,00209
773,816	-0,002
773,996	-0,00195
774,176	-0,00199
774,356	-0,00199
774,536	-0,00188
774,716	-0,00194
774,896	-0,00205
775,076	-0,0022
775,256	-0,00218
775,436	-0,00209
775,616	-0,00195
775,796	-0,00188
775,976	-0,0019
776,156	-0,00199
776,336	-0,00207
776,516	-0,00215
776,696	-0,00213
776,876	-0,00207
777,056	-0,00203
777,235	-0,00198
777,415	-0,00202
777,595	-0,00219
777,775	-0,00228
777,955	-0,00237
778,134	-0,00243
778,314	-0,00228
778,494	-0,00217
778,674	-0,00214
778,853	-0,00218
779,033	-0,00211
779,213	-0,00221
779,392	-0,00232
779,572	-0,00228
779,751	-0,00231
779,931	-0,00224
780,111	-0,00219
780,29	-0,00235
780,47	-0,00239
780,649	-0,0025
780,829	-0,00253
781,008	-0,0025
781,188	-0,00234
781,367	-0,00222
781,546	-0,00217
781,726	-0,00216
781,905	-0,00224
782,085	-0,00222
782,264	-0,00219
782,443	-0,00213
782,623	-0,00208
782,802	-0,00219
782,981	-0,00229
783,161	-0,00243
783,34	-0,00245
783,519	-0,00242
783,698	-0,00248
783,878	-0,00241
784,057	-0,00249
784,236	-0,00228
784,415	-0,00229
784,594	-0,00214
784,773	-0,00209
784,952	-0,00204
785,132	-0,00209
785,311	-0,00211
785,49	-0,0022
785,669	-0,00207
785,848	-0,00198
786,027	-0,00196
786,206	-0,002
786,385	-0,00207
786,564	-0,00218
786,743	-0,00209
786,922	-0,00215
787,1	-0,00214
787,279	-0,00226
787,458	-0,00224
787,637	-0,00229
787,816	-0,00225
787,995	-0,00233
788,174	-0,00243
788,352	-0,00241
788,531	-0,00252
788,71	-0,00245
788,889	-0,00248
789,067	-0,00251
789,246	-0,00243
789,425	-0,00235
789,603	-0,00241
789,782	-0,0026
789,961	-0,00252
790,139	-0,00244
790,318	-0,00254
790,496	-0,00249
790,675	-0,00241
790,853	-0,00229
791,032	-0,00229
791,211	-0,00224
791,389	-0,00231
791,568	-0,00218
791,746	-0,00204
791,924	-0,00198
792,103	-0,00208
792,281	-0,00208
792,46	-0,00198
792,638	-0,00205
792,816	-0,00202
792,995	-0,0019
793,173	-0,00188
793,351	-0,00196
793,53	-0,00202
793,708	-0,00204
793,886	-0,00204
794,064	-0,00196
794,243	-0,00192
794,421	-0,00195
794,599	-0,00214
794,777	-0,00233
794,955	-0,00238
795,133	-0,00235
795,312	-0,00236
795,49	-0,00244
795,668	-0,00245
795,846	-0,00265
796,024	-0,00256
796,202	-0,00252
796,38	-0,00264
796,558	-0,00263
796,736	-0,00263
796,914	-0,00261
797,092	-0,0028
797,27	-0,00278
797,448	-0,00283
797,626	-0,0029
797,803	-0,00279
797,981	-0,00295
798,159	-0,00298
798,337	-0,0029
798,515	-0,00282
798,693	-0,00268
798,87	-0,0029
799,048	-0,00279
799,226	-0,00271
799,404	-0,00273
799,581	-0,00275
799,759	-0,00271
799,937	-0,00285
800,114	-0,00289
800,292	-0,00304
800,469	-0,00295
800,647	-0,003
800,825	-0,00295
801,002	-0,00303
801,18	-0,00318
801,357	-0,00306
801,535	-0,00308
801,712	-0,00307
801,89	-0,00289
802,067	-0,0029
802,245	-0,00283
802,422	-0,00299
802,6	-0,00309
802,777	-0,00281
802,954	-0,00285
803,132	-0,00271
803,309	-0,00266
803,486	-0,00252
803,664	-0,00257
803,841	-0,00248
804,018	-0,00242
804,195	-0,00237
804,373	-0,00248
804,55	-0,00229
804,727	-0,00251
804,904	-0,00241
805,081	-0,00243
805,259	-0,00253
805,436	-0,00275
805,613	-0,00262
805,79	-0,00279
805,967	-0,00289
806,144	-0,0029
806,321	-0,00288
806,498	-0,00299
806,675	-0,00295
806,852	-0,00294
807,029	-0,00292
807,206	-0,00297
807,383	-0,00284
807,56	-0,0029
807,737	-0,00286
807,914	-0,00284
808,091	-0,00276
808,268	-0,00252
808,444	-0,00262
808,621	-0,00257
808,798	-0,00278
808,975	-0,00273
809,152	-0,00285
809,328	-0,00286
809,505	-0,00277
809,682	-0,00283
809,858	-0,00279
810,035	-0,00281
810,212	-0,00301
810,388	-0,0028
810,565	-0,00271
810,742	-0,00258
810,918	-0,00279
811,095	-0,0026
811,271	-0,00257
811,448	-0,00271
811,625	-0,00267
811,801	-0,00269
811,978	-0,00284
812,154	-0,00283
812,33	-0,00291
812,507	-0,00304
812,683	-0,00298
812,86	-0,00283
813,036	-0,00272
813,212	-0,00255
813,389	-0,00253
813,565	-0,00262
813,741	-0,00259
813,918	-0,00255
814,094	-0,00241
814,27	-0,00241
814,447	-0,00245
814,623	-0,00248
814,799	-0,00251
814,975	-0,0027
815,151	-0,00287
815,328	-0,00294
815,504	-0,00278
815,68	-0,00274
815,856	-0,0027
816,032	-0,00276
816,208	-0,00283
816,384	-0,00274
816,56	-0,00277
816,736	-0,00282
816,912	-0,00274
817,088	-0,00275
817,264	-0,00263
817,44	-0,00284
817,616	-0,0028
817,792	-0,00289
817,968	-0,00275
818,144	-0,00257
818,32	-0,00257
818,495	-0,00249
818,671	-0,00247
818,847	-0,00258
819,023	-0,00252
819,199	-0,00262
819,374	-0,00235
819,55	-0,00237
819,726	-0,00229
819,902	-0,00243
820,077	-0,00246
820,253	-0,0024
820,429	-0,00258
820,604	-0,00252
820,78	-0,0024
820,956	-0,00241
821,131	-0,0025
821,307	-0,00266
821,482	-0,00258
821,658	-0,00241
821,833	-0,00262
822,009	-0,00275
822,184	-0,00275
822,36	-0,00257
822,535	-0,00269
822,711	-0,00279
822,886	-0,00285
823,061	-0,00269
823,237	-0,0026
823,412	-0,00276
823,587	-0,00285
823,763	-0,00282
823,938	-0,00276
824,113	-0,0029
824,289	-0,00295
824,464	-0,00274
824,639	-0,00267
824,814	-0,00277
824,99	-0,00285
825,165	-0,00292
825,34	-0,00288
825,515	-0,00291
825,69	-0,00279
825,865	-0,0028
826,04	-0,0027
826,215	-0,00264
826,39	-0,0026
826,566	-0,00253
826,741	-0,00242
826,916	-0,00229
827,091	-0,00234
827,265	-0,00236
827,44	-0,00234
827,615	-0,00223
827,79	-0,00238
827,965	-0,00238
828,14	-0,00237
828,315	-0,00242
828,49	-0,00237
828,665	-0,00234
828,839	-0,00249
829,014	-0,00249
829,189	-0,00259
829,364	-0,00263
829,538	-0,00262
829,713	-0,00254
829,888	-0,00263
830,063	-0,00284
830,237	-0,00311
830,412	-0,00309
830,587	-0,00312
830,761	-0,003
830,936	-0,00293
831,11	-0,00284
831,285	-0,00289
831,459	-0,00293
831,634	-0,0032
831,809	-0,00308
831,983	-0,00299
832,157	-0,00262
832,332	-0,00278
832,506	-0,00287
832,681	-0,00296
832,855	-0,00309
833,03	-0,00317
833,204	-0,00319
833,378	-0,0033
833,553	-0,00315
833,727	-0,00329
833,901	-0,00322
834,076	-0,00331
834,25	-0,00341
834,424	-0,00325
834,598	-0,00315
834,773	-0,00303
834,947	-0,00282
835,121	-0,00274
835,295	-0,0026
835,469	-0,00246
835,643	-0,00246
835,817	-0,00254
835,991	-0,00272
836,166	-0,00266
836,34	-0,00263
836,514	-0,00263
836,688	-0,00261
836,862	-0,00271
837,036	-0,00266
837,21	-0,00265
837,384	-0,00273
837,557	-0,00255
837,731	-0,00252
837,905	-0,00242
838,079	-0,00249
838,253	-0,00266
838,427	-0,00279
838,601	-0,00293
838,774	-0,00301
838,948	-0,00313
839,122	-0,00315
839,296	-0,00283
839,469	-0,00278
839,643	-0,00291
839,817	-0,00319
839,991	-0,00326
840,164	-0,00332
840,338	-0,0034
840,512	-0,00346
840,685	-0,00324
840,859	-0,00322
841,032	-0,00333
841,206	-0,00356
841,379	-0,00381
841,553	-0,0037
841,726	-0,00343
841,9	-0,00323
842,073	-0,00309
842,247	-0,00303
842,42	-0,00294
842,594	-0,00295
842,767	-0,00297
842,94	-0,00282
843,114	-0,00262
843,287	-0,00256
843,46	-0,00268
843,634	-0,0029
843,807	-0,00288
843,98	-0,00278
844,154	-0,00278
844,327	-0,00282
844,5	-0,00283
844,673	-0,00268
844,846	-0,00291
845,02	-0,00297
845,193	-0,00318
845,366	-0,00314
845,539	-0,00304
845,712	-0,00302
845,885	-0,00339
846,058	-0,00333
846,231	-0,00331
846,404	-0,00343
846,577	-0,00355
846,75	-0,00336
846,923	-0,00341
847,096	-0,00321
847,269	-0,00314
847,442	-0,00297
847,615	-0,00294
847,788	-0,00284
847,961	-0,00282
848,133	-0,0028
848,306	-0,00273
848,479	-0,00268
848,652	-0,00265
848,825	-0,00275
848,997	-0,00262
849,17	-0,00254
849,343	-0,00266
849,515	-0,00282
849,688	-0,00265
849,861	-0,00266
850,033	-0,00258
850,206	-0,00264
850,379	-0,00287
850,551	-0,00279
850,724	-0,00264
850,896	-0,00287
851,069	-0,00294
851,241	-0,00289
851,414	-0,00273
851,586	-0,0029
851,759	-0,00282
851,931	-0,00281
852,104	-0,0029
852,276	-0,00272
852,449	-0,003
852,621	-0,00311
852,793	-0,00318
852,966	-0,00315
853,138	-0,00305
853,31	-0,00311
853,483	-0,00291
853,655	-0,00295
853,827	-0,00318
853,999	-0,00319
854,172	-0,00304
854,344	-0,00299
854,516	-0,00306
854,688	-0,00286
854,86	-0,00289
855,032	-0,00315
855,204	-0,0031
855,377	-0,00322
855,549	-0,00323
855,721	-0,00317
855,893	-0,00313
856,065	-0,00344
856,237	-0,00345
856,409	-0,00345
856,581	-0,0033
856,753	-0,00297
856,924	-0,00283
857,096	-0,00285
857,268	-0,00272
857,44	-0,00271
857,612	-0,00277
857,784	-0,00288
857,956	-0,00257
858,127	-0,00246
858,299	-0,00235
858,471	-0,00276
858,643	-0,00323
858,814	-0,00314
858,986	-0,00316
859,158	-0,00324
859,33	-0,00327
859,501	-0,00327
859,673	-0,00307
859,844	-0,00327
860,016	-0,0032
860,188	-0,00315
860,359	-0,00279
860,531	-0,00257
860,702	-0,00272
860,874	-0,00287
861,045	-0,00292
861,217	-0,00306
861,388	-0,00284
861,56	-0,00296
861,731	-0,00318
861,902	-0,00334
862,074	-0,00338
862,245	-0,00362
862,417	-0,00351
862,588	-0,00362
862,759	-0,00358
862,931	-0,00371
863,102	-0,00352
863,273	-0,00353
863,444	-0,00359
863,616	-0,00328
863,787	-0,00343
863,958	-0,00354
864,129	-0,00356
864,3	-0,00369
864,471	-0,00375
864,642	-0,00342
864,814	-0,00341
864,985	-0,00355
865,156	-0,00374
865,327	-0,00361
865,498	-0,00364
865,669	-0,00356
865,84	-0,00364
866,011	-0,00347
866,182	-0,00354
866,353	-0,00339
866,523	-0,00371
866,694	-0,0034
866,865	-0,00328
867,036	-0,0032
867,207	-0,0035
867,378	-0,00389
867,549	-0,00396
867,719	-0,00403
867,89	-0,00429
868,061	-0,00422
868,232	-0,00416
868,402	-0,00431
868,573	-0,00453
868,744	-0,0045
868,914	-0,00451
869,085	-0,00427
869,256	-0,00397
869,426	-0,00396
869,597	-0,00381
869,767	-0,0037
869,938	-0,00378
870,108	-0,00381
870,279	-0,00371
870,449	-0,00378
870,62	-0,00402
870,79	-0,00388
870,961	-0,00382
871,131	-0,00375
871,302	-0,00353
871,472	-0,00362
871,642	-0,00349
871,813	-0,00353
871,983	-0,00362
872,153	-0,00362
872,324	-0,00354
872,494	-0,00351
872,664	-0,00374
872,835	-0,00369
873,005	-0,0034
873,175	-0,00347
873,345	-0,00343
873,515	-0,00352
873,685	-0,00346
873,856	-0,00346
874,026	-0,00329
874,196	-0,00329
874,366	-0,00323
874,536	-0,00317
874,706	-0,00321
874,876	-0,00373
875,046	-0,0039
875,216	-0,00389
875,386	-0,00357
875,556	-0,0031
875,726	-0,00299
875,896	-0,0032
876,066	-0,00311
876,236	-0,00352
876,405	-0,00348
876,575	-0,00367
876,745	-0,00358
876,915	-0,00316
877,085	-0,00319
877,254	-0,00351
877,424	-0,00404
877,594	-0,00407
877,764	-0,00378
877,933	-0,00372
878,103	-0,0033
878,273	-0,00314
878,442	-0,00307
878,612	-0,00305
878,781	-0,00317
878,951	-0,00312
879,121	-0,00331
879,29	-0,00334
879,46	-0,00309
879,629	-0,00319
879,799	-0,00334
879,968	-0,00334
880,138	-0,00345
880,307	-0,0034
880,476	-0,00319
880,646	-0,00337
880,815	-0,00353
880,985	-0,00336
881,154	-0,00321
881,323	-0,00348
881,493	-0,00365
881,662	-0,00381
881,831	-0,0037
882	-0,00385
882,17	-0,00376
882,339	-0,00384
882,508	-0,00394
882,677	-0,00369
882,846	-0,00371
883,016	-0,00393
883,185	-0,00392
883,354	-0,00396
883,523	-0,00399
883,692	-0,00411
883,861	-0,00395
884,03	-0,00437
884,199	-0,00443
884,368	-0,00403
884,537	-0,00436
884,706	-0,00423
884,875	-0,0042
885,044	-0,00409
885,213	-0,00376
885,382	-0,00375
885,55	-0,00379
885,719	-0,0037
885,888	-0,00349
886,057	-0,0037
886,226	-0,00426
886,395	-0,00401
886,563	-0,00393
886,732	-0,00383
886,901	-0,00386
887,069	-0,00373
887,238	-0,00349
887,407	-0,00343
887,575	-0,00328
887,744	-0,00335
887,913	-0,00337
888,081	-0,00312
888,25	-0,00286
888,418	-0,00314
888,587	-0,00339
888,755	-0,00354
888,924	-0,00371
889,092	-0,00383
889,261	-0,00405
889,429	-0,00409
889,598	-0,00393
889,766	-0,00374
889,935	-0,00383
890,103	-0,00429
890,271	-0,00431
890,44	-0,00434
890,608	-0,00461
890,776	-0,0049
890,944	-0,00488
891,113	-0,00457
891,281	-0,0051
891,449	-0,00533
891,617	-0,00561
891,786	-0,0055
891,954	-0,00543
892,122	-0,00516
892,29	-0,00473
892,458	-0,00456
892,626	-0,00415
892,794	-0,00422
892,962	-0,00429
893,13	-0,00402
893,298	-0,00366
893,466	-0,00315
