Data from Chemiepractica_Absorbance__27__11-44-13-168.txt Node

Date: Mon Dec 09 11:44:13 CET 2024
User: r0948668
Spectrometer: USB4F07138
Trigger mode: 4
Integration Time (sec): 6,000000E-3
Scans to average: 20
Electric dark correction enabled: true
Nonlinearity correction enabled: false
Boxcar width: 5
XAxis mode: Wavelengths
Number of Pixels in Spectrum: 3648
>>>>>Begin Spectral Data<<<<<
176,779	-0
176,999	-0
177,218	-0
177,438	-1,70675
177,658	-0,96196
177,878	-0,51435
178,097	-0,12948
178,317	0,16701
178,537	-0
178,757	0,55802
178,976	-0
179,196	-0,05346
179,416	0,67022
179,635	0,15504
179,855	0,12113
180,075	0,07994
180,294	-0,03107
180,514	-0,05319
180,734	-0,02089
180,953	-0,02838
181,173	-0,00431
181,392	-0,01125
181,612	0,00402
181,832	0,02073
182,051	0,02166
182,271	0,01365
182,49	0,02029
182,71	0,02649
182,929	0,04708
183,149	0,03282
183,368	0,04888
183,588	0,04895
183,807	0,05757
184,027	0,06447
184,246	0,05661
184,466	0,05138
184,685	0,05658
184,905	0,03657
185,124	0,04474
185,344	0,03682
185,563	0,04667
185,782	0,04019
186,002	0,02819
186,221	0,02197
186,44	0,02084
186,66	0,02764
186,879	0,04121
187,099	0,03848
187,318	0,04696
187,537	0,02997
187,756	0,03315
187,976	0,02169
188,195	0,01688
188,414	0,0426
188,634	0,047
188,853	0,05668
189,072	0,05812
189,291	0,03342
189,511	0,04268
189,73	0,05238
189,949	0,05207
190,168	0,05062
190,387	0,06965
190,607	0,0707
190,826	0,04846
191,045	0,03714
191,264	0,02994
191,483	0,01826
191,702	0,02727
191,921	0,01462
192,141	0,01825
192,36	0,0147
192,579	0,01282
192,798	0,00705
193,017	0,00231
193,236	0,02382
193,455	0,03205
193,674	0,02887
193,893	0,03484
194,112	0,05071
194,331	0,04995
194,55	0,0448
194,769	0,05058
194,988	0,04581
195,207	0,05136
195,426	0,05068
195,645	0,04748
195,864	0,04824
196,083	0,04907
196,302	0,03337
196,521	0,03385
196,739	0,03041
196,958	0,03872
197,177	0,03264
197,396	0,04746
197,615	0,03856
197,834	0,032
198,053	0,02347
198,271	0,00461
198,49	0,01313
198,709	0,03126
198,928	0,02552
199,147	0,0248
199,365	0,02151
199,584	0,03031
199,803	0,00573
200,022	0,00926
200,24	0,00879
200,459	0,00105
200,678	0,02626
200,897	0,01755
201,115	0,00685
201,334	0,00287
201,553	-0,00582
201,771	-0,01565
201,99	-0,01954
202,209	0,00308
202,427	0,0095
202,646	0,02929
202,864	0,02517
203,083	0,0048
203,302	0,01157
203,52	0,02388
203,739	0,02572
203,957	0,03693
204,176	0,04594
204,394	0,0578
204,613	0,06456
204,831	0,05629
205,05	0,04985
205,268	0,06439
205,487	0,07141
205,705	0,06939
205,924	0,07235
206,142	0,0776
206,361	0,08124
206,579	0,08325
206,798	0,07674
207,016	0,0551
207,234	0,0572
207,453	0,05908
207,671	0,08224
207,89	0,08958
208,108	0,09056
208,326	0,08023
208,545	0,07722
208,763	0,08214
208,981	0,06744
209,2	0,05107
209,418	0,05731
209,636	0,05521
209,855	0,05302
210,073	0,02722
210,291	0,02521
210,509	0,02073
210,728	0,02293
210,946	0,01831
211,164	0,00979
211,382	0,02035
211,6	0,03591
211,819	0,03254
212,037	0,02359
212,255	0,01506
212,473	0,01329
212,691	0,02057
212,909	0,02787
213,128	0,0205
213,346	0,014
213,564	0,0302
213,782	0,02893
214	0,03736
214,218	0,04275
214,436	0,048
214,654	0,05502
214,872	0,0472
215,09	0,02708
215,308	0,01922
215,526	0,03586
215,744	0,04422
215,962	0,03923
216,18	0,02947
216,398	0,0259
216,616	0,01807
216,834	0,0259
217,052	0,0224
217,27	0,03343
217,488	0,04461
217,706	0,05141
217,924	0,04526
218,142	0,05022
218,36	0,04509
218,578	0,0552
218,795	0,04696
219,013	0,04844
219,231	0,03225
219,449	0,03171
219,667	0,0194
219,885	0,01019
220,102	0,0098
220,32	0,00128
220,538	0,0063
220,756	0,00043
220,973	0,00549
221,191	0,01536
221,409	0,01988
221,627	0,02134
221,844	0,02285
222,062	0,04408
222,28	0,05217
222,497	0,03993
222,715	0,05245
222,933	0,0375
223,15	0,03298
223,368	0,03449
223,586	0,04063
223,803	0,04479
224,021	0,05671
224,239	0,05527
224,456	0,05205
224,674	0,04343
224,891	0,05785
225,109	0,04793
225,326	0,04742
225,544	0,06074
225,762	0,04718
225,979	0,0378
226,197	0,04005
226,414	0,02951
226,632	0,02571
226,849	0,0114
227,066	0,01571
227,284	0,01948
227,501	0,02859
227,719	0,04512
227,936	0,04129
228,154	0,04701
228,371	0,04593
228,588	0,0497
228,806	0,06452
229,023	0,06899
229,241	0,08222
229,458	0,08551
229,675	0,07643
229,893	0,07673
230,11	0,0661
230,327	0,06154
230,545	0,05532
230,762	0,05268
230,979	0,05376
231,196	0,0582
231,414	0,05144
231,631	0,03413
231,848	0,03518
232,065	0,03538
232,283	0,03326
232,5	0,04007
232,717	0,0331
232,934	0,03569
233,151	0,0321
233,368	0,02057
233,586	0,01609
233,803	0,02257
234,02	0,03602
234,237	0,03622
234,454	0,04328
234,671	0,05232
234,888	0,04558
235,105	0,05383
235,322	0,06033
235,54	0,05838
235,757	0,07334
235,974	0,05964
236,191	0,06449
236,408	0,06097
236,625	0,06065
236,842	0,05651
237,059	0,04908
237,276	0,05112
237,493	0,05627
237,71	0,05802
237,926	0,05531
238,143	0,03784
238,36	0,04349
238,577	0,02624
238,794	0,02534
239,011	0,03049
239,228	0,03523
239,445	0,024
239,662	0,0312
239,878	0,02926
240,095	0,03233
240,312	0,04585
240,529	0,04699
240,746	0,04717
240,963	0,05903
241,179	0,05466
241,396	0,05622
241,613	0,04376
241,83	0,058
242,046	0,04813
242,263	0,05501
242,48	0,05057
242,697	0,04475
242,913	0,05803
243,13	0,04951
243,347	0,05626
243,563	0,05961
243,78	0,05975
243,997	0,07461
244,213	0,06894
244,43	0,07341
244,646	0,07161
244,863	0,07295
245,08	0,08006
245,296	0,06905
245,513	0,07404
245,729	0,07636
245,946	0,08182
246,162	0,07498
246,379	0,07345
246,595	0,06508
246,812	0,06341
247,028	0,07403
247,245	0,08126
247,461	0,06158
247,678	0,05919
247,894	0,06888
248,111	0,05271
248,327	0,05158
248,544	0,05228
248,76	0,04358
248,976	0,06285
249,193	0,05836
249,409	0,03757
249,626	0,0215
249,842	0,03261
250,058	0,03868
250,275	0,04
250,491	0,03908
250,707	0,03707
250,924	0,04769
251,14	0,05203
251,356	0,03871
251,572	0,04555
251,789	0,05344
252,005	0,05591
252,221	0,05557
252,437	0,04959
252,654	0,03998
252,87	0,03865
253,086	0,04467
253,302	0,03694
253,518	0,03882
253,735	0,03516
253,951	0,02901
254,167	0,0301
254,383	0,02939
254,599	0,02724
254,815	0,03824
255,031	0,02791
255,247	0,0256
255,463	0,01713
255,68	0,02866
255,896	0,02568
256,112	0,02553
256,328	0,0353
256,544	0,04119
256,76	0,05097
256,976	0,06469
257,192	0,0554
257,408	0,06486
257,624	0,06671
257,84	0,0727
258,056	0,05721
258,272	0,06414
258,487	0,06589
258,703	0,06603
258,919	0,06299
259,135	0,05471
259,351	0,04442
259,567	0,05258
259,783	0,05658
259,999	0,07265
260,215	0,07317
260,43	0,06886
260,646	0,06008
260,862	0,06853
261,078	0,05976
261,294	0,05056
261,509	0,06214
261,725	0,06467
261,941	0,05689
262,157	0,05803
262,372	0,05444
262,588	0,0468
262,804	0,05616
263,019	0,06003
263,235	0,05264
263,451	0,05708
263,667	0,06391
263,882	0,06323
264,098	0,07196
264,313	0,07758
264,529	0,07209
264,745	0,07284
264,96	0,07146
265,176	0,07976
265,391	0,07451
265,607	0,08748
265,823	0,07897
266,038	0,07631
266,254	0,06462
266,469	0,0513
266,685	0,04731
266,9	0,0485
267,116	0,04043
267,331	0,0503
267,547	0,04572
267,762	0,04353
267,978	0,03626
268,193	0,04034
268,408	0,04171
268,624	0,0481
268,839	0,05197
269,055	0,04302
269,27	0,04286
269,485	0,04578
269,701	0,04704
269,916	0,03918
270,132	0,04647
270,347	0,04825
270,562	0,05627
270,777	0,05731
270,993	0,0575
271,208	0,05704
271,423	0,07018
271,639	0,076
271,854	0,06536
272,069	0,0596
272,284	0,06848
272,5	0,06467
272,715	0,06222
272,93	0,05024
273,145	0,03872
273,36	0,03716
273,576	0,03493
273,791	0,01665
274,006	0,01297
274,221	0,01946
274,436	0,01295
274,651	0,00168
274,866	0,00688
275,081	0,0087
275,296	0,00629
275,512	0,01198
275,727	0,01841
275,942	0,02076
276,157	0,02763
276,372	0,03306
276,587	0,04325
276,802	0,05314
277,017	0,05598
277,232	0,0547
277,447	0,05138
277,662	0,06002
277,877	0,06241
278,092	0,05752
278,306	0,05586
278,521	0,06964
278,736	0,06638
278,951	0,06437
279,166	0,05621
279,381	0,05705
279,596	0,05672
279,811	0,0561
280,025	0,04294
280,24	0,04534
280,455	0,05222
280,67	0,05496
280,885	0,04557
281,099	0,03818
281,314	0,02632
281,529	0,03158
281,744	0,03655
281,959	0,03383
282,173	0,03535
282,388	0,05553
282,603	0,05157
282,817	0,05079
283,032	0,0497
283,247	0,04767
283,461	0,05896
283,676	0,06186
283,891	0,06175
284,105	0,06435
284,32	0,06486
284,535	0,06681
284,749	0,06678
284,964	0,08239
285,178	0,07862
285,393	0,08147
285,607	0,07249
285,822	0,07163
286,036	0,08
286,251	0,07614
286,465	0,07833
286,68	0,08143
286,894	0,0776
287,109	0,06821
287,323	0,05055
287,538	0,0528
287,752	0,04849
287,967	0,06302
288,181	0,05978
288,396	0,0629
288,61	0,06809
288,824	0,06429
289,039	0,06763
289,253	0,06891
289,467	0,06832
289,682	0,06961
289,896	0,07181
290,11	0,06958
290,325	0,07112
290,539	0,06162
290,753	0,05647
290,968	0,05282
291,182	0,0442
291,396	0,04311
291,61	0,0488
291,825	0,05402
292,039	0,05195
292,253	0,04587
292,467	0,04507
292,681	0,04308
292,896	0,05674
293,11	0,04986
293,324	0,05553
293,538	0,06161
293,752	0,06322
293,966	0,06151
294,18	0,05541
294,394	0,05316
294,608	0,05344
294,823	0,05434
295,037	0,0506
295,251	0,04889
295,465	0,05578
295,679	0,04861
295,893	0,04909
296,107	0,04433
296,321	0,0492
296,535	0,04632
296,749	0,04285
296,963	0,03582
297,177	0,0396
297,391	0,0446
297,604	0,02749
297,818	0,01805
298,032	0,01558
298,246	0,00589
298,46	0,00288
298,674	-0,00266
298,888	-0,00071
299,102	0,01113
299,315	0,02274
299,529	0,02505
299,743	0,01767
299,957	0,02892
300,171	0,03118
300,385	0,036
300,598	0,04776
300,812	0,04667
301,026	0,0432
301,24	0,0553
301,453	0,05458
301,667	0,04244
301,881	0,04203
302,094	0,04375
302,308	0,03892
302,522	0,05322
302,735	0,05474
302,949	0,05007
303,163	0,05617
303,376	0,05516
303,59	0,04787
303,803	0,04418
304,017	0,05291
304,231	0,05597
304,444	0,06444
304,658	0,06886
304,871	0,06137
305,085	0,06069
305,298	0,06313
305,512	0,0538
305,725	0,04951
305,939	0,04876
306,152	0,041
306,366	0,03539
306,579	0,02341
306,793	0,02426
307,006	0,0269
307,22	0,0241
307,433	0,02015
307,646	0,01444
307,86	0,01994
308,073	0,0265
308,286	0,02176
308,5	0,02252
308,713	0,01363
308,926	0,02546
309,14	0,01622
309,353	0,00681
309,566	0,00355
309,78	0,00342
309,993	0,00978
310,206	0,00424
310,419	0,00687
310,633	0,01074
310,846	0,02405
311,059	0,03365
311,272	0,02047
311,486	0,01848
311,699	0,01679
311,912	0,02351
312,125	0,02955
312,338	0,0261
312,551	0,03575
312,764	0,03291
312,978	0,04017
313,191	0,04314
313,404	0,03515
313,617	0,04175
313,83	0,04417
314,043	0,05568
314,256	0,04875
314,469	0,03533
314,682	0,03659
314,895	0,03767
315,108	0,04284
315,321	0,03356
315,534	0,02506
315,747	0,03427
315,96	0,03249
316,173	0,03537
316,386	0,03768
316,599	0,05034
316,812	0,05853
317,025	0,06056
317,237	0,05387
317,45	0,05024
317,663	0,04691
317,876	0,04319
318,089	0,04571
318,302	0,04513
318,515	0,04049
318,727	0,02997
318,94	0,02259
319,153	0,01622
319,366	0,01303
319,578	0,01216
319,791	0,02093
320,004	0,0174
320,217	0,02055
320,429	0,02439
320,642	0,03154
320,855	0,02853
321,067	0,0277
321,28	0,02833
321,493	0,03226
321,705	0,02782
321,918	0,03255
322,131	0,02724
322,343	0,0315
322,556	0,0326
322,768	0,02433
322,981	0,01138
323,194	0,01623
323,406	0,0202
323,619	0,01374
323,831	0,02773
324,044	0,03176
324,256	0,02915
324,469	0,02174
324,681	0,02873
324,894	0,03359
325,106	0,03588
325,319	0,03451
325,531	0,03855
325,743	0,03731
325,956	0,03901
326,168	0,0307
326,381	0,03422
326,593	0,03182
326,805	0,04242
327,018	0,04078
327,23	0,0317
327,442	0,03934
327,655	0,04334
327,867	0,03863
328,079	0,0391
328,292	0,03797
328,504	0,04102
328,716	0,03358
328,928	0,04314
329,141	0,03747
329,353	0,03564
329,565	0,03396
329,777	0,0231
329,99	0,02308
330,202	0,02848
330,414	0,02193
330,626	0,02567
330,838	0,0216
331,05	0,02591
331,263	0,01477
331,475	0,02062
331,687	0,01653
331,899	0,02769
332,111	0,03241
332,323	0,03567
332,535	0,03324
332,747	0,0412
332,959	0,03249
333,171	0,03557
333,383	0,03435
333,595	0,03639
333,807	0,03161
334,019	0,03817
334,231	0,02645
334,443	0,02542
334,655	0,02319
334,867	0,02602
335,079	0,03258
335,291	0,03334
335,503	0,0387
335,714	0,03429
335,926	0,03841
336,138	0,03287
336,35	0,02881
336,562	0,03901
336,774	0,03831
336,986	0,04253
337,197	0,03401
337,409	0,0291
337,621	0,03302
337,833	0,02708
338,044	0,03957
338,256	0,03627
338,468	0,04442
338,68	0,04986
338,891	0,04199
339,103	0,04182
339,315	0,04298
339,526	0,04797
339,738	0,0396
339,95	0,03889
340,161	0,04057
340,373	0,02671
340,585	0,02037
340,796	0,01179
341,008	0,00626
341,219	0,0145
341,431	0,00904
341,642	0,00994
341,854	0,01115
342,065	0,01972
342,277	0,02281
342,489	0,0171
342,7	0,02448
342,912	0,03051
343,123	0,03545
343,334	0,03872
343,546	0,02601
343,757	0,03155
343,969	0,02312
344,18	0,01824
344,392	0,01128
344,603	0,01808
344,814	0,02604
345,026	0,02969
345,237	0,03505
345,448	0,03772
345,66	0,03511
345,871	0,03776
346,082	0,04198
346,294	0,04988
346,505	0,0526
346,716	0,06101
346,927	0,06015
347,139	0,05354
347,35	0,04585
347,561	0,03713
347,772	0,03869
347,984	0,04344
348,195	0,05301
348,406	0,04666
348,617	0,0509
348,828	0,05335
349,039	0,04832
349,251	0,04318
349,462	0,04325
349,673	0,03909
349,884	0,03853
350,095	0,03449
350,306	0,03026
350,517	0,03101
350,728	0,0319
350,939	0,03012
351,15	0,02592
351,361	0,02741
351,572	0,03312
351,783	0,02948
351,994	0,03875
352,205	0,03685
352,416	0,04057
352,627	0,03967
352,838	0,03376
353,049	0,03672
353,26	0,03715
353,471	0,03319
353,682	0,03328
353,893	0,0316
354,103	0,03475
354,314	0,02788
354,525	0,03591
354,736	0,03332
354,947	0,03491
355,157	0,03767
355,368	0,03923
355,579	0,03277
355,79	0,03997
356,001	0,03655
356,211	0,03765
356,422	0,02971
356,633	0,03605
356,843	0,03456
357,054	0,02717
357,265	0,03301
357,476	0,03499
357,686	0,03321
357,897	0,03985
358,107	0,03113
358,318	0,03834
358,529	0,03642
358,739	0,04823
358,95	0,04799
359,16	0,04787
359,371	0,04801
359,582	0,04315
359,792	0,04557
360,003	0,0442
360,213	0,03621
360,424	0,04791
360,634	0,05098
360,845	0,04638
361,055	0,04364
361,266	0,04291
361,476	0,04797
361,686	0,05171
361,897	0,04873
362,107	0,04526
362,318	0,04451
362,528	0,04845
362,738	0,04233
362,949	0,03994
363,159	0,04614
363,369	0,04742
363,58	0,04085
363,79	0,03689
364	0,03758
364,211	0,03733
364,421	0,03041
364,631	0,03607
364,842	0,03641
365,052	0,03764
365,262	0,03032
365,472	0,03006
365,682	0,03047
365,893	0,03178
366,103	0,03797
366,313	0,0389
366,523	0,04412
366,733	0,04667
366,943	0,04266
367,154	0,0408
367,364	0,04602
367,574	0,05538
367,784	0,05986
367,994	0,0619
368,204	0,06903
368,414	0,06576
368,624	0,06484
368,834	0,06317
369,044	0,06453
369,254	0,06586
369,464	0,06585
369,674	0,06306
369,884	0,05548
370,094	0,04978
370,304	0,04026
370,514	0,03839
370,724	0,03494
370,934	0,03144
371,144	0,02197
371,353	0,02339
371,563	0,02281
371,773	0,02624
371,983	0,02488
372,193	0,0284
372,403	0,03018
372,612	0,0363
372,822	0,03286
373,032	0,03488
373,242	0,03942
373,452	0,04827
373,661	0,04873
373,871	0,04734
374,081	0,04537
374,29	0,04977
374,5	0,04757
374,71	0,04106
374,92	0,04024
375,129	0,04199
375,339	0,04261
375,549	0,03863
375,758	0,03651
375,968	0,03396
376,177	0,03151
376,387	0,02871
376,597	0,02385
376,806	0,03077
377,016	0,03227
377,225	0,02861
377,435	0,02782
377,644	0,0243
377,854	0,02574
378,063	0,0238
378,273	0,02603
378,482	0,03138
378,692	0,03501
378,901	0,03431
379,111	0,02943
379,32	0,03141
379,529	0,03219
379,739	0,03207
379,948	0,03231
380,158	0,03439
380,367	0,04028
380,576	0,04089
380,786	0,03438
380,995	0,03623
381,204	0,04149
381,414	0,04219
381,623	0,04056
381,832	0,04478
382,041	0,04396
382,251	0,04648
382,46	0,04472
382,669	0,03882
382,878	0,04131
383,088	0,0437
383,297	0,0419
383,506	0,03668
383,715	0,03191
383,924	0,03055
384,133	0,02799
384,342	0,02908
384,552	0,02833
384,761	0,03127
384,97	0,03427
385,179	0,03238
385,388	0,03244
385,597	0,0294
385,806	0,03036
386,015	0,0338
386,224	0,03603
386,433	0,0344
386,642	0,03263
386,851	0,03221
387,06	0,02953
387,269	0,02828
387,478	0,02729
387,687	0,02789
387,896	0,02891
388,105	0,03003
388,314	0,02598
388,523	0,02471
388,731	0,02523
388,94	0,02879
389,149	0,02973
389,358	0,03022
389,567	0,03424
389,776	0,03081
389,984	0,02913
390,193	0,02992
390,402	0,02782
390,611	0,03079
390,819	0,02912
391,028	0,0286
391,237	0,02764
391,446	0,0226
391,654	0,02368
391,863	0,01901
392,072	0,0204
392,28	0,02209
392,489	0,01929
392,698	0,02135
392,906	0,02023
393,115	0,02179
393,324	0,02416
393,532	0,01953
393,741	0,01909
393,949	0,01427
394,158	0,01639
394,366	0,01678
394,575	0,01533
394,783	0,01528
394,992	0,01224
395,2	0,00873
395,409	0,00899
395,617	0,00516
395,826	0,00767
396,034	0,00817
396,243	0,00972
396,451	0,00885
396,66	0,01195
396,868	0,01205
397,076	0,01117
397,285	0,01004
397,493	0,01358
397,701	0,01398
397,91	0,01524
398,118	0,01646
398,326	0,0186
398,535	0,01848
398,743	0,01766
398,951	0,01454
399,159	0,01568
399,368	0,01982
399,576	0,02154
399,784	0,02406
399,992	0,02367
400,201	0,02275
400,409	0,01995
400,617	0,01911
400,825	0,02009
401,033	0,02199
401,241	0,0232
401,45	0,02286
401,658	0,0232
401,866	0,02518
402,074	0,02239
402,282	0,02336
402,49	0,02435
402,698	0,02395
402,906	0,02329
403,114	0,02155
403,322	0,02104
403,53	0,02013
403,738	0,0187
403,946	0,01525
404,154	0,011
404,362	0,01216
404,57	0,00913
404,778	0,00982
404,986	0,01294
405,194	0,01498
405,402	0,01673
405,609	0,01561
405,817	0,01302
406,025	0,01573
406,233	0,01861
406,441	0,02018
406,649	0,01901
406,856	0,02171
407,064	0,02172
407,272	0,02043
407,48	0,01865
407,687	0,01674
407,895	0,01794
408,103	0,01915
408,311	0,01813
408,518	0,0155
408,726	0,01713
408,934	0,01606
409,141	0,01534
409,349	0,01302
409,557	0,01275
409,764	0,01377
409,972	0,01772
410,18	0,01659
410,387	0,01745
410,595	0,0179
410,802	0,0175
411,01	0,01547
411,217	0,01619
411,425	0,01686
411,632	0,01794
411,84	0,01887
412,047	0,01726
412,255	0,01446
412,462	0,01597
412,67	0,01589
412,877	0,01588
413,085	0,01671
413,292	0,01686
413,499	0,01687
413,707	0,01669
413,914	0,01727
414,122	0,01617
414,329	0,01796
414,536	0,01697
414,744	0,01577
414,951	0,0156
415,158	0,01548
415,366	0,01555
415,573	0,01558
415,78	0,01587
415,987	0,01486
416,195	0,01634
416,402	0,01476
416,609	0,01487
416,816	0,01737
417,023	0,0189
417,231	0,01984
417,438	0,01905
417,645	0,01803
417,852	0,01724
418,059	0,0184
418,266	0,01718
418,473	0,01545
418,68	0,01793
418,888	0,01606
419,095	0,01532
419,302	0,01381
419,509	0,01106
419,716	0,01129
419,923	0,01244
420,13	0,01361
420,337	0,01397
420,544	0,01513
420,751	0,01412
420,958	0,01466
421,165	0,01588
421,371	0,01411
421,578	0,01278
421,785	0,01329
421,992	0,01379
422,199	0,01473
422,406	0,01499
422,613	0,01355
422,82	0,01408
423,026	0,01601
423,233	0,01452
423,44	0,01343
423,647	0,01393
423,854	0,01393
424,06	0,01362
424,267	0,01206
424,474	0,0108
424,681	0,01095
424,887	0,01
425,094	0,00915
425,301	0,00893
425,507	0,00801
425,714	0,00815
425,921	0,0086
426,127	0,00888
426,334	0,00999
426,54	0,0107
426,747	0,01137
426,954	0,01076
427,16	0,01186
427,367	0,01237
427,573	0,012
427,78	0,01259
427,986	0,01318
428,193	0,01283
428,399	0,01408
428,606	0,01231
428,812	0,01246
429,019	0,01233
429,225	0,01254
429,432	0,01292
429,638	0,01226
429,845	0,01143
430,051	0,01294
430,257	0,01213
430,464	0,01307
430,67	0,01296
430,876	0,01444
431,083	0,01547
431,289	0,01571
431,495	0,01632
431,702	0,01587
431,908	0,01533
432,114	0,01486
432,32	0,01484
432,527	0,01526
432,733	0,015
432,939	0,0137
433,145	0,01366
433,351	0,01306
433,558	0,0135
433,764	0,01316
433,97	0,0128
434,176	0,01428
434,382	0,01713
434,588	0,01658
434,794	0,01542
435,001	0,01525
435,207	0,0163
435,413	0,0162
435,619	0,01646
435,825	0,01461
436,031	0,01504
436,237	0,01574
436,443	0,01489
436,649	0,01329
436,855	0,01329
437,061	0,01477
437,267	0,01443
437,473	0,01497
437,679	0,01659
437,884	0,01584
438,09	0,0168
438,296	0,01621
438,502	0,01523
438,708	0,01546
438,914	0,01523
439,12	0,01549
439,325	0,01591
439,531	0,0172
439,737	0,01647
439,943	0,0155
440,149	0,01577
440,354	0,01626
440,56	0,01588
440,766	0,01592
440,972	0,0163
441,177	0,01697
441,383	0,01686
441,589	0,01687
441,794	0,01565
442	0,01581
442,206	0,01638
442,411	0,01576
442,617	0,01548
442,822	0,01682
443,028	0,01753
443,234	0,01854
443,439	0,01893
443,645	0,019
443,85	0,01875
444,056	0,01881
444,261	0,0199
444,467	0,01993
444,672	0,0201
444,878	0,02075
445,083	0,02085
445,289	0,02073
445,494	0,01963
445,699	0,01949
445,905	0,0191
446,11	0,02053
446,316	0,02156
446,521	0,021
446,726	0,02096
446,932	0,02152
447,137	0,02158
447,342	0,02114
447,548	0,02039
447,753	0,02117
447,958	0,02139
448,164	0,02108
448,369	0,01957
448,574	0,01853
448,779	0,01846
448,984	0,01826
449,19	0,01881
449,395	0,01879
449,6	0,01873
449,805	0,01985
450,01	0,01993
450,215	0,01882
450,421	0,02036
450,626	0,02128
450,831	0,02147
451,036	0,02177
451,241	0,02257
451,446	0,02193
451,651	0,02219
451,856	0,02228
452,061	0,02279
452,266	0,02213
452,471	0,02315
452,676	0,02265
452,881	0,02204
453,086	0,02283
453,291	0,0223
453,496	0,02133
453,701	0,0222
453,906	0,02181
454,111	0,0213
454,316	0,02095
454,52	0,0216
454,725	0,02108
454,93	0,02185
455,135	0,02209
455,34	0,02193
455,545	0,02307
455,749	0,02391
455,954	0,02359
456,159	0,02375
456,364	0,02533
456,568	0,02556
456,773	0,02608
456,978	0,02741
457,182	0,02788
457,387	0,0281
457,592	0,02801
457,796	0,02764
458,001	0,02779
458,206	0,02792
458,41	0,02819
458,615	0,02727
458,82	0,02737
459,024	0,02778
459,229	0,02798
459,433	0,0271
459,638	0,02767
459,842	0,02843
460,047	0,02854
460,251	0,02863
460,456	0,02846
460,66	0,02878
460,865	0,02954
461,069	0,03007
461,274	0,03039
461,478	0,03021
461,682	0,03049
461,887	0,0307
462,091	0,03068
462,296	0,03147
462,5	0,03202
462,704	0,03286
462,909	0,03269
463,113	0,03209
463,317	0,03195
463,522	0,03201
463,726	0,03219
463,93	0,03277
464,134	0,03275
464,339	0,03319
464,543	0,03255
464,747	0,03234
464,951	0,03236
465,155	0,03286
465,36	0,03416
465,564	0,03439
465,768	0,03462
465,972	0,03512
466,176	0,03532
466,38	0,03566
466,584	0,03651
466,788	0,03783
466,993	0,03834
467,197	0,03855
467,401	0,0387
467,605	0,03817
467,809	0,03877
468,013	0,0388
468,217	0,03851
468,421	0,03845
468,625	0,03854
468,829	0,03875
469,033	0,03807
469,236	0,03873
469,44	0,03853
469,644	0,03888
469,848	0,03957
470,052	0,04022
470,256	0,03967
470,46	0,04044
470,664	0,04077
470,867	0,04154
471,071	0,04145
471,275	0,04259
471,479	0,04238
471,683	0,04337
471,886	0,04354
472,09	0,04374
472,294	0,04342
472,497	0,04431
472,701	0,04429
472,905	0,04485
473,109	0,04502
473,312	0,0452
473,516	0,04556
473,719	0,04591
473,923	0,04621
474,127	0,04651
474,33	0,04678
474,534	0,0473
474,737	0,04776
474,941	0,04837
475,145	0,04846
475,348	0,0488
475,552	0,04918
475,755	0,04895
475,959	0,04958
476,162	0,05002
476,366	0,05032
476,569	0,05094
476,772	0,05094
476,976	0,05146
477,179	0,05173
477,383	0,05197
477,586	0,0519
477,789	0,0523
477,993	0,0531
478,196	0,0533
478,399	0,05363
478,603	0,0543
478,806	0,05488
479,009	0,05538
479,213	0,05535
479,416	0,05583
479,619	0,05679
479,822	0,05753
480,026	0,0582
480,229	0,05819
480,432	0,05903
480,635	0,05939
480,838	0,05988
481,041	0,05953
481,245	0,06025
481,448	0,06073
481,651	0,06111
481,854	0,06118
482,057	0,06143
482,26	0,06182
482,463	0,06241
482,666	0,06252
482,869	0,06311
483,072	0,06354
483,275	0,06442
483,478	0,06458
483,681	0,06526
483,884	0,06585
484,087	0,06656
484,29	0,06743
484,493	0,06776
484,696	0,06829
484,899	0,06857
485,102	0,06904
485,305	0,06923
485,508	0,06989
485,71	0,07063
485,913	0,07098
486,116	0,07114
486,319	0,07164
486,522	0,07179
486,725	0,07228
486,927	0,07304
487,13	0,07379
487,333	0,07446
487,536	0,07517
487,738	0,07571
487,941	0,07636
488,144	0,07725
488,346	0,078
488,549	0,0783
488,752	0,07915
488,954	0,0798
489,157	0,07985
489,359	0,08045
489,562	0,08076
489,765	0,08124
489,967	0,08159
490,17	0,08203
490,372	0,0823
490,575	0,08263
490,777	0,08325
490,98	0,08342
491,182	0,08376
491,385	0,08461
491,587	0,08497
491,79	0,08547
491,992	0,08592
492,195	0,08626
492,397	0,08657
492,599	0,08717
492,802	0,08793
493,004	0,08867
493,207	0,08939
493,409	0,09026
493,611	0,09087
493,814	0,09151
494,016	0,09201
494,218	0,09275
494,42	0,09372
494,623	0,09451
494,825	0,09512
495,027	0,09553
495,229	0,09604
495,432	0,09667
495,634	0,09722
495,836	0,09776
496,038	0,09858
496,24	0,09922
496,442	0,09981
496,645	0,10013
496,847	0,10086
497,049	0,10151
497,251	0,10234
497,453	0,10305
497,655	0,10387
497,857	0,1048
498,059	0,10556
498,261	0,10601
498,463	0,10686
498,665	0,10768
498,867	0,10852
499,069	0,109
499,271	0,10932
499,473	0,11009
499,675	0,11099
499,877	0,11172
500,079	0,11218
500,281	0,11281
500,482	0,11358
500,684	0,11448
500,886	0,11508
501,088	0,11576
501,29	0,11671
501,492	0,11769
501,693	0,11855
501,895	0,11933
502,097	0,11995
502,299	0,12067
502,5	0,12158
502,702	0,12227
502,904	0,12315
503,106	0,12406
503,307	0,12484
503,509	0,12555
503,711	0,12665
503,912	0,12749
504,114	0,12805
504,315	0,12876
504,517	0,12953
504,719	0,13048
504,92	0,13143
505,122	0,13207
505,323	0,13272
505,525	0,13374
505,726	0,13468
505,928	0,13524
506,129	0,13591
506,331	0,13686
506,532	0,13809
506,734	0,13898
506,935	0,13972
507,137	0,14034
507,338	0,14099
507,539	0,14184
507,741	0,14284
507,942	0,14372
508,143	0,1448
508,345	0,14553
508,546	0,1462
508,747	0,14706
508,949	0,14809
509,15	0,14865
509,351	0,14959
509,553	0,15048
509,754	0,15149
509,955	0,1522
510,156	0,15315
510,357	0,15403
510,559	0,15521
510,76	0,15641
510,961	0,15734
511,162	0,15813
511,363	0,15927
511,564	0,16028
511,766	0,16148
511,967	0,16236
512,168	0,16335
512,369	0,1644
512,57	0,16538
512,771	0,16647
512,972	0,16742
513,173	0,16842
513,374	0,16962
513,575	0,17068
513,776	0,17161
513,977	0,17234
514,178	0,17341
514,379	0,17434
514,58	0,17524
514,781	0,17638
514,981	0,17726
515,182	0,17808
515,383	0,17901
515,584	0,17999
515,785	0,18097
515,986	0,1822
516,187	0,18353
516,387	0,1846
516,588	0,18577
516,789	0,1868
516,99	0,18784
517,19	0,18885
517,391	0,19007
517,592	0,19108
517,793	0,19197
517,993	0,19315
518,194	0,19435
518,395	0,19523
518,595	0,19651
518,796	0,1974
518,996	0,19831
519,197	0,19928
519,398	0,20028
519,598	0,20151
519,799	0,20257
519,999	0,20366
520,2	0,20484
520,4	0,20577
520,601	0,207
520,801	0,20781
521,002	0,20906
521,202	0,21028
521,403	0,21137
521,603	0,21242
521,804	0,21324
522,004	0,21427
522,204	0,21538
522,405	0,21625
522,605	0,21734
522,806	0,21835
523,006	0,21951
523,206	0,22062
523,407	0,2218
523,607	0,22283
523,807	0,22393
524,007	0,22491
524,208	0,22585
524,408	0,22687
524,608	0,22805
524,808	0,22896
525,009	0,23012
525,209	0,23133
525,409	0,23228
525,609	0,23321
525,809	0,23436
526,009	0,23545
526,209	0,23671
526,41	0,23808
526,61	0,23931
526,81	0,24031
527,01	0,24146
527,21	0,24246
527,41	0,24328
527,61	0,24437
527,81	0,24529
528,01	0,24624
528,21	0,24722
528,41	0,24812
528,61	0,24885
528,81	0,24968
529,01	0,25054
529,21	0,25158
529,41	0,2524
529,609	0,25329
529,809	0,25421
530,009	0,25517
530,209	0,25625
530,409	0,25714
530,609	0,25821
530,808	0,25912
531,008	0,26018
531,208	0,26129
531,408	0,26213
531,608	0,26315
531,807	0,26425
532,007	0,26506
532,207	0,26593
532,406	0,26682
532,606	0,26793
532,806	0,26874
533,005	0,26969
533,205	0,27044
533,405	0,2711
533,604	0,27222
533,804	0,27308
534,003	0,27395
534,203	0,2749
534,403	0,27566
534,602	0,2762
534,802	0,277
535,001	0,27773
535,201	0,27856
535,4	0,27924
535,6	0,27994
535,799	0,28073
535,998	0,2814
536,198	0,282
536,397	0,2827
536,597	0,28358
536,796	0,28462
536,995	0,28522
537,195	0,28607
537,394	0,28683
537,594	0,28781
537,793	0,28877
537,992	0,28933
538,191	0,29025
538,391	0,29108
538,59	0,29192
538,789	0,29261
538,988	0,29304
539,188	0,29378
539,387	0,29448
539,586	0,29535
539,785	0,29577
539,984	0,29648
540,184	0,29716
540,383	0,29784
540,582	0,29853
540,781	0,29933
540,98	0,3001
541,179	0,30094
541,378	0,30162
541,577	0,30207
541,776	0,30264
541,975	0,30351
542,174	0,30412
542,373	0,30467
542,572	0,30511
542,771	0,3058
542,97	0,30649
543,169	0,30709
543,368	0,30771
543,567	0,30819
543,766	0,30894
543,965	0,30938
544,164	0,30998
544,362	0,31053
544,561	0,31111
544,76	0,31175
544,959	0,31222
545,158	0,31247
545,356	0,31294
545,555	0,31332
545,754	0,31399
545,953	0,31442
546,151	0,31495
546,35	0,31515
546,549	0,31535
546,748	0,31556
546,946	0,31578
547,145	0,31605
547,344	0,31663
547,542	0,3168
547,741	0,31736
547,939	0,31754
548,138	0,31786
548,337	0,31826
548,535	0,3188
548,734	0,31925
548,932	0,31993
549,131	0,32017
549,329	0,32069
549,528	0,32091
549,726	0,32135
549,925	0,32139
550,123	0,32182
550,322	0,32214
550,52	0,32239
550,718	0,32262
550,917	0,32316
551,115	0,32316
551,313	0,32373
551,512	0,32407
551,71	0,32434
551,908	0,32475
552,107	0,32535
552,305	0,32563
552,503	0,32617
552,702	0,3263
552,9	0,32672
553,098	0,32701
553,296	0,32739
553,495	0,3278
553,693	0,32807
553,891	0,32855
554,089	0,32889
554,287	0,32915
554,485	0,32948
554,683	0,32967
554,882	0,33007
555,08	0,33039
555,278	0,33062
555,476	0,33132
555,674	0,33169
555,872	0,33185
556,07	0,33197
556,268	0,33244
556,466	0,33265
556,664	0,33313
556,862	0,33352
557,06	0,33434
557,258	0,33482
557,456	0,33538
557,654	0,33564
557,851	0,33598
558,049	0,33642
558,247	0,33719
558,445	0,33747
558,643	0,33802
558,841	0,33832
559,039	0,33866
559,236	0,33886
559,434	0,33914
559,632	0,33951
559,83	0,34006
560,027	0,34056
560,225	0,3411
560,423	0,34131
560,62	0,34186
560,818	0,34219
561,016	0,34288
561,213	0,34354
561,411	0,3441
561,609	0,34469
561,806	0,3451
562,004	0,34538
562,202	0,34591
562,399	0,34647
562,597	0,34729
562,794	0,34772
562,992	0,34831
563,189	0,34863
563,387	0,34905
563,584	0,34962
563,782	0,3502
563,979	0,35089
564,177	0,35162
564,374	0,35221
564,571	0,35283
564,769	0,35311
564,966	0,35371
565,164	0,35438
565,361	0,355
565,558	0,35576
565,756	0,35633
565,953	0,35702
566,15	0,35786
566,347	0,35865
566,545	0,35941
566,742	0,36008
566,939	0,36085
567,136	0,36167
567,334	0,36249
567,531	0,36344
567,728	0,36423
567,925	0,36507
568,122	0,36591
568,319	0,36643
568,517	0,36714
568,714	0,36797
568,911	0,36886
569,108	0,37006
569,305	0,37096
569,502	0,37185
569,699	0,3727
569,896	0,37349
570,093	0,37442
570,29	0,37532
570,487	0,37638
570,684	0,37738
570,881	0,37842
571,078	0,37924
571,275	0,38003
571,472	0,3809
571,669	0,38167
571,866	0,38267
572,062	0,3837
572,259	0,38455
572,456	0,38543
572,653	0,38641
572,85	0,38737
573,047	0,3881
573,243	0,3891
573,44	0,39002
573,637	0,39111
573,834	0,39236
574,03	0,39344
574,227	0,39435
574,424	0,39565
574,62	0,3967
574,817	0,39785
575,014	0,39899
575,21	0,4001
575,407	0,40117
575,604	0,40226
575,8	0,40322
575,997	0,40429
576,193	0,40528
576,39	0,40642
576,586	0,40743
576,783	0,40845
576,979	0,40952
577,176	0,41047
577,372	0,41166
577,569	0,41276
577,765	0,41388
577,962	0,41515
578,158	0,41622
578,355	0,41736
578,551	0,41855
578,747	0,41955
578,944	0,42071
579,14	0,42166
579,336	0,42273
579,533	0,42361
579,729	0,42476
579,925	0,42564
580,122	0,4265
580,318	0,42745
580,514	0,42845
580,71	0,42951
580,906	0,43044
581,103	0,43156
581,299	0,43248
581,495	0,4332
581,691	0,43425
581,887	0,43525
582,084	0,4365
582,28	0,43748
582,476	0,43836
582,672	0,43902
582,868	0,4396
583,064	0,44047
583,26	0,44108
583,456	0,44188
583,652	0,44271
583,848	0,44345
584,044	0,44417
584,24	0,44466
584,436	0,44539
584,632	0,44603
584,828	0,44667
585,024	0,44735
585,22	0,44798
585,416	0,44853
585,611	0,44924
585,807	0,44997
586,003	0,4506
586,199	0,45096
586,395	0,45151
586,591	0,45177
586,786	0,45224
586,982	0,45272
587,178	0,45313
587,374	0,45327
587,569	0,45379
587,765	0,45395
587,961	0,45408
588,156	0,45411
588,352	0,45427
588,548	0,45425
588,743	0,4544
588,939	0,45443
589,135	0,45449
589,33	0,4545
589,526	0,45456
589,721	0,45433
589,917	0,45419
590,112	0,45412
590,308	0,45404
590,503	0,45391
590,699	0,45388
590,894	0,45371
591,09	0,45361
591,285	0,45332
591,481	0,45282
591,676	0,45261
591,872	0,45235
592,067	0,45212
592,262	0,45166
592,458	0,45113
592,653	0,45061
592,848	0,44994
593,044	0,44948
593,239	0,44866
593,434	0,44799
593,629	0,44749
593,825	0,44644
594,02	0,44569
594,215	0,44455
594,41	0,44356
594,606	0,44248
594,801	0,44147
594,996	0,44044
595,191	0,43938
595,386	0,43838
595,581	0,43723
595,777	0,43603
595,972	0,43505
596,167	0,43353
596,362	0,43228
596,557	0,43103
596,752	0,42994
596,947	0,42861
597,142	0,42725
597,337	0,42586
597,532	0,42432
597,727	0,42289
597,922	0,4215
598,117	0,4201
598,312	0,4188
598,507	0,41735
598,701	0,41577
598,896	0,41389
599,091	0,41203
599,286	0,41036
599,481	0,40847
599,676	0,40679
599,87	0,40491
600,065	0,40293
600,26	0,40087
600,455	0,39884
600,65	0,39674
600,844	0,39452
601,039	0,39263
601,234	0,39084
601,428	0,3888
601,623	0,38665
601,818	0,38477
602,012	0,38283
602,207	0,38079
602,402	0,37867
602,596	0,37642
602,791	0,3744
602,985	0,37246
603,18	0,37016
603,374	0,3677
603,569	0,36538
603,763	0,36325
603,958	0,36073
604,152	0,35837
604,347	0,35585
604,541	0,35354
604,736	0,35124
604,93	0,34872
605,125	0,34602
605,319	0,34375
605,513	0,34133
605,708	0,33884
605,902	0,33631
606,096	0,33382
606,291	0,33119
606,485	0,32875
606,679	0,32635
606,874	0,32379
607,068	0,32152
607,262	0,31913
607,456	0,31644
607,65	0,31397
607,845	0,31144
608,039	0,30901
608,233	0,30648
608,427	0,30399
608,621	0,30146
608,815	0,29885
609,01	0,29639
609,204	0,29377
609,398	0,29155
609,592	0,28916
609,786	0,28689
609,98	0,28457
610,174	0,282
610,368	0,27967
610,562	0,27716
610,756	0,27474
610,95	0,27221
611,144	0,26976
611,338	0,26718
611,532	0,26442
611,726	0,26186
611,919	0,25924
612,113	0,25671
612,307	0,25431
612,501	0,25165
612,695	0,24927
612,889	0,24676
613,082	0,24428
613,276	0,24195
613,47	0,23968
613,664	0,23724
613,857	0,23474
614,051	0,23226
614,245	0,22978
614,439	0,22727
614,632	0,22503
614,826	0,22257
615,02	0,22017
615,213	0,21795
615,407	0,21556
615,6	0,21309
615,794	0,21085
615,988	0,20859
616,181	0,20642
616,375	0,2042
616,568	0,20204
616,762	0,19963
616,955	0,19752
617,149	0,19533
617,342	0,19304
617,536	0,19077
617,729	0,18866
617,923	0,18652
618,116	0,18449
618,309	0,18234
618,503	0,18025
618,696	0,17803
618,889	0,17608
619,083	0,17391
619,276	0,17185
619,469	0,16976
619,663	0,16773
619,856	0,16577
620,049	0,16397
620,242	0,16202
620,436	0,15998
620,629	0,15814
620,822	0,15624
621,015	0,15432
621,209	0,15254
621,402	0,15069
621,595	0,14883
621,788	0,14709
621,981	0,14527
622,174	0,14344
622,367	0,14159
622,56	0,13976
622,753	0,13803
622,946	0,13627
623,139	0,1345
623,332	0,13274
623,525	0,13098
623,718	0,12937
623,911	0,12771
624,104	0,12614
624,297	0,12438
624,49	0,12292
624,683	0,12142
624,876	0,11979
625,069	0,11833
625,262	0,11693
625,454	0,11544
625,647	0,11407
625,84	0,11254
626,033	0,11107
626,226	0,1096
626,418	0,10819
626,611	0,10665
626,804	0,1052
626,997	0,10364
627,189	0,10224
627,382	0,10066
627,575	0,0994
627,767	0,09809
627,96	0,09687
628,153	0,09551
628,345	0,09417
628,538	0,09296
628,731	0,0918
628,923	0,09072
629,116	0,08972
629,308	0,08852
629,501	0,08746
629,693	0,08628
629,886	0,08511
630,078	0,08385
630,271	0,08284
630,463	0,08174
630,656	0,08055
630,848	0,07937
631,04	0,07818
631,233	0,07708
631,425	0,07599
631,617	0,07482
631,81	0,07368
632,002	0,07265
632,194	0,07171
632,387	0,07067
632,579	0,06965
632,771	0,06872
632,964	0,0678
633,156	0,06682
633,348	0,06584
633,54	0,06498
633,732	0,06405
633,925	0,06323
634,117	0,06247
634,309	0,06159
634,501	0,06069
634,693	0,05973
634,885	0,05878
635,077	0,05793
635,269	0,0572
635,462	0,05643
635,654	0,05559
635,846	0,05493
636,038	0,05407
636,23	0,05318
636,422	0,05239
636,614	0,05169
636,806	0,05108
636,997	0,05049
637,189	0,04972
637,381	0,04897
637,573	0,04827
637,765	0,04758
637,957	0,04681
638,149	0,0462
638,341	0,0455
638,532	0,04485
638,724	0,04411
638,916	0,0436
639,108	0,043
639,299	0,04249
639,491	0,04181
639,683	0,0413
639,875	0,04074
640,066	0,04024
640,258	0,03952
640,45	0,03897
640,641	0,03859
640,833	0,03809
641,025	0,03749
641,216	0,03684
641,408	0,03623
641,599	0,03577
641,791	0,03521
641,982	0,03468
642,174	0,03416
642,366	0,03378
642,557	0,03333
642,748	0,03269
642,94	0,03229
643,131	0,03175
643,323	0,03127
643,514	0,0309
643,706	0,03051
643,897	0,02997
644,088	0,02953
644,28	0,02917
644,471	0,02883
644,662	0,02843
644,854	0,02803
645,045	0,02761
645,236	0,02718
645,428	0,02686
645,619	0,02634
645,81	0,02592
646,001	0,02554
646,193	0,02529
646,384	0,02488
646,575	0,02437
646,766	0,02405
646,957	0,02372
647,148	0,02336
647,339	0,02306
647,531	0,02276
647,722	0,02251
647,913	0,02214
648,104	0,02192
648,295	0,02147
648,486	0,02113
648,677	0,02089
648,868	0,02054
649,059	0,02026
649,25	0,01992
649,441	0,01972
649,632	0,01934
649,823	0,01912
650,013	0,01889
650,204	0,01849
650,395	0,01824
650,586	0,01805
650,777	0,01776
650,968	0,01752
651,159	0,0173
651,349	0,01702
651,54	0,01663
651,731	0,01638
651,922	0,01611
652,112	0,01586
652,303	0,01569
652,494	0,01546
652,684	0,01521
652,875	0,01501
653,066	0,01483
653,256	0,01456
653,447	0,01438
653,638	0,01425
653,828	0,01412
654,019	0,01394
654,209	0,01369
654,4	0,01354
654,59	0,01345
654,781	0,01329
654,972	0,01309
655,162	0,01289
655,352	0,0127
655,543	0,01251
655,733	0,01234
655,924	0,01227
656,114	0,01201
656,305	0,01192
656,495	0,0117
656,685	0,01144
656,876	0,01132
657,066	0,01112
657,256	0,01101
657,447	0,01103
657,637	0,01085
657,827	0,01064
658,017	0,01038
658,208	0,01025
658,398	0,01005
658,588	0,00997
658,778	0,00989
658,968	0,00965
659,159	0,00954
659,349	0,00934
659,539	0,0091
659,729	0,00908
659,919	0,00901
660,109	0,00897
660,299	0,00897
660,489	0,00895
660,679	0,00884
660,869	0,00877
661,059	0,00871
661,249	0,00858
661,439	0,00841
661,629	0,00826
661,819	0,00813
662,009	0,00804
662,199	0,00791
662,389	0,00775
662,579	0,00758
662,769	0,00743
662,959	0,00729
663,149	0,00724
663,338	0,00717
663,528	0,00718
663,718	0,00716
663,908	0,00693
664,097	0,00668
664,287	0,00651
664,477	0,00643
664,667	0,00636
664,856	0,00628
665,046	0,00616
665,236	0,00599
665,425	0,00594
665,615	0,00588
665,805	0,00573
665,994	0,00586
666,184	0,00586
666,373	0,00583
666,563	0,00572
666,753	0,00571
666,942	0,00562
667,132	0,00548
667,321	0,00538
667,511	0,00534
667,7	0,00525
667,889	0,00507
668,079	0,00496
668,268	0,00497
668,458	0,00485
668,647	0,00483
668,836	0,00467
669,026	0,00466
669,215	0,00459
669,404	0,00466
669,594	0,00456
669,783	0,00443
669,972	0,00455
670,162	0,0045
670,351	0,00437
670,54	0,00429
670,729	0,00419
670,919	0,00414
671,108	0,00402
671,297	0,00405
671,486	0,00398
671,675	0,00393
671,864	0,00395
672,053	0,00387
672,243	0,00377
672,432	0,00371
672,621	0,0037
672,81	0,00374
672,999	0,00369
673,188	0,00375
673,377	0,00368
673,566	0,00354
673,755	0,00348
673,944	0,00334
674,133	0,0032
674,322	0,00319
674,51	0,00329
674,699	0,00318
674,888	0,00301
675,077	0,00292
675,266	0,00282
675,455	0,0028
675,644	0,00274
675,832	0,00275
676,021	0,00276
676,21	0,00284
676,399	0,00276
676,587	0,00264
676,776	0,00261
676,965	0,00261
677,153	0,00266
677,342	0,00256
677,531	0,00253
677,719	0,00253
677,908	0,00246
678,097	0,00245
678,285	0,0024
678,474	0,00233
678,662	0,00232
678,851	0,00233
679,039	0,00229
679,228	0,00221
679,416	0,0023
679,605	0,0022
679,793	0,00222
679,982	0,00217
680,17	0,00214
680,359	0,00214
680,547	0,00215
680,736	0,0021
680,924	0,00213
681,112	0,00213
681,301	0,00215
681,489	0,00205
681,677	0,00207
681,866	0,00196
682,054	0,00193
682,242	0,00189
682,43	0,00193
682,619	0,00185
682,807	0,00179
682,995	0,00168
683,183	0,0016
683,371	0,00161
683,559	0,00159
683,748	0,00157
683,936	0,00159
684,124	0,00162
684,312	0,00156
684,5	0,00136
684,688	0,00146
684,876	0,00149
685,064	0,00144
685,252	0,00143
685,44	0,00139
685,628	0,00139
685,816	0,00138
686,004	0,00132
686,192	0,00124
686,38	0,00119
686,568	0,00127
686,756	0,00107
686,944	0,00103
687,131	0,00111
687,319	0,00117
687,507	0,00107
687,695	0,001
687,883	0,00099
688,07	0,00105
688,258	0,00102
688,446	0,00105
688,634	0,00103
688,821	0,00102
689,009	0,00107
689,197	0,00106
689,384	0,00102
689,572	0,00106
689,76	0,00111
689,947	0,00103
690,135	0,00103
690,323	0,00112
690,51	0,00114
690,698	0,00106
690,885	0,00117
691,073	0,00101
691,26	0,00097
691,448	0,00097
691,635	0,00095
691,823	0,00092
692,01	0,00093
692,197	0,00085
692,385	0,00078
692,572	0,00078
692,76	0,00083
692,947	0,00085
693,134	0,00097
693,322	0,00084
693,509	0,00073
693,696	0,0007
693,884	0,00068
694,071	0,00062
694,258	0,00063
694,445	0,00059
694,633	0,0005
694,82	0,00037
695,007	0,00026
695,194	0,00022
695,381	0,00027
695,568	0,00027
695,756	0,00025
695,943	0,00021
696,13	0,00021
696,317	0,0002
696,504	0,0002
696,691	0,00018
696,878	0,00021
697,065	0,00013
697,252	0,00011
697,439	0,00015
697,626	0,00011
697,813	0,00011
698	0,00003
698,187	-0,00005
698,374	-0,00002
698,561	-0
698,747	-0,00002
698,934	-0,00004
699,121	0,00004
699,308	-0
699,495	-0,00009
699,682	0
699,868	-0,00004
700,055	-0,00006
700,242	-0,00007
700,429	-0,00027
700,615	-0,00028
700,802	-0,00031
700,989	-0,00029
701,175	-0,00042
701,362	-0,00044
701,549	-0,0004
701,735	-0,00043
701,922	-0,00042
702,108	-0,00037
702,295	-0,00036
702,482	-0,00024
702,668	-0,00023
702,855	-0,00016
703,041	-0,00005
703,228	0,00004
703,414	-0
703,601	-0,00001
703,787	-0,00004
703,973	-0,00008
704,16	-0,00014
704,346	-0,00015
704,533	-0,00016
704,719	-0,00019
704,905	-0,00026
705,092	-0,00038
705,278	-0,00038
705,464	-0,00026
705,65	-0,00021
705,837	-0,0003
706,023	-0,00027
706,209	-0,00028
706,395	-0,00022
706,582	-0,00021
706,768	-0,00027
706,954	-0,00023
707,14	-0,00023
707,326	-0,00032
707,512	-0,00043
707,698	-0,00041
707,885	-0,00042
708,071	-0,00043
708,257	-0,00046
708,443	-0,0004
708,629	-0,0004
708,815	-0,00037
709,001	-0,0004
709,187	-0,00042
709,373	-0,00034
709,559	-0,0003
709,745	-0,0004
709,93	-0,00045
710,116	-0,00044
710,302	-0,00029
710,488	-0,00028
710,674	-0,00037
710,86	-0,00045
711,046	-0,00043
711,231	-0,00046
711,417	-0,00044
711,603	-0,00053
711,789	-0,00059
711,974	-0,00041
712,16	-0,00044
712,346	-0,00057
712,532	-0,00061
712,717	-0,0006
712,903	-0,00061
713,089	-0,0007
713,274	-0,00072
713,46	-0,00084
713,645	-0,0008
713,831	-0,00071
714,016	-0,00078
714,202	-0,00071
714,388	-0,00052
714,573	-0,00063
714,759	-0,00063
714,944	-0,00057
715,129	-0,00062
715,315	-0,00063
715,5	-0,0006
715,686	-0,00062
715,871	-0,00063
716,057	-0,00068
716,242	-0,00066
716,427	-0,00086
716,613	-0,00078
716,798	-0,00073
716,983	-0,00073
717,168	-0,00056
717,354	-0,00045
717,539	-0,0004
717,724	-0,00039
717,909	-0,00033
718,095	-0,00026
718,28	-0,00035
718,465	-0,00035
718,65	-0,00037
718,835	-0,00049
719,02	-0,00048
719,206	-0,00058
719,391	-0,00062
719,576	-0,00074
719,761	-0,00076
719,946	-0,00085
720,131	-0,00093
720,316	-0,00095
720,501	-0,00098
720,686	-0,00095
720,871	-0,00079
721,056	-0,00088
721,241	-0,00097
721,426	-0,00103
721,61	-0,00095
721,795	-0,00094
721,98	-0,00101
722,165	-0,00099
722,35	-0,00087
722,535	-0,00087
722,719	-0,00096
722,904	-0,00099
723,089	-0,00098
723,274	-0,00084
723,458	-0,00086
723,643	-0,00083
723,828	-0,00086
724,013	-0,00087
724,197	-0,00093
724,382	-0,00101
724,567	-0,00094
724,751	-0,00096
724,936	-0,00102
725,12	-0,00102
725,305	-0,00106
725,489	-0,00098
725,674	-0,00099
725,859	-0,00095
726,043	-0,00087
726,228	-0,0008
726,412	-0,00076
726,596	-0,00076
726,781	-0,0007
726,965	-0,00073
727,15	-0,0006
727,334	-0,00064
727,518	-0,00077
727,703	-0,00079
727,887	-0,00077
728,072	-0,00074
728,256	-0,00079
728,44	-0,00087
728,624	-0,00089
728,809	-0,00104
728,993	-0,001
729,177	-0,00108
729,361	-0,001
729,546	-0,00086
729,73	-0,0009
729,914	-0,00104
730,098	-0,00111
730,282	-0,00112
730,466	-0,00122
730,65	-0,00105
730,834	-0,00091
731,019	-0,00103
731,203	-0,00114
731,387	-0,00116
731,571	-0,00126
731,755	-0,00132
731,939	-0,00127
732,123	-0,00134
732,306	-0,00131
732,49	-0,00127
732,674	-0,00152
732,858	-0,00163
733,042	-0,00149
733,226	-0,0013
733,41	-0,00133
733,594	-0,00126
733,778	-0,00122
733,961	-0,00118
734,145	-0,00103
734,329	-0,00102
734,513	-0,00106
734,696	-0,001
734,88	-0,00092
735,064	-0,001
735,247	-0,0012
735,431	-0,00121
735,615	-0,00132
735,798	-0,00134
735,982	-0,00122
736,166	-0,00121
736,349	-0,00125
736,533	-0,00115
736,716	-0,00111
736,9	-0,00113
737,083	-0,0011
737,267	-0,00112
737,45	-0,00121
737,634	-0,00119
737,817	-0,00124
738,001	-0,00139
738,184	-0,00152
738,368	-0,00147
738,551	-0,00159
738,734	-0,00165
738,918	-0,00159
739,101	-0,00152
739,284	-0,00156
739,468	-0,00153
739,651	-0,00145
739,834	-0,00136
740,018	-0,00139
740,201	-0,00133
740,384	-0,00141
740,567	-0,00133
740,75	-0,00131
740,934	-0,00133
741,117	-0,00138
741,3	-0,00127
741,483	-0,00119
741,666	-0,00127
741,849	-0,00129
742,032	-0,00122
742,215	-0,00127
742,399	-0,00125
742,582	-0,00126
742,765	-0,00125
742,948	-0,00126
743,131	-0,00119
743,314	-0,00123
743,496	-0,00136
743,679	-0,00131
743,862	-0,00125
744,045	-0,00129
744,228	-0,00129
744,411	-0,00135
744,594	-0,0013
744,777	-0,0013
744,959	-0,00134
745,142	-0,00137
745,325	-0,00133
745,508	-0,00131
745,691	-0,00122
745,873	-0,00129
746,056	-0,00122
746,239	-0,00125
746,421	-0,00111
746,604	-0,00114
746,787	-0,00108
746,969	-0,00113
747,152	-0,00127
747,335	-0,00133
747,517	-0,00123
747,7	-0,00124
747,882	-0,00124
748,065	-0,00133
748,247	-0,00125
748,43	-0,00136
748,612	-0,00139
748,795	-0,0015
748,977	-0,00149
749,16	-0,00142
749,342	-0,00134
749,524	-0,00138
749,707	-0,00152
749,889	-0,00149
750,072	-0,00155
750,254	-0,00159
750,436	-0,0016
750,619	-0,00157
750,801	-0,00156
750,983	-0,00152
751,165	-0,00153
751,348	-0,00159
751,53	-0,00165
751,712	-0,00158
751,894	-0,00168
752,076	-0,00148
752,259	-0,00152
752,441	-0,00147
752,623	-0,0015
752,805	-0,00164
752,987	-0,00164
753,169	-0,00164
753,351	-0,00172
753,533	-0,00172
753,715	-0,00169
753,897	-0,00169
754,079	-0,0018
754,261	-0,00182
754,443	-0,00187
754,625	-0,00188
754,807	-0,00171
754,989	-0,00166
755,171	-0,0016
755,353	-0,00153
755,534	-0,00159
755,716	-0,00166
755,898	-0,00167
756,08	-0,00167
756,262	-0,00166
756,443	-0,0018
756,625	-0,00177
756,807	-0,00187
756,989	-0,00202
757,17	-0,00207
757,352	-0,00198
757,534	-0,00186
757,715	-0,00186
757,897	-0,00179
758,079	-0,00179
758,26	-0,00179
758,442	-0,00163
758,623	-0,00168
758,805	-0,00161
758,987	-0,00158
759,168	-0,00165
759,35	-0,00178
759,531	-0,00178
759,713	-0,00188
759,894	-0,00193
760,075	-0,002
760,257	-0,00206
760,438	-0,00209
760,62	-0,00222
760,801	-0,00225
760,982	-0,00228
761,164	-0,00233
761,345	-0,00224
761,526	-0,00221
761,708	-0,00217
761,889	-0,00216
762,07	-0,00214
762,251	-0,00199
762,433	-0,00196
762,614	-0,00182
762,795	-0,00185
762,976	-0,00175
763,157	-0,00161
763,338	-0,00176
763,52	-0,00191
763,701	-0,00189
763,882	-0,00191
764,063	-0,00187
764,244	-0,00189
764,425	-0,00196
764,606	-0,00204
764,787	-0,002
764,968	-0,00216
765,149	-0,00216
765,33	-0,00211
765,511	-0,00204
765,692	-0,00211
765,873	-0,00213
766,053	-0,00221
766,234	-0,00224
766,415	-0,00209
766,596	-0,00212
766,777	-0,00214
766,958	-0,00212
767,138	-0,00216
767,319	-0,0022
767,5	-0,0022
767,681	-0,00231
767,861	-0,00214
768,042	-0,00215
768,223	-0,0022
768,403	-0,00238
768,584	-0,00226
768,765	-0,00227
768,945	-0,00228
769,126	-0,00224
769,307	-0,00217
769,487	-0,00223
769,668	-0,00203
769,848	-0,00226
770,029	-0,00219
770,209	-0,00221
770,39	-0,00215
770,57	-0,00216
770,751	-0,00218
770,931	-0,00216
771,111	-0,00227
771,292	-0,0023
771,472	-0,00226
771,653	-0,00229
771,833	-0,00217
772,013	-0,00215
772,194	-0,00212
772,374	-0,00217
772,554	-0,00214
772,734	-0,00208
772,915	-0,00199
773,095	-0,00193
773,275	-0,00201
773,455	-0,00201
773,635	-0,00217
773,816	-0,0022
773,996	-0,00216
774,176	-0,00203
774,356	-0,00202
774,536	-0,00211
774,716	-0,00218
774,896	-0,00223
775,076	-0,00231
775,256	-0,00217
775,436	-0,00213
775,616	-0,00196
775,796	-0,00189
775,976	-0,00196
776,156	-0,0021
776,336	-0,00209
776,516	-0,00209
776,696	-0,00212
776,876	-0,0021
777,056	-0,00202
777,235	-0,00207
777,415	-0,002
777,595	-0,00219
777,775	-0,00226
777,955	-0,00231
778,134	-0,00238
778,314	-0,00229
778,494	-0,00227
778,674	-0,00218
778,853	-0,00226
779,033	-0,00229
779,213	-0,00227
779,392	-0,00237
779,572	-0,0023
779,751	-0,00239
779,931	-0,00244
780,111	-0,00239
780,29	-0,00256
780,47	-0,00258
780,649	-0,00269
780,829	-0,00266
781,008	-0,00261
781,188	-0,00267
781,367	-0,00257
781,546	-0,00248
781,726	-0,00243
781,905	-0,00239
782,085	-0,00234
782,264	-0,00233
782,443	-0,00226
782,623	-0,00214
782,802	-0,00215
782,981	-0,00212
783,161	-0,00209
783,34	-0,0021
783,519	-0,002
783,698	-0,00195
783,878	-0,00192
784,057	-0,00198
784,236	-0,00189
784,415	-0,00182
784,594	-0,00181
784,773	-0,00179
784,952	-0,00179
785,132	-0,00179
785,311	-0,00174
785,49	-0,002
785,669	-0,00194
785,848	-0,00195
786,027	-0,00194
786,206	-0,00202
786,385	-0,00214
786,564	-0,00217
786,743	-0,00215
786,922	-0,00213
787,1	-0,00215
787,279	-0,00231
787,458	-0,00214
787,637	-0,00215
787,816	-0,0021
787,995	-0,00221
788,174	-0,00211
788,352	-0,002
788,531	-0,002
788,71	-0,00197
788,889	-0,0021
789,067	-0,00214
789,246	-0,00216
789,425	-0,00217
789,603	-0,0023
789,782	-0,00233
789,961	-0,00221
790,139	-0,00219
790,318	-0,0023
790,496	-0,00246
790,675	-0,00248
790,853	-0,00243
791,032	-0,00244
791,211	-0,00227
791,389	-0,00229
791,568	-0,00218
791,746	-0,00219
791,924	-0,00216
792,103	-0,00224
792,281	-0,00226
792,46	-0,00215
792,638	-0,00219
792,816	-0,00217
792,995	-0,00206
793,173	-0,00222
793,351	-0,00228
793,53	-0,00227
793,708	-0,00222
793,886	-0,00224
794,064	-0,00223
794,243	-0,00211
794,421	-0,0021
794,599	-0,00207
794,777	-0,00215
794,955	-0,00231
795,133	-0,00234
795,312	-0,00233
795,49	-0,00237
795,668	-0,00247
795,846	-0,00247
796,024	-0,00228
796,202	-0,0025
796,38	-0,00254
796,558	-0,00261
796,736	-0,00265
796,914	-0,00256
797,092	-0,00263
797,27	-0,00267
797,448	-0,00261
797,626	-0,00265
797,803	-0,00278
797,981	-0,00306
798,159	-0,00296
798,337	-0,00287
798,515	-0,00275
798,693	-0,00272
798,87	-0,0029
799,048	-0,00281
799,226	-0,00276
799,404	-0,00289
799,581	-0,00284
799,759	-0,00272
799,937	-0,00272
800,114	-0,00273
800,292	-0,00285
800,469	-0,00279
800,647	-0,00284
800,825	-0,00264
801,002	-0,00272
801,18	-0,00281
801,357	-0,00284
801,535	-0,00287
801,712	-0,00304
801,89	-0,00306
802,067	-0,00312
802,245	-0,00307
802,422	-0,00327
802,6	-0,00323
802,777	-0,00324
802,954	-0,00327
803,132	-0,00322
803,309	-0,00323
803,486	-0,00321
803,664	-0,00306
803,841	-0,00281
804,018	-0,00274
804,195	-0,00275
804,373	-0,00281
804,55	-0,00269
804,727	-0,00277
804,904	-0,00264
805,081	-0,00256
805,259	-0,00255
805,436	-0,00263
805,613	-0,00272
805,79	-0,00286
805,967	-0,00283
806,144	-0,00288
806,321	-0,00277
806,498	-0,00283
806,675	-0,00267
806,852	-0,00282
807,029	-0,00282
807,206	-0,00278
807,383	-0,00273
807,56	-0,00269
807,737	-0,00277
807,914	-0,00289
808,091	-0,00285
808,268	-0,00281
808,444	-0,00287
808,621	-0,00309
808,798	-0,00306
808,975	-0,00309
809,152	-0,0032
809,328	-0,00313
809,505	-0,00316
809,682	-0,00313
809,858	-0,00311
810,035	-0,00321
810,212	-0,00332
810,388	-0,00326
810,565	-0,00297
810,742	-0,00303
810,918	-0,00305
811,095	-0,00296
811,271	-0,00298
811,448	-0,00292
811,625	-0,00287
811,801	-0,0029
811,978	-0,0028
812,154	-0,00291
812,33	-0,00289
812,507	-0,00309
812,683	-0,00296
812,86	-0,00296
813,036	-0,00288
813,212	-0,00281
813,389	-0,00291
813,565	-0,00295
813,741	-0,00276
813,918	-0,0028
814,094	-0,00252
814,27	-0,00256
814,447	-0,00247
814,623	-0,00245
814,799	-0,00242
814,975	-0,00251
815,151	-0,0026
815,328	-0,0026
815,504	-0,00265
815,68	-0,00283
815,856	-0,00273
816,032	-0,00267
816,208	-0,00272
816,384	-0,00288
816,56	-0,003
816,736	-0,00315
816,912	-0,00308
817,088	-0,00299
817,264	-0,0028
817,44	-0,00282
817,616	-0,0028
817,792	-0,00289
817,968	-0,00305
818,144	-0,00287
818,32	-0,00287
818,495	-0,00276
818,671	-0,00262
818,847	-0,00282
819,023	-0,00283
819,199	-0,00286
819,374	-0,0027
819,55	-0,0027
819,726	-0,0026
819,902	-0,00244
820,077	-0,00268
820,253	-0,00265
820,429	-0,00269
820,604	-0,00248
820,78	-0,0024
820,956	-0,00246
821,131	-0,00262
821,307	-0,00264
821,482	-0,00271
821,658	-0,00272
821,833	-0,00309
822,009	-0,00303
822,184	-0,00301
822,36	-0,00295
822,535	-0,00323
822,711	-0,00309
822,886	-0,00316
823,061	-0,00316
823,237	-0,00315
823,412	-0,00302
823,587	-0,00306
823,763	-0,003
823,938	-0,00301
824,113	-0,00307
824,289	-0,0032
824,464	-0,00313
824,639	-0,00331
824,814	-0,00327
824,99	-0,00319
825,165	-0,0034
825,34	-0,00339
825,515	-0,00336
825,69	-0,00331
825,865	-0,0033
826,04	-0,00321
826,215	-0,00298
826,39	-0,00282
826,566	-0,00265
826,741	-0,00259
826,916	-0,00255
827,091	-0,0024
827,265	-0,00235
827,44	-0,00228
827,615	-0,00216
827,79	-0,00209
827,965	-0,00207
828,14	-0,00206
828,315	-0,00231
828,49	-0,00233
828,665	-0,00232
828,839	-0,00244
829,014	-0,00246
829,189	-0,00261
829,364	-0,00258
829,538	-0,00259
829,713	-0,00268
829,888	-0,00271
830,063	-0,00282
830,237	-0,0028
830,412	-0,00276
830,587	-0,00277
830,761	-0,00268
830,936	-0,00275
831,11	-0,00273
831,285	-0,00296
831,459	-0,0029
831,634	-0,003
831,809	-0,00301
831,983	-0,00311
832,157	-0,00311
832,332	-0,00324
832,506	-0,00327
832,681	-0,00327
832,855	-0,00343
833,03	-0,00336
833,204	-0,00347
833,378	-0,00369
833,553	-0,00367
833,727	-0,00366
833,901	-0,00351
834,076	-0,00334
834,25	-0,00334
834,424	-0,00319
834,598	-0,00321
834,773	-0,00292
834,947	-0,00292
835,121	-0,00272
835,295	-0,00253
835,469	-0,00246
835,643	-0,00249
835,817	-0,00257
835,991	-0,00292
836,166	-0,00292
836,34	-0,003
836,514	-0,00303
836,688	-0,00305
836,862	-0,00293
837,036	-0,00315
837,21	-0,00304
837,384	-0,0029
837,557	-0,00273
837,731	-0,00278
837,905	-0,0025
838,079	-0,0026
838,253	-0,00284
838,427	-0,00282
838,601	-0,00299
838,774	-0,00317
838,948	-0,00305
839,122	-0,00317
839,296	-0,0032
839,469	-0,00321
839,643	-0,00328
839,817	-0,00356
839,991	-0,0037
840,164	-0,00341
840,338	-0,00358
840,512	-0,00336
840,685	-0,00332
840,859	-0,00332
841,032	-0,00332
841,206	-0,00323
841,379	-0,0033
841,553	-0,00309
841,726	-0,00279
841,9	-0,00232
842,073	-0,00234
842,247	-0,00208
842,42	-0,00226
842,594	-0,00211
842,767	-0,00216
842,94	-0,00211
843,114	-0,00203
843,287	-0,00211
843,46	-0,00218
843,634	-0,00232
843,807	-0,00237
843,98	-0,00252
844,154	-0,00256
844,327	-0,00253
844,5	-0,00258
844,673	-0,00228
844,846	-0,00233
845,02	-0,00253
845,193	-0,0026
845,366	-0,00265
845,539	-0,00265
845,712	-0,00273
845,885	-0,00285
846,058	-0,00288
846,231	-0,00298
846,404	-0,00308
846,577	-0,00316
846,75	-0,00311
846,923	-0,00307
847,096	-0,00302
847,269	-0,00301
847,442	-0,00298
847,615	-0,00299
847,788	-0,00302
847,961	-0,00326
848,133	-0,00304
848,306	-0,00286
848,479	-0,00286
848,652	-0,00283
848,825	-0,00301
848,997	-0,00289
849,17	-0,00297
849,343	-0,00303
849,515	-0,00312
849,688	-0,00309
849,861	-0,00277
850,033	-0,00293
850,206	-0,00313
850,379	-0,00323
850,551	-0,00334
850,724	-0,00297
850,896	-0,0031
851,069	-0,00287
851,241	-0,00281
851,414	-0,00268
851,586	-0,00267
851,759	-0,00281
851,931	-0,00282
852,104	-0,00282
852,276	-0,00274
852,449	-0,00274
852,621	-0,00296
852,793	-0,00308
852,966	-0,00321
853,138	-0,00305
853,31	-0,00317
853,483	-0,00326
853,655	-0,00335
853,827	-0,0034
853,999	-0,00342
854,172	-0,00353
854,344	-0,00347
854,516	-0,00349
854,688	-0,00336
854,86	-0,00346
855,032	-0,0037
855,204	-0,00348
855,377	-0,00339
855,549	-0,00339
855,721	-0,00336
855,893	-0,0034
856,065	-0,00339
856,237	-0,00349
856,409	-0,00353
856,581	-0,00352
856,753	-0,00306
856,924	-0,00293
857,096	-0,00301
857,268	-0,00268
857,44	-0,00243
857,612	-0,00221
857,784	-0,00231
857,956	-0,00235
858,127	-0,00237
858,299	-0,00242
858,471	-0,00237
858,643	-0,00263
858,814	-0,00266
858,986	-0,00274
859,158	-0,00304
859,33	-0,00292
859,501	-0,00337
859,673	-0,00336
859,844	-0,0031
860,016	-0,00311
860,188	-0,00303
860,359	-0,0031
860,531	-0,00317
860,702	-0,00329
860,874	-0,00357
861,045	-0,00366
861,217	-0,00409
861,388	-0,00375
861,56	-0,00358
861,731	-0,00386
861,902	-0,00392
862,074	-0,00371
862,245	-0,00372
862,417	-0,0039
862,588	-0,00375
862,759	-0,00366
862,931	-0,0037
863,102	-0,00355
863,273	-0,00364
863,444	-0,00376
863,616	-0,00367
863,787	-0,00379
863,958	-0,00418
864,129	-0,00416
864,3	-0,0041
864,471	-0,00436
864,642	-0,00415
864,814	-0,00414
864,985	-0,00408
865,156	-0,00435
865,327	-0,00446
865,498	-0,00438
865,669	-0,00426
865,84	-0,00402
866,011	-0,00407
866,182	-0,00409
866,353	-0,00401
866,523	-0,00415
866,694	-0,00379
866,865	-0,00382
867,036	-0,00353
867,207	-0,0034
867,378	-0,00387
867,549	-0,00376
867,719	-0,00406
867,89	-0,00422
868,061	-0,00408
868,232	-0,00415
868,402	-0,00434
868,573	-0,00462
868,744	-0,0046
868,914	-0,00467
869,085	-0,0049
869,256	-0,00483
869,426	-0,00511
869,597	-0,0048
869,767	-0,0045
869,938	-0,00457
870,108	-0,00423
870,279	-0,00402
870,449	-0,00425
870,62	-0,00446
870,79	-0,00446
870,961	-0,00399
871,131	-0,0039
871,302	-0,00333
871,472	-0,00348
871,642	-0,00342
871,813	-0,00357
871,983	-0,00394
872,153	-0,0041
872,324	-0,00397
872,494	-0,00387
872,664	-0,004
872,835	-0,00385
873,005	-0,00329
873,175	-0,00368
873,345	-0,00353
873,515	-0,00382
873,685	-0,0038
873,856	-0,00333
874,026	-0,00323
874,196	-0,00282
874,366	-0,00284
874,536	-0,00275
874,706	-0,00308
874,876	-0,00366
875,046	-0,00378
875,216	-0,00402
875,386	-0,00371
875,556	-0,00328
875,726	-0,00372
875,896	-0,00381
876,066	-0,00399
876,236	-0,00399
876,405	-0,00402
876,575	-0,00387
876,745	-0,00383
876,915	-0,00336
877,085	-0,00315
877,254	-0,00338
877,424	-0,00342
877,594	-0,00332
877,764	-0,00321
877,933	-0,00348
878,103	-0,00355
878,273	-0,00329
878,442	-0,0036
878,612	-0,00352
878,781	-0,0038
878,951	-0,00384
879,121	-0,00405
879,29	-0,00447
879,46	-0,00427
879,629	-0,00399
879,799	-0,00365
879,968	-0,00343
880,138	-0,00344
880,307	-0,00319
880,476	-0,00315
880,646	-0,00327
880,815	-0,00357
880,985	-0,00331
881,154	-0,00323
881,323	-0,00343
881,493	-0,00361
881,662	-0,00401
881,831	-0,00394
882	-0,00426
882,17	-0,00411
882,339	-0,00434
882,508	-0,00435
882,677	-0,00378
882,846	-0,00356
883,016	-0,00361
883,185	-0,00363
883,354	-0,00366
883,523	-0,00348
883,692	-0,00341
883,861	-0,00323
884,03	-0,00383
884,199	-0,00359
884,368	-0,00323
884,537	-0,00377
884,706	-0,00424
884,875	-0,00377
885,044	-0,00354
885,213	-0,0034
885,382	-0,0036
885,55	-0,00399
885,719	-0,00411
885,888	-0,00378
886,057	-0,00383
886,226	-0,00424
886,395	-0,00418
886,563	-0,00406
886,732	-0,0043
886,901	-0,00471
887,069	-0,00494
887,238	-0,00474
887,407	-0,00463
887,575	-0,00464
887,744	-0,00449
887,913	-0,00487
888,081	-0,00477
888,25	-0,00443
888,418	-0,0044
888,587	-0,00472
888,755	-0,00453
888,924	-0,00447
889,092	-0,0042
889,261	-0,00431
889,429	-0,00408
889,598	-0,00409
889,766	-0,00362
889,935	-0,00343
890,103	-0,00382
890,271	-0,00375
890,44	-0,00372
890,608	-0,00403
890,776	-0,00409
890,944	-0,00456
891,113	-0,00413
891,281	-0,00455
891,449	-0,0049
891,617	-0,0052
891,786	-0,0054
891,954	-0,00499
892,122	-0,00467
892,29	-0,00444
892,458	-0,00413
892,626	-0,00406
892,794	-0,00383
892,962	-0,00403
893,13	-0,00364
893,298	-0,00321
893,466	-0,00271
