Channel              :,CH1
Frequency            :,1.771kHz
Period               :,0.565ms
PK-PK                :,109.4mV
Probe attenuation    :,1X
Voltage per ADC value:,0.122070mV
Time interval        :,2.00000us

index,CH1_Voltage(mV)
1,42.968750
2,42.968750
3,42.968750
4,42.968750
5,42.968750
6,42.968750
7,42.968750
8,42.968750
9,42.968750
10,42.968750
11,42.968750
12,41.015625
13,41.015625
14,41.015625
15,41.015625
16,41.015625
17,41.015625
18,39.062500
19,39.062500
20,39.062500
21,39.062500
22,39.062500
23,37.109375
24,37.109375
25,37.109375
26,35.156250
27,35.156250
28,35.156250
29,35.156250
30,33.203125
31,33.203125
32,31.250000
33,31.250000
34,31.250000
35,29.296875
36,29.296875
37,29.296875
38,27.343750
39,27.343750
40,25.390625
41,25.390625
42,23.437500
43,23.437500
44,23.437500
45,21.484375
46,19.531250
47,19.531250
48,17.578125
49,17.578125
50,15.625000
51,15.625000
52,13.671875
53,13.671875
54,11.718750
55,11.718750
56,9.765625
57,9.765625
58,7.812500
59,5.859375
60,5.859375
61,3.906250
62,3.906250
63,1.953125
64,1.953125
65,0.000000
66,-1.953125
67,-1.953125
68,-3.906250
69,-3.906250
70,-5.859375
71,-7.812500
72,-7.812500
73,-9.765625
74,-9.765625
75,-11.718750
76,-13.671875
77,-13.671875
78,-13.671875
79,-15.625000
80,-17.578125
81,-19.531250
82,-19.531250
83,-21.484375
84,-21.484375
85,-23.437500
86,-23.437500
87,-25.390625
88,-25.390625
89,-27.343750
90,-29.296875
91,-29.296875
92,-31.250000
93,-31.250000
94,-33.203125
95,-33.203125
96,-33.203125
97,-35.156250
98,-37.109375
99,-37.109375
100,-39.062500
101,-39.062500
102,-41.015625
103,-41.015625
104,-41.015625
105,-42.968750
106,-44.921875
107,-44.921875
108,-46.875000
109,-46.875000
110,-46.875000
111,-46.875000
112,-48.828125
113,-50.781250
114,-50.781250
115,-50.781250
116,-52.734375
117,-52.734375
118,-52.734375
119,-52.734375
120,-54.687500
121,-54.687500
122,-56.640625
123,-56.640625
124,-56.640625
125,-56.640625
126,-56.640625
127,-56.640625
128,-58.593750
129,-58.593750
130,-58.593750
131,-58.593750
132,-58.593750
133,-58.593750
134,-58.593750
135,-58.593750
136,-60.546875
137,-60.546875
138,-60.546875
139,-60.546875
140,-60.546875
141,-60.546875
142,-60.546875
143,-60.546875
144,-60.546875
145,-60.546875
146,-60.546875
147,-60.546875
148,-60.546875
149,-58.593750
150,-58.593750
151,-58.593750
152,-58.593750
153,-58.593750
154,-56.640625
155,-58.593750
156,-56.640625
157,-56.640625
158,-56.640625
159,-54.687500
160,-54.687500
161,-54.687500
162,-54.687500
163,-54.687500
164,-52.734375
165,-52.734375
166,-52.734375
167,-50.781250
168,-50.781250
169,-48.828125
170,-48.828125
171,-46.875000
172,-48.828125
173,-46.875000
174,-46.875000
175,-44.921875
176,-44.921875
177,-42.968750
178,-42.968750
179,-41.015625
180,-41.015625
181,-39.062500
182,-39.062500
183,-37.109375
184,-37.109375
185,-35.156250
186,-35.156250
187,-33.203125
188,-33.203125
189,-31.250000
190,-31.250000
191,-29.296875
192,-29.296875
193,-27.343750
194,-25.390625
195,-25.390625
196,-25.390625
197,-23.437500
198,-21.484375
199,-19.531250
200,-19.531250
201,-19.531250
202,-17.578125
203,-15.625000
204,-15.625000
205,-13.671875
206,-11.718750
207,-11.718750
208,-9.765625
209,-9.765625
210,-7.812500
211,-5.859375
212,-5.859375
213,-5.859375
214,-3.906250
215,-1.953125
216,-1.953125
217,0.000000
218,1.953125
219,1.953125
220,3.906250
221,3.906250
222,5.859375
223,5.859375
224,7.812500
225,9.765625
226,9.765625
227,11.718750
228,11.718750
229,13.671875
230,13.671875
231,15.625000
232,15.625000
233,17.578125
234,19.531250
235,19.531250
236,19.531250
237,21.484375
238,21.484375
239,21.484375
240,23.437500
241,23.437500
242,25.390625
243,27.343750
244,27.343750
245,27.343750
246,29.296875
247,29.296875
248,31.250000
249,31.250000
250,31.250000
251,33.203125
252,33.203125
253,33.203125
254,35.156250
255,35.156250
256,35.156250
257,37.109375
258,37.109375
259,37.109375
260,37.109375
261,39.062500
262,39.062500
263,39.062500
264,39.062500
265,41.015625
266,41.015625
267,41.015625
268,41.015625
269,41.015625
270,42.968750
271,41.015625
272,42.968750
273,42.968750
274,42.968750
275,42.968750
276,42.968750
277,42.968750
278,42.968750
279,42.968750
280,42.968750
281,42.968750
282,42.968750
283,44.921875
284,42.968750
285,42.968750
286,42.968750
287,42.968750
288,42.968750
289,42.968750
290,42.968750
291,42.968750
292,41.015625
293,42.968750
294,41.015625
295,41.015625
296,41.015625
297,41.015625
298,41.015625
299,41.015625
300,39.062500
301,39.062500
302,39.062500
303,39.062500
304,37.109375
305,37.109375
306,37.109375
307,37.109375
308,35.156250
309,35.156250
310,35.156250
311,35.156250
312,33.203125
313,33.203125
314,31.250000
315,31.250000
316,29.296875
317,29.296875
318,29.296875
319,27.343750
320,27.343750
321,27.343750
322,25.390625
323,25.390625
324,23.437500
325,23.437500
326,21.484375
327,21.484375
328,19.531250
329,19.531250
330,17.578125
331,17.578125
332,15.625000
333,15.625000
334,15.625000
335,13.671875
336,11.718750
337,11.718750
338,9.765625
339,9.765625
340,7.812500
341,7.812500
342,5.859375
343,5.859375
344,3.906250
345,3.906250
346,1.953125
347,0.000000
348,-1.953125
349,-1.953125
350,-3.906250
351,-3.906250
352,-3.906250
353,-5.859375
354,-7.812500
355,-9.765625
356,-9.765625
357,-9.765625
358,-11.718750
359,-13.671875
360,-15.625000
361,-15.625000
362,-17.578125
363,-17.578125
364,-19.531250
365,-21.484375
366,-21.484375
367,-23.437500
368,-23.437500
369,-25.390625
370,-25.390625
371,-27.343750
372,-29.296875
373,-29.296875
374,-31.250000
375,-31.250000
376,-33.203125
377,-33.203125
378,-35.156250
379,-35.156250
380,-37.109375
381,-37.109375
382,-39.062500
383,-39.062500
384,-41.015625
385,-41.015625
386,-42.968750
387,-42.968750
388,-42.968750
389,-44.921875
390,-44.921875
391,-46.875000
392,-46.875000
393,-48.828125
394,-48.828125
395,-48.828125
396,-50.781250
397,-50.781250
398,-52.734375
399,-52.734375
400,-52.734375
401,-52.734375
402,-54.687500
403,-54.687500
404,-54.687500
405,-56.640625
406,-56.640625
407,-56.640625
408,-56.640625
409,-56.640625
410,-58.593750
411,-58.593750
412,-58.593750
413,-58.593750
414,-58.593750
415,-58.593750
416,-58.593750
417,-58.593750
418,-60.546875
419,-60.546875
420,-60.546875
421,-60.546875
422,-60.546875
423,-60.546875
424,-60.546875
425,-60.546875
426,-60.546875
427,-60.546875
428,-58.593750
429,-60.546875
430,-60.546875
431,-58.593750
432,-58.593750
433,-58.593750
434,-58.593750
435,-58.593750
436,-58.593750
437,-58.593750
438,-56.640625
439,-56.640625
440,-56.640625
441,-56.640625
442,-54.687500
443,-54.687500
444,-54.687500
445,-54.687500
446,-54.687500
447,-52.734375
448,-52.734375
449,-50.781250
450,-50.781250
451,-50.781250
452,-48.828125
453,-48.828125
454,-48.828125
455,-46.875000
456,-46.875000
457,-44.921875
458,-44.921875
459,-42.968750
460,-42.968750
461,-42.968750
462,-41.015625
463,-41.015625
464,-39.062500
465,-39.062500
466,-37.109375
467,-37.109375
468,-35.156250
469,-33.203125
470,-33.203125
471,-33.203125
472,-31.250000
473,-29.296875
474,-29.296875
475,-27.343750
476,-27.343750
477,-25.390625
478,-23.437500
479,-23.437500
480,-21.484375
481,-21.484375
482,-19.531250
483,-19.531250
484,-17.578125
485,-15.625000
486,-15.625000
487,-15.625000
488,-13.671875
489,-11.718750
490,-11.718750
491,-9.765625
492,-7.812500
493,-7.812500
494,-5.859375
495,-5.859375
496,-3.906250
497,-1.953125
498,-1.953125
499,0.000000
500,1.953125
501,1.953125
502,1.953125
503,3.906250
504,5.859375
505,5.859375
506,7.812500
507,7.812500
508,11.718750
509,9.765625
510,11.718750
511,11.718750
512,13.671875
513,15.625000
514,15.625000
515,15.625000
516,17.578125
517,17.578125
518,19.531250
519,19.531250
520,21.484375
521,21.484375
522,23.437500
523,23.437500
524,25.390625
525,25.390625
526,27.343750
527,27.343750
528,27.343750
529,29.296875
530,29.296875
531,31.250000
532,31.250000
533,33.203125
534,33.203125
535,33.203125
536,33.203125
537,35.156250
538,35.156250
539,37.109375
540,37.109375
541,37.109375
542,37.109375
543,39.062500
544,39.062500
545,39.062500
546,39.062500
547,41.015625
548,41.015625
549,41.015625
550,41.015625
551,41.015625
552,41.015625
553,42.968750
554,42.968750
555,42.968750
556,42.968750
557,42.968750
558,42.968750
559,42.968750
560,44.921875
561,42.968750
562,42.968750
563,42.968750
564,42.968750
565,44.921875
566,42.968750
567,44.921875
568,42.968750
569,42.968750
570,42.968750
571,42.968750
572,42.968750
573,42.968750
574,42.968750
575,41.015625
576,42.968750
577,41.015625
578,41.015625
579,41.015625
580,41.015625
581,39.062500
582,39.062500
583,39.062500
584,39.062500
585,39.062500
586,39.062500
587,37.109375
588,37.109375
589,37.109375
590,37.109375
591,35.156250
592,35.156250
593,33.203125
594,33.203125
595,33.203125
596,33.203125
597,31.250000
598,31.250000
599,31.250000
600,29.296875
601,29.296875
602,27.343750
603,27.343750
604,27.343750
605,25.390625
606,25.390625
607,23.437500
608,23.437500
609,21.484375
610,21.484375
611,19.531250
612,19.531250
613,17.578125
614,17.578125
615,15.625000
616,15.625000
617,13.671875
618,13.671875
619,11.718750
620,11.718750
621,9.765625
622,9.765625
623,7.812500
624,5.859375
625,5.859375
626,3.906250
627,3.906250
628,1.953125
629,0.000000
630,0.000000
631,-1.953125
632,-3.906250
633,-3.906250
634,-3.906250
635,-5.859375
636,-7.812500
637,-7.812500
638,-9.765625
639,-11.718750
640,-11.718750
641,-13.671875
642,-13.671875
643,-15.625000
644,-17.578125
645,-17.578125
646,-19.531250
647,-19.531250
648,-21.484375
649,-23.437500
650,-23.437500
651,-25.390625
652,-25.390625
653,-27.343750
654,-27.343750
655,-29.296875
656,-29.296875
657,-31.250000
658,-33.203125
659,-33.203125
660,-33.203125
661,-35.156250
662,-35.156250
663,-37.109375
664,-39.062500
665,-39.062500
666,-41.015625
667,-41.015625
668,-41.015625
669,-42.968750
670,-42.968750
671,-44.921875
672,-44.921875
673,-46.875000
674,-46.875000
675,-46.875000
676,-48.828125
677,-48.828125
678,-50.781250
679,-50.781250
680,-50.781250
681,-52.734375
682,-52.734375
683,-52.734375
684,-54.687500
685,-54.687500
686,-54.687500
687,-54.687500
688,-54.687500
689,-56.640625
690,-56.640625
691,-58.593750
692,-58.593750
693,-58.593750
694,-58.593750
695,-58.593750
696,-58.593750
697,-58.593750
698,-60.546875
699,-60.546875
700,-60.546875
701,-60.546875
702,-60.546875
703,-58.593750
704,-60.546875
705,-60.546875
706,-60.546875
707,-60.546875
708,-60.546875
709,-60.546875
710,-60.546875
711,-60.546875
712,-60.546875
713,-60.546875
714,-58.593750
715,-58.593750
716,-58.593750
717,-58.593750
718,-58.593750
719,-58.593750
720,-58.593750
721,-56.640625
722,-56.640625
723,-56.640625
724,-56.640625
725,-54.687500
726,-54.687500
727,-54.687500
728,-52.734375
729,-52.734375
730,-52.734375
731,-50.781250
732,-50.781250
733,-50.781250
734,-50.781250
735,-48.828125
736,-48.828125
737,-46.875000
738,-46.875000
739,-44.921875
740,-44.921875
741,-44.921875
742,-42.968750
743,-42.968750
744,-41.015625
745,-41.015625
746,-39.062500
747,-39.062500
748,-37.109375
749,-35.156250
750,-35.156250
751,-35.156250
752,-33.203125
753,-33.203125
754,-31.250000
755,-31.250000
756,-29.296875
757,-29.296875
758,-27.343750
759,-25.390625
760,-25.390625
761,-23.437500
762,-23.437500
763,-21.484375
764,-21.484375
765,-19.531250
766,-17.578125
767,-17.578125
768,-15.625000
769,-15.625000
770,-13.671875
771,-13.671875
772,-11.718750
773,-9.765625
774,-9.765625
775,-7.812500
776,-7.812500
777,-5.859375
778,-3.906250
779,-3.906250
780,-1.953125
781,-1.953125
782,0.000000
783,1.953125
784,1.953125
785,3.906250
786,5.859375
787,5.859375
788,7.812500
789,7.812500
790,7.812500
791,9.765625
792,11.718750
793,11.718750
794,13.671875
795,13.671875
796,15.625000
797,17.578125
798,17.578125
799,19.531250
800,19.531250
801,19.531250
802,21.484375
803,23.437500
804,23.437500
805,23.437500
806,25.390625
807,25.390625
808,25.390625
809,27.343750
810,27.343750
811,29.296875
812,29.296875
813,31.250000
814,31.250000
815,31.250000
816,31.250000
817,33.203125
818,33.203125
819,35.156250
820,35.156250
821,35.156250
822,37.109375
823,37.109375
824,37.109375
825,37.109375
826,39.062500
827,39.062500
828,39.062500
829,39.062500
830,41.015625
831,41.015625
832,41.015625
833,41.015625
834,41.015625
835,41.015625
836,42.968750
837,42.968750
838,42.968750
839,42.968750
840,42.968750
841,42.968750
842,42.968750
843,42.968750
844,42.968750
845,42.968750
846,42.968750
847,42.968750
848,42.968750
849,42.968750
850,42.968750
851,42.968750
852,42.968750
853,42.968750
854,42.968750
855,42.968750
856,42.968750
857,42.968750
858,41.015625
859,41.015625
860,41.015625
861,41.015625
862,41.015625
863,41.015625
864,41.015625
865,41.015625
866,39.062500
867,39.062500
868,39.062500
869,39.062500
870,37.109375
871,37.109375
872,37.109375
873,35.156250
874,35.156250
875,35.156250
876,33.203125
877,35.156250
878,33.203125
879,31.250000
880,31.250000
881,31.250000
882,29.296875
883,29.296875
884,27.343750
885,27.343750
886,27.343750
887,25.390625
888,25.390625
889,23.437500
890,23.437500
891,21.484375
892,21.484375
893,19.531250
894,19.531250
895,17.578125
896,17.578125
897,17.578125
898,13.671875
899,13.671875
900,11.718750
901,11.718750
902,9.765625
903,9.765625
904,9.765625
905,7.812500
906,5.859375
907,5.859375
908,3.906250
909,3.906250
910,1.953125
911,0.000000
912,0.000000
913,-1.953125
914,-1.953125
915,-3.906250
916,-5.859375
917,-5.859375
918,-7.812500
919,-7.812500
920,-9.765625
921,-11.718750
922,-11.718750
923,-11.718750
924,-13.671875
925,-15.625000
926,-15.625000
927,-17.578125
928,-19.531250
929,-19.531250
930,-21.484375
931,-21.484375
932,-23.437500
933,-23.437500
934,-25.390625
935,-25.390625
936,-27.343750
937,-27.343750
938,-29.296875
939,-31.250000
940,-31.250000
941,-33.203125
942,-33.203125
943,-35.156250
944,-35.156250
945,-37.109375
946,-37.109375
947,-39.062500
948,-39.062500
949,-41.015625
950,-42.968750
951,-42.968750
952,-42.968750
953,-44.921875
954,-44.921875
955,-46.875000
956,-46.875000
957,-46.875000
958,-48.828125
959,-48.828125
960,-48.828125
961,-50.781250
962,-50.781250
963,-52.734375
964,-52.734375
965,-52.734375
966,-54.687500
967,-54.687500
968,-54.687500
969,-54.687500
970,-56.640625
971,-56.640625
972,-56.640625
973,-56.640625
974,-56.640625
975,-58.593750
976,-58.593750
977,-58.593750
978,-58.593750
979,-58.593750
980,-58.593750
981,-58.593750
982,-58.593750
983,-60.546875
984,-60.546875
985,-60.546875
986,-60.546875
987,-60.546875
988,-60.546875
989,-60.546875
990,-60.546875
991,-60.546875
992,-60.546875
993,-58.593750
994,-60.546875
995,-60.546875
996,-58.593750
997,-58.593750
998,-58.593750
999,-58.593750
1000,-58.593750
1001,-58.593750
1002,-56.640625
1003,-56.640625
1004,-56.640625
1005,-56.640625
1006,-56.640625
1007,-54.687500
1008,-54.687500
1009,-54.687500
1010,-54.687500
1011,-52.734375
1012,-52.734375
1013,-50.781250
1014,-50.781250
1015,-50.781250
1016,-48.828125
1017,-50.781250
1018,-48.828125
1019,-48.828125
1020,-46.875000
1021,-46.875000
1022,-44.921875
1023,-44.921875
1024,-42.968750
1025,-42.968750
1026,-41.015625
1027,-41.015625
1028,-39.062500
1029,-39.062500
1030,-37.109375
1031,-37.109375
1032,-37.109375
1033,-35.156250
1034,-33.203125
1035,-33.203125
1036,-31.250000
1037,-31.250000
1038,-29.296875
1039,-29.296875
1040,-27.343750
1041,-27.343750
1042,-25.390625
1043,-25.390625
1044,-23.437500
1045,-21.484375
1046,-21.484375
1047,-19.531250
1048,-19.531250
1049,-17.578125
1050,-17.578125
1051,-13.671875
1052,-13.671875
1053,-13.671875
1054,-11.718750
1055,-11.718750
1056,-7.812500
1057,-7.812500
1058,-5.859375
1059,-5.859375
1060,-3.906250
1061,-3.906250
1062,-1.953125
1063,-1.953125
1064,0.000000
1065,1.953125
1066,1.953125
1067,3.906250
1068,3.906250
1069,5.859375
1070,5.859375
1071,7.812500
1072,9.765625
1073,9.765625
1074,11.718750
1075,11.718750
1076,13.671875
1077,13.671875
1078,15.625000
1079,15.625000
1080,17.578125
1081,17.578125
1082,17.578125
1083,19.531250
1084,21.484375
1085,21.484375
1086,23.437500
1087,23.437500
1088,25.390625
1089,25.390625
1090,25.390625
1091,27.343750
1092,27.343750
1093,29.296875
1094,29.296875
1095,29.296875
1096,31.250000
1097,31.250000
1098,33.203125
1099,35.156250
1100,33.203125
1101,33.203125
1102,35.156250
1103,35.156250
1104,35.156250
1105,37.109375
1106,37.109375
1107,37.109375
1108,37.109375
1109,39.062500
1110,39.062500
1111,39.062500
1112,41.015625
1113,41.015625
1114,41.015625
1115,41.015625
1116,41.015625
1117,41.015625
1118,42.968750
1119,42.968750
1120,42.968750
1121,42.968750
1122,42.968750
1123,42.968750
1124,42.968750
1125,42.968750
1126,42.968750
1127,42.968750
1128,42.968750
1129,42.968750
1130,42.968750
1131,44.921875
1132,42.968750
1133,42.968750
1134,42.968750
1135,42.968750
1136,42.968750
1137,42.968750
1138,42.968750
1139,42.968750
1140,42.968750
1141,42.968750
1142,41.015625
1143,41.015625
1144,41.015625
1145,41.015625
1146,41.015625
1147,39.062500
1148,39.062500
1149,39.062500
1150,39.062500
1151,37.109375
1152,39.062500
1153,37.109375
1154,37.109375
1155,35.156250
1156,35.156250
1157,35.156250
1158,33.203125
1159,33.203125
1160,31.250000
1161,33.203125
1162,31.250000
1163,31.250000
1164,29.296875
1165,29.296875
1166,29.296875
1167,27.343750
1168,27.343750
1169,25.390625
1170,25.390625
1171,23.437500
1172,23.437500
1173,21.484375
1174,21.484375
1175,19.531250
1176,19.531250
1177,19.531250
1178,17.578125
1179,17.578125
1180,15.625000
1181,13.671875
1182,13.671875
1183,13.671875
1184,11.718750
1185,9.765625
1186,9.765625
1187,7.812500
1188,7.812500
1189,5.859375
1190,5.859375
1191,3.906250
1192,1.953125
1193,1.953125
1194,0.000000
1195,0.000000
1196,-1.953125
1197,-1.953125
1198,-3.906250
1199,-5.859375
1200,-5.859375
1201,-7.812500
1202,-7.812500
1203,-9.765625
1204,-9.765625
1205,-11.718750
1206,-13.671875
1207,-15.625000
1208,-15.625000
1209,-15.625000
1210,-17.578125
1211,-19.531250
1212,-19.531250
1213,-21.484375
1214,-21.484375
1215,-23.437500
1216,-25.390625
1217,-25.390625
1218,-27.343750
1219,-27.343750
1220,-29.296875
1221,-29.296875
1222,-31.250000
1223,-31.250000
1224,-33.203125
1225,-35.156250
1226,-35.156250
1227,-37.109375
1228,-37.109375
1229,-39.062500
1230,-39.062500
1231,-41.015625
1232,-41.015625
1233,-42.968750
1234,-44.921875
1235,-44.921875
1236,-44.921875
1237,-46.875000
1238,-46.875000
1239,-46.875000
1240,-48.828125
1241,-48.828125
1242,-48.828125
1243,-50.781250
1244,-50.781250
1245,-50.781250
1246,-52.734375
1247,-52.734375
1248,-52.734375
1249,-54.687500
1250,-54.687500
1251,-54.687500
1252,-54.687500
1253,-56.640625
1254,-56.640625
1255,-56.640625
1256,-56.640625
1257,-58.593750
1258,-58.593750
1259,-58.593750
1260,-58.593750
1261,-58.593750
1262,-58.593750
1263,-58.593750
1264,-60.546875
1265,-58.593750
1266,-60.546875
1267,-60.546875
1268,-60.546875
1269,-60.546875
1270,-60.546875
1271,-60.546875
1272,-60.546875
1273,-60.546875
1274,-60.546875
1275,-60.546875
1276,-60.546875
1277,-58.593750
1278,-60.546875
1279,-60.546875
1280,-58.593750
1281,-58.593750
1282,-58.593750
1283,-58.593750
1284,-58.593750
1285,-56.640625
1286,-54.687500
1287,-56.640625
1288,-56.640625
1289,-54.687500
1290,-54.687500
1291,-54.687500
1292,-54.687500
1293,-54.687500
1294,-52.734375
1295,-52.734375
1296,-52.734375
1297,-50.781250
1298,-50.781250
1299,-48.828125
1300,-48.828125
1301,-46.875000
1302,-46.875000
1303,-46.875000
1304,-44.921875
1305,-44.921875
1306,-44.921875
1307,-42.968750
1308,-42.968750
1309,-41.015625
1310,-41.015625
1311,-39.062500
1312,-37.109375
1313,-37.109375
1314,-37.109375
1315,-35.156250
1316,-35.156250
1317,-33.203125
1318,-33.203125
1319,-31.250000
1320,-29.296875
1321,-29.296875
1322,-27.343750
1323,-27.343750
1324,-25.390625
1325,-25.390625
1326,-23.437500
1327,-21.484375
1328,-21.484375
1329,-19.531250
1330,-19.531250
1331,-17.578125
1332,-15.625000
1333,-15.625000
1334,-13.671875
1335,-13.671875
1336,-11.718750
1337,-11.718750
1338,-9.765625
1339,-7.812500
1340,-7.812500
1341,-5.859375
1342,-3.906250
1343,-3.906250
1344,-1.953125
1345,-1.953125
1346,0.000000
1347,0.000000
1348,1.953125
1349,1.953125
1350,3.906250
1351,3.906250
1352,5.859375
1353,7.812500
1354,7.812500
1355,9.765625
1356,9.765625
1357,11.718750
1358,11.718750
1359,13.671875
1360,13.671875
1361,15.625000
1362,17.578125
1363,17.578125
1364,17.578125
1365,19.531250
1366,21.484375
1367,21.484375
1368,23.437500
1369,23.437500
1370,23.437500
1371,25.390625
1372,25.390625
1373,27.343750
1374,27.343750
1375,27.343750
1376,29.296875
1377,29.296875
1378,29.296875
1379,31.250000
1380,33.203125
1381,33.203125
1382,33.203125
1383,33.203125
1384,35.156250
1385,35.156250
1386,35.156250
1387,37.109375
1388,37.109375
1389,37.109375
1390,39.062500
1391,39.062500
1392,39.062500
1393,39.062500
1394,41.015625
1395,41.015625
1396,41.015625
1397,41.015625
1398,41.015625
1399,41.015625
1400,41.015625
1401,42.968750
1402,42.968750
1403,42.968750
1404,42.968750
1405,42.968750
1406,42.968750
1407,42.968750
1408,42.968750
1409,42.968750
1410,42.968750
1411,42.968750
1412,42.968750
1413,42.968750
1414,42.968750
1415,42.968750
1416,42.968750
1417,42.968750
1418,42.968750
1419,42.968750
1420,42.968750
1421,42.968750
1422,41.015625
1423,41.015625
1424,41.015625
1425,41.015625
1426,41.015625
1427,41.015625
1428,41.015625
1429,41.015625
1430,39.062500
1431,39.062500
1432,39.062500
1433,39.062500
1434,37.109375
1435,37.109375
1436,37.109375
1437,37.109375
1438,35.156250
1439,33.203125
1440,35.156250
1441,33.203125
1442,33.203125
1443,33.203125
1444,31.250000
1445,31.250000
1446,29.296875
1447,29.296875
1448,29.296875
1449,27.343750
1450,27.343750
1451,27.343750
1452,25.390625
1453,23.437500
1454,23.437500
1455,23.437500
1456,21.484375
1457,21.484375
1458,19.531250
1459,19.531250
1460,17.578125
1461,17.578125
1462,15.625000
1463,15.625000
1464,13.671875
1465,13.671875
1466,11.718750
1467,11.718750
1468,9.765625
1469,7.812500
1470,7.812500
1471,5.859375
1472,5.859375
1473,3.906250
1474,3.906250
1475,1.953125
1476,0.000000
1477,0.000000
1478,-1.953125
1479,-5.859375
1480,-3.906250
1481,-3.906250
1482,-5.859375
1483,-7.812500
1484,-7.812500
1485,-9.765625
1486,-9.765625
1487,-11.718750
1488,-13.671875
1489,-13.671875
1490,-15.625000
1491,-17.578125
1492,-17.578125
1493,-19.531250
1494,-19.531250
1495,-21.484375
1496,-21.484375
1497,-23.437500
1498,-25.390625
1499,-25.390625
1500,-27.343750
1501,-27.343750
1502,-29.296875
1503,-29.296875
1504,-31.250000
1505,-31.250000
1506,-33.203125
1507,-33.203125
1508,-35.156250
1509,-37.109375
1510,-37.109375
1511,-37.109375
1512,-39.062500
1513,-39.062500
1514,-41.015625
1515,-41.015625
1516,-42.968750
1517,-42.968750
1518,-44.921875
1519,-44.921875
1520,-44.921875
1521,-46.875000
1522,-46.875000
1523,-48.828125
1524,-48.828125
1525,-50.781250
1526,-50.781250
1527,-50.781250
1528,-52.734375
1529,-52.734375
1530,-52.734375
1531,-54.687500
1532,-54.687500
1533,-54.687500
1534,-54.687500
1535,-56.640625
1536,-56.640625
1537,-56.640625
1538,-58.593750
1539,-56.640625
1540,-58.593750
1541,-58.593750
1542,-58.593750
1543,-58.593750
1544,-60.546875
1545,-58.593750
1546,-60.546875
1547,-60.546875
1548,-60.546875
1549,-60.546875
1550,-60.546875
1551,-60.546875
1552,-60.546875
1553,-60.546875
1554,-60.546875
1555,-60.546875
1556,-60.546875
1557,-60.546875
1558,-60.546875
1559,-60.546875
1560,-60.546875
1561,-58.593750
1562,-58.593750
1563,-58.593750
1564,-58.593750
1565,-58.593750
1566,-58.593750
1567,-58.593750
1568,-56.640625
1569,-56.640625
1570,-56.640625
1571,-54.687500
1572,-54.687500
1573,-54.687500
1574,-54.687500
1575,-52.734375
1576,-52.734375
1577,-52.734375
1578,-50.781250
1579,-50.781250
1580,-48.828125
1581,-48.828125
1582,-48.828125
1583,-48.828125
1584,-46.875000
1585,-46.875000
1586,-44.921875
1587,-44.921875
1588,-44.921875
1589,-42.968750
1590,-41.015625
1591,-41.015625
1592,-41.015625
1593,-39.062500
1594,-37.109375
1595,-37.109375
1596,-37.109375
1597,-35.156250
1598,-35.156250
1599,-33.203125
1600,-33.203125
1601,-31.250000
1602,-31.250000
1603,-29.296875
1604,-29.296875
1605,-27.343750
1606,-25.390625
1607,-25.390625
1608,-23.437500
1609,-23.437500
1610,-21.484375
1611,-21.484375
1612,-19.531250
1613,-17.578125
1614,-17.578125
1615,-15.625000
1616,-15.625000
1617,-13.671875
1618,-11.718750
1619,-11.718750
1620,-9.765625
1621,-7.812500
1622,-7.812500
1623,-7.812500
1624,-5.859375
1625,-3.906250
1626,-3.906250
1627,-1.953125
1628,0.000000
1629,0.000000
1630,1.953125
1631,1.953125
1632,3.906250
1633,3.906250
1634,5.859375
1635,7.812500
1636,7.812500
1637,9.765625
1638,9.765625
1639,9.765625
1640,11.718750
1641,13.671875
1642,13.671875
1643,15.625000
1644,15.625000
1645,17.578125
1646,17.578125
1647,19.531250
1648,19.531250
1649,21.484375
1650,21.484375
1651,23.437500
1652,23.437500
1653,25.390625
1654,25.390625
1655,27.343750
1656,27.343750
1657,27.343750
1658,29.296875
1659,29.296875
1660,29.296875
1661,31.250000
1662,31.250000
1663,33.203125
1664,33.203125
1665,33.203125
1666,35.156250
1667,35.156250
1668,35.156250
1669,37.109375
1670,37.109375
1671,37.109375
1672,37.109375
1673,35.156250
1674,39.062500
1675,39.062500
1676,39.062500
1677,41.015625
1678,39.062500
1679,41.015625
1680,41.015625
1681,41.015625
1682,41.015625
1683,41.015625
1684,41.015625
1685,42.968750
1686,42.968750
1687,42.968750
1688,42.968750
1689,42.968750
1690,42.968750
1691,42.968750
1692,42.968750
1693,42.968750
1694,42.968750
1695,42.968750
1696,42.968750
1697,42.968750
1698,42.968750
1699,42.968750
1700,42.968750
1701,42.968750
1702,42.968750
1703,42.968750
1704,42.968750
1705,41.015625
1706,41.015625
1707,41.015625
1708,41.015625
1709,41.015625
1710,41.015625
1711,39.062500
1712,41.015625
1713,39.062500
1714,39.062500
1715,39.062500
1716,39.062500
1717,37.109375
1718,37.109375
1719,37.109375
1720,35.156250
1721,35.156250
1722,35.156250
1723,33.203125
1724,33.203125
1725,31.250000
1726,31.250000
1727,31.250000
1728,31.250000
1729,29.296875
1730,29.296875
1731,29.296875
1732,27.343750
1733,25.390625
1734,25.390625
1735,23.437500
1736,23.437500
1737,23.437500
1738,21.484375
1739,21.484375
1740,19.531250
1741,19.531250
1742,19.531250
1743,17.578125
1744,15.625000
1745,15.625000
1746,13.671875
1747,13.671875
1748,11.718750
1749,11.718750
1750,9.765625
1751,7.812500
1752,7.812500
1753,5.859375
1754,5.859375
1755,5.859375
1756,3.906250
1757,1.953125
1758,0.000000
1759,0.000000
1760,-1.953125
1761,-1.953125
1762,-3.906250
1763,-3.906250
1764,-5.859375
1765,-7.812500
1766,-7.812500
1767,-9.765625
1768,-9.765625
1769,-11.718750
1770,-13.671875
1771,-13.671875
1772,-15.625000
1773,-17.578125
1774,-17.578125
1775,-17.578125
1776,-19.531250
1777,-19.531250
1778,-21.484375
1779,-21.484375
1780,-25.390625
1781,-25.390625
1782,-27.343750
1783,-27.343750
1784,-27.343750
1785,-29.296875
1786,-31.250000
1787,-31.250000
1788,-33.203125
1789,-33.203125
1790,-35.156250
1791,-35.156250
1792,-37.109375
1793,-37.109375
1794,-39.062500
1795,-39.062500
1796,-41.015625
1797,-41.015625
1798,-42.968750
1799,-42.968750
1800,-44.921875
1801,-44.921875
1802,-44.921875
1803,-46.875000
1804,-46.875000
1805,-48.828125
1806,-48.828125
1807,-50.781250
1808,-50.781250
1809,-50.781250
1810,-52.734375
1811,-52.734375
1812,-52.734375
1813,-54.687500
1814,-54.687500
1815,-54.687500
1816,-56.640625
1817,-56.640625
1818,-56.640625
1819,-56.640625
1820,-56.640625
1821,-56.640625
1822,-58.593750
1823,-58.593750
1824,-58.593750
1825,-58.593750
1826,-58.593750
1827,-58.593750
1828,-60.546875
1829,-60.546875
1830,-58.593750
1831,-60.546875
1832,-60.546875
1833,-60.546875
1834,-60.546875
1835,-60.546875
1836,-60.546875
1837,-60.546875
1838,-60.546875
1839,-62.500000
1840,-60.546875
1841,-60.546875
1842,-58.593750
1843,-58.593750
1844,-58.593750
1845,-58.593750
1846,-58.593750
1847,-58.593750
1848,-58.593750
1849,-58.593750
1850,-58.593750
1851,-56.640625
1852,-56.640625
1853,-56.640625
1854,-54.687500
1855,-54.687500
1856,-54.687500
1857,-54.687500
1858,-54.687500
1859,-52.734375
1860,-52.734375
1861,-50.781250
1862,-50.781250
1863,-50.781250
1864,-48.828125
1865,-48.828125
1866,-46.875000
1867,-46.875000
1868,-46.875000
1869,-44.921875
1870,-44.921875
1871,-42.968750
1872,-42.968750
1873,-41.015625
1874,-41.015625
1875,-41.015625
1876,-39.062500
1877,-37.109375
1878,-37.109375
1879,-35.156250
1880,-35.156250
1881,-33.203125
1882,-33.203125
1883,-31.250000
1884,-31.250000
1885,-29.296875
1886,-29.296875
1887,-29.296875
1888,-27.343750
1889,-25.390625
1890,-25.390625
1891,-23.437500
1892,-21.484375
1893,-21.484375
1894,-19.531250
1895,-17.578125
1896,-17.578125
1897,-15.625000
1898,-15.625000
1899,-13.671875
1900,-13.671875
1901,-11.718750
1902,-9.765625
1903,-9.765625
1904,-7.812500
1905,-7.812500
1906,-5.859375
1907,-3.906250
1908,-3.906250
1909,-1.953125
1910,-1.953125
1911,0.000000
1912,0.000000
1913,1.953125
1914,3.906250
1915,3.906250
1916,5.859375
1917,7.812500
1918,7.812500
1919,7.812500
1920,9.765625
1921,9.765625
1922,11.718750
1923,13.671875
1924,13.671875
1925,15.625000
1926,15.625000
1927,17.578125
1928,17.578125
1929,19.531250
1930,19.531250
1931,21.484375
1932,21.484375
1933,23.437500
1934,23.437500
1935,23.437500
1936,25.390625
1937,25.390625
1938,27.343750
1939,27.343750
1940,29.296875
1941,29.296875
1942,29.296875
1943,31.250000
1944,31.250000
1945,31.250000
1946,33.203125
1947,35.156250
1948,35.156250
1949,35.156250
1950,35.156250
1951,35.156250
1952,37.109375
1953,37.109375
1954,37.109375
1955,39.062500
1956,39.062500
1957,39.062500
1958,41.015625
1959,41.015625
1960,41.015625
1961,41.015625
1962,41.015625
1963,41.015625
1964,42.968750
1965,41.015625
1966,42.968750
1967,42.968750
1968,42.968750
1969,42.968750
1970,44.921875
1971,42.968750
1972,42.968750
1973,42.968750
1974,42.968750
1975,42.968750
1976,42.968750
1977,44.921875
1978,44.921875
1979,42.968750
1980,42.968750
1981,42.968750
1982,44.921875
1983,42.968750
1984,42.968750
1985,42.968750
1986,42.968750
1987,42.968750
1988,42.968750
1989,41.015625
1990,41.015625
1991,41.015625
1992,41.015625
1993,41.015625
1994,41.015625
1995,39.062500
1996,39.062500
1997,39.062500
1998,39.062500
1999,37.109375
2000,37.109375
2001,37.109375
2002,35.156250
2003,35.156250
2004,35.156250
2005,33.203125
2006,33.203125
2007,31.250000
2008,29.296875
2009,31.250000
2010,29.296875
2011,31.250000
2012,29.296875
2013,27.343750
2014,27.343750
2015,27.343750
2016,25.390625
2017,25.390625
2018,23.437500
2019,23.437500
2020,21.484375
2021,21.484375
2022,19.531250
2023,19.531250
2024,19.531250
2025,17.578125
2026,13.671875
2027,15.625000
2028,15.625000
2029,13.671875
2030,11.718750
2031,11.718750
2032,9.765625
2033,9.765625
2034,7.812500
2035,7.812500
2036,5.859375
2037,5.859375
2038,3.906250
2039,3.906250
2040,1.953125
2041,0.000000
2042,0.000000
2043,-1.953125
2044,-1.953125
2045,-3.906250
2046,-5.859375
2047,-5.859375
2048,-7.812500
2049,-7.812500
2050,-7.812500
2051,-11.718750
2052,-11.718750
2053,-11.718750
2054,-15.625000
2055,-15.625000
2056,-15.625000
2057,-17.578125
2058,-15.625000
2059,-21.484375
2060,-21.484375
2061,-23.437500
2062,-23.437500
2063,-25.390625
2064,-25.390625
2065,-27.343750
2066,-27.343750
2067,-29.296875
2068,-31.250000
2069,-31.250000
2070,-33.203125
2071,-33.203125
2072,-35.156250
2073,-35.156250
2074,-37.109375
2075,-37.109375
2076,-37.109375
2077,-39.062500
2078,-41.015625
2079,-41.015625
2080,-42.968750
2081,-42.968750
2082,-44.921875
2083,-44.921875
2084,-44.921875
2085,-46.875000
2086,-46.875000
2087,-46.875000
2088,-48.828125
2089,-50.781250
2090,-50.781250
2091,-50.781250
2092,-50.781250
2093,-52.734375
2094,-52.734375
2095,-52.734375
2096,-54.687500
2097,-54.687500
2098,-54.687500
2099,-54.687500
2100,-56.640625
2101,-56.640625
2102,-56.640625
2103,-58.593750
2104,-58.593750
2105,-58.593750
2106,-58.593750
2107,-58.593750
2108,-60.546875
2109,-58.593750
2110,-60.546875
2111,-60.546875
2112,-60.546875
2113,-60.546875
2114,-60.546875
2115,-60.546875
2116,-60.546875
2117,-60.546875
2118,-60.546875
2119,-60.546875
2120,-60.546875
2121,-60.546875
2122,-60.546875
2123,-60.546875
2124,-60.546875
2125,-58.593750
2126,-58.593750
2127,-58.593750
2128,-58.593750
2129,-58.593750
2130,-58.593750
2131,-58.593750
2132,-56.640625
2133,-56.640625
2134,-56.640625
2135,-56.640625
2136,-56.640625
2137,-54.687500
2138,-54.687500
2139,-52.734375
2140,-52.734375
2141,-52.734375
2142,-52.734375
2143,-50.781250
2144,-50.781250
2145,-48.828125
2146,-48.828125
2147,-48.828125
2148,-48.828125
2149,-44.921875
2150,-46.875000
2151,-44.921875
2152,-44.921875
2153,-44.921875
2154,-42.968750
2155,-42.968750
2156,-41.015625
2157,-39.062500
2158,-39.062500
2159,-37.109375
2160,-37.109375
2161,-37.109375
2162,-35.156250
2163,-33.203125
2164,-33.203125
2165,-31.250000
2166,-31.250000
2167,-29.296875
2168,-29.296875
2169,-27.343750
2170,-27.343750
2171,-25.390625
2172,-23.437500
2173,-23.437500
2174,-21.484375
2175,-21.484375
2176,-19.531250
2177,-19.531250
2178,-17.578125
2179,-15.625000
2180,-15.625000
2181,-13.671875
2182,-13.671875
2183,-11.718750
2184,-11.718750
2185,-9.765625
2186,-7.812500
2187,-7.812500
2188,-7.812500
2189,-3.906250
2190,-3.906250
2191,-1.953125
2192,-1.953125
2193,0.000000
2194,0.000000
2195,1.953125
2196,1.953125
2197,3.906250
2198,5.859375
2199,5.859375
2200,7.812500
2201,7.812500
2202,9.765625
2203,9.765625
2204,11.718750
2205,13.671875
2206,13.671875
2207,15.625000
2208,15.625000
2209,17.578125
2210,21.484375
2211,17.578125
2212,19.531250
2213,19.531250
2214,21.484375
2215,23.437500
2216,19.531250
2217,23.437500
2218,25.390625
2219,25.390625
2220,27.343750
2221,27.343750
2222,27.343750
2223,29.296875
2224,31.250000
2225,31.250000
2226,31.250000
2227,35.156250
2228,33.203125
2229,33.203125
2230,33.203125
2231,35.156250
2232,35.156250
2233,37.109375
2234,37.109375
2235,37.109375
2236,37.109375
2237,39.062500
2238,39.062500
2239,39.062500
2240,39.062500
2241,39.062500
2242,41.015625
2243,41.015625
2244,41.015625
2245,41.015625
2246,41.015625
2247,41.015625
2248,41.015625
2249,42.968750
2250,42.968750
2251,42.968750
2252,42.968750
2253,42.968750
2254,42.968750
2255,42.968750
2256,42.968750
2257,42.968750
2258,42.968750
2259,42.968750
2260,41.015625
2261,42.968750
2262,42.968750
2263,42.968750
2264,42.968750
2265,42.968750
2266,42.968750
2267,42.968750
2268,42.968750
2269,42.968750
2270,41.015625
2271,41.015625
2272,41.015625
2273,41.015625
2274,41.015625
2275,41.015625
2276,39.062500
2277,39.062500
2278,39.062500
2279,39.062500
2280,39.062500
2281,37.109375
2282,37.109375
2283,37.109375
2284,35.156250
2285,35.156250
2286,35.156250
2287,35.156250
2288,33.203125
2289,33.203125
2290,31.250000
2291,31.250000
2292,31.250000
2293,29.296875
2294,29.296875
2295,27.343750
2296,27.343750
2297,27.343750
2298,25.390625
2299,25.390625
2300,25.390625
2301,23.437500
2302,23.437500
2303,21.484375
2304,21.484375
2305,19.531250
2306,19.531250
2307,17.578125
2308,15.625000
2309,15.625000
2310,15.625000
2311,13.671875
2312,11.718750
2313,11.718750
2314,9.765625
2315,9.765625
2316,7.812500
2317,7.812500
2318,5.859375
2319,3.906250
2320,3.906250
2321,1.953125
2322,1.953125
2323,1.953125
2324,0.000000
2325,-1.953125
2326,-3.906250
2327,-3.906250
2328,-5.859375
2329,-7.812500
2330,-7.812500
2331,-7.812500
2332,-9.765625
2333,-11.718750
2334,-11.718750
2335,-13.671875
2336,-13.671875
2337,-15.625000
2338,-17.578125
2339,-17.578125
2340,-19.531250
2341,-19.531250
2342,-21.484375
2343,-21.484375
2344,-23.437500
2345,-23.437500
2346,-25.390625
2347,-27.343750
2348,-27.343750
2349,-29.296875
2350,-29.296875
2351,-31.250000
2352,-31.250000
2353,-33.203125
2354,-33.203125
2355,-35.156250
2356,-37.109375
2357,-37.109375
2358,-39.062500
2359,-39.062500
2360,-39.062500
2361,-41.015625
2362,-41.015625
2363,-42.968750
2364,-44.921875
2365,-44.921875
2366,-44.921875
2367,-44.921875
2368,-46.875000
2369,-44.921875
2370,-48.828125
2371,-48.828125
2372,-50.781250
2373,-50.781250
2374,-52.734375
2375,-52.734375
2376,-52.734375
2377,-52.734375
2378,-54.687500
2379,-54.687500
2380,-54.687500
2381,-54.687500
2382,-56.640625
2383,-56.640625
2384,-56.640625
2385,-58.593750
2386,-58.593750
2387,-56.640625
2388,-58.593750
2389,-58.593750
2390,-58.593750
2391,-58.593750
2392,-58.593750
2393,-60.546875
2394,-60.546875
2395,-60.546875
2396,-60.546875
2397,-60.546875
2398,-60.546875
2399,-60.546875
2400,-60.546875
2401,-60.546875
2402,-60.546875
2403,-60.546875
2404,-60.546875
2405,-60.546875
2406,-60.546875
2407,-58.593750
2408,-58.593750
2409,-58.593750
2410,-58.593750
2411,-58.593750
2412,-58.593750
2413,-56.640625
2414,-56.640625
2415,-56.640625
2416,-56.640625
2417,-56.640625
2418,-54.687500
2419,-54.687500
2420,-54.687500
2421,-54.687500
2422,-52.734375
2423,-52.734375
2424,-50.781250
2425,-50.781250
2426,-50.781250
2427,-50.781250
2428,-50.781250
2429,-48.828125
2430,-48.828125
2431,-46.875000
2432,-46.875000
2433,-46.875000
2434,-44.921875
2435,-44.921875
2436,-42.968750
2437,-42.968750
2438,-41.015625
2439,-41.015625
2440,-39.062500
2441,-39.062500
2442,-37.109375
2443,-37.109375
2444,-35.156250
2445,-35.156250
2446,-37.109375
2447,-33.203125
2448,-31.250000
2449,-29.296875
2450,-29.296875
2451,-29.296875
2452,-27.343750
2453,-27.343750
2454,-25.390625
2455,-23.437500
2456,-23.437500
2457,-21.484375
2458,-21.484375
2459,-19.531250
2460,-17.578125
2461,-17.578125
2462,-15.625000
2463,-15.625000
2464,-13.671875
2465,-11.718750
2466,-11.718750
2467,-9.765625
2468,-9.765625
2469,-7.812500
2470,-5.859375
2471,-5.859375
2472,-3.906250
2473,-3.906250
2474,-1.953125
2475,0.000000
2476,0.000000
2477,1.953125
2478,1.953125
2479,3.906250
2480,3.906250
2481,5.859375
2482,5.859375
2483,7.812500
2484,9.765625
2485,11.718750
2486,11.718750
2487,11.718750
2488,13.671875
2489,13.671875
2490,15.625000
2491,15.625000
2492,17.578125
2493,17.578125
2494,19.531250
2495,19.531250
2496,21.484375
2497,21.484375
2498,23.437500
2499,23.437500
2500,25.390625
2501,25.390625
2502,25.390625
2503,27.343750
2504,27.343750
2505,29.296875
2506,29.296875
2507,29.296875
2508,31.250000
2509,31.250000
2510,33.203125
2511,33.203125
2512,33.203125
2513,33.203125
2514,35.156250
2515,35.156250
2516,35.156250
2517,37.109375
2518,37.109375
2519,37.109375
2520,37.109375
2521,39.062500
2522,39.062500
2523,39.062500
2524,41.015625
2525,41.015625
2526,41.015625
2527,41.015625
2528,41.015625
2529,41.015625
2530,42.968750
2531,41.015625
2532,42.968750
2533,42.968750
2534,42.968750
2535,42.968750
2536,42.968750
2537,42.968750
2538,44.921875
2539,42.968750
2540,42.968750
2541,44.921875
2542,42.968750
2543,42.968750
2544,42.968750
2545,42.968750
2546,44.921875
2547,42.968750
2548,42.968750
2549,42.968750
2550,42.968750
2551,42.968750
2552,42.968750
2553,42.968750
2554,41.015625
2555,41.015625
2556,41.015625
2557,41.015625
2558,41.015625
2559,41.015625
2560,39.062500
2561,39.062500
2562,39.062500
2563,37.109375
2564,37.109375
2565,37.109375
2566,35.156250
2567,35.156250
2568,35.156250
2569,33.203125
2570,33.203125
2571,33.203125
2572,33.203125
2573,31.250000
2574,31.250000
2575,29.296875
2576,29.296875
2577,29.296875
2578,27.343750
2579,27.343750
2580,27.343750
2581,25.390625
2582,25.390625
2583,23.437500
2584,23.437500
2585,21.484375
2586,21.484375
2587,19.531250
2588,19.531250
2589,19.531250
2590,17.578125
2591,15.625000
2592,15.625000
2593,13.671875
2594,13.671875
2595,11.718750
2596,7.812500
2597,9.765625
2598,9.765625
2599,7.812500
2600,5.859375
2601,5.859375
2602,3.906250
2603,3.906250
2604,1.953125
2605,1.953125
2606,0.000000
2607,0.000000
2608,-1.953125
2609,-3.906250
2610,-3.906250
2611,-5.859375
2612,-7.812500
2613,-7.812500
2614,-9.765625
2615,-9.765625
2616,-11.718750
2617,-13.671875
2618,-13.671875
2619,-15.625000
2620,-15.625000
2621,-17.578125
2622,-19.531250
2623,-19.531250
2624,-21.484375
2625,-21.484375
2626,-23.437500
2627,-23.437500
2628,-25.390625
2629,-27.343750
2630,-27.343750
2631,-29.296875
2632,-29.296875
2633,-31.250000
2634,-31.250000
2635,-33.203125
2636,-33.203125
2637,-35.156250
2638,-35.156250
2639,-37.109375
2640,-39.062500
2641,-39.062500
2642,-39.062500
2643,-41.015625
2644,-41.015625
2645,-42.968750
2646,-39.062500
2647,-44.921875
2648,-44.921875
2649,-46.875000
2650,-46.875000
2651,-48.828125
2652,-48.828125
2653,-48.828125
2654,-50.781250
2655,-50.781250
2656,-50.781250
2657,-52.734375
2658,-52.734375
2659,-52.734375
2660,-52.734375
2661,-54.687500
2662,-54.687500
2663,-56.640625
2664,-54.687500
2665,-56.640625
2666,-56.640625
2667,-56.640625
2668,-58.593750
2669,-58.593750
2670,-58.593750
2671,-58.593750
2672,-60.546875
2673,-58.593750
2674,-58.593750
2675,-58.593750
2676,-60.546875
2677,-60.546875
2678,-58.593750
2679,-60.546875
2680,-60.546875
2681,-60.546875
2682,-60.546875
2683,-60.546875
2684,-60.546875
2685,-60.546875
2686,-60.546875
2687,-60.546875
2688,-60.546875
2689,-58.593750
2690,-60.546875
2691,-58.593750
2692,-58.593750
2693,-58.593750
2694,-58.593750
2695,-58.593750
2696,-58.593750
2697,-56.640625
2698,-56.640625
2699,-56.640625
2700,-56.640625
2701,-54.687500
2702,-54.687500
2703,-54.687500
2704,-54.687500
2705,-52.734375
2706,-52.734375
2707,-52.734375
2708,-52.734375
2709,-50.781250
2710,-48.828125
2711,-48.828125
2712,-48.828125
2713,-46.875000
2714,-46.875000
2715,-44.921875
2716,-44.921875
2717,-44.921875
2718,-44.921875
2719,-42.968750
2720,-41.015625
2721,-41.015625
2722,-41.015625
2723,-39.062500
2724,-39.062500
2725,-37.109375
2726,-35.156250
2727,-35.156250
2728,-35.156250
2729,-33.203125
2730,-31.250000
2731,-31.250000
2732,-29.296875
2733,-29.296875
2734,-27.343750
2735,-25.390625
2736,-25.390625
2737,-23.437500
2738,-23.437500
2739,-21.484375
2740,-19.531250
2741,-19.531250
2742,-19.531250
2743,-15.625000
2744,-15.625000
2745,-15.625000
2746,-13.671875
2747,-11.718750
2748,-11.718750
2749,-9.765625
2750,-9.765625
2751,-7.812500
2752,-7.812500
2753,-5.859375
2754,-3.906250
2755,-3.906250
2756,-1.953125
2757,-1.953125
2758,0.000000
2759,0.000000
2760,1.953125
2761,3.906250
2762,3.906250
2763,5.859375
2764,7.812500
2765,7.812500
2766,7.812500
2767,9.765625
2768,11.718750
2769,11.718750
2770,11.718750
2771,13.671875
2772,13.671875
2773,15.625000
2774,17.578125
2775,17.578125
2776,17.578125
2777,19.531250
2778,21.484375
2779,21.484375
2780,21.484375
2781,23.437500
2782,23.437500
2783,25.390625
2784,25.390625
2785,27.343750
2786,27.343750
2787,29.296875
2788,29.296875
2789,29.296875
2790,31.250000
2791,31.250000
2792,33.203125
2793,33.203125
2794,33.203125
2795,33.203125
2796,35.156250
2797,35.156250
2798,37.109375
2799,35.156250
2800,37.109375
2801,39.062500
2802,39.062500
2803,39.062500
2804,39.062500
2805,39.062500
2806,41.015625
2807,41.015625
2808,39.062500
2809,41.015625
2810,42.968750
2811,41.015625
2812,42.968750
2813,42.968750
2814,42.968750
2815,44.921875
2816,42.968750
2817,42.968750
2818,42.968750
2819,42.968750
2820,42.968750
2821,42.968750
2822,42.968750
2823,44.921875
2824,42.968750
2825,42.968750
2826,42.968750
2827,42.968750
2828,42.968750
2829,42.968750
2830,42.968750
2831,42.968750
2832,44.921875
2833,42.968750
2834,41.015625
2835,42.968750
2836,41.015625
2837,41.015625
2838,41.015625
2839,39.062500
2840,41.015625
2841,39.062500
2842,39.062500
2843,39.062500
2844,39.062500
2845,37.109375
2846,37.109375
2847,37.109375
2848,37.109375
2849,35.156250
2850,35.156250
2851,33.203125
2852,33.203125
2853,33.203125
2854,33.203125
2855,29.296875
2856,31.250000
2857,31.250000
2858,29.296875
2859,29.296875
2860,27.343750
2861,27.343750
2862,27.343750
2863,25.390625
2864,25.390625
2865,25.390625
2866,23.437500
2867,23.437500
2868,21.484375
2869,19.531250
2870,19.531250
2871,19.531250
2872,17.578125
2873,15.625000
2874,15.625000
2875,15.625000
2876,13.671875
2877,11.718750
2878,11.718750
2879,11.718750
2880,9.765625
2881,7.812500
2882,7.812500
2883,5.859375
2884,5.859375
2885,3.906250
2886,1.953125
2887,1.953125
2888,0.000000
2889,0.000000
2890,-1.953125
2891,-3.906250
2892,-3.906250
2893,-5.859375
2894,-5.859375
2895,-7.812500
2896,-9.765625
2897,-11.718750
2898,-11.718750
2899,-11.718750
2900,-13.671875
2901,-15.625000
2902,-15.625000
2903,-17.578125
2904,-19.531250
2905,-19.531250
2906,-21.484375
2907,-21.484375
2908,-23.437500
2909,-23.437500
2910,-25.390625
2911,-25.390625
2912,-27.343750
2913,-29.296875
2914,-29.296875
2915,-29.296875
2916,-31.250000
2917,-33.203125
2918,-33.203125
2919,-33.203125
2920,-35.156250
2921,-37.109375
2922,-37.109375
2923,-37.109375
2924,-39.062500
2925,-41.015625
2926,-41.015625
2927,-42.968750
2928,-42.968750
2929,-42.968750
2930,-44.921875
2931,-44.921875
2932,-46.875000
2933,-46.875000
2934,-48.828125
2935,-48.828125
2936,-50.781250
2937,-50.781250
2938,-50.781250
2939,-50.781250
2940,-52.734375
2941,-52.734375
2942,-52.734375
2943,-54.687500
2944,-54.687500
2945,-54.687500
2946,-54.687500
2947,-56.640625
2948,-56.640625
2949,-56.640625
2950,-56.640625
2951,-58.593750
2952,-58.593750
2953,-58.593750
2954,-58.593750
2955,-58.593750
2956,-58.593750
2957,-58.593750
2958,-60.546875
2959,-60.546875
2960,-60.546875
2961,-60.546875
2962,-60.546875
2963,-60.546875
2964,-58.593750
2965,-60.546875
2966,-60.546875
2967,-60.546875
2968,-60.546875
2969,-60.546875
2970,-60.546875
2971,-60.546875
2972,-58.593750
2973,-58.593750
2974,-58.593750
2975,-58.593750
2976,-58.593750
2977,-58.593750
2978,-58.593750
2979,-56.640625
2980,-56.640625
2981,-56.640625
2982,-56.640625
2983,-54.687500
2984,-52.734375
2985,-54.687500
2986,-54.687500
2987,-52.734375
2988,-52.734375
2989,-50.781250
2990,-50.781250
2991,-50.781250
2992,-50.781250
2993,-50.781250
2994,-48.828125
2995,-48.828125
2996,-46.875000
2997,-46.875000
2998,-44.921875
2999,-44.921875
3000,-42.968750
3001,-42.968750
3002,-41.015625
3003,-41.015625
3004,-39.062500
3005,-39.062500
3006,-37.109375
3007,-37.109375
3008,-37.109375
3009,-35.156250
3010,-33.203125
3011,-33.203125
3012,-33.203125
3013,-31.250000
3014,-29.296875
3015,-29.296875
3016,-27.343750
3017,-25.390625
3018,-27.343750
3019,-25.390625
3020,-23.437500
3021,-23.437500
3022,-21.484375
3023,-17.578125
3024,-17.578125
3025,-17.578125
3026,-17.578125
3027,-15.625000
3028,-13.671875
3029,-13.671875
3030,-11.718750
3031,-11.718750
3032,-9.765625
3033,-9.765625
3034,-11.718750
3035,-5.859375
3036,-5.859375
3037,-3.906250
3038,-1.953125
3039,-1.953125
3040,0.000000
3041,0.000000
3042,0.000000
3043,1.953125
3044,3.906250
3045,3.906250
3046,5.859375
3047,7.812500
3048,7.812500
3049,9.765625
3050,9.765625
3051,11.718750
3052,11.718750
3053,13.671875
3054,15.625000
3055,15.625000
3056,17.578125
3057,17.578125
3058,19.531250
3059,19.531250
3060,19.531250
3061,21.484375
3062,21.484375
3063,23.437500
3064,23.437500
3065,25.390625
3066,25.390625
3067,27.343750
3068,29.296875
3069,29.296875
3070,29.296875
3071,29.296875
3072,31.250000
3073,31.250000
3074,31.250000
3075,33.203125
3076,33.203125
3077,35.156250
3078,35.156250
3079,35.156250
3080,35.156250
3081,37.109375
3082,37.109375
3083,37.109375
3084,37.109375
3085,39.062500
3086,39.062500
3087,39.062500
3088,39.062500
3089,41.015625
3090,41.015625
3091,41.015625
3092,41.015625
3093,42.968750
3094,41.015625
3095,42.968750
3096,42.968750
3097,42.968750
3098,42.968750
3099,42.968750
3100,42.968750
3101,42.968750
3102,42.968750
3103,42.968750
3104,42.968750
3105,42.968750
3106,42.968750
3107,42.968750
3108,44.921875
3109,42.968750
3110,42.968750
3111,41.015625
3112,42.968750
3113,42.968750
3114,42.968750
3115,42.968750
3116,42.968750
3117,42.968750
3118,41.015625
3119,41.015625
3120,41.015625
3121,41.015625
3122,41.015625
3123,41.015625
3124,41.015625
3125,39.062500
3126,39.062500
3127,39.062500
3128,37.109375
3129,37.109375
3130,37.109375
3131,35.156250
3132,35.156250
3133,35.156250
3134,35.156250
3135,35.156250
3136,33.203125
3137,31.250000
3138,31.250000
3139,31.250000
3140,31.250000
3141,29.296875
3142,29.296875
3143,27.343750
3144,27.343750
3145,25.390625
3146,25.390625
3147,23.437500
3148,23.437500
3149,23.437500
3150,21.484375
3151,21.484375
3152,19.531250
3153,19.531250
3154,17.578125
3155,17.578125
3156,15.625000
3157,15.625000
3158,13.671875
3159,13.671875
3160,11.718750
3161,11.718750
3162,9.765625
3163,9.765625
3164,7.812500
3165,5.859375
3166,5.859375
3167,3.906250
3168,3.906250
3169,1.953125
3170,0.000000
3171,0.000000
3172,-1.953125
3173,-1.953125
3174,-3.906250
3175,-3.906250
3176,-1.953125
3177,-7.812500
3178,-9.765625
3179,-13.671875
3180,-9.765625
3181,-11.718750
3182,-13.671875
3183,-13.671875
3184,-17.578125
3185,-17.578125
3186,-17.578125
3187,-17.578125
3188,-19.531250
3189,-21.484375
3190,-21.484375
3191,-23.437500
3192,-25.390625
3193,-25.390625
3194,-27.343750
3195,-27.343750
3196,-29.296875
3197,-29.296875
3198,-31.250000
3199,-31.250000
3200,-33.203125
3201,-35.156250
3202,-35.156250
3203,-35.156250
3204,-37.109375
3205,-37.109375
3206,-39.062500
3207,-41.015625
3208,-42.968750
3209,-41.015625
3210,-42.968750
3211,-42.968750
3212,-44.921875
3213,-44.921875
3214,-44.921875
3215,-46.875000
3216,-46.875000
3217,-48.828125
3218,-48.828125
3219,-50.781250
3220,-50.781250
3221,-50.781250
3222,-52.734375
3223,-52.734375
3224,-52.734375
3225,-54.687500
3226,-54.687500
3227,-54.687500
3228,-54.687500
3229,-56.640625
3230,-56.640625
3231,-56.640625
3232,-56.640625
3233,-58.593750
3234,-58.593750
3235,-58.593750
3236,-58.593750
3237,-58.593750
3238,-58.593750
3239,-60.546875
3240,-60.546875
3241,-60.546875
3242,-58.593750
3243,-60.546875
3244,-60.546875
3245,-60.546875
3246,-60.546875
3247,-60.546875
3248,-60.546875
3249,-60.546875
3250,-60.546875
3251,-60.546875
3252,-60.546875
3253,-58.593750
3254,-60.546875
3255,-58.593750
3256,-58.593750
3257,-58.593750
3258,-58.593750
3259,-58.593750
3260,-58.593750
3261,-56.640625
3262,-56.640625
3263,-56.640625
3264,-54.687500
3265,-56.640625
3266,-54.687500
3267,-54.687500
3268,-54.687500
3269,-54.687500
3270,-52.734375
3271,-50.781250
3272,-50.781250
3273,-50.781250
3274,-50.781250
3275,-48.828125
3276,-48.828125
3277,-48.828125
3278,-46.875000
3279,-44.921875
3280,-46.875000
3281,-44.921875
3282,-44.921875
3283,-42.968750
3284,-42.968750
3285,-41.015625
3286,-41.015625
3287,-39.062500
3288,-39.062500
3289,-37.109375
3290,-37.109375
3291,-35.156250
3292,-35.156250
3293,-33.203125
3294,-33.203125
3295,-31.250000
3296,-31.250000
3297,-29.296875
3298,-29.296875
3299,-27.343750
3300,-25.390625
3301,-25.390625
3302,-23.437500
3303,-23.437500
3304,-21.484375
3305,-19.531250
3306,-19.531250
3307,-19.531250
3308,-17.578125
3309,-15.625000
3310,-15.625000
3311,-13.671875
3312,-11.718750
3313,-11.718750
3314,-9.765625
3315,-9.765625
3316,-7.812500
3317,-5.859375
3318,-5.859375
3319,-3.906250
3320,-3.906250
3321,-1.953125
3322,-1.953125
3323,0.000000
3324,1.953125
3325,1.953125
3326,1.953125
3327,3.906250
3328,5.859375
3329,7.812500
3330,7.812500
3331,9.765625
3332,9.765625
3333,11.718750
3334,11.718750
3335,13.671875
3336,15.625000
3337,15.625000
3338,15.625000
3339,17.578125
3340,17.578125
3341,19.531250
3342,21.484375
3343,21.484375
3344,21.484375
3345,23.437500
3346,23.437500
3347,25.390625
3348,25.390625
3349,27.343750
3350,27.343750
3351,29.296875
3352,29.296875
3353,29.296875
3354,31.250000
3355,31.250000
3356,31.250000
3357,33.203125
3358,33.203125
3359,33.203125
3360,35.156250
3361,35.156250
3362,35.156250
3363,37.109375
3364,37.109375
3365,37.109375
3366,39.062500
3367,39.062500
3368,39.062500
3369,41.015625
3370,39.062500
3371,41.015625
3372,41.015625
3373,41.015625
3374,41.015625
3375,42.968750
3376,42.968750
3377,42.968750
3378,42.968750
3379,42.968750
3380,42.968750
3381,42.968750
3382,42.968750
3383,42.968750
3384,42.968750
3385,44.921875
3386,42.968750
3387,42.968750
3388,42.968750
3389,44.921875
3390,42.968750
3391,44.921875
3392,42.968750
3393,42.968750
3394,42.968750
3395,42.968750
3396,42.968750
3397,42.968750
3398,42.968750
3399,42.968750
3400,41.015625
3401,41.015625
3402,41.015625
3403,41.015625
3404,41.015625
3405,39.062500
3406,41.015625
3407,39.062500
3408,39.062500
3409,39.062500
3410,37.109375
3411,37.109375
3412,37.109375
3413,35.156250
3414,35.156250
3415,35.156250
3416,35.156250
3417,33.203125
3418,33.203125
3419,33.203125
3420,31.250000
3421,29.296875
3422,29.296875
3423,29.296875
3424,29.296875
3425,27.343750
3426,27.343750
3427,25.390625
3428,25.390625
3429,23.437500
3430,23.437500
3431,23.437500
3432,21.484375
3433,21.484375
3434,19.531250
3435,19.531250
3436,17.578125
3437,17.578125
3438,15.625000
3439,15.625000
3440,13.671875
3441,13.671875
3442,11.718750
3443,11.718750
3444,9.765625
3445,7.812500
3446,7.812500
3447,7.812500
3448,5.859375
3449,3.906250
3450,3.906250
3451,1.953125
3452,0.000000
3453,0.000000
3454,0.000000
3455,-1.953125
3456,-3.906250
3457,-3.906250
3458,-5.859375
3459,-7.812500
3460,-7.812500
3461,-7.812500
3462,-9.765625
3463,-11.718750
3464,-11.718750
3465,-13.671875
3466,-15.625000
3467,-15.625000
3468,-17.578125
3469,-19.531250
3470,-19.531250
3471,-21.484375
3472,-21.484375
3473,-23.437500
3474,-25.390625
3475,-25.390625
3476,-25.390625
3477,-27.343750
3478,-29.296875
3479,-29.296875
3480,-31.250000
3481,-33.203125
3482,-33.203125
3483,-33.203125
3484,-35.156250
3485,-35.156250
3486,-37.109375
3487,-39.062500
3488,-39.062500
3489,-39.062500
3490,-41.015625
3491,-42.968750
3492,-42.968750
3493,-42.968750
3494,-44.921875
3495,-44.921875
3496,-46.875000
3497,-46.875000
3498,-46.875000
3499,-48.828125
3500,-48.828125
3501,-48.828125
3502,-50.781250
3503,-52.734375
3504,-50.781250
3505,-52.734375
3506,-52.734375
3507,-52.734375
3508,-54.687500
3509,-54.687500
3510,-54.687500
3511,-54.687500
3512,-56.640625
3513,-56.640625
3514,-56.640625
3515,-56.640625
3516,-58.593750
3517,-58.593750
3518,-58.593750
3519,-58.593750
3520,-58.593750
3521,-58.593750
3522,-60.546875
3523,-58.593750
3524,-58.593750
3525,-60.546875
3526,-60.546875
3527,-60.546875
3528,-60.546875
3529,-60.546875
3530,-60.546875
3531,-60.546875
3532,-58.593750
3533,-60.546875
3534,-60.546875
3535,-58.593750
3536,-58.593750
3537,-58.593750
3538,-58.593750
3539,-58.593750
3540,-58.593750
3541,-58.593750
3542,-58.593750
3543,-56.640625
3544,-56.640625
3545,-56.640625
3546,-56.640625
3547,-54.687500
3548,-54.687500
3549,-54.687500
3550,-54.687500
3551,-54.687500
3552,-52.734375
3553,-52.734375
3554,-52.734375
3555,-50.781250
3556,-50.781250
3557,-48.828125
3558,-48.828125
3559,-48.828125
3560,-46.875000
3561,-46.875000
3562,-46.875000
3563,-44.921875
3564,-44.921875
3565,-42.968750
3566,-42.968750
3567,-41.015625
3568,-41.015625
3569,-39.062500
3570,-39.062500
3571,-37.109375
3572,-37.109375
3573,-37.109375
3574,-35.156250
3575,-35.156250
3576,-33.203125
3577,-31.250000
3578,-31.250000
3579,-29.296875
3580,-29.296875
3581,-27.343750
3582,-27.343750
3583,-25.390625
3584,-23.437500
3585,-23.437500
3586,-21.484375
3587,-21.484375
3588,-19.531250
3589,-19.531250
3590,-17.578125
3591,-15.625000
3592,-15.625000
3593,-13.671875
3594,-11.718750
3595,-9.765625
3596,-9.765625
3597,-7.812500
3598,-7.812500
3599,-5.859375
3600,-5.859375
3601,-3.906250
3602,-3.906250
3603,-1.953125
3604,-1.953125
3605,0.000000
3606,1.953125
3607,1.953125
3608,3.906250
3609,3.906250
3610,5.859375
3611,5.859375
3612,7.812500
3613,7.812500
3614,9.765625
3615,11.718750
3616,11.718750
3617,11.718750
3618,13.671875
3619,15.625000
3620,15.625000
3621,15.625000
3622,17.578125
3623,19.531250
3624,19.531250
3625,21.484375
3626,21.484375
3627,23.437500
3628,23.437500
3629,25.390625
3630,25.390625
3631,25.390625
3632,27.343750
3633,27.343750
3634,27.343750
3635,29.296875
3636,29.296875
3637,29.296875
3638,31.250000
3639,33.203125
3640,33.203125
3641,33.203125
3642,35.156250
3643,35.156250
3644,35.156250
3645,35.156250
3646,37.109375
3647,37.109375
3648,37.109375
3649,39.062500
3650,39.062500
3651,39.062500
3652,39.062500
3653,41.015625
3654,41.015625
3655,41.015625
3656,41.015625
3657,41.015625
3658,41.015625
3659,42.968750
3660,41.015625
3661,42.968750
3662,42.968750
3663,42.968750
3664,42.968750
3665,42.968750
3666,42.968750
3667,42.968750
3668,44.921875
3669,42.968750
3670,42.968750
3671,42.968750
3672,42.968750
3673,42.968750
3674,44.921875
3675,42.968750
3676,42.968750
3677,42.968750
3678,42.968750
3679,42.968750
3680,42.968750
3681,42.968750
3682,41.015625
3683,41.015625
3684,41.015625
3685,41.015625
3686,41.015625
3687,41.015625
3688,39.062500
3689,39.062500
3690,39.062500
3691,37.109375
3692,37.109375
3693,37.109375
3694,37.109375
3695,35.156250
3696,35.156250
3697,35.156250
3698,35.156250
3699,33.203125
3700,33.203125
3701,33.203125
3702,31.250000
3703,31.250000
3704,31.250000
3705,29.296875
3706,29.296875
3707,29.296875
3708,27.343750
3709,27.343750
3710,25.390625
3711,25.390625
3712,25.390625
3713,23.437500
3714,21.484375
3715,21.484375
3716,21.484375
3717,19.531250
3718,19.531250
3719,17.578125
3720,15.625000
3721,15.625000
3722,15.625000
3723,13.671875
3724,11.718750
3725,11.718750
3726,9.765625
3727,9.765625
3728,9.765625
3729,7.812500
3730,5.859375
3731,5.859375
3732,3.906250
3733,3.906250
3734,1.953125
3735,0.000000
3736,0.000000
3737,-1.953125
3738,-3.906250
3739,-3.906250
3740,-5.859375
3741,-5.859375
3742,-7.812500
3743,-9.765625
3744,-9.765625
3745,-11.718750
3746,-13.671875
3747,-13.671875
3748,-13.671875
3749,-15.625000
3750,-17.578125
3751,-17.578125
3752,-19.531250
3753,-19.531250
3754,-21.484375
3755,-21.484375
3756,-23.437500
3757,-25.390625
3758,-25.390625
3759,-27.343750
3760,-27.343750
3761,-29.296875
3762,-29.296875
3763,-31.250000
3764,-33.203125
3765,-33.203125
3766,-35.156250
3767,-35.156250
3768,-37.109375
3769,-37.109375
3770,-35.156250
3771,-39.062500
3772,-39.062500
3773,-41.015625
3774,-42.968750
3775,-42.968750
3776,-44.921875
3777,-44.921875
3778,-44.921875
3779,-46.875000
3780,-46.875000
3781,-48.828125
3782,-48.828125
3783,-50.781250
3784,-50.781250
3785,-50.781250
3786,-50.781250
3787,-52.734375
3788,-52.734375
3789,-52.734375
3790,-54.687500
3791,-54.687500
3792,-54.687500
3793,-54.687500
3794,-56.640625
3795,-56.640625
3796,-56.640625
3797,-58.593750
3798,-58.593750
3799,-58.593750
3800,-56.640625
3801,-60.546875
3802,-58.593750
3803,-58.593750
3804,-60.546875
3805,-60.546875
3806,-60.546875
3807,-60.546875
3808,-60.546875
3809,-60.546875
3810,-60.546875
3811,-60.546875
3812,-60.546875
3813,-60.546875
3814,-60.546875
3815,-60.546875
3816,-60.546875
3817,-60.546875
3818,-60.546875
3819,-58.593750
3820,-58.593750
3821,-58.593750
3822,-58.593750
3823,-58.593750
3824,-58.593750
3825,-56.640625
3826,-56.640625
3827,-56.640625
3828,-56.640625
3829,-56.640625
3830,-56.640625
3831,-54.687500
3832,-54.687500
3833,-54.687500
3834,-52.734375
3835,-52.734375
3836,-52.734375
3837,-50.781250
3838,-50.781250
3839,-50.781250
3840,-48.828125
3841,-48.828125
3842,-46.875000
3843,-46.875000
3844,-46.875000
3845,-44.921875
3846,-44.921875
3847,-42.968750
3848,-42.968750
3849,-41.015625
3850,-41.015625
3851,-41.015625
3852,-39.062500
3853,-39.062500
3854,-37.109375
3855,-37.109375
3856,-35.156250
3857,-35.156250
3858,-33.203125
3859,-31.250000
3860,-31.250000
3861,-29.296875
3862,-29.296875
3863,-27.343750
3864,-27.343750
3865,-27.343750
3866,-25.390625
3867,-23.437500
3868,-23.437500
3869,-21.484375
3870,-21.484375
3871,-19.531250
3872,-17.578125
3873,-17.578125
3874,-15.625000
3875,-13.671875
3876,-13.671875
3877,-11.718750
3878,-11.718750
3879,-9.765625
3880,-9.765625
3881,-7.812500
3882,-5.859375
3883,-5.859375
3884,-3.906250
3885,-3.906250
3886,-1.953125
3887,-1.953125
3888,0.000000
3889,1.953125
3890,1.953125
3891,3.906250
3892,5.859375
3893,5.859375
3894,7.812500
3895,7.812500
3896,9.765625
3897,11.718750
3898,11.718750
3899,11.718750
3900,13.671875
3901,15.625000
3902,15.625000
3903,17.578125
3904,17.578125
3905,19.531250
3906,19.531250
3907,19.531250
3908,21.484375
3909,21.484375
3910,23.437500
3911,23.437500
3912,25.390625
3913,25.390625
3914,27.343750
3915,27.343750
3916,29.296875
3917,29.296875
3918,29.296875
3919,31.250000
3920,31.250000
3921,31.250000
3922,33.203125
3923,33.203125
3924,35.156250
3925,35.156250
3926,35.156250
3927,35.156250
3928,37.109375
3929,37.109375
3930,37.109375
3931,37.109375
3932,39.062500
3933,39.062500
3934,39.062500
3935,39.062500
3936,39.062500
3937,41.015625
3938,41.015625
3939,41.015625
3940,41.015625
3941,41.015625
3942,42.968750
3943,42.968750
3944,42.968750
3945,42.968750
3946,42.968750
3947,42.968750
3948,42.968750
3949,42.968750
3950,42.968750
3951,42.968750
3952,42.968750
3953,42.968750
3954,42.968750
3955,44.921875
3956,42.968750
3957,42.968750
3958,42.968750
3959,42.968750
3960,42.968750
3961,42.968750
3962,42.968750
3963,42.968750
3964,41.015625
3965,41.015625
3966,41.015625
3967,41.015625
3968,44.921875
3969,41.015625
3970,41.015625
3971,41.015625
3972,39.062500
3973,39.062500
3974,39.062500
3975,37.109375
3976,37.109375
3977,37.109375
3978,37.109375
3979,35.156250
3980,35.156250
3981,35.156250
3982,35.156250
3983,33.203125
3984,33.203125
3985,31.250000
3986,31.250000
3987,33.203125
3988,29.296875
3989,29.296875
3990,27.343750
3991,25.390625
3992,27.343750
3993,25.390625
3994,23.437500
3995,23.437500
3996,21.484375
3997,21.484375
3998,19.531250
3999,19.531250
4000,19.531250
4001,17.578125
4002,15.625000
4003,15.625000
4004,13.671875
4005,13.671875
4006,13.671875
4007,11.718750
4008,11.718750
4009,9.765625
4010,7.812500
4011,7.812500
4012,5.859375
4013,5.859375
4014,3.906250
4015,1.953125
4016,1.953125
4017,1.953125
4018,0.000000
4019,-1.953125
4020,-3.906250
4021,-3.906250
4022,-3.906250
4023,-5.859375
4024,-7.812500
4025,-7.812500
4026,-9.765625
4027,-9.765625
4028,-11.718750
4029,-13.671875
4030,-13.671875
4031,-15.625000
4032,-15.625000
4033,-17.578125
4034,-19.531250
4035,-19.531250
4036,-21.484375
4037,-21.484375
4038,-23.437500
4039,-25.390625
4040,-25.390625
4041,-25.390625
4042,-27.343750
4043,-29.296875
4044,-29.296875
4045,-31.250000
4046,-33.203125
4047,-33.203125
4048,-33.203125
4049,-35.156250
4050,-37.109375
4051,-37.109375
4052,-37.109375
4053,-39.062500
4054,-41.015625
4055,-41.015625
4056,-41.015625
4057,-42.968750
4058,-42.968750
4059,-44.921875
4060,-44.921875
4061,-46.875000
4062,-46.875000
4063,-48.828125
4064,-48.828125
4065,-48.828125
4066,-50.781250
4067,-50.781250
4068,-50.781250
4069,-52.734375
4070,-52.734375
4071,-52.734375
4072,-54.687500
4073,-54.687500
4074,-54.687500
4075,-54.687500
4076,-56.640625
4077,-56.640625
4078,-56.640625
4079,-56.640625
4080,-58.593750
4081,-58.593750
4082,-58.593750
4083,-58.593750
4084,-58.593750
4085,-58.593750
4086,-58.593750
4087,-58.593750
4088,-60.546875
4089,-60.546875
4090,-60.546875
4091,-60.546875
4092,-60.546875
4093,-58.593750
4094,-60.546875
4095,-58.593750
4096,-60.546875
4097,-60.546875
4098,-60.546875
4099,-60.546875
4100,-58.593750
4101,-60.546875
4102,-58.593750
4103,-58.593750
4104,-58.593750
4105,-58.593750
4106,-56.640625
4107,-58.593750
4108,-56.640625
4109,-56.640625
4110,-56.640625
4111,-54.687500
4112,-54.687500
4113,-54.687500
4114,-54.687500
4115,-54.687500
4116,-52.734375
4117,-52.734375
4118,-52.734375
4119,-50.781250
4120,-50.781250
4121,-50.781250
4122,-48.828125
4123,-48.828125
4124,-48.828125
4125,-46.875000
4126,-46.875000
4127,-44.921875
4128,-44.921875
4129,-42.968750
4130,-42.968750
4131,-42.968750
4132,-41.015625
4133,-41.015625
4134,-39.062500
4135,-39.062500
4136,-37.109375
4137,-37.109375
4138,-35.156250
4139,-35.156250
4140,-33.203125
4141,-33.203125
4142,-31.250000
4143,-31.250000
4144,-29.296875
4145,-27.343750
4146,-27.343750
4147,-25.390625
4148,-25.390625
4149,-23.437500
4150,-23.437500
4151,-21.484375
4152,-19.531250
4153,-19.531250
4154,-17.578125
4155,-17.578125
4156,-15.625000
4157,-15.625000
4158,-13.671875
4159,-11.718750
4160,-11.718750
4161,-9.765625
4162,-9.765625
4163,-7.812500
4164,-5.859375
4165,-5.859375
4166,-3.906250
4167,-3.906250
4168,-1.953125
4169,0.000000
4170,0.000000
4171,1.953125
4172,1.953125
4173,3.906250
4174,3.906250
4175,5.859375
4176,5.859375
4177,7.812500
4178,9.765625
4179,9.765625
4180,11.718750
4181,11.718750
4182,13.671875
4183,13.671875
4184,15.625000
4185,15.625000
4186,17.578125
4187,17.578125
4188,19.531250
4189,21.484375
4190,19.531250
4191,21.484375
4192,23.437500
4193,23.437500
4194,23.437500
4195,25.390625
4196,27.343750
4197,27.343750
4198,27.343750
4199,29.296875
4200,29.296875
4201,31.250000
4202,31.250000
4203,31.250000
4204,31.250000
4205,33.203125
4206,35.156250
4207,35.156250
4208,35.156250
4209,35.156250
4210,37.109375
4211,37.109375
4212,37.109375
4213,37.109375
4214,37.109375
4215,39.062500
4216,39.062500
4217,41.015625
4218,41.015625
4219,41.015625
4220,41.015625
4221,41.015625
4222,41.015625
4223,42.968750
4224,42.968750
4225,42.968750
4226,42.968750
4227,42.968750
4228,42.968750
4229,42.968750
4230,42.968750
4231,42.968750
4232,42.968750
4233,42.968750
4234,42.968750
4235,42.968750
4236,42.968750
4237,42.968750
4238,42.968750
4239,42.968750
4240,42.968750
4241,42.968750
4242,42.968750
4243,42.968750
4244,42.968750
4245,42.968750
4246,42.968750
4247,42.968750
4248,41.015625
4249,41.015625
4250,41.015625
4251,41.015625
4252,41.015625
4253,39.062500
4254,39.062500
4255,39.062500
4256,39.062500
4257,37.109375
4258,37.109375
4259,37.109375
4260,37.109375
4261,37.109375
4262,35.156250
4263,33.203125
4264,33.203125
4265,33.203125
4266,33.203125
4267,31.250000
4268,31.250000
4269,31.250000
4270,29.296875
4271,29.296875
4272,27.343750
4273,27.343750
4274,27.343750
4275,25.390625
4276,25.390625
4277,23.437500
4278,23.437500
4279,23.437500
4280,21.484375
4281,19.531250
4282,19.531250
4283,17.578125
4284,17.578125
4285,15.625000
4286,15.625000
4287,13.671875
4288,13.671875
4289,11.718750
4290,11.718750
4291,9.765625
4292,9.765625
4293,7.812500
4294,7.812500
4295,5.859375
4296,5.859375
4297,3.906250
4298,1.953125
4299,1.953125
4300,0.000000
4301,0.000000
4302,-1.953125
4303,-3.906250
4304,-3.906250
4305,-5.859375
4306,-5.859375
4307,-7.812500
4308,-9.765625
4309,-9.765625
4310,-11.718750
4311,-11.718750
4312,-13.671875
4313,-13.671875
4314,-15.625000
4315,-17.578125
4316,-17.578125
4317,-19.531250
4318,-21.484375
4319,-21.484375
4320,-23.437500
4321,-23.437500
4322,-25.390625
4323,-25.390625
4324,-27.343750
4325,-27.343750
4326,-29.296875
4327,-31.250000
4328,-31.250000
4329,-33.203125
4330,-33.203125
4331,-35.156250
4332,-35.156250
4333,-37.109375
4334,-37.109375
4335,-39.062500
4336,-39.062500
4337,-41.015625
4338,-42.968750
4339,-42.968750
4340,-42.968750
4341,-42.968750
4342,-44.921875
4343,-46.875000
4344,-46.875000
4345,-46.875000
4346,-48.828125
4347,-48.828125
4348,-48.828125
4349,-50.781250
4350,-50.781250
4351,-52.734375
4352,-52.734375
4353,-52.734375
4354,-54.687500
4355,-52.734375
4356,-54.687500
4357,-54.687500
4358,-56.640625
4359,-56.640625
4360,-56.640625
4361,-56.640625
4362,-56.640625
4363,-58.593750
4364,-58.593750
4365,-58.593750
4366,-58.593750
4367,-58.593750
4368,-58.593750
4369,-58.593750
4370,-60.546875
4371,-58.593750
4372,-60.546875
4373,-58.593750
4374,-60.546875
4375,-60.546875
4376,-60.546875
4377,-60.546875
4378,-60.546875
4379,-60.546875
4380,-58.593750
4381,-58.593750
4382,-60.546875
4383,-60.546875
4384,-58.593750
4385,-60.546875
4386,-58.593750
4387,-58.593750
4388,-58.593750
4389,-56.640625
4390,-56.640625
4391,-56.640625
4392,-54.687500
4393,-56.640625
4394,-56.640625
4395,-56.640625
4396,-54.687500
4397,-54.687500
4398,-54.687500
4399,-52.734375
4400,-52.734375
4401,-52.734375
4402,-50.781250
4403,-50.781250
4404,-48.828125
4405,-48.828125
4406,-48.828125
4407,-46.875000
4408,-46.875000
4409,-46.875000
4410,-44.921875
4411,-44.921875
4412,-42.968750
4413,-42.968750
4414,-41.015625
4415,-41.015625
4416,-39.062500
4417,-39.062500
4418,-37.109375
4419,-37.109375
4420,-35.156250
4421,-35.156250
4422,-33.203125
4423,-33.203125
4424,-31.250000
4425,-31.250000
4426,-29.296875
4427,-27.343750
4428,-27.343750
4429,-27.343750
4430,-25.390625
4431,-25.390625
4432,-23.437500
4433,-21.484375
4434,-19.531250
4435,-19.531250
4436,-19.531250
4437,-17.578125
4438,-15.625000
4439,-15.625000
4440,-13.671875
4441,-11.718750
4442,-11.718750
4443,-11.718750
4444,-9.765625
4445,-7.812500
4446,-7.812500
4447,-5.859375
4448,-3.906250
4449,-3.906250
4450,-1.953125
4451,-1.953125
4452,0.000000
4453,0.000000
4454,1.953125
4455,3.906250
4456,3.906250
4457,3.906250
4458,5.859375
4459,7.812500
4460,7.812500
4461,9.765625
4462,11.718750
4463,11.718750
4464,13.671875
4465,13.671875
4466,15.625000
4467,15.625000
4468,17.578125
4469,17.578125
4470,19.531250
4471,19.531250
4472,21.484375
4473,21.484375
4474,23.437500
4475,23.437500
4476,23.437500
4477,25.390625
4478,27.343750
4479,27.343750
4480,27.343750
4481,29.296875
4482,29.296875
4483,29.296875
4484,31.250000
4485,31.250000
4486,33.203125
4487,33.203125
4488,35.156250
4489,35.156250
4490,35.156250
4491,35.156250
4492,37.109375
4493,37.109375
4494,37.109375
4495,37.109375
4496,39.062500
4497,39.062500
4498,39.062500
4499,41.015625
4500,41.015625
4501,41.015625
4502,41.015625
4503,41.015625
4504,41.015625
4505,42.968750
4506,42.968750
4507,42.968750
4508,42.968750
4509,42.968750
4510,42.968750
4511,42.968750
4512,42.968750
4513,42.968750
4514,42.968750
4515,42.968750
4516,42.968750
4517,42.968750
4518,42.968750
4519,42.968750
4520,42.968750
4521,42.968750
4522,42.968750
4523,42.968750
4524,42.968750
4525,42.968750
4526,42.968750
4527,42.968750
4528,42.968750
4529,41.015625
4530,41.015625
4531,42.968750
4532,41.015625
4533,41.015625
4534,39.062500
4535,39.062500
4536,37.109375
4537,39.062500
4538,39.062500
4539,39.062500
4540,37.109375
4541,37.109375
4542,37.109375
4543,35.156250
4544,35.156250
4545,35.156250
4546,35.156250
4547,33.203125
4548,33.203125
4549,31.250000
4550,31.250000
4551,31.250000
4552,29.296875
4553,29.296875
4554,29.296875
4555,27.343750
4556,27.343750
4557,25.390625
4558,25.390625
4559,25.390625
4560,23.437500
4561,21.484375
4562,21.484375
4563,21.484375
4564,19.531250
4565,19.531250
4566,17.578125
4567,17.578125
4568,15.625000
4569,15.625000
4570,13.671875
4571,11.718750
4572,11.718750
4573,9.765625
4574,9.765625
4575,7.812500
4576,5.859375
4577,5.859375
4578,5.859375
4579,3.906250
4580,1.953125
4581,1.953125
4582,0.000000
4583,0.000000
4584,-1.953125
4585,-1.953125
4586,-3.906250
4587,-5.859375
4588,-5.859375
4589,-7.812500
4590,-9.765625
4591,-9.765625
4592,-11.718750
4593,-11.718750
4594,-13.671875
4595,-15.625000
4596,-15.625000
4597,-15.625000
4598,-17.578125
4599,-19.531250
4600,-19.531250
4601,-21.484375
4602,-23.437500
4603,-23.437500
4604,-25.390625
4605,-25.390625
4606,-27.343750
4607,-27.343750
4608,-29.296875
4609,-29.296875
4610,-31.250000
4611,-33.203125
4612,-33.203125
4613,-35.156250
4614,-35.156250
4615,-37.109375
4616,-37.109375
4617,-39.062500
4618,-39.062500
4619,-41.015625
4620,-41.015625
4621,-41.015625
4622,-42.968750
4623,-42.968750
4624,-44.921875
4625,-46.875000
4626,-44.921875
4627,-46.875000
4628,-48.828125
4629,-48.828125
4630,-48.828125
4631,-50.781250
4632,-50.781250
4633,-50.781250
4634,-52.734375
4635,-52.734375
4636,-54.687500
4637,-54.687500
4638,-54.687500
4639,-54.687500
4640,-56.640625
4641,-56.640625
4642,-56.640625
4643,-56.640625
4644,-56.640625
4645,-58.593750
4646,-58.593750
4647,-58.593750
4648,-58.593750
4649,-58.593750
4650,-58.593750
4651,-60.546875
4652,-60.546875
4653,-58.593750
4654,-60.546875
4655,-60.546875
4656,-60.546875
4657,-60.546875
4658,-60.546875
4659,-60.546875
4660,-60.546875
4661,-60.546875
4662,-60.546875
4663,-60.546875
4664,-58.593750
4665,-60.546875
4666,-60.546875
4667,-58.593750
4668,-58.593750
4669,-58.593750
4670,-58.593750
4671,-58.593750
4672,-56.640625
4673,-56.640625
4674,-56.640625
4675,-56.640625
4676,-54.687500
4677,-54.687500
4678,-54.687500
4679,-54.687500
4680,-52.734375
4681,-52.734375
4682,-52.734375
4683,-50.781250
4684,-50.781250
4685,-50.781250
4686,-48.828125
4687,-48.828125
4688,-48.828125
4689,-46.875000
4690,-46.875000
4691,-46.875000
4692,-46.875000
4693,-44.921875
4694,-42.968750
4695,-42.968750
4696,-41.015625
4697,-41.015625
4698,-39.062500
4699,-39.062500
4700,-37.109375
4701,-37.109375
4702,-37.109375
4703,-35.156250
4704,-33.203125
4705,-33.203125
4706,-33.203125
4707,-31.250000
4708,-29.296875
4709,-29.296875
4710,-29.296875
4711,-27.343750
4712,-25.390625
4713,-25.390625
4714,-23.437500
4715,-23.437500
4716,-21.484375
4717,-21.484375
4718,-19.531250
4719,-17.578125
4720,-17.578125
4721,-15.625000
4722,-15.625000
4723,-13.671875
4724,-11.718750
4725,-11.718750
4726,-9.765625
4727,-7.812500
4728,-7.812500
4729,-5.859375
4730,-5.859375
4731,-3.906250
4732,-1.953125
4733,-1.953125
4734,0.000000
4735,1.953125
4736,1.953125
4737,1.953125
4738,3.906250
4739,5.859375
4740,5.859375
4741,9.765625
4742,7.812500
4743,9.765625
4744,9.765625
4745,11.718750
4746,11.718750
4747,13.671875
4748,15.625000
4749,15.625000
4750,17.578125
4751,17.578125
4752,17.578125
4753,19.531250
4754,21.484375
4755,21.484375
4756,23.437500
4757,23.437500
4758,23.437500
4759,25.390625
4760,27.343750
4761,27.343750
4762,27.343750
4763,27.343750
4764,29.296875
4765,29.296875
4766,31.250000
4767,31.250000
4768,33.203125
4769,33.203125
4770,33.203125
4771,33.203125
4772,33.203125
4773,35.156250
4774,37.109375
4775,37.109375
4776,37.109375
4777,37.109375
4778,37.109375
4779,37.109375
4780,39.062500
4781,39.062500
4782,39.062500
4783,39.062500
4784,41.015625
4785,41.015625
4786,41.015625
4787,41.015625
4788,41.015625
4789,42.968750
4790,42.968750
4791,42.968750
4792,42.968750
4793,42.968750
4794,42.968750
4795,42.968750
4796,42.968750
4797,42.968750
4798,42.968750
4799,42.968750
4800,42.968750
4801,42.968750
4802,42.968750
4803,42.968750
4804,42.968750
4805,42.968750
4806,42.968750
4807,42.968750
4808,42.968750
4809,42.968750
4810,42.968750
4811,42.968750
4812,42.968750
4813,41.015625
4814,41.015625
4815,41.015625
4816,41.015625
4817,41.015625
4818,41.015625
4819,39.062500
4820,39.062500
4821,39.062500
4822,37.109375
4823,37.109375
4824,37.109375
4825,35.156250
4826,35.156250
4827,35.156250
4828,35.156250
4829,33.203125
4830,33.203125
4831,31.250000
4832,31.250000
4833,31.250000
4834,31.250000
4835,29.296875
4836,29.296875
4837,27.343750
4838,27.343750
4839,25.390625
4840,25.390625
4841,25.390625
4842,23.437500
4843,21.484375
4844,21.484375
4845,21.484375
4846,19.531250
4847,19.531250
4848,17.578125
4849,17.578125
4850,15.625000
4851,15.625000
4852,13.671875
4853,13.671875
4854,11.718750
4855,11.718750
4856,9.765625
4857,7.812500
4858,7.812500
4859,7.812500
4860,5.859375
4861,3.906250
4862,3.906250
4863,1.953125
4864,1.953125
4865,0.000000
4866,-1.953125
4867,-1.953125
4868,-1.953125
4869,-3.906250
4870,-5.859375
4871,-5.859375
4872,-7.812500
4873,-9.765625
4874,-9.765625
4875,-11.718750
4876,-11.718750
4877,-13.671875
4878,-13.671875
4879,-15.625000
4880,-17.578125
4881,-17.578125
4882,-19.531250
4883,-21.484375
4884,-21.484375
4885,-23.437500
4886,-23.437500
4887,-25.390625
4888,-27.343750
4889,-27.343750
4890,-29.296875
4891,-29.296875
4892,-31.250000
4893,-33.203125
4894,-33.203125
4895,-33.203125
4896,-35.156250
4897,-35.156250
4898,-37.109375
4899,-37.109375
4900,-39.062500
4901,-39.062500
4902,-41.015625
4903,-41.015625
4904,-42.968750
4905,-42.968750
4906,-44.921875
4907,-44.921875
4908,-46.875000
4909,-46.875000
4910,-46.875000
4911,-48.828125
4912,-48.828125
4913,-50.781250
4914,-50.781250
4915,-50.781250
4916,-52.734375
4917,-52.734375
4918,-52.734375
4919,-54.687500
4920,-54.687500
4921,-54.687500
4922,-54.687500
4923,-56.640625
4924,-56.640625
4925,-56.640625
4926,-56.640625
4927,-58.593750
4928,-56.640625
4929,-58.593750
4930,-58.593750
4931,-58.593750
4932,-58.593750
4933,-58.593750
4934,-58.593750
4935,-58.593750
4936,-60.546875
4937,-60.546875
4938,-60.546875
4939,-60.546875
4940,-58.593750
4941,-60.546875
4942,-60.546875
4943,-60.546875
4944,-60.546875
4945,-58.593750
4946,-58.593750
4947,-58.593750
4948,-58.593750
4949,-58.593750
4950,-58.593750
4951,-58.593750
4952,-58.593750
4953,-58.593750
4954,-58.593750
4955,-56.640625
4956,-56.640625
4957,-56.640625
4958,-56.640625
4959,-54.687500
4960,-54.687500
4961,-54.687500
4962,-54.687500
4963,-54.687500
4964,-52.734375
4965,-52.734375
4966,-52.734375
4967,-50.781250
4968,-50.781250
4969,-50.781250
4970,-48.828125
4971,-48.828125
4972,-46.875000
4973,-48.828125
4974,-44.921875
4975,-44.921875
4976,-44.921875
4977,-42.968750
4978,-42.968750
4979,-42.968750
4980,-41.015625
4981,-39.062500
4982,-39.062500
4983,-37.109375
4984,-37.109375
4985,-37.109375
4986,-35.156250
4987,-33.203125
4988,-33.203125
4989,-31.250000
4990,-31.250000
4991,-29.296875
4992,-27.343750
4993,-27.343750
4994,-25.390625
4995,-25.390625
4996,-23.437500
4997,-23.437500
4998,-21.484375
4999,-19.531250
5000,-19.531250
5001,-17.578125
5002,-15.625000
5003,-15.625000
5004,-13.671875
5005,-13.671875
5006,-11.718750
5007,-11.718750
5008,-9.765625
5009,-9.765625
5010,-7.812500
5011,-5.859375
5012,-5.859375
5013,-3.906250
5014,-1.953125
5015,-1.953125
5016,0.000000
5017,0.000000
5018,1.953125
5019,1.953125
5020,3.906250
5021,3.906250
5022,5.859375
5023,5.859375
5024,7.812500
5025,9.765625
5026,9.765625
5027,11.718750
5028,11.718750
5029,13.671875
5030,13.671875
5031,15.625000
5032,15.625000
5033,17.578125
5034,17.578125
5035,17.578125
5036,19.531250
5037,21.484375
5038,21.484375
5039,21.484375
5040,23.437500
5041,25.390625
5042,25.390625
5043,27.343750
5044,27.343750
5045,27.343750
5046,29.296875
5047,29.296875
5048,29.296875
5049,31.250000
5050,31.250000
5051,33.203125
5052,33.203125
5053,33.203125
5054,35.156250
5055,35.156250
5056,37.109375
5057,37.109375
5058,37.109375
5059,37.109375
5060,39.062500
5061,39.062500
5062,39.062500
5063,39.062500
5064,41.015625
5065,41.015625
5066,41.015625
5067,41.015625
5068,41.015625
5069,42.968750
5070,41.015625
5071,41.015625
5072,42.968750
5073,42.968750
5074,42.968750
5075,42.968750
5076,42.968750
5077,42.968750
5078,42.968750
5079,42.968750
5080,42.968750
5081,42.968750
5082,42.968750
5083,42.968750
5084,42.968750
5085,42.968750
5086,42.968750
5087,42.968750
5088,42.968750
5089,42.968750
5090,42.968750
5091,42.968750
5092,42.968750
5093,42.968750
5094,41.015625
5095,41.015625
5096,41.015625
5097,41.015625
5098,41.015625
5099,39.062500
5100,39.062500
5101,39.062500
5102,39.062500
5103,39.062500
5104,37.109375
5105,37.109375
5106,37.109375
5107,35.156250
5108,35.156250
5109,35.156250
5110,33.203125
5111,33.203125
5112,33.203125
5113,33.203125
5114,31.250000
5115,31.250000
5116,31.250000
5117,29.296875
5118,29.296875
5119,29.296875
5120,27.343750
5121,25.390625
5122,25.390625
5123,25.390625
5124,23.437500
5125,23.437500
5126,21.484375
5127,21.484375
5128,21.484375
5129,19.531250
5130,19.531250
5131,17.578125
5132,15.625000
5133,15.625000
5134,13.671875
5135,13.671875
5136,11.718750
5137,11.718750
5138,9.765625
5139,7.812500
5140,7.812500
5141,7.812500
5142,5.859375
5143,3.906250
5144,3.906250
5145,1.953125
5146,1.953125
5147,0.000000
5148,0.000000
5149,-1.953125
5150,-3.906250
5151,-1.953125
5152,-5.859375
5153,-5.859375
5154,-7.812500
5155,-9.765625
5156,-9.765625
5157,-11.718750
5158,-13.671875
5159,-13.671875
5160,-13.671875
5161,-15.625000
5162,-17.578125
5163,-17.578125
5164,-19.531250
5165,-21.484375
5166,-21.484375
5167,-23.437500
5168,-25.390625
5169,-25.390625
5170,-27.343750
5171,-27.343750
5172,-29.296875
5173,-29.296875
5174,-31.250000
5175,-31.250000
5176,-33.203125
5177,-33.203125
5178,-35.156250
5179,-35.156250
5180,-37.109375
5181,-37.109375
5182,-39.062500
5183,-39.062500
5184,-41.015625
5185,-41.015625
5186,-42.968750
5187,-42.968750
5188,-44.921875
5189,-44.921875
5190,-44.921875
5191,-46.875000
5192,-46.875000
5193,-48.828125
5194,-48.828125
5195,-48.828125
5196,-50.781250
5197,-50.781250
5198,-50.781250
5199,-52.734375
5200,-52.734375
5201,-54.687500
5202,-54.687500
5203,-54.687500
5204,-54.687500
5205,-54.687500
5206,-56.640625
5207,-56.640625
5208,-56.640625
5209,-56.640625
5210,-58.593750
5211,-58.593750
5212,-58.593750
5213,-58.593750
5214,-58.593750
5215,-58.593750
5216,-60.546875
5217,-60.546875
5218,-60.546875
5219,-60.546875
5220,-60.546875
5221,-60.546875
5222,-60.546875
5223,-60.546875
5224,-60.546875
5225,-60.546875
5226,-60.546875
5227,-60.546875
5228,-60.546875
5229,-60.546875
5230,-60.546875
5231,-60.546875
5232,-58.593750
5233,-58.593750
5234,-58.593750
5235,-58.593750
5236,-58.593750
5237,-58.593750
5238,-56.640625
5239,-56.640625
5240,-56.640625
5241,-56.640625
5242,-54.687500
5243,-54.687500
5244,-54.687500
5245,-54.687500
5246,-52.734375
5247,-52.734375
5248,-52.734375
5249,-50.781250
5250,-50.781250
5251,-50.781250
5252,-48.828125
5253,-48.828125
5254,-46.875000
5255,-46.875000
5256,-44.921875
5257,-44.921875
5258,-44.921875
5259,-42.968750
5260,-42.968750
5261,-41.015625
5262,-41.015625
5263,-39.062500
5264,-39.062500
5265,-37.109375
5266,-37.109375
5267,-35.156250
5268,-35.156250
5269,-33.203125
5270,-31.250000
5271,-31.250000
5272,-31.250000
5273,-29.296875
5274,-29.296875
5275,-27.343750
5276,-25.390625
5277,-25.390625
5278,-23.437500
5279,-23.437500
5280,-23.437500
5281,-21.484375
5282,-19.531250
5283,-17.578125
5284,-17.578125
5285,-15.625000
5286,-15.625000
5287,-13.671875
5288,-11.718750
5289,-11.718750
5290,-9.765625
5291,-9.765625
5292,-7.812500
5293,-7.812500
5294,-5.859375
5295,-3.906250
5296,-3.906250
5297,-3.906250
5298,-1.953125
5299,0.000000
5300,1.953125
5301,1.953125
5302,3.906250
5303,3.906250
5304,5.859375
5305,5.859375
5306,7.812500
5307,9.765625
5308,9.765625
5309,9.765625
5310,11.718750
5311,13.671875
5312,13.671875
5313,15.625000
5314,15.625000
5315,17.578125
5316,17.578125
5317,19.531250
5318,19.531250
5319,21.484375
5320,21.484375
5321,23.437500
5322,23.437500
5323,25.390625
5324,25.390625
5325,25.390625
5326,27.343750
5327,27.343750
5328,29.296875
5329,29.296875
5330,31.250000
5331,31.250000
5332,31.250000
5333,33.203125
5334,33.203125
5335,33.203125
5336,35.156250
5337,35.156250
5338,35.156250
5339,35.156250
5340,37.109375
5341,37.109375
5342,37.109375
5343,39.062500
5344,39.062500
5345,39.062500
5346,39.062500
5347,39.062500
5348,41.015625
5349,41.015625
5350,41.015625
5351,41.015625
5352,42.968750
5353,42.968750
5354,42.968750
5355,42.968750
5356,42.968750
5357,42.968750
5358,42.968750
5359,42.968750
5360,42.968750
5361,42.968750
5362,42.968750
5363,42.968750
5364,42.968750
5365,42.968750
5366,42.968750
5367,42.968750
5368,42.968750
5369,42.968750
5370,42.968750
5371,42.968750
5372,42.968750
5373,42.968750
5374,42.968750
5375,41.015625
5376,42.968750
5377,42.968750
5378,41.015625
5379,41.015625
5380,41.015625
5381,41.015625
5382,39.062500
5383,39.062500
5384,39.062500
5385,39.062500
5386,39.062500
5387,39.062500
5388,37.109375
5389,37.109375
5390,37.109375
5391,35.156250
5392,35.156250
5393,35.156250
5394,33.203125
5395,33.203125
5396,33.203125
5397,31.250000
5398,31.250000
5399,29.296875
5400,29.296875
5401,29.296875
5402,27.343750
5403,27.343750
5404,25.390625
5405,25.390625
5406,23.437500
5407,23.437500
5408,23.437500
5409,21.484375
5410,19.531250
5411,19.531250
5412,19.531250
5413,17.578125
5414,17.578125
5415,15.625000
5416,13.671875
5417,13.671875
5418,13.671875
5419,11.718750
5420,9.765625
5421,9.765625
5422,7.812500
5423,7.812500
5424,5.859375
5425,3.906250
5426,3.906250
5427,1.953125
5428,1.953125
5429,0.000000
5430,0.000000
5431,-1.953125
5432,-3.906250
5433,-3.906250
5434,-3.906250
5435,-5.859375
5436,-7.812500
5437,-7.812500
5438,-9.765625
5439,-11.718750
5440,-11.718750
5441,-13.671875
5442,-15.625000
5443,-15.625000
5444,-17.578125
5445,-17.578125
5446,-19.531250
5447,-21.484375
5448,-21.484375
5449,-21.484375
5450,-23.437500
5451,-25.390625
5452,-25.390625
5453,-27.343750
5454,-27.343750
5455,-29.296875
5456,-29.296875
5457,-31.250000
5458,-31.250000
5459,-33.203125
5460,-33.203125
5461,-35.156250
5462,-37.109375
5463,-37.109375
5464,-39.062500
5465,-39.062500
5466,-41.015625
5467,-41.015625
5468,-41.015625
5469,-42.968750
5470,-44.921875
5471,-44.921875
5472,-44.921875
5473,-46.875000
5474,-46.875000
5475,-48.828125
5476,-48.828125
5477,-48.828125
5478,-50.781250
5479,-50.781250
5480,-50.781250
5481,-52.734375
5482,-52.734375
5483,-52.734375
5484,-54.687500
5485,-54.687500
5486,-54.687500
5487,-56.640625
5488,-56.640625
5489,-56.640625
5490,-56.640625
5491,-56.640625
5492,-58.593750
5493,-58.593750
5494,-58.593750
5495,-58.593750
5496,-58.593750
5497,-60.546875
5498,-60.546875
5499,-60.546875
5500,-60.546875
5501,-60.546875
5502,-60.546875
5503,-60.546875
5504,-60.546875
5505,-60.546875
5506,-60.546875
5507,-60.546875
5508,-60.546875
5509,-60.546875
5510,-60.546875
5511,-60.546875
5512,-58.593750
5513,-58.593750
5514,-58.593750
5515,-58.593750
5516,-58.593750
5517,-58.593750
5518,-58.593750
5519,-56.640625
5520,-56.640625
5521,-56.640625
5522,-56.640625
5523,-56.640625
5524,-54.687500
5525,-54.687500
5526,-54.687500
5527,-54.687500
5528,-52.734375
5529,-52.734375
5530,-52.734375
5531,-50.781250
5532,-50.781250
5533,-50.781250
5534,-48.828125
5535,-48.828125
5536,-46.875000
5537,-46.875000
5538,-46.875000
5539,-44.921875
5540,-44.921875
5541,-44.921875
5542,-42.968750
5543,-41.015625
5544,-41.015625
5545,-41.015625
5546,-39.062500
5547,-37.109375
5548,-37.109375
5549,-35.156250
5550,-35.156250
5551,-35.156250
5552,-33.203125
5553,-33.203125
5554,-31.250000
5555,-29.296875
5556,-29.296875
5557,-29.296875
5558,-27.343750
5559,-29.296875
5560,-25.390625
5561,-23.437500
5562,-23.437500
5563,-21.484375
5564,-19.531250
5565,-19.531250
5566,-19.531250
5567,-15.625000
5568,-15.625000
5569,-15.625000
5570,-13.671875
5571,-11.718750
5572,-11.718750
5573,-9.765625
5574,-9.765625
5575,-7.812500
5576,-5.859375
5577,-3.906250
5578,-3.906250
5579,-3.906250
5580,-1.953125
5581,0.000000
5582,0.000000
5583,1.953125
5584,3.906250
5585,3.906250
5586,5.859375
5587,5.859375
5588,7.812500
5589,9.765625
5590,9.765625
5591,9.765625
5592,11.718750
5593,13.671875
5594,13.671875
5595,13.671875
5596,15.625000
5597,17.578125
5598,17.578125
5599,17.578125
5600,19.531250
5601,21.484375
5602,21.484375
5603,21.484375
5604,23.437500
5605,23.437500
5606,25.390625
5607,25.390625
5608,25.390625
5609,27.343750
5610,29.296875
5611,29.296875
5612,29.296875
5613,31.250000
5614,31.250000
5615,31.250000
5616,33.203125
5617,33.203125
5618,33.203125
5619,35.156250
5620,35.156250
5621,35.156250
5622,37.109375
5623,37.109375
5624,37.109375
5625,37.109375
5626,39.062500
5627,39.062500
5628,39.062500
5629,39.062500
5630,41.015625
5631,41.015625
5632,41.015625
5633,41.015625
5634,41.015625
5635,42.968750
5636,42.968750
5637,42.968750
5638,42.968750
5639,42.968750
5640,42.968750
5641,42.968750
5642,42.968750
5643,42.968750
5644,42.968750
5645,42.968750
5646,42.968750
5647,42.968750
5648,44.921875
5649,42.968750
5650,42.968750
5651,42.968750
5652,42.968750
5653,42.968750
5654,42.968750
5655,42.968750
5656,42.968750
5657,42.968750
5658,42.968750
5659,42.968750
5660,42.968750
5661,41.015625
5662,41.015625
5663,41.015625
5664,39.062500
5665,39.062500
5666,39.062500
5667,39.062500
5668,39.062500
5669,37.109375
5670,37.109375
5671,37.109375
5672,37.109375
5673,35.156250
5674,33.203125
5675,35.156250
5676,33.203125
5677,33.203125
5678,31.250000
5679,31.250000
5680,31.250000
5681,31.250000
5682,29.296875
5683,27.343750
5684,27.343750
5685,27.343750
5686,25.390625
5687,25.390625
5688,25.390625
5689,23.437500
5690,23.437500
5691,19.531250
5692,19.531250
5693,19.531250
5694,19.531250
5695,17.578125
5696,15.625000
5697,17.578125
5698,15.625000
5699,13.671875
5700,13.671875
5701,11.718750
5702,13.671875
5703,9.765625
5704,9.765625
5705,7.812500
5706,5.859375
5707,7.812500
5708,3.906250
5709,3.906250
5710,1.953125
5711,0.000000
5712,0.000000
5713,-1.953125
5714,-1.953125
5715,-3.906250
5716,-3.906250
5717,-5.859375
5718,-7.812500
5719,-7.812500
5720,-9.765625
5721,-9.765625
5722,-11.718750
5723,-13.671875
5724,-13.671875
5725,-15.625000
5726,-15.625000
5727,-17.578125
5728,-17.578125
5729,-19.531250
5730,-21.484375
5731,-23.437500
5732,-23.437500
5733,-23.437500
5734,-25.390625
5735,-27.343750
5736,-29.296875
5737,-29.296875
5738,-29.296875
5739,-31.250000
5740,-31.250000
5741,-33.203125
5742,-35.156250
5743,-35.156250
5744,-37.109375
5745,-37.109375
5746,-39.062500
5747,-39.062500
5748,-41.015625
5749,-41.015625
5750,-42.968750
5751,-44.921875
5752,-44.921875
5753,-44.921875
5754,-44.921875
5755,-46.875000
5756,-46.875000
5757,-48.828125
5758,-48.828125
5759,-48.828125
5760,-50.781250
5761,-50.781250
5762,-50.781250
5763,-52.734375
5764,-52.734375
5765,-52.734375
5766,-54.687500
5767,-54.687500
5768,-54.687500
5769,-54.687500
5770,-56.640625
5771,-56.640625
5772,-56.640625
5773,-56.640625
5774,-56.640625
5775,-58.593750
5776,-58.593750
5777,-58.593750
5778,-58.593750
5779,-60.546875
5780,-58.593750
5781,-58.593750
5782,-58.593750
5783,-60.546875
5784,-60.546875
5785,-60.546875
5786,-60.546875
5787,-60.546875
5788,-60.546875
5789,-60.546875
5790,-60.546875
5791,-60.546875
5792,-58.593750
5793,-60.546875
5794,-60.546875
5795,-60.546875
5796,-60.546875
5797,-58.593750
5798,-58.593750
5799,-58.593750
5800,-58.593750
5801,-58.593750
5802,-58.593750
5803,-56.640625
5804,-56.640625
5805,-56.640625
5806,-56.640625
5807,-56.640625
5808,-54.687500
5809,-54.687500
5810,-54.687500
5811,-52.734375
5812,-52.734375
5813,-52.734375
5814,-50.781250
5815,-50.781250
5816,-50.781250
5817,-48.828125
5818,-48.828125
5819,-46.875000
5820,-46.875000
5821,-46.875000
5822,-44.921875
5823,-44.921875
5824,-42.968750
5825,-42.968750
5826,-41.015625
5827,-41.015625
5828,-39.062500
5829,-39.062500
5830,-37.109375
5831,-37.109375
5832,-35.156250
5833,-35.156250
5834,-33.203125
5835,-33.203125
5836,-31.250000
5837,-31.250000
5838,-29.296875
5839,-27.343750
5840,-27.343750
5841,-25.390625
5842,-25.390625
5843,-23.437500
5844,-23.437500
5845,-21.484375
5846,-19.531250
5847,-19.531250
5848,-17.578125
5849,-17.578125
5850,-17.578125
5851,-15.625000
5852,-13.671875
5853,-11.718750
5854,-11.718750
5855,-9.765625
5856,-9.765625
5857,-7.812500
5858,-5.859375
5859,-5.859375
5860,-3.906250
5861,-3.906250
5862,-1.953125
5863,-1.953125
5864,0.000000
5865,1.953125
5866,3.906250
5867,5.859375
5868,5.859375
5869,5.859375
5870,5.859375
5871,7.812500
5872,9.765625
5873,9.765625
5874,11.718750
5875,11.718750
5876,13.671875
5877,13.671875
5878,15.625000
5879,15.625000
5880,17.578125
5881,17.578125
5882,19.531250
5883,19.531250
5884,21.484375
5885,21.484375
5886,23.437500
5887,23.437500
5888,23.437500
5889,25.390625
5890,25.390625
5891,27.343750
5892,27.343750
5893,29.296875
5894,29.296875
5895,31.250000
5896,31.250000
5897,31.250000
5898,37.109375
5899,33.203125
5900,33.203125
5901,35.156250
5902,35.156250
5903,35.156250
5904,37.109375
5905,37.109375
5906,37.109375
5907,39.062500
5908,39.062500
5909,39.062500
5910,39.062500
5911,39.062500
5912,41.015625
5913,41.015625
5914,41.015625
5915,42.968750
5916,41.015625
5917,41.015625
5918,42.968750
5919,41.015625
5920,42.968750
5921,42.968750
5922,42.968750
5923,42.968750
5924,42.968750
5925,42.968750
5926,42.968750
5927,42.968750
5928,42.968750
5929,42.968750
5930,44.921875
5931,42.968750
5932,42.968750
5933,42.968750
5934,41.015625
5935,42.968750
5936,46.875000
5937,42.968750
5938,42.968750
5939,42.968750
5940,42.968750
5941,42.968750
5942,41.015625
5943,41.015625
5944,41.015625
5945,41.015625
5946,41.015625
5947,39.062500
5948,39.062500
5949,39.062500
5950,37.109375
5951,37.109375
5952,35.156250
5953,37.109375
5954,37.109375
5955,35.156250
5956,35.156250
5957,35.156250
5958,35.156250
5959,33.203125
5960,33.203125
5961,31.250000
5962,31.250000
5963,31.250000
5964,29.296875
5965,29.296875
5966,27.343750
5967,27.343750
5968,27.343750
5969,27.343750
5970,25.390625
5971,25.390625
5972,23.437500
5973,23.437500
5974,21.484375
5975,19.531250
5976,19.531250
5977,17.578125
5978,17.578125
5979,15.625000
5980,15.625000
5981,15.625000
5982,13.671875
5983,11.718750
5984,11.718750
5985,9.765625
5986,9.765625
5987,7.812500
5988,7.812500
5989,5.859375
5990,3.906250
5991,3.906250
5992,1.953125
5993,1.953125
5994,0.000000
5995,0.000000
5996,-1.953125
5997,-3.906250
5998,-3.906250
5999,-5.859375
6000,-5.859375
6001,-7.812500
6002,-9.765625
6003,-9.765625
6004,-11.718750
6005,-11.718750
6006,-13.671875
6007,-15.625000
6008,-15.625000
6009,-17.578125
6010,-17.578125
6011,-19.531250
6012,-21.484375
6013,-21.484375
6014,-23.437500
6015,-23.437500
6016,-25.390625
6017,-25.390625
6018,-27.343750
6019,-29.296875
6020,-29.296875
6021,-31.250000
6022,-31.250000
6023,-33.203125
6024,-33.203125
6025,-35.156250
6026,-35.156250
6027,-37.109375
6028,-37.109375
6029,-39.062500
6030,-39.062500
6031,-41.015625
6032,-41.015625
6033,-42.968750
6034,-42.968750
6035,-44.921875
6036,-44.921875
6037,-44.921875
6038,-46.875000
6039,-46.875000
6040,-46.875000
6041,-48.828125
6042,-48.828125
6043,-50.781250
6044,-50.781250
6045,-50.781250
6046,-52.734375
6047,-52.734375
6048,-52.734375
6049,-54.687500
6050,-54.687500
6051,-54.687500
6052,-56.640625
6053,-56.640625
6054,-56.640625
6055,-56.640625
6056,-56.640625
6057,-56.640625
6058,-58.593750
6059,-58.593750
6060,-58.593750
6061,-58.593750
6062,-58.593750
6063,-60.546875
6064,-60.546875
6065,-58.593750
6066,-60.546875
6067,-60.546875
6068,-60.546875
6069,-60.546875
6070,-60.546875
6071,-60.546875
6072,-60.546875
6073,-60.546875
6074,-60.546875
6075,-60.546875
6076,-60.546875
6077,-60.546875
6078,-60.546875
6079,-58.593750
6080,-58.593750
6081,-58.593750
6082,-58.593750
6083,-58.593750
6084,-56.640625
6085,-56.640625
6086,-56.640625
6087,-56.640625
6088,-56.640625
6089,-54.687500
6090,-54.687500
6091,-54.687500
6092,-52.734375
6093,-52.734375
6094,-52.734375
6095,-50.781250
6096,-50.781250
6097,-50.781250
6098,-50.781250
6099,-48.828125
6100,-46.875000
6101,-46.875000
6102,-46.875000
6103,-46.875000
6104,-44.921875
6105,-44.921875
6106,-42.968750
6107,-41.015625
6108,-41.015625
6109,-41.015625
6110,-39.062500
6111,-39.062500
6112,-37.109375
6113,-37.109375
6114,-35.156250
6115,-35.156250
6116,-35.156250
6117,-33.203125
6118,-31.250000
6119,-31.250000
6120,-29.296875
6121,-27.343750
6122,-27.343750
6123,-27.343750
6124,-25.390625
6125,-23.437500
6126,-23.437500
6127,-21.484375
6128,-19.531250
6129,-19.531250
6130,-19.531250
6131,-17.578125
6132,-17.578125
6133,-13.671875
6134,-13.671875
6135,-9.765625
6136,-11.718750
6137,-9.765625
6138,-9.765625
6139,-7.812500
6140,-7.812500
6141,-5.859375
6142,-3.906250
6143,-3.906250
6144,-1.953125
6145,-1.953125
6146,0.000000
6147,0.000000
6148,1.953125
6149,3.906250
6150,3.906250
6151,5.859375
6152,7.812500
6153,7.812500
6154,9.765625
6155,9.765625
6156,9.765625
6157,11.718750
6158,11.718750
6159,15.625000
6160,15.625000
6161,15.625000
6162,17.578125
6163,17.578125
6164,19.531250
6165,19.531250
6166,21.484375
6167,21.484375
6168,23.437500
6169,23.437500
6170,25.390625
6171,25.390625
6172,25.390625
6173,27.343750
6174,27.343750
6175,29.296875
6176,29.296875
6177,29.296875
6178,31.250000
6179,31.250000
6180,33.203125
6181,33.203125
6182,33.203125
6183,35.156250
6184,35.156250
6185,35.156250
6186,35.156250
6187,37.109375
6188,37.109375
6189,37.109375
6190,39.062500
6191,39.062500
6192,41.015625
6193,39.062500
6194,39.062500
6195,41.015625
6196,41.015625
6197,41.015625
6198,41.015625
6199,42.968750
6200,41.015625
6201,42.968750
6202,42.968750
6203,42.968750
6204,42.968750
6205,42.968750
6206,42.968750
6207,42.968750
6208,42.968750
6209,42.968750
6210,42.968750
6211,42.968750
6212,42.968750
6213,44.921875
6214,44.921875
6215,42.968750
6216,42.968750
6217,42.968750
6218,42.968750
6219,42.968750
6220,42.968750
6221,42.968750
6222,42.968750
6223,41.015625
6224,41.015625
6225,42.968750
6226,41.015625
6227,41.015625
6228,41.015625
6229,41.015625
6230,41.015625
6231,39.062500
6232,39.062500
6233,39.062500
6234,37.109375
6235,37.109375
6236,37.109375
6237,37.109375
6238,35.156250
6239,35.156250
6240,35.156250
6241,33.203125
6242,33.203125
6243,33.203125
6244,31.250000
6245,31.250000
6246,29.296875
6247,29.296875
6248,29.296875
6249,27.343750
6250,25.390625
6251,25.390625
6252,25.390625
6253,25.390625
6254,23.437500
6255,21.484375
6256,21.484375
6257,21.484375
6258,19.531250
6259,19.531250
6260,17.578125
6261,15.625000
6262,15.625000
6263,13.671875
6264,13.671875
6265,13.671875
6266,11.718750
6267,9.765625
6268,9.765625
6269,7.812500
6270,7.812500
6271,5.859375
6272,3.906250
6273,3.906250
6274,1.953125
6275,1.953125
6276,0.000000
6277,0.000000
6278,-1.953125
6279,-1.953125
6280,-3.906250
6281,-5.859375
6282,-5.859375
6283,-7.812500
6284,-7.812500
6285,-9.765625
6286,-9.765625
6287,-11.718750
6288,-13.671875
6289,-13.671875
6290,-15.625000
6291,-15.625000
6292,-17.578125
6293,-19.531250
6294,-19.531250
6295,-21.484375
6296,-21.484375
6297,-23.437500
6298,-25.390625
6299,-25.390625
6300,-25.390625
6301,-27.343750
6302,-29.296875
6303,-29.296875
6304,-31.250000
6305,-31.250000
6306,-33.203125
6307,-35.156250
6308,-35.156250
6309,-35.156250
6310,-37.109375
6311,-39.062500
6312,-39.062500
6313,-39.062500
6314,-41.015625
6315,-42.968750
6316,-42.968750
6317,-44.921875
6318,-44.921875
6319,-46.875000
6320,-46.875000
6321,-46.875000
6322,-48.828125
6323,-48.828125
6324,-48.828125
6325,-50.781250
6326,-50.781250
6327,-50.781250
6328,-52.734375
6329,-52.734375
6330,-54.687500
6331,-54.687500
6332,-54.687500
6333,-54.687500
6334,-56.640625
6335,-56.640625
6336,-56.640625
6337,-56.640625
6338,-56.640625
6339,-58.593750
6340,-58.593750
6341,-58.593750
6342,-58.593750
6343,-58.593750
6344,-58.593750
6345,-58.593750
6346,-60.546875
6347,-60.546875
6348,-60.546875
6349,-60.546875
6350,-60.546875
6351,-60.546875
6352,-60.546875
6353,-60.546875
6354,-60.546875
6355,-60.546875
6356,-60.546875
6357,-60.546875
6358,-58.593750
6359,-60.546875
6360,-58.593750
6361,-58.593750
6362,-58.593750
6363,-58.593750
6364,-58.593750
6365,-56.640625
6366,-58.593750
6367,-56.640625
6368,-56.640625
6369,-56.640625
6370,-56.640625
6371,-56.640625
6372,-54.687500
6373,-54.687500
6374,-54.687500
6375,-52.734375
6376,-52.734375
6377,-52.734375
6378,-50.781250
6379,-50.781250
6380,-50.781250
6381,-48.828125
6382,-48.828125
6383,-46.875000
6384,-46.875000
6385,-46.875000
6386,-44.921875
6387,-44.921875
6388,-42.968750
6389,-42.968750
6390,-42.968750
6391,-41.015625
6392,-41.015625
6393,-39.062500
6394,-39.062500
6395,-37.109375
6396,-37.109375
6397,-35.156250
6398,-35.156250
6399,-33.203125
6400,-33.203125
6401,-31.250000
6402,-31.250000
6403,-29.296875
6404,-27.343750
6405,-27.343750
6406,-25.390625
6407,-25.390625
6408,-23.437500
6409,-23.437500
6410,-21.484375
6411,-19.531250
6412,-19.531250
6413,-17.578125
6414,-15.625000
6415,-15.625000
6416,-13.671875
6417,-13.671875
6418,-11.718750
6419,-9.765625
6420,-9.765625
6421,-7.812500
6422,-7.812500
6423,-5.859375
6424,-5.859375
6425,-3.906250
6426,-1.953125
6427,-1.953125
6428,0.000000
6429,0.000000
6430,1.953125
6431,3.906250
6432,3.906250
6433,5.859375
6434,5.859375
6435,7.812500
6436,7.812500
6437,9.765625
6438,11.718750
6439,11.718750
6440,13.671875
6441,13.671875
6442,15.625000
6443,15.625000
6444,15.625000
6445,17.578125
6446,19.531250
6447,19.531250
6448,21.484375
6449,21.484375
6450,21.484375
6451,23.437500
6452,23.437500
6453,25.390625
6454,27.343750
6455,27.343750
6456,27.343750
6457,29.296875
6458,29.296875
6459,29.296875
6460,31.250000
6461,31.250000
6462,31.250000
6463,33.203125
6464,33.203125
6465,33.203125
6466,35.156250
6467,35.156250
6468,37.109375
6469,37.109375
6470,33.203125
6471,37.109375
6472,39.062500
6473,39.062500
6474,39.062500
6475,39.062500
6476,39.062500
6477,41.015625
6478,41.015625
6479,41.015625
6480,41.015625
6481,42.968750
6482,42.968750
6483,42.968750
6484,42.968750
6485,42.968750
6486,44.921875
6487,42.968750
6488,42.968750
6489,42.968750
6490,42.968750
6491,42.968750
6492,42.968750
6493,42.968750
6494,42.968750
6495,42.968750
6496,44.921875
6497,42.968750
6498,42.968750
6499,42.968750
6500,42.968750
6501,42.968750
6502,42.968750
6503,42.968750
6504,42.968750
6505,42.968750
6506,41.015625
6507,41.015625
6508,41.015625
6509,41.015625
6510,41.015625
6511,39.062500
6512,39.062500
6513,39.062500
6514,39.062500
6515,37.109375
6516,37.109375
6517,37.109375
6518,37.109375
6519,37.109375
6520,35.156250
6521,35.156250
6522,35.156250
6523,33.203125
6524,33.203125
6525,33.203125
6526,31.250000
6527,31.250000
6528,31.250000
6529,29.296875
6530,29.296875
6531,27.343750
6532,27.343750
6533,25.390625
6534,25.390625
6535,23.437500
6536,23.437500
6537,21.484375
6538,21.484375
6539,21.484375
6540,19.531250
6541,19.531250
6542,17.578125
6543,17.578125
6544,15.625000
6545,15.625000
6546,13.671875
6547,13.671875
6548,11.718750
6549,11.718750
6550,9.765625
6551,9.765625
6552,7.812500
6553,7.812500
6554,5.859375
6555,3.906250
6556,3.906250
6557,1.953125
6558,1.953125
6559,0.000000
6560,-1.953125
6561,-1.953125
6562,-3.906250
6563,-5.859375
6564,-5.859375
6565,-7.812500
6566,-7.812500
6567,-9.765625
6568,-9.765625
6569,-11.718750
6570,-13.671875
6571,-13.671875
6572,-15.625000
6573,-15.625000
6574,-17.578125
6575,-17.578125
6576,-19.531250
6577,-21.484375
6578,-21.484375
6579,-23.437500
6580,-23.437500
6581,-25.390625
6582,-27.343750
6583,-29.296875
6584,-29.296875
6585,-29.296875
6586,-31.250000
6587,-31.250000
6588,-33.203125
6589,-33.203125
6590,-35.156250
6591,-37.109375
6592,-37.109375
6593,-39.062500
6594,-39.062500
6595,-39.062500
6596,-41.015625
6597,-41.015625
6598,-42.968750
6599,-42.968750
6600,-44.921875
6601,-44.921875
6602,-46.875000
6603,-46.875000
6604,-46.875000
6605,-48.828125
6606,-48.828125
6607,-48.828125
6608,-50.781250
6609,-50.781250
6610,-52.734375
6611,-52.734375
6612,-52.734375
6613,-52.734375
6614,-54.687500
6615,-54.687500
6616,-54.687500
6617,-54.687500
6618,-56.640625
6619,-56.640625
6620,-56.640625
6621,-56.640625
6622,-58.593750
6623,-58.593750
6624,-58.593750
6625,-58.593750
6626,-58.593750
6627,-58.593750
6628,-58.593750
6629,-60.546875
6630,-58.593750
6631,-60.546875
6632,-60.546875
6633,-60.546875
6634,-60.546875
6635,-60.546875
6636,-60.546875
6637,-60.546875
6638,-60.546875
6639,-60.546875
6640,-60.546875
6641,-60.546875
6642,-60.546875
6643,-58.593750
6644,-58.593750
6645,-58.593750
6646,-58.593750
6647,-58.593750
6648,-58.593750
6649,-58.593750
6650,-56.640625
6651,-56.640625
6652,-56.640625
6653,-54.687500
6654,-54.687500
6655,-54.687500
6656,-54.687500
6657,-52.734375
6658,-52.734375
6659,-52.734375
6660,-52.734375
6661,-50.781250
6662,-50.781250
6663,-48.828125
6664,-48.828125
6665,-48.828125
6666,-46.875000
6667,-46.875000
6668,-44.921875
6669,-44.921875
6670,-44.921875
6671,-42.968750
6672,-42.968750
6673,-41.015625
6674,-41.015625
6675,-39.062500
6676,-39.062500
6677,-37.109375
6678,-37.109375
6679,-35.156250
6680,-35.156250
6681,-33.203125
6682,-31.250000
6683,-31.250000
6684,-31.250000
6685,-29.296875
6686,-27.343750
6687,-27.343750
6688,-25.390625
6689,-25.390625
6690,-23.437500
6691,-23.437500
6692,-21.484375
6693,-19.531250
6694,-19.531250
6695,-17.578125
6696,-17.578125
6697,-15.625000
6698,-15.625000
6699,-13.671875
6700,-11.718750
6701,-11.718750
6702,-9.765625
6703,-7.812500
6704,-7.812500
6705,-5.859375
6706,-5.859375
6707,-3.906250
6708,-3.906250
6709,-1.953125
6710,-1.953125
6711,0.000000
6712,1.953125
6713,1.953125
6714,3.906250
6715,3.906250
6716,5.859375
6717,7.812500
6718,7.812500
6719,9.765625
6720,9.765625
6721,9.765625
6722,11.718750
6723,13.671875
6724,13.671875
6725,15.625000
6726,15.625000
6727,17.578125
6728,17.578125
6729,19.531250
6730,21.484375
6731,21.484375
6732,21.484375
6733,23.437500
6734,23.437500
6735,25.390625
6736,25.390625
6737,27.343750
6738,27.343750
6739,27.343750
6740,29.296875
6741,29.296875
6742,31.250000
6743,31.250000
6744,31.250000
6745,33.203125
6746,33.203125
6747,33.203125
6748,35.156250
6749,35.156250
6750,37.109375
6751,37.109375
6752,37.109375
6753,37.109375
6754,39.062500
6755,39.062500
6756,39.062500
6757,39.062500
6758,39.062500
6759,41.015625
6760,41.015625
6761,41.015625
6762,41.015625
6763,41.015625
6764,42.968750
6765,41.015625
6766,41.015625
6767,42.968750
6768,42.968750
6769,42.968750
6770,42.968750
6771,42.968750
6772,42.968750
6773,42.968750
6774,42.968750
6775,42.968750
6776,44.921875
6777,42.968750
6778,42.968750
6779,42.968750
6780,42.968750
6781,42.968750
6782,42.968750
6783,42.968750
6784,42.968750
6785,42.968750
6786,42.968750
6787,41.015625
6788,41.015625
6789,41.015625
6790,41.015625
6791,41.015625
6792,41.015625
6793,41.015625
6794,39.062500
6795,39.062500
6796,39.062500
6797,39.062500
6798,37.109375
6799,37.109375
6800,37.109375
6801,37.109375
6802,37.109375
6803,35.156250
6804,35.156250
6805,35.156250
6806,33.203125
6807,33.203125
6808,31.250000
6809,31.250000
6810,31.250000
6811,29.296875
6812,29.296875
6813,29.296875
6814,27.343750
6815,27.343750
6816,25.390625
6817,25.390625
6818,25.390625
6819,23.437500
6820,21.484375
6821,21.484375
6822,21.484375
6823,19.531250
6824,17.578125
6825,17.578125
6826,17.578125
6827,15.625000
6828,13.671875
6829,13.671875
6830,11.718750
6831,11.718750
6832,9.765625
6833,9.765625
6834,7.812500
6835,5.859375
6836,5.859375
6837,5.859375
6838,3.906250
6839,1.953125
6840,1.953125
6841,0.000000
6842,0.000000
6843,-1.953125
6844,-3.906250
6845,-3.906250
6846,-5.859375
6847,-5.859375
6848,-7.812500
6849,-9.765625
6850,-9.765625
6851,-11.718750
6852,-11.718750
6853,-13.671875
6854,-15.625000
6855,-15.625000
6856,-17.578125
6857,-17.578125
6858,-19.531250
6859,-21.484375
6860,-21.484375
6861,-23.437500
6862,-23.437500
6863,-25.390625
6864,-25.390625
6865,-27.343750
6866,-29.296875
6867,-29.296875
6868,-31.250000
6869,-31.250000
6870,-33.203125
6871,-33.203125
6872,-33.203125
6873,-35.156250
6874,-35.156250
6875,-37.109375
6876,-39.062500
6877,-39.062500
6878,-41.015625
6879,-41.015625
6880,-42.968750
6881,-42.968750
6882,-42.968750
6883,-44.921875
6884,-46.875000
6885,-46.875000
6886,-46.875000
6887,-48.828125
6888,-48.828125
6889,-48.828125
6890,-50.781250
6891,-50.781250
6892,-52.734375
6893,-52.734375
6894,-52.734375
6895,-52.734375
6896,-54.687500
6897,-54.687500
6898,-54.687500
6899,-54.687500
6900,-56.640625
6901,-56.640625
6902,-56.640625
6903,-56.640625
6904,-58.593750
6905,-58.593750
6906,-58.593750
6907,-58.593750
6908,-58.593750
6909,-60.546875
6910,-60.546875
6911,-60.546875
6912,-58.593750
6913,-60.546875
6914,-60.546875
6915,-60.546875
6916,-60.546875
6917,-60.546875
6918,-60.546875
6919,-60.546875
6920,-60.546875
6921,-60.546875
6922,-60.546875
6923,-60.546875
6924,-58.593750
6925,-60.546875
6926,-58.593750
6927,-58.593750
6928,-58.593750
6929,-58.593750
6930,-58.593750
6931,-58.593750
6932,-56.640625
6933,-56.640625
6934,-56.640625
6935,-54.687500
6936,-54.687500
6937,-54.687500
6938,-54.687500
6939,-52.734375
6940,-52.734375
6941,-52.734375
6942,-52.734375
6943,-50.781250
6944,-50.781250
6945,-50.781250
6946,-48.828125
6947,-48.828125
6948,-46.875000
6949,-46.875000
6950,-46.875000
6951,-44.921875
6952,-44.921875
6953,-42.968750
6954,-42.968750
6955,-42.968750
6956,-41.015625
6957,-39.062500
6958,-39.062500
6959,-37.109375
6960,-37.109375
6961,-35.156250
6962,-35.156250
6963,-33.203125
6964,-33.203125
6965,-31.250000
6966,-31.250000
6967,-29.296875
6968,-29.296875
6969,-27.343750
6970,-25.390625
6971,-25.390625
6972,-25.390625
6973,-23.437500
6974,-21.484375
6975,-21.484375
6976,-19.531250
6977,-17.578125
6978,-17.578125
6979,-17.578125
6980,-15.625000
6981,-13.671875
6982,-13.671875
6983,-11.718750
6984,-11.718750
6985,-9.765625
6986,-7.812500
6987,-7.812500
6988,-5.859375
6989,-3.906250
6990,-3.906250
6991,-1.953125
6992,-1.953125
6993,0.000000
6994,1.953125
6995,1.953125
6996,3.906250
6997,3.906250
6998,5.859375
6999,7.812500
7000,7.812500
7001,7.812500
7002,9.765625
7003,11.718750
7004,11.718750
7005,13.671875
7006,13.671875
7007,15.625000
7008,15.625000
7009,17.578125
7010,17.578125
7011,19.531250
7012,19.531250
7013,21.484375
7014,21.484375
7015,23.437500
7016,23.437500
7017,25.390625
7018,25.390625
7019,25.390625
7020,27.343750
7021,27.343750
7022,29.296875
7023,29.296875
7024,31.250000
7025,31.250000
7026,31.250000
7027,31.250000
7028,33.203125
7029,33.203125
7030,35.156250
7031,35.156250
7032,35.156250
7033,35.156250
7034,37.109375
7035,37.109375
7036,39.062500
7037,37.109375
7038,39.062500
7039,39.062500
7040,39.062500
7041,39.062500
7042,41.015625
7043,41.015625
7044,41.015625
7045,41.015625
7046,41.015625
7047,42.968750
7048,42.968750
7049,42.968750
7050,42.968750
7051,42.968750
7052,42.968750
7053,42.968750
7054,42.968750
7055,42.968750
7056,42.968750
7057,42.968750
7058,42.968750
7059,42.968750
7060,44.921875
7061,42.968750
7062,42.968750
7063,42.968750
7064,42.968750
7065,42.968750
7066,42.968750
7067,42.968750
7068,42.968750
7069,42.968750
7070,42.968750
7071,41.015625
7072,41.015625
7073,41.015625
7074,41.015625
7075,41.015625
7076,39.062500
7077,39.062500
7078,39.062500
7079,39.062500
7080,37.109375
7081,39.062500
7082,37.109375
7083,37.109375
7084,35.156250
7085,35.156250
7086,35.156250
7087,33.203125
7088,33.203125
7089,33.203125
7090,31.250000
7091,31.250000
7092,31.250000
7093,29.296875
7094,29.296875
7095,27.343750
7096,27.343750
7097,27.343750
7098,27.343750
7099,25.390625
7100,23.437500
7101,23.437500
7102,23.437500
7103,21.484375
7104,19.531250
7105,19.531250
7106,19.531250
7107,17.578125
7108,15.625000
7109,15.625000
7110,15.625000
7111,13.671875
7112,11.718750
7113,11.718750
7114,9.765625
7115,9.765625
7116,7.812500
7117,7.812500
7118,5.859375
7119,5.859375
7120,3.906250
7121,1.953125
7122,1.953125
7123,1.953125
7124,0.000000
7125,-1.953125
7126,-3.906250
7127,-3.906250
7128,-5.859375
7129,-5.859375
7130,-7.812500
7131,-7.812500
7132,-9.765625
7133,-11.718750
7134,-11.718750
7135,-13.671875
7136,-13.671875
7137,-15.625000
7138,-15.625000
7139,-17.578125
7140,-19.531250
7141,-19.531250
7142,-21.484375
7143,-21.484375
7144,-23.437500
7145,-25.390625
7146,-25.390625
7147,-27.343750
7148,-27.343750
7149,-29.296875
7150,-29.296875
7151,-31.250000
7152,-31.250000
7153,-33.203125
7154,-35.156250
7155,-35.156250
7156,-37.109375
7157,-37.109375
7158,-39.062500
7159,-39.062500
7160,-41.015625
7161,-41.015625
7162,-42.968750
7163,-42.968750
7164,-42.968750
7165,-44.921875
7166,-46.875000
7167,-46.875000
7168,-46.875000
7169,-48.828125
7170,-48.828125
7171,-50.781250
7172,-50.781250
7173,-50.781250
7174,-52.734375
7175,-52.734375
7176,-52.734375
7177,-52.734375
7178,-54.687500
7179,-54.687500
7180,-54.687500
7181,-54.687500
7182,-56.640625
7183,-56.640625
7184,-56.640625
7185,-58.593750
7186,-56.640625
7187,-58.593750
7188,-58.593750
7189,-58.593750
7190,-58.593750
7191,-58.593750
7192,-58.593750
7193,-58.593750
7194,-60.546875
7195,-60.546875
7196,-60.546875
7197,-60.546875
7198,-60.546875
7199,-60.546875
7200,-60.546875
7201,-60.546875
7202,-60.546875
7203,-58.593750
7204,-60.546875
7205,-60.546875
7206,-58.593750
7207,-58.593750
7208,-58.593750
7209,-58.593750
7210,-58.593750
7211,-58.593750
7212,-58.593750
7213,-56.640625
7214,-56.640625
7215,-56.640625
7216,-56.640625
7217,-56.640625
7218,-56.640625
7219,-54.687500
7220,-54.687500
7221,-54.687500
7222,-52.734375
7223,-52.734375
7224,-52.734375
7225,-50.781250
7226,-50.781250
7227,-50.781250
7228,-48.828125
7229,-48.828125
7230,-48.828125
7231,-46.875000
7232,-44.921875
7233,-44.921875
7234,-44.921875
7235,-42.968750
7236,-42.968750
7237,-42.968750
7238,-41.015625
7239,-41.015625
7240,-39.062500
7241,-39.062500
7242,-37.109375
7243,-37.109375
7244,-35.156250
7245,-35.156250
7246,-33.203125
7247,-33.203125
7248,-29.296875
7249,-31.250000
7250,-29.296875
7251,-27.343750
7252,-27.343750
7253,-25.390625
7254,-23.437500
7255,-23.437500
7256,-23.437500
7257,-21.484375
7258,-19.531250
7259,-19.531250
7260,-17.578125
7261,-15.625000
7262,-15.625000
7263,-13.671875
7264,-13.671875
7265,-11.718750
7266,-11.718750
7267,-9.765625
7268,-7.812500
7269,-7.812500
7270,-5.859375
7271,-5.859375
7272,-3.906250
7273,-1.953125
7274,-1.953125
7275,0.000000
7276,1.953125
7277,1.953125
7278,3.906250
7279,3.906250
7280,5.859375
7281,5.859375
7282,7.812500
7283,7.812500
7284,9.765625
7285,11.718750
7286,11.718750
7287,11.718750
7288,13.671875
7289,13.671875
7290,15.625000
7291,17.578125
7292,17.578125
7293,17.578125
7294,19.531250
7295,19.531250
7296,21.484375
7297,23.437500
7298,23.437500
7299,23.437500
7300,25.390625
7301,27.343750
7302,25.390625
7303,27.343750
7304,29.296875
7305,29.296875
7306,29.296875
7307,31.250000
7308,31.250000
7309,31.250000
7310,33.203125
7311,33.203125
7312,33.203125
7313,35.156250
7314,35.156250
7315,35.156250
7316,37.109375
7317,37.109375
7318,37.109375
7319,39.062500
7320,39.062500
7321,39.062500
7322,39.062500
7323,41.015625
7324,41.015625
7325,41.015625
7326,41.015625
7327,41.015625
7328,41.015625
7329,42.968750
7330,42.968750
7331,42.968750
7332,42.968750
7333,42.968750
7334,42.968750
7335,42.968750
7336,42.968750
7337,42.968750
7338,44.921875
7339,42.968750
7340,42.968750
7341,42.968750
7342,42.968750
7343,42.968750
7344,42.968750
7345,42.968750
7346,42.968750
7347,42.968750
7348,42.968750
7349,42.968750
7350,42.968750
7351,42.968750
7352,42.968750
7353,41.015625
7354,41.015625
7355,41.015625
7356,41.015625
7357,41.015625
7358,39.062500
7359,39.062500
7360,39.062500
7361,39.062500
7362,39.062500
7363,37.109375
7364,37.109375
7365,37.109375
7366,37.109375
7367,35.156250
7368,35.156250
7369,35.156250
7370,33.203125
7371,33.203125
7372,31.250000
7373,31.250000
7374,31.250000
7375,29.296875
7376,29.296875
7377,29.296875
7378,27.343750
7379,27.343750
7380,25.390625
7381,25.390625
7382,25.390625
7383,23.437500
7384,23.437500
7385,21.484375
7386,21.484375
7387,19.531250
7388,19.531250
7389,17.578125
7390,17.578125
7391,15.625000
7392,15.625000
7393,13.671875
7394,13.671875
7395,11.718750
7396,9.765625
7397,9.765625
7398,9.765625
7399,7.812500
7400,7.812500
7401,5.859375
7402,3.906250
7403,3.906250
7404,1.953125
7405,1.953125
7406,0.000000
7407,0.000000
7408,-1.953125
7409,-3.906250
7410,-3.906250
7411,-5.859375
7412,-7.812500
7413,-7.812500
7414,-9.765625
7415,-9.765625
7416,-11.718750
7417,-13.671875
7418,-13.671875
7419,-15.625000
7420,-15.625000
7421,-17.578125
7422,-19.531250
7423,-19.531250
7424,-21.484375
7425,-21.484375
7426,-23.437500
7427,-25.390625
7428,-25.390625
7429,-27.343750
7430,-27.343750
7431,-29.296875
7432,-29.296875
7433,-31.250000
7434,-31.250000
7435,-33.203125
7436,-35.156250
7437,-35.156250
7438,-35.156250
7439,-37.109375
7440,-39.062500
7441,-39.062500
7442,-39.062500
7443,-41.015625
7444,-41.015625
7445,-42.968750
7446,-42.968750
7447,-44.921875
7448,-44.921875
7449,-44.921875
7450,-46.875000
7451,-46.875000
7452,-48.828125
7453,-48.828125
7454,-50.781250
7455,-50.781250
7456,-50.781250
7457,-52.734375
7458,-52.734375
7459,-52.734375
7460,-54.687500
7461,-54.687500
7462,-54.687500
7463,-54.687500
7464,-56.640625
7465,-56.640625
7466,-56.640625
7467,-56.640625
7468,-56.640625
7469,-58.593750
7470,-58.593750
7471,-58.593750
7472,-58.593750
7473,-58.593750
7474,-58.593750
7475,-60.546875
7476,-60.546875
7477,-60.546875
7478,-60.546875
7479,-60.546875
7480,-60.546875
7481,-60.546875
7482,-60.546875
7483,-60.546875
7484,-60.546875
7485,-60.546875
7486,-60.546875
7487,-60.546875
7488,-60.546875
7489,-60.546875
7490,-58.593750
7491,-58.593750
7492,-58.593750
7493,-58.593750
7494,-58.593750
7495,-56.640625
7496,-56.640625
7497,-56.640625
7498,-56.640625
7499,-56.640625
7500,-56.640625
7501,-54.687500
7502,-54.687500
7503,-54.687500
7504,-52.734375
7505,-52.734375
7506,-52.734375
7507,-50.781250
7508,-50.781250
7509,-50.781250
7510,-50.781250
7511,-48.828125
7512,-48.828125
7513,-46.875000
7514,-44.921875
7515,-44.921875
7516,-44.921875
7517,-42.968750
7518,-42.968750
7519,-42.968750
7520,-41.015625
7521,-41.015625
7522,-39.062500
7523,-37.109375
7524,-37.109375
7525,-37.109375
7526,-35.156250
7527,-35.156250
7528,-33.203125
7529,-33.203125
7530,-31.250000
7531,-31.250000
7532,-29.296875
7533,-29.296875
7534,-27.343750
7535,-25.390625
7536,-23.437500
7537,-23.437500
7538,-23.437500
7539,-21.484375
7540,-21.484375
7541,-19.531250
7542,-17.578125
7543,-17.578125
7544,-15.625000
7545,-13.671875
7546,-13.671875
7547,-11.718750
7548,-11.718750
7549,-9.765625
7550,-9.765625
7551,-7.812500
7552,-7.812500
7553,-5.859375
7554,-3.906250
7555,-3.906250
7556,-1.953125
7557,0.000000
7558,0.000000
7559,0.000000
7560,1.953125
7561,3.906250
7562,3.906250
7563,5.859375
7564,5.859375
7565,7.812500
7566,9.765625
7567,9.765625
7568,9.765625
7569,11.718750
7570,13.671875
7571,11.718750
7572,15.625000
7573,15.625000
7574,17.578125
7575,17.578125
7576,19.531250
7577,19.531250
7578,21.484375
7579,23.437500
7580,23.437500
7581,25.390625
7582,25.390625
7583,25.390625
7584,27.343750
7585,27.343750
7586,29.296875
7587,29.296875
7588,29.296875
7589,31.250000
7590,31.250000
7591,31.250000
7592,33.203125
7593,33.203125
7594,33.203125
7595,35.156250
7596,37.109375
7597,37.109375
7598,37.109375
7599,37.109375
7600,37.109375
7601,39.062500
7602,39.062500
7603,39.062500
7604,39.062500
7605,39.062500
7606,41.015625
7607,41.015625
7608,41.015625
7609,41.015625
7610,42.968750
7611,42.968750
7612,41.015625
7613,42.968750
7614,42.968750
7615,42.968750
7616,44.921875
7617,42.968750
7618,42.968750
7619,42.968750
7620,42.968750
7621,42.968750
7622,42.968750
7623,42.968750
7624,41.015625
7625,42.968750
7626,42.968750
7627,42.968750
7628,42.968750
7629,42.968750
7630,41.015625
7631,42.968750
7632,42.968750
7633,42.968750
7634,41.015625
7635,41.015625
7636,42.968750
7637,41.015625
7638,44.921875
7639,41.015625
7640,39.062500
7641,41.015625
7642,39.062500
7643,39.062500
7644,39.062500
7645,37.109375
7646,39.062500
7647,37.109375
7648,41.015625
7649,37.109375
7650,35.156250
7651,33.203125
7652,33.203125
7653,35.156250
7654,33.203125
7655,31.250000
7656,31.250000
7657,31.250000
7658,29.296875
7659,29.296875
7660,29.296875
7661,27.343750
7662,27.343750
7663,25.390625
7664,25.390625
7665,25.390625
7666,23.437500
7667,21.484375
7668,21.484375
7669,21.484375
7670,19.531250
7671,17.578125
7672,15.625000
7673,15.625000
7674,15.625000
7675,13.671875
7676,13.671875
7677,11.718750
7678,11.718750
7679,9.765625
7680,7.812500
7681,3.906250
7682,5.859375
7683,5.859375
7684,3.906250
7685,3.906250
7686,3.906250
7687,0.000000
7688,0.000000
7689,0.000000
7690,-1.953125
7691,-3.906250
7692,-3.906250
7693,-5.859375
7694,-5.859375
7695,-7.812500
7696,-9.765625
7697,-9.765625
7698,-11.718750
7699,-13.671875
7700,-13.671875
7701,-15.625000
7702,-15.625000
7703,-17.578125
7704,-17.578125
7705,-19.531250
7706,-19.531250
7707,-21.484375
7708,-23.437500
7709,-25.390625
7710,-25.390625
7711,-25.390625
7712,-27.343750
7713,-29.296875
7714,-29.296875
7715,-31.250000
7716,-31.250000
7717,-33.203125
7718,-33.203125
7719,-35.156250
7720,-35.156250
7721,-37.109375
7722,-37.109375
7723,-39.062500
7724,-39.062500
7725,-41.015625
7726,-41.015625
7727,-42.968750
7728,-42.968750
7729,-44.921875
7730,-44.921875
7731,-46.875000
7732,-46.875000
7733,-46.875000
7734,-48.828125
7735,-48.828125
7736,-50.781250
7737,-50.781250
7738,-50.781250
7739,-52.734375
7740,-52.734375
7741,-52.734375
7742,-52.734375
7743,-54.687500
7744,-54.687500
7745,-54.687500
7746,-56.640625
7747,-56.640625
7748,-56.640625
7749,-58.593750
7750,-56.640625
7751,-58.593750
7752,-58.593750
7753,-58.593750
7754,-58.593750
7755,-58.593750
7756,-58.593750
7757,-60.546875
7758,-60.546875
7759,-60.546875
7760,-58.593750
7761,-60.546875
7762,-60.546875
7763,-60.546875
7764,-60.546875
7765,-60.546875
7766,-60.546875
7767,-60.546875
7768,-60.546875
7769,-60.546875
7770,-60.546875
7771,-60.546875
7772,-58.593750
7773,-58.593750
7774,-58.593750
7775,-58.593750
7776,-58.593750
7777,-56.640625
7778,-56.640625
7779,-56.640625
7780,-56.640625
7781,-56.640625
7782,-54.687500
7783,-54.687500
7784,-54.687500
7785,-54.687500
7786,-52.734375
7787,-52.734375
7788,-52.734375
7789,-52.734375
7790,-50.781250
7791,-50.781250
7792,-48.828125
7793,-48.828125
7794,-48.828125
7795,-46.875000
7796,-46.875000
7797,-46.875000
7798,-44.921875
7799,-44.921875
7800,-42.968750
7801,-42.968750
7802,-42.968750
7803,-41.015625
7804,-39.062500
7805,-39.062500
7806,-37.109375
7807,-37.109375
7808,-37.109375
7809,-35.156250
7810,-33.203125
7811,-33.203125
7812,-31.250000
7813,-31.250000
7814,-31.250000
7815,-29.296875
7816,-27.343750
7817,-27.343750
7818,-25.390625
7819,-23.437500
7820,-23.437500
7821,-23.437500
7822,-21.484375
7823,-19.531250
7824,-19.531250
7825,-17.578125
7826,-15.625000
7827,-15.625000
7828,-13.671875
7829,-11.718750
7830,-11.718750
7831,-11.718750
7832,-9.765625
7833,-7.812500
7834,-7.812500
7835,-7.812500
7836,-3.906250
7837,-3.906250
7838,-1.953125
7839,-1.953125
7840,-1.953125
7841,1.953125
7842,1.953125
7843,3.906250
7844,3.906250
7845,5.859375
7846,5.859375
7847,7.812500
7848,9.765625
7849,7.812500
7850,11.718750
7851,11.718750
7852,13.671875
7853,13.671875
7854,15.625000
7855,15.625000
7856,17.578125
7857,19.531250
7858,19.531250
7859,21.484375
7860,21.484375
7861,21.484375
7862,23.437500
7863,23.437500
7864,25.390625
7865,25.390625
7866,27.343750
7867,27.343750
7868,29.296875
7869,29.296875
7870,29.296875
7871,29.296875
7872,31.250000
7873,33.203125
7874,33.203125
7875,33.203125
7876,35.156250
7877,35.156250
7878,35.156250
7879,35.156250
7880,35.156250
7881,37.109375
7882,37.109375
7883,37.109375
7884,39.062500
7885,39.062500
7886,39.062500
7887,39.062500
7888,39.062500
7889,41.015625
7890,41.015625
7891,41.015625
7892,41.015625
7893,42.968750
7894,41.015625
7895,41.015625
7896,42.968750
7897,42.968750
7898,42.968750
7899,42.968750
7900,42.968750
7901,42.968750
7902,42.968750
7903,42.968750
7904,42.968750
7905,44.921875
7906,42.968750
7907,42.968750
7908,42.968750
7909,42.968750
7910,42.968750
7911,42.968750
7912,42.968750
7913,42.968750
7914,42.968750
7915,42.968750
7916,42.968750
7917,42.968750
7918,41.015625
7919,41.015625
7920,41.015625
7921,41.015625
7922,41.015625
7923,41.015625
7924,39.062500
7925,39.062500
7926,39.062500
7927,39.062500
7928,39.062500
7929,37.109375
7930,37.109375
7931,37.109375
7932,35.156250
7933,35.156250
7934,33.203125
7935,33.203125
7936,33.203125
7937,31.250000
7938,31.250000
7939,31.250000
7940,29.296875
7941,29.296875
7942,27.343750
7943,27.343750
7944,27.343750
7945,25.390625
7946,25.390625
7947,23.437500
7948,23.437500
7949,23.437500
7950,21.484375
7951,21.484375
7952,19.531250
7953,17.578125
7954,17.578125
7955,17.578125
7956,15.625000
7957,15.625000
7958,13.671875
7959,11.718750
7960,11.718750
7961,9.765625
7962,9.765625
7963,9.765625
7964,7.812500
7965,5.859375
7966,5.859375
7967,3.906250
7968,3.906250
7969,1.953125
7970,1.953125
7971,0.000000
7972,-1.953125
7973,-1.953125
7974,-3.906250
7975,-5.859375
7976,-7.812500
7977,-7.812500
7978,-7.812500
7979,-9.765625
7980,-11.718750
7981,-11.718750
7982,-13.671875
7983,-13.671875
7984,-15.625000
7985,-17.578125
7986,-17.578125
7987,-19.531250
7988,-19.531250
7989,-21.484375
7990,-23.437500
7991,-23.437500
7992,-23.437500
7993,-25.390625
7994,-27.343750
7995,-27.343750
7996,-29.296875
7997,-29.296875
7998,-31.250000
7999,-33.203125
8000,-33.203125
8001,-35.156250
8002,-35.156250
8003,-35.156250
8004,-37.109375
8005,-39.062500
8006,-39.062500
8007,-39.062500
8008,-41.015625
8009,-41.015625
8010,-42.968750
8011,-44.921875
8012,-44.921875
8013,-44.921875
8014,-46.875000
8015,-46.875000
8016,-48.828125
8017,-48.828125
8018,-48.828125
8019,-50.781250
8020,-50.781250
8021,-50.781250
8022,-52.734375
8023,-52.734375
8024,-52.734375
8025,-54.687500
8026,-54.687500
8027,-54.687500
8028,-54.687500
8029,-54.687500
8030,-56.640625
8031,-56.640625
8032,-56.640625
8033,-58.593750
8034,-58.593750
8035,-58.593750
8036,-58.593750
8037,-58.593750
8038,-58.593750
8039,-58.593750
8040,-60.546875
8041,-58.593750
8042,-60.546875
8043,-60.546875
8044,-58.593750
8045,-60.546875
8046,-60.546875
8047,-58.593750
8048,-60.546875
8049,-60.546875
8050,-58.593750
8051,-58.593750
8052,-60.546875
8053,-60.546875
8054,-58.593750
8055,-58.593750
8056,-58.593750
8057,-58.593750
8058,-58.593750
8059,-56.640625
8060,-56.640625
8061,-56.640625
8062,-56.640625
8063,-56.640625
8064,-56.640625
8065,-54.687500
8066,-54.687500
8067,-52.734375
8068,-54.687500
8069,-54.687500
8070,-52.734375
8071,-52.734375
8072,-50.781250
8073,-52.734375
8074,-50.781250
8075,-48.828125
8076,-48.828125
8077,-46.875000
8078,-46.875000
8079,-46.875000
8080,-44.921875
8081,-44.921875
8082,-42.968750
8083,-42.968750
8084,-42.968750
8085,-41.015625
8086,-39.062500
8087,-39.062500
8088,-39.062500
8089,-37.109375
8090,-35.156250
8091,-35.156250
8092,-35.156250
8093,-33.203125
8094,-31.250000
8095,-31.250000
8096,-31.250000
8097,-29.296875
8098,-27.343750
8099,-25.390625
8100,-25.390625
8101,-25.390625
8102,-23.437500
8103,-21.484375
8104,-21.484375
8105,-19.531250
8106,-19.531250
8107,-17.578125
8108,-17.578125
8109,-13.671875
8110,-13.671875
8111,-13.671875
8112,-11.718750
8113,-9.765625
8114,-9.765625
8115,-7.812500
8116,-7.812500
8117,-5.859375
8118,-5.859375
8119,-3.906250
8120,-1.953125
8121,-1.953125
8122,0.000000
8123,0.000000
8124,1.953125
8125,3.906250
8126,3.906250
8127,3.906250
8128,5.859375
8129,7.812500
8130,7.812500
8131,9.765625
8132,11.718750
8133,11.718750
8134,11.718750
8135,13.671875
8136,13.671875
8137,15.625000
8138,15.625000
8139,17.578125
8140,19.531250
8141,19.531250
8142,19.531250
8143,21.484375
8144,23.437500
8145,23.437500
8146,25.390625
8147,25.390625
8148,25.390625
8149,27.343750
8150,27.343750
8151,29.296875
8152,29.296875
8153,29.296875
8154,31.250000
8155,31.250000
8156,33.203125
8157,33.203125
8158,33.203125
8159,35.156250
8160,35.156250
8161,35.156250
8162,35.156250
8163,37.109375
8164,37.109375
8165,37.109375
8166,37.109375
8167,39.062500
8168,39.062500
8169,39.062500
8170,39.062500
8171,41.015625
8172,41.015625
8173,42.968750
8174,41.015625
8175,41.015625
8176,42.968750
8177,42.968750
8178,42.968750
8179,42.968750
8180,42.968750
8181,44.921875
8182,44.921875
8183,42.968750
8184,42.968750
8185,42.968750
8186,42.968750
8187,42.968750
8188,42.968750
8189,42.968750
8190,42.968750
8191,44.921875
8192,42.968750
8193,42.968750
8194,42.968750
8195,42.968750
8196,42.968750
8197,42.968750
8198,42.968750
8199,41.015625
8200,41.015625
8201,42.968750
8202,41.015625
8203,41.015625
8204,41.015625
8205,41.015625
8206,39.062500
8207,39.062500
8208,39.062500
8209,37.109375
8210,37.109375
8211,37.109375
8212,37.109375
8213,35.156250
8214,35.156250
8215,35.156250
8216,35.156250
8217,35.156250
8218,33.203125
8219,33.203125
8220,31.250000
8221,31.250000
8222,31.250000
8223,29.296875
8224,29.296875
8225,27.343750
8226,27.343750
8227,27.343750
8228,25.390625
8229,23.437500
8230,23.437500
8231,23.437500
8232,21.484375
8233,21.484375
8234,19.531250
8235,19.531250
8236,17.578125
8237,17.578125
8238,17.578125
8239,15.625000
8240,13.671875
8241,13.671875
8242,11.718750
8243,11.718750
8244,9.765625
8245,7.812500
8246,7.812500
8247,7.812500
8248,5.859375
8249,3.906250
8250,3.906250
8251,1.953125
8252,1.953125
8253,0.000000
8254,-1.953125
8255,-1.953125
8256,-3.906250
8257,-3.906250
8258,-5.859375
8259,-7.812500
8260,-7.812500
8261,-9.765625
8262,-11.718750
8263,-11.718750
8264,-11.718750
8265,-13.671875
8266,-15.625000
8267,-17.578125
8268,-17.578125
8269,-19.531250
8270,-19.531250
8271,-21.484375
8272,-21.484375
8273,-23.437500
8274,-25.390625
8275,-25.390625
8276,-27.343750
8277,-27.343750
8278,-29.296875
8279,-29.296875
8280,-31.250000
8281,-31.250000
8282,-33.203125
8283,-33.203125
8284,-35.156250
8285,-35.156250
8286,-37.109375
8287,-37.109375
8288,-39.062500
8289,-41.015625
8290,-41.015625
8291,-41.015625
8292,-42.968750
8293,-42.968750
8294,-42.968750
8295,-44.921875
8296,-46.875000
8297,-46.875000
8298,-46.875000
8299,-48.828125
8300,-48.828125
8301,-48.828125
8302,-50.781250
8303,-50.781250
8304,-50.781250
8305,-52.734375
8306,-52.734375
8307,-52.734375
8308,-54.687500
8309,-54.687500
8310,-54.687500
8311,-54.687500
8312,-56.640625
8313,-56.640625
8314,-56.640625
8315,-56.640625
8316,-58.593750
8317,-58.593750
8318,-58.593750
8319,-58.593750
8320,-58.593750
8321,-58.593750
8322,-60.546875
8323,-58.593750
8324,-60.546875
8325,-60.546875
8326,-60.546875
8327,-60.546875
8328,-60.546875
8329,-60.546875
8330,-60.546875
8331,-60.546875
8332,-60.546875
8333,-60.546875
8334,-60.546875
8335,-58.593750
8336,-60.546875
8337,-60.546875
8338,-58.593750
8339,-58.593750
8340,-58.593750
8341,-58.593750
8342,-58.593750
8343,-56.640625
8344,-56.640625
8345,-56.640625
8346,-56.640625
8347,-56.640625
8348,-54.687500
8349,-54.687500
8350,-52.734375
8351,-52.734375
8352,-52.734375
8353,-52.734375
8354,-50.781250
8355,-50.781250
8356,-48.828125
8357,-48.828125
8358,-48.828125
8359,-46.875000
8360,-46.875000
8361,-46.875000
8362,-44.921875
8363,-44.921875
8364,-44.921875
8365,-42.968750
8366,-42.968750
8367,-41.015625
8368,-41.015625
8369,-39.062500
8370,-39.062500
8371,-37.109375
8372,-37.109375
8373,-35.156250
8374,-35.156250
8375,-33.203125
8376,-31.250000
8377,-31.250000
8378,-29.296875
8379,-29.296875
8380,-27.343750
8381,-27.343750
8382,-25.390625
8383,-25.390625
8384,-23.437500
8385,-23.437500
8386,-21.484375
8387,-21.484375
8388,-19.531250
8389,-17.578125
8390,-17.578125
8391,-15.625000
8392,-15.625000
8393,-13.671875
8394,-11.718750
8395,-11.718750
8396,-9.765625
8397,-9.765625
8398,-7.812500
8399,-5.859375
8400,-5.859375
8401,-3.906250
8402,-3.906250
8403,-1.953125
8404,0.000000
8405,0.000000
8406,1.953125
8407,1.953125
8408,3.906250
8409,3.906250
8410,7.812500
8411,7.812500
8412,7.812500
8413,7.812500
8414,9.765625
8415,11.718750
8416,11.718750
8417,13.671875
8418,15.625000
8419,15.625000
8420,15.625000
8421,17.578125
8422,19.531250
8423,19.531250
8424,19.531250
8425,21.484375
8426,21.484375
8427,23.437500
8428,23.437500
8429,25.390625
8430,25.390625
8431,27.343750
8432,27.343750
8433,29.296875
8434,29.296875
8435,29.296875
8436,31.250000
8437,31.250000
8438,31.250000
8439,33.203125
8440,33.203125
8441,35.156250
8442,35.156250
8443,35.156250
8444,35.156250
8445,37.109375
8446,37.109375
8447,37.109375
8448,37.109375
8449,37.109375
8450,39.062500
8451,39.062500
8452,39.062500
8453,41.015625
8454,41.015625
8455,41.015625
8456,41.015625
8457,41.015625
8458,41.015625
8459,41.015625
8460,42.968750
8461,42.968750
8462,42.968750
8463,42.968750
8464,42.968750
8465,42.968750
8466,42.968750
8467,42.968750
8468,42.968750
8469,42.968750
8470,44.921875
8471,42.968750
8472,42.968750
8473,44.921875
8474,42.968750
8475,42.968750
8476,42.968750
8477,42.968750
8478,42.968750
8479,42.968750
8480,42.968750
8481,42.968750
8482,42.968750
8483,41.015625
8484,41.015625
8485,41.015625
8486,41.015625
8487,41.015625
8488,39.062500
8489,39.062500
8490,39.062500
8491,39.062500
8492,39.062500
8493,37.109375
8494,37.109375
8495,37.109375
8496,35.156250
8497,35.156250
8498,35.156250
8499,35.156250
8500,33.203125
8501,33.203125
8502,33.203125
8503,31.250000
8504,31.250000
8505,29.296875
8506,29.296875
8507,29.296875
8508,27.343750
8509,27.343750
8510,25.390625
8511,25.390625
8512,23.437500
8513,23.437500
8514,21.484375
8515,21.484375
8516,19.531250
8517,19.531250
8518,19.531250
8519,17.578125
8520,15.625000
8521,15.625000
8522,13.671875
8523,13.671875
8524,11.718750
8525,11.718750
8526,9.765625
8527,9.765625
8528,7.812500
8529,5.859375
8530,5.859375
8531,3.906250
8532,3.906250
8533,1.953125
8534,1.953125
8535,0.000000
8536,0.000000
8537,-1.953125
8538,-3.906250
8539,-3.906250
8540,-5.859375
8541,-5.859375
8542,-7.812500
8543,-9.765625
8544,-9.765625
8545,-11.718750
8546,-11.718750
8547,-13.671875
8548,-13.671875
8549,-15.625000
8550,-17.578125
8551,-19.531250
8552,-19.531250
8553,-19.531250
8554,-21.484375
8555,-21.484375
8556,-23.437500
8557,-25.390625
8558,-25.390625
8559,-27.343750
8560,-29.296875
8561,-29.296875
8562,-29.296875
8563,-31.250000
8564,-31.250000
8565,-33.203125
8566,-35.156250
8567,-35.156250
8568,-37.109375
8569,-37.109375
8570,-39.062500
8571,-39.062500
8572,-41.015625
8573,-41.015625
8574,-42.968750
8575,-42.968750
8576,-44.921875
8577,-44.921875
8578,-44.921875
8579,-46.875000
8580,-46.875000
8581,-48.828125
8582,-48.828125
8583,-48.828125
8584,-50.781250
8585,-50.781250
8586,-52.734375
8587,-52.734375
8588,-52.734375
8589,-52.734375
8590,-54.687500
8591,-54.687500
8592,-54.687500
8593,-56.640625
8594,-56.640625
8595,-56.640625
8596,-56.640625
8597,-56.640625
8598,-58.593750
8599,-56.640625
8600,-58.593750
8601,-58.593750
8602,-58.593750
8603,-58.593750
8604,-60.546875
8605,-60.546875
8606,-60.546875
8607,-58.593750
8608,-60.546875
8609,-60.546875
8610,-58.593750
8611,-58.593750
8612,-60.546875
8613,-60.546875
8614,-60.546875
8615,-60.546875
8616,-60.546875
8617,-58.593750
8618,-58.593750
8619,-58.593750
8620,-58.593750
8621,-58.593750
8622,-58.593750
8623,-58.593750
8624,-58.593750
8625,-58.593750
8626,-56.640625
8627,-56.640625
8628,-56.640625
8629,-54.687500
8630,-54.687500
8631,-54.687500
8632,-52.734375
8633,-52.734375
8634,-52.734375
8635,-52.734375
8636,-52.734375
8637,-50.781250
8638,-50.781250
8639,-48.828125
8640,-48.828125
8641,-48.828125
8642,-46.875000
8643,-46.875000
8644,-46.875000
8645,-44.921875
8646,-44.921875
8647,-42.968750
8648,-42.968750
8649,-41.015625
8650,-41.015625
8651,-39.062500
8652,-39.062500
8653,-37.109375
8654,-37.109375
8655,-35.156250
8656,-35.156250
8657,-33.203125
8658,-33.203125
8659,-31.250000
8660,-31.250000
8661,-29.296875
8662,-29.296875
8663,-27.343750
8664,-27.343750
8665,-25.390625
8666,-23.437500
8667,-23.437500
8668,-21.484375
8669,-21.484375
8670,-19.531250
8671,-17.578125
8672,-17.578125
8673,-17.578125
8674,-15.625000
8675,-13.671875
8676,-13.671875
8677,-11.718750
8678,-9.765625
8679,-9.765625
8680,-7.812500
8681,-5.859375
8682,-5.859375
8683,-3.906250
8684,-3.906250
8685,-1.953125
8686,0.000000
8687,0.000000
8688,1.953125
8689,1.953125
8690,3.906250
8691,3.906250
8692,5.859375
8693,5.859375
8694,7.812500
8695,7.812500
8696,9.765625
8697,11.718750
8698,11.718750
8699,13.671875
8700,13.671875
8701,15.625000
8702,15.625000
8703,17.578125
8704,17.578125
8705,19.531250
8706,19.531250
8707,21.484375
8708,21.484375
8709,21.484375
8710,23.437500
8711,25.390625
8712,25.390625
8713,25.390625
8714,27.343750
8715,27.343750
8716,29.296875
8717,29.296875
8718,29.296875
8719,31.250000
8720,31.250000
8721,31.250000
8722,33.203125
8723,33.203125
8724,35.156250
8725,35.156250
8726,35.156250
8727,35.156250
8728,37.109375
8729,37.109375
8730,37.109375
8731,39.062500
8732,39.062500
8733,39.062500
8734,39.062500
8735,41.015625
8736,41.015625
8737,41.015625
8738,41.015625
8739,41.015625
8740,41.015625
8741,42.968750
8742,42.968750
8743,42.968750
8744,42.968750
8745,42.968750
8746,42.968750
8747,42.968750
8748,42.968750
8749,44.921875
8750,44.921875
8751,42.968750
8752,42.968750
8753,44.921875
8754,44.921875
8755,44.921875
8756,42.968750
8757,42.968750
8758,42.968750
8759,42.968750
8760,42.968750
8761,42.968750
8762,42.968750
8763,42.968750
8764,42.968750
8765,41.015625
8766,41.015625
8767,41.015625
8768,41.015625
8769,41.015625
8770,41.015625
8771,39.062500
8772,39.062500
8773,39.062500
8774,37.109375
8775,37.109375
8776,37.109375
8777,37.109375
8778,35.156250
8779,35.156250
8780,35.156250
8781,35.156250
8782,33.203125
8783,33.203125
8784,33.203125
8785,31.250000
8786,31.250000
8787,31.250000
8788,29.296875
8789,29.296875
8790,27.343750
8791,27.343750
8792,25.390625
8793,25.390625
8794,23.437500
8795,23.437500
8796,21.484375
8797,21.484375
8798,21.484375
8799,21.484375
8800,19.531250
8801,17.578125
8802,17.578125
8803,15.625000
8804,15.625000
8805,13.671875
8806,11.718750
8807,11.718750
8808,11.718750
8809,9.765625
8810,7.812500
8811,7.812500
8812,5.859375
8813,5.859375
8814,3.906250
8815,3.906250
8816,1.953125
8817,0.000000
8818,0.000000
8819,-1.953125
8820,-1.953125
8821,-3.906250
8822,-5.859375
8823,-5.859375
8824,-7.812500
8825,-7.812500
8826,-9.765625
8827,-11.718750
8828,-11.718750
8829,-11.718750
8830,-13.671875
8831,-15.625000
8832,-15.625000
8833,-17.578125
8834,-19.531250
8835,-19.531250
8836,-21.484375
8837,-21.484375
8838,-23.437500
8839,-25.390625
8840,-25.390625
8841,-27.343750
8842,-27.343750
8843,-29.296875
8844,-31.250000
8845,-31.250000
8846,-31.250000
8847,-33.203125
8848,-35.156250
8849,-35.156250
8850,-37.109375
8851,-39.062500
8852,-39.062500
8853,-39.062500
8854,-41.015625
8855,-41.015625
8856,-41.015625
8857,-42.968750
8858,-42.968750
8859,-44.921875
8860,-44.921875
8861,-46.875000
8862,-46.875000
8863,-46.875000
8864,-48.828125
8865,-48.828125
8866,-50.781250
8867,-50.781250
8868,-50.781250
8869,-52.734375
8870,-52.734375
8871,-52.734375
8872,-54.687500
8873,-54.687500
8874,-54.687500
8875,-54.687500
8876,-56.640625
8877,-56.640625
8878,-56.640625
8879,-56.640625
8880,-56.640625
8881,-58.593750
8882,-58.593750
8883,-58.593750
8884,-58.593750
8885,-58.593750
8886,-60.546875
8887,-58.593750
8888,-58.593750
8889,-60.546875
8890,-60.546875
8891,-60.546875
8892,-60.546875
8893,-60.546875
8894,-58.593750
8895,-60.546875
8896,-60.546875
8897,-60.546875
8898,-60.546875
8899,-60.546875
8900,-60.546875
8901,-58.593750
8902,-58.593750
8903,-58.593750
8904,-58.593750
8905,-58.593750
8906,-58.593750
8907,-58.593750
8908,-58.593750
8909,-56.640625
8910,-56.640625
8911,-56.640625
8912,-54.687500
8913,-54.687500
8914,-54.687500
8915,-54.687500
8916,-52.734375
8917,-52.734375
8918,-52.734375
8919,-50.781250
8920,-50.781250
8921,-50.781250
8922,-48.828125
8923,-48.828125
8924,-48.828125
8925,-46.875000
8926,-46.875000
8927,-44.921875
8928,-44.921875
8929,-42.968750
8930,-42.968750
8931,-41.015625
8932,-41.015625
8933,-39.062500
8934,-39.062500
8935,-37.109375
8936,-37.109375
8937,-37.109375
8938,-35.156250
8939,-35.156250
8940,-33.203125
8941,-31.250000
8942,-31.250000
8943,-29.296875
8944,-29.296875
8945,-27.343750
8946,-25.390625
8947,-25.390625
8948,-25.390625
8949,-23.437500
8950,-23.437500
8951,-19.531250
8952,-19.531250
8953,-17.578125
8954,-17.578125
8955,-15.625000
8956,-15.625000
8957,-13.671875
8958,-13.671875
8959,-11.718750
8960,-9.765625
8961,-9.765625
8962,-7.812500
8963,-7.812500
8964,-5.859375
8965,-5.859375
8966,-3.906250
8967,-1.953125
8968,0.000000
8969,0.000000
8970,0.000000
8971,1.953125
8972,1.953125
8973,3.906250
8974,5.859375
8975,5.859375
8976,7.812500
8977,7.812500
8978,9.765625
8979,11.718750
8980,11.718750
8981,13.671875
8982,13.671875
8983,13.671875
8984,15.625000
8985,17.578125
8986,17.578125
8987,19.531250
8988,19.531250
8989,21.484375
8990,21.484375
8991,23.437500
8992,23.437500
8993,25.390625
8994,25.390625
8995,25.390625
8996,27.343750
8997,27.343750
8998,27.343750
8999,29.296875
9000,31.250000
9001,31.250000
9002,31.250000
9003,33.203125
9004,33.203125
9005,33.203125
9006,35.156250
9007,35.156250
9008,37.109375
9009,37.109375
9010,37.109375
9011,37.109375
9012,37.109375
9013,39.062500
9014,39.062500
9015,41.015625
9016,39.062500
9017,41.015625
9018,41.015625
9019,41.015625
9020,41.015625
9021,41.015625
9022,42.968750
9023,42.968750
9024,42.968750
9025,44.921875
9026,42.968750
9027,42.968750
9028,42.968750
9029,42.968750
9030,42.968750
9031,42.968750
9032,42.968750
9033,44.921875
9034,42.968750
9035,42.968750
9036,44.921875
9037,42.968750
9038,42.968750
9039,42.968750
9040,42.968750
9041,42.968750
9042,42.968750
9043,42.968750
9044,42.968750
9045,42.968750
9046,42.968750
9047,41.015625
9048,41.015625
9049,41.015625
9050,41.015625
9051,41.015625
9052,41.015625
9053,39.062500
9054,39.062500
9055,39.062500
9056,39.062500
9057,37.109375
9058,37.109375
9059,37.109375
9060,37.109375
9061,37.109375
9062,35.156250
9063,35.156250
9064,33.203125
9065,33.203125
9066,33.203125
9067,33.203125
9068,31.250000
9069,31.250000
9070,29.296875
9071,29.296875
9072,29.296875
9073,27.343750
9074,27.343750
9075,25.390625
9076,25.390625
9077,23.437500
9078,23.437500
9079,23.437500
9080,21.484375
9081,19.531250
9082,19.531250
9083,19.531250
9084,17.578125
9085,17.578125
9086,15.625000
9087,13.671875
9088,13.671875
9089,11.718750
9090,11.718750
9091,9.765625
9092,9.765625
9093,7.812500
9094,5.859375
9095,5.859375
9096,3.906250
9097,3.906250
9098,1.953125
9099,1.953125
9100,0.000000
9101,-1.953125
9102,-1.953125
9103,-3.906250
9104,-3.906250
9105,-5.859375
9106,-5.859375
9107,-7.812500
9108,-9.765625
9109,-9.765625
9110,-11.718750
9111,-13.671875
9112,-13.671875
9113,-15.625000
9114,-15.625000
9115,-17.578125
9116,-17.578125
9117,-19.531250
9118,-21.484375
9119,-21.484375
9120,-23.437500
9121,-23.437500
9122,-25.390625
9123,-27.343750
9124,-27.343750
9125,-27.343750
9126,-29.296875
9127,-29.296875
9128,-31.250000
9129,-33.203125
9130,-33.203125
9131,-35.156250
9132,-35.156250
9133,-37.109375
9134,-37.109375
9135,-39.062500
9136,-39.062500
9137,-41.015625
9138,-41.015625
9139,-42.968750
9140,-42.968750
9141,-42.968750
9142,-44.921875
9143,-44.921875
9144,-46.875000
9145,-48.828125
9146,-46.875000
9147,-48.828125
9148,-48.828125
9149,-50.781250
9150,-50.781250
9151,-50.781250
9152,-52.734375
9153,-52.734375
9154,-52.734375
9155,-54.687500
9156,-54.687500
9157,-54.687500
9158,-56.640625
9159,-56.640625
9160,-56.640625
9161,-56.640625
9162,-58.593750
9163,-58.593750
9164,-58.593750
9165,-58.593750
9166,-58.593750
9167,-58.593750
9168,-58.593750
9169,-58.593750
9170,-58.593750
9171,-58.593750
9172,-58.593750
9173,-60.546875
9174,-60.546875
9175,-60.546875
9176,-60.546875
9177,-60.546875
9178,-60.546875
9179,-60.546875
9180,-58.593750
9181,-60.546875
9182,-60.546875
9183,-58.593750
9184,-58.593750
9185,-58.593750
9186,-58.593750
9187,-58.593750
9188,-58.593750
9189,-56.640625
9190,-56.640625
9191,-56.640625
9192,-56.640625
9193,-54.687500
9194,-54.687500
9195,-54.687500
9196,-54.687500
9197,-52.734375
9198,-52.734375
9199,-52.734375
9200,-52.734375
9201,-50.781250
9202,-50.781250
9203,-50.781250
9204,-48.828125
9205,-48.828125
9206,-48.828125
9207,-46.875000
9208,-46.875000
9209,-44.921875
9210,-44.921875
9211,-42.968750
9212,-42.968750
9213,-42.968750
9214,-41.015625
9215,-41.015625
9216,-39.062500
9217,-39.062500
9218,-37.109375
9219,-37.109375
9220,-35.156250
9221,-35.156250
9222,-33.203125
9223,-33.203125
9224,-31.250000
9225,-31.250000
9226,-29.296875
9227,-29.296875
9228,-27.343750
9229,-25.390625
9230,-25.390625
9231,-23.437500
9232,-23.437500
9233,-21.484375
9234,-21.484375
9235,-19.531250
9236,-17.578125
9237,-17.578125
9238,-15.625000
9239,-15.625000
9240,-13.671875
9241,-13.671875
9242,-11.718750
9243,-9.765625
9244,-9.765625
9245,-7.812500
9246,-5.859375
9247,-5.859375
9248,-3.906250
9249,-3.906250
9250,-1.953125
9251,0.000000
9252,0.000000
9253,1.953125
9254,1.953125
9255,3.906250
9256,3.906250
9257,5.859375
9258,7.812500
9259,7.812500
9260,9.765625
9261,9.765625
9262,11.718750
9263,11.718750
9264,13.671875
9265,13.671875
9266,15.625000
9267,17.578125
9268,17.578125
9269,17.578125
9270,19.531250
9271,19.531250
9272,21.484375
9273,23.437500
9274,23.437500
9275,23.437500
9276,25.390625
9277,25.390625
9278,27.343750
9279,27.343750
9280,29.296875
9281,29.296875
9282,29.296875
9283,31.250000
9284,31.250000
9285,33.203125
9286,33.203125
9287,33.203125
9288,33.203125
9289,35.156250
9290,35.156250
9291,35.156250
9292,37.109375
9293,37.109375
9294,37.109375
9295,39.062500
9296,39.062500
9297,39.062500
9298,39.062500
9299,39.062500
9300,41.015625
9301,41.015625
9302,41.015625
9303,41.015625
9304,41.015625
9305,41.015625
9306,41.015625
9307,42.968750
9308,42.968750
9309,42.968750
9310,42.968750
9311,42.968750
9312,42.968750
9313,42.968750
9314,42.968750
9315,42.968750
9316,44.921875
9317,44.921875
9318,42.968750
9319,42.968750
9320,42.968750
9321,42.968750
9322,42.968750
9323,42.968750
9324,42.968750
9325,42.968750
9326,42.968750
9327,42.968750
9328,42.968750
9329,41.015625
9330,41.015625
9331,41.015625
9332,41.015625
9333,41.015625
9334,41.015625
9335,39.062500
9336,39.062500
9337,39.062500
9338,39.062500
9339,39.062500
9340,37.109375
9341,37.109375
9342,37.109375
9343,37.109375
9344,35.156250
9345,35.156250
9346,33.203125
9347,33.203125
9348,33.203125
9349,33.203125
9350,31.250000
9351,31.250000
9352,31.250000
9353,29.296875
9354,29.296875
9355,27.343750
9356,27.343750
9357,25.390625
9358,25.390625
9359,23.437500
9360,23.437500
9361,21.484375
9362,21.484375
9363,19.531250
9364,19.531250
9365,19.531250
9366,17.578125
9367,15.625000
9368,15.625000
9369,13.671875
9370,13.671875
9371,11.718750
9372,11.718750
9373,9.765625
9374,7.812500
9375,7.812500
9376,7.812500
9377,5.859375
9378,3.906250
9379,3.906250
9380,1.953125
9381,1.953125
9382,0.000000
9383,0.000000
9384,-1.953125
9385,-3.906250
9386,-3.906250
9387,-5.859375
9388,-7.812500
9389,-7.812500
9390,-7.812500
9391,-9.765625
9392,-11.718750
9393,-11.718750
9394,-13.671875
9395,-13.671875
9396,-15.625000
9397,-17.578125
9398,-17.578125
9399,-19.531250
9400,-19.531250
9401,-21.484375
9402,-23.437500
9403,-23.437500
9404,-25.390625
9405,-25.390625
9406,-27.343750
9407,-27.343750
9408,-29.296875
9409,-29.296875
9410,-31.250000
9411,-33.203125
9412,-33.203125
9413,-35.156250
9414,-33.203125
9415,-35.156250
9416,-37.109375
9417,-39.062500
9418,-39.062500
9419,-41.015625
9420,-41.015625
9421,-42.968750
9422,-42.968750
9423,-42.968750
9424,-44.921875
9425,-44.921875
9426,-46.875000
9427,-46.875000
9428,-48.828125
9429,-48.828125
9430,-48.828125
9431,-50.781250
9432,-50.781250
9433,-52.734375
9434,-52.734375
9435,-52.734375
9436,-52.734375
9437,-54.687500
9438,-54.687500
9439,-54.687500
9440,-56.640625
9441,-56.640625
9442,-56.640625
9443,-56.640625
9444,-56.640625
9445,-58.593750
9446,-58.593750
9447,-58.593750
9448,-58.593750
9449,-58.593750
9450,-58.593750
9451,-58.593750
9452,-60.546875
9453,-58.593750
9454,-58.593750
9455,-60.546875
9456,-60.546875
9457,-60.546875
9458,-60.546875
9459,-60.546875
9460,-60.546875
9461,-60.546875
9462,-60.546875
9463,-60.546875
9464,-60.546875
9465,-58.593750
9466,-60.546875
9467,-58.593750
9468,-58.593750
9469,-58.593750
9470,-58.593750
9471,-58.593750
9472,-56.640625
9473,-56.640625
9474,-56.640625
9475,-56.640625
9476,-56.640625
9477,-54.687500
9478,-54.687500
9479,-54.687500
9480,-52.734375
9481,-52.734375
9482,-52.734375
9483,-52.734375
9484,-50.781250
9485,-50.781250
9486,-50.781250
9487,-48.828125
9488,-48.828125
9489,-46.875000
9490,-46.875000
9491,-46.875000
9492,-44.921875
9493,-44.921875
9494,-42.968750
9495,-42.968750
9496,-41.015625
9497,-41.015625
9498,-41.015625
9499,-39.062500
9500,-37.109375
9501,-37.109375
9502,-37.109375
9503,-35.156250
9504,-33.203125
9505,-33.203125
9506,-33.203125
9507,-31.250000
9508,-29.296875
9509,-29.296875
9510,-27.343750
9511,-27.343750
9512,-25.390625
9513,-23.437500
9514,-23.437500
9515,-21.484375
9516,-21.484375
9517,-19.531250
9518,-17.578125
9519,-17.578125
9520,-15.625000
9521,-15.625000
9522,-13.671875
9523,-13.671875
9524,-11.718750
9525,-9.765625
9526,-9.765625
9527,-7.812500
9528,-7.812500
9529,-5.859375
9530,-3.906250
9531,-1.953125
9532,-1.953125
9533,-1.953125
9534,0.000000
9535,1.953125
9536,1.953125
9537,3.906250
9538,3.906250
9539,5.859375
9540,7.812500
9541,7.812500
9542,9.765625
9543,9.765625
9544,11.718750
9545,11.718750
9546,13.671875
9547,13.671875
9548,15.625000
9549,15.625000
9550,17.578125
9551,17.578125
9552,19.531250
9553,19.531250
9554,21.484375
9555,21.484375
9556,23.437500
9557,23.437500
9558,25.390625
9559,25.390625
9560,25.390625
9561,27.343750
9562,27.343750
9563,29.296875
9564,29.296875
9565,31.250000
9566,31.250000
9567,31.250000
9568,31.250000
9569,33.203125
9570,33.203125
9571,35.156250
9572,35.156250
9573,35.156250
9574,35.156250
9575,37.109375
9576,37.109375
9577,37.109375
9578,37.109375
9579,39.062500
9580,39.062500
9581,41.015625
9582,41.015625
9583,41.015625
9584,41.015625
9585,41.015625
9586,42.968750
9587,41.015625
9588,42.968750
9589,42.968750
9590,42.968750
9591,42.968750
9592,42.968750
9593,42.968750
9594,42.968750
9595,42.968750
9596,42.968750
9597,44.921875
9598,42.968750
9599,44.921875
9600,42.968750
9601,42.968750
9602,44.921875
9603,42.968750
9604,42.968750
9605,42.968750
9606,42.968750
9607,42.968750
9608,42.968750
9609,42.968750
9610,42.968750
9611,42.968750
9612,41.015625
9613,41.015625
9614,41.015625
9615,41.015625
9616,41.015625
9617,39.062500
9618,41.015625
9619,39.062500
9620,39.062500
9621,37.109375
9622,37.109375
9623,37.109375
9624,37.109375
9625,35.156250
9626,35.156250
9627,35.156250
9628,35.156250
9629,33.203125
9630,33.203125
9631,33.203125
9632,31.250000
9633,31.250000
9634,29.296875
9635,29.296875
9636,29.296875
9637,27.343750
9638,27.343750
9639,25.390625
9640,25.390625
9641,23.437500
9642,23.437500
9643,23.437500
9644,21.484375
9645,21.484375
9646,19.531250
9647,19.531250
9648,17.578125
9649,17.578125
9650,15.625000
9651,15.625000
9652,13.671875
9653,13.671875
9654,11.718750
9655,11.718750
9656,9.765625
9657,7.812500
9658,7.812500
9659,5.859375
9660,5.859375
9661,3.906250
9662,3.906250
9663,1.953125
9664,1.953125
9665,0.000000
9666,-1.953125
9667,-1.953125
9668,-3.906250
9669,-3.906250
9670,-5.859375
9671,-7.812500
9672,-7.812500
9673,-9.765625
9674,-11.718750
9675,-11.718750
9676,-13.671875
9677,-13.671875
9678,-15.625000
9679,-17.578125
9680,-17.578125
9681,-19.531250
9682,-19.531250
9683,-21.484375
9684,-21.484375
9685,-23.437500
9686,-25.390625
9687,-25.390625
9688,-27.343750
9689,-27.343750
9690,-29.296875
9691,-29.296875
9692,-31.250000
9693,-33.203125
9694,-33.203125
9695,-33.203125
9696,-35.156250
9697,-37.109375
9698,-37.109375
9699,-37.109375
9700,-39.062500
9701,-41.015625
9702,-41.015625
9703,-41.015625
9704,-42.968750
9705,-44.921875
9706,-44.921875
9707,-44.921875
9708,-46.875000
9709,-46.875000
9710,-46.875000
9711,-48.828125
9712,-48.828125
9713,-50.781250
9714,-50.781250
9715,-50.781250
9716,-50.781250
9717,-52.734375
9718,-52.734375
9719,-52.734375
9720,-54.687500
9721,-54.687500
9722,-54.687500
9723,-54.687500
9724,-56.640625
9725,-56.640625
9726,-56.640625
9727,-58.593750
9728,-56.640625
9729,-58.593750
9730,-58.593750
9731,-58.593750
9732,-58.593750
9733,-58.593750
9734,-58.593750
9735,-60.546875
9736,-60.546875
9737,-58.593750
9738,-60.546875
9739,-60.546875
9740,-60.546875
9741,-58.593750
9742,-58.593750
9743,-60.546875
9744,-60.546875
9745,-58.593750
9746,-60.546875
9747,-60.546875
9748,-60.546875
9749,-58.593750
9750,-58.593750
9751,-58.593750
9752,-58.593750
9753,-58.593750
9754,-56.640625
9755,-56.640625
9756,-56.640625
9757,-56.640625
9758,-56.640625
9759,-54.687500
9760,-54.687500
9761,-54.687500
9762,-52.734375
9763,-52.734375
9764,-52.734375
9765,-52.734375
9766,-50.781250
9767,-50.781250
9768,-50.781250
9769,-48.828125
9770,-48.828125
9771,-48.828125
9772,-46.875000
9773,-44.921875
9774,-44.921875
9775,-44.921875
9776,-42.968750
9777,-42.968750
9778,-41.015625
9779,-41.015625
9780,-41.015625
9781,-39.062500
9782,-37.109375
9783,-37.109375
9784,-37.109375
9785,-35.156250
9786,-33.203125
9787,-33.203125
9788,-31.250000
9789,-31.250000
9790,-29.296875
9791,-29.296875
9792,-27.343750
9793,-27.343750
9794,-25.390625
9795,-25.390625
9796,-23.437500
9797,-21.484375
9798,-21.484375
9799,-19.531250
9800,-19.531250
9801,-17.578125
9802,-15.625000
9803,-15.625000
9804,-15.625000
9805,-13.671875
9806,-11.718750
9807,-11.718750
9808,-9.765625
9809,-9.765625
9810,-7.812500
9811,-5.859375
9812,-5.859375
9813,-3.906250
9814,-1.953125
9815,-1.953125
9816,0.000000
9817,0.000000
9818,1.953125
9819,3.906250
9820,3.906250
9821,3.906250
9822,5.859375
9823,7.812500
9824,7.812500
9825,9.765625
9826,9.765625
9827,11.718750
9828,13.671875
9829,13.671875
9830,13.671875
9831,15.625000
9832,15.625000
9833,17.578125
9834,19.531250
9835,19.531250
9836,19.531250
9837,21.484375
9838,23.437500
9839,23.437500
9840,23.437500
9841,25.390625
9842,25.390625
9843,27.343750
9844,27.343750
9845,27.343750
9846,29.296875
9847,29.296875
9848,31.250000
9849,31.250000
9850,33.203125
9851,33.203125
9852,33.203125
9853,33.203125
9854,35.156250
9855,35.156250
9856,37.109375
9857,37.109375
9858,37.109375
9859,37.109375
9860,39.062500
9861,39.062500
9862,39.062500
9863,39.062500
9864,41.015625
9865,41.015625
9866,41.015625
9867,41.015625
9868,41.015625
9869,42.968750
9870,42.968750
9871,42.968750
9872,42.968750
9873,42.968750
9874,42.968750
9875,42.968750
9876,42.968750
9877,42.968750
9878,42.968750
9879,42.968750
9880,42.968750
9881,42.968750
9882,42.968750
9883,42.968750
9884,42.968750
9885,42.968750
9886,42.968750
9887,42.968750
9888,42.968750
9889,42.968750
9890,42.968750
9891,42.968750
9892,42.968750
9893,42.968750
9894,41.015625
9895,41.015625
9896,41.015625
9897,41.015625
9898,41.015625
9899,41.015625
9900,39.062500
9901,39.062500
9902,39.062500
9903,39.062500
9904,39.062500
9905,37.109375
9906,37.109375
9907,37.109375
9908,37.109375
9909,35.156250
9910,33.203125
9911,33.203125
9912,33.203125
9913,33.203125
9914,31.250000
9915,31.250000
9916,31.250000
9917,29.296875
9918,29.296875
9919,27.343750
9920,27.343750
9921,27.343750
9922,25.390625
9923,25.390625
9924,23.437500
9925,23.437500
9926,21.484375
9927,21.484375
9928,21.484375
9929,19.531250
9930,17.578125
9931,15.625000
9932,15.625000
9933,15.625000
9934,15.625000
9935,13.671875
9936,11.718750
9937,11.718750
9938,9.765625
9939,9.765625
9940,7.812500
9941,5.859375
9942,5.859375
9943,3.906250
9944,3.906250
9945,1.953125
9946,0.000000
9947,0.000000
9948,-1.953125
9949,-1.953125
9950,-3.906250
9951,-3.906250
9952,-5.859375
9953,-7.812500
9954,-7.812500
9955,-9.765625
9956,-11.718750
9957,-11.718750
9958,-11.718750
9959,-13.671875
9960,-15.625000
9961,-15.625000
9962,-17.578125
9963,-19.531250
9964,-19.531250
9965,-21.484375
9966,-21.484375
9967,-23.437500
9968,-23.437500
9969,-25.390625
9970,-27.343750
9971,-27.343750
9972,-29.296875
9973,-29.296875
9974,-31.250000
9975,-31.250000
9976,-33.203125
9977,-33.203125
9978,-35.156250
9979,-35.156250
9980,-37.109375
9981,-39.062500
9982,-39.062500
9983,-39.062500
9984,-39.062500
9985,-41.015625
9986,-42.968750
9987,-42.968750
9988,-42.968750
9989,-44.921875
9990,-46.875000
9991,-46.875000
9992,-48.828125
9993,-48.828125
9994,-48.828125
9995,-48.828125
9996,-50.781250
9997,-50.781250
9998,-52.734375
9999,-52.734375
10000,-52.734375
