Channel              :,CH1
Frequency            :,1.771kHz
Period               :,0.565ms
PK-PK                :,76.17mV
Probe attenuation    :,1X
Voltage per ADC value:,0.122070mV
Time interval        :,2.00000us

index,CH1_Voltage(mV)
1,29.296875
2,29.296875
3,31.250000
4,31.250000
5,29.296875
6,29.296875
7,31.250000
8,29.296875
9,29.296875
10,29.296875
11,29.296875
12,29.296875
13,29.296875
14,29.296875
15,29.296875
16,29.296875
17,29.296875
18,27.343750
19,27.343750
20,27.343750
21,27.343750
22,27.343750
23,27.343750
24,25.390625
25,25.390625
26,25.390625
27,25.390625
28,25.390625
29,25.390625
30,23.437500
31,23.437500
32,23.437500
33,21.484375
34,21.484375
35,21.484375
36,21.484375
37,19.531250
38,21.484375
39,19.531250
40,19.531250
41,17.578125
42,17.578125
43,17.578125
44,15.625000
45,15.625000
46,15.625000
47,13.671875
48,13.671875
49,13.671875
50,13.671875
51,11.718750
52,9.765625
53,9.765625
54,9.765625
55,7.812500
56,7.812500
57,7.812500
58,5.859375
59,5.859375
60,3.906250
61,3.906250
62,3.906250
63,1.953125
64,1.953125
65,1.953125
66,0.000000
67,0.000000
68,-1.953125
69,-1.953125
70,-1.953125
71,-3.906250
72,-3.906250
73,-5.859375
74,-5.859375
75,-7.812500
76,-7.812500
77,-9.765625
78,-9.765625
79,-9.765625
80,-11.718750
81,-11.718750
82,-13.671875
83,-13.671875
84,-13.671875
85,-15.625000
86,-15.625000
87,-17.578125
88,-17.578125
89,-19.531250
90,-19.531250
91,-19.531250
92,-21.484375
93,-21.484375
94,-21.484375
95,-21.484375
96,-23.437500
97,-25.390625
98,-25.390625
99,-25.390625
100,-27.343750
101,-27.343750
102,-29.296875
103,-27.343750
104,-29.296875
105,-29.296875
106,-31.250000
107,-31.250000
108,-31.250000
109,-33.203125
110,-33.203125
111,-33.203125
112,-35.156250
113,-35.156250
114,-35.156250
115,-37.109375
116,-37.109375
117,-37.109375
118,-37.109375
119,-37.109375
120,-39.062500
121,-39.062500
122,-39.062500
123,-39.062500
124,-39.062500
125,-41.015625
126,-41.015625
127,-41.015625
128,-41.015625
129,-41.015625
130,-41.015625
131,-41.015625
132,-41.015625
133,-41.015625
134,-42.968750
135,-42.968750
136,-42.968750
137,-42.968750
138,-42.968750
139,-42.968750
140,-42.968750
141,-42.968750
142,-42.968750
143,-42.968750
144,-42.968750
145,-42.968750
146,-42.968750
147,-42.968750
148,-42.968750
149,-42.968750
150,-42.968750
151,-42.968750
152,-42.968750
153,-42.968750
154,-41.015625
155,-42.968750
156,-41.015625
157,-41.015625
158,-41.015625
159,-41.015625
160,-41.015625
161,-41.015625
162,-39.062500
163,-39.062500
164,-39.062500
165,-39.062500
166,-37.109375
167,-37.109375
168,-37.109375
169,-37.109375
170,-37.109375
171,-35.156250
172,-35.156250
173,-35.156250
174,-35.156250
175,-35.156250
176,-33.203125
177,-33.203125
178,-31.250000
179,-31.250000
180,-31.250000
181,-31.250000
182,-29.296875
183,-29.296875
184,-29.296875
185,-27.343750
186,-27.343750
187,-27.343750
188,-25.390625
189,-25.390625
190,-23.437500
191,-23.437500
192,-23.437500
193,-21.484375
194,-21.484375
195,-21.484375
196,-19.531250
197,-19.531250
198,-19.531250
199,-17.578125
200,-17.578125
201,-15.625000
202,-15.625000
203,-15.625000
204,-13.671875
205,-11.718750
206,-11.718750
207,-11.718750
208,-11.718750
209,-9.765625
210,-7.812500
211,-7.812500
212,-7.812500
213,-5.859375
214,-5.859375
215,-3.906250
216,-3.906250
217,-3.906250
218,-1.953125
219,-1.953125
220,0.000000
221,0.000000
222,1.953125
223,1.953125
224,1.953125
225,3.906250
226,3.906250
227,3.906250
228,5.859375
229,7.812500
230,7.812500
231,7.812500
232,7.812500
233,9.765625
234,9.765625
235,11.718750
236,11.718750
237,11.718750
238,13.671875
239,13.671875
240,13.671875
241,15.625000
242,15.625000
243,15.625000
244,17.578125
245,17.578125
246,17.578125
247,19.531250
248,19.531250
249,19.531250
250,19.531250
251,21.484375
252,21.484375
253,21.484375
254,23.437500
255,23.437500
256,23.437500
257,23.437500
258,23.437500
259,25.390625
260,25.390625
261,25.390625
262,25.390625
263,25.390625
264,25.390625
265,27.343750
266,27.343750
267,27.343750
268,27.343750
269,27.343750
270,29.296875
271,27.343750
272,29.296875
273,29.296875
274,29.296875
275,29.296875
276,29.296875
277,29.296875
278,31.250000
279,31.250000
280,29.296875
281,29.296875
282,29.296875
283,31.250000
284,31.250000
285,31.250000
286,31.250000
287,31.250000
288,31.250000
289,29.296875
290,31.250000
291,31.250000
292,31.250000
293,29.296875
294,29.296875
295,29.296875
296,29.296875
297,29.296875
298,29.296875
299,29.296875
300,29.296875
301,27.343750
302,27.343750
303,27.343750
304,27.343750
305,27.343750
306,27.343750
307,27.343750
308,25.390625
309,25.390625
310,25.390625
311,25.390625
312,25.390625
313,23.437500
314,23.437500
315,23.437500
316,23.437500
317,21.484375
318,21.484375
319,19.531250
320,19.531250
321,19.531250
322,19.531250
323,17.578125
324,17.578125
325,17.578125
326,15.625000
327,15.625000
328,15.625000
329,15.625000
330,13.671875
331,13.671875
332,11.718750
333,11.718750
334,11.718750
335,9.765625
336,9.765625
337,9.765625
338,7.812500
339,7.812500
340,5.859375
341,5.859375
342,5.859375
343,3.906250
344,3.906250
345,1.953125
346,1.953125
347,1.953125
348,0.000000
349,0.000000
350,0.000000
351,-1.953125
352,-1.953125
353,-3.906250
354,-3.906250
355,-3.906250
356,-5.859375
357,-5.859375
358,-7.812500
359,-7.812500
360,-7.812500
361,-9.765625
362,-9.765625
363,-11.718750
364,-11.718750
365,-13.671875
366,-13.671875
367,-15.625000
368,-15.625000
369,-15.625000
370,-17.578125
371,-17.578125
372,-19.531250
373,-19.531250
374,-19.531250
375,-21.484375
376,-21.484375
377,-23.437500
378,-23.437500
379,-23.437500
380,-25.390625
381,-25.390625
382,-25.390625
383,-27.343750
384,-27.343750
385,-29.296875
386,-29.296875
387,-29.296875
388,-31.250000
389,-31.250000
390,-33.203125
391,-33.203125
392,-33.203125
393,-33.203125
394,-33.203125
395,-35.156250
396,-35.156250
397,-35.156250
398,-35.156250
399,-37.109375
400,-37.109375
401,-37.109375
402,-39.062500
403,-37.109375
404,-39.062500
405,-39.062500
406,-39.062500
407,-39.062500
408,-41.015625
409,-41.015625
410,-41.015625
411,-41.015625
412,-41.015625
413,-41.015625
414,-41.015625
415,-42.968750
416,-42.968750
417,-42.968750
418,-42.968750
419,-42.968750
420,-42.968750
421,-42.968750
422,-42.968750
423,-42.968750
424,-42.968750
425,-42.968750
426,-42.968750
427,-42.968750
428,-42.968750
429,-42.968750
430,-42.968750
431,-42.968750
432,-42.968750
433,-42.968750
434,-42.968750
435,-42.968750
436,-42.968750
437,-41.015625
438,-41.015625
439,-41.015625
440,-41.015625
441,-41.015625
442,-41.015625
443,-41.015625
444,-41.015625
445,-39.062500
446,-39.062500
447,-39.062500
448,-39.062500
449,-39.062500
450,-39.062500
451,-37.109375
452,-37.109375
453,-37.109375
454,-37.109375
455,-35.156250
456,-35.156250
457,-35.156250
458,-35.156250
459,-33.203125
460,-33.203125
461,-31.250000
462,-31.250000
463,-31.250000
464,-31.250000
465,-29.296875
466,-29.296875
467,-27.343750
468,-27.343750
469,-27.343750
470,-25.390625
471,-25.390625
472,-25.390625
473,-23.437500
474,-23.437500
475,-23.437500
476,-21.484375
477,-21.484375
478,-19.531250
479,-19.531250
480,-19.531250
481,-17.578125
482,-17.578125
483,-15.625000
484,-15.625000
485,-15.625000
486,-13.671875
487,-13.671875
488,-11.718750
489,-11.718750
490,-9.765625
491,-9.765625
492,-7.812500
493,-7.812500
494,-7.812500
495,-5.859375
496,-3.906250
497,-3.906250
498,-3.906250
499,-3.906250
500,-1.953125
501,-1.953125
502,0.000000
503,0.000000
504,0.000000
505,1.953125
506,1.953125
507,3.906250
508,3.906250
509,3.906250
510,5.859375
511,5.859375
512,7.812500
513,7.812500
514,7.812500
515,9.765625
516,9.765625
517,9.765625
518,9.765625
519,11.718750
520,13.671875
521,13.671875
522,13.671875
523,13.671875
524,15.625000
525,15.625000
526,15.625000
527,17.578125
528,17.578125
529,17.578125
530,17.578125
531,19.531250
532,19.531250
533,21.484375
534,21.484375
535,21.484375
536,23.437500
537,23.437500
538,23.437500
539,23.437500
540,25.390625
541,25.390625
542,25.390625
543,25.390625
544,25.390625
545,25.390625
546,27.343750
547,27.343750
548,27.343750
549,27.343750
550,27.343750
551,29.296875
552,29.296875
553,29.296875
554,29.296875
555,29.296875
556,29.296875
557,29.296875
558,29.296875
559,29.296875
560,31.250000
561,31.250000
562,29.296875
563,31.250000
564,31.250000
565,31.250000
566,31.250000
567,31.250000
568,31.250000
569,31.250000
570,29.296875
571,31.250000
572,31.250000
573,31.250000
574,31.250000
575,29.296875
576,29.296875
577,29.296875
578,31.250000
579,29.296875
580,27.343750
581,29.296875
582,29.296875
583,27.343750
584,27.343750
585,27.343750
586,27.343750
587,27.343750
588,27.343750
589,25.390625
590,27.343750
591,25.390625
592,25.390625
593,25.390625
594,25.390625
595,23.437500
596,23.437500
597,23.437500
598,21.484375
599,21.484375
600,21.484375
601,21.484375
602,21.484375
603,21.484375
604,19.531250
605,19.531250
606,19.531250
607,17.578125
608,17.578125
609,17.578125
610,15.625000
611,15.625000
612,13.671875
613,13.671875
614,13.671875
615,11.718750
616,11.718750
617,11.718750
618,9.765625
619,9.765625
620,9.765625
621,7.812500
622,7.812500
623,5.859375
624,5.859375
625,5.859375
626,3.906250
627,1.953125
628,1.953125
629,1.953125
630,1.953125
631,0.000000
632,-1.953125
633,-1.953125
634,-1.953125
635,-3.906250
636,-3.906250
637,-5.859375
638,-5.859375
639,-7.812500
640,-7.812500
641,-7.812500
642,-9.765625
643,-9.765625
644,-9.765625
645,-11.718750
646,-13.671875
647,-13.671875
648,-13.671875
649,-15.625000
650,-15.625000
651,-15.625000
652,-17.578125
653,-17.578125
654,-19.531250
655,-19.531250
656,-19.531250
657,-21.484375
658,-21.484375
659,-23.437500
660,-23.437500
661,-25.390625
662,-25.390625
663,-25.390625
664,-25.390625
665,-27.343750
666,-29.296875
667,-27.343750
668,-29.296875
669,-29.296875
670,-31.250000
671,-31.250000
672,-31.250000
673,-31.250000
674,-33.203125
675,-33.203125
676,-33.203125
677,-33.203125
678,-35.156250
679,-35.156250
680,-35.156250
681,-37.109375
682,-37.109375
683,-37.109375
684,-37.109375
685,-39.062500
686,-39.062500
687,-39.062500
688,-39.062500
689,-39.062500
690,-41.015625
691,-41.015625
692,-41.015625
693,-41.015625
694,-41.015625
695,-41.015625
696,-42.968750
697,-42.968750
698,-42.968750
699,-42.968750
700,-42.968750
701,-42.968750
702,-42.968750
703,-42.968750
704,-42.968750
705,-42.968750
706,-42.968750
707,-42.968750
708,-42.968750
709,-42.968750
710,-42.968750
711,-42.968750
712,-42.968750
713,-42.968750
714,-42.968750
715,-42.968750
716,-42.968750
717,-42.968750
718,-42.968750
719,-41.015625
720,-42.968750
721,-41.015625
722,-41.015625
723,-41.015625
724,-41.015625
725,-41.015625
726,-41.015625
727,-39.062500
728,-39.062500
729,-39.062500
730,-39.062500
731,-39.062500
732,-37.109375
733,-37.109375
734,-37.109375
735,-37.109375
736,-35.156250
737,-35.156250
738,-35.156250
739,-35.156250
740,-33.203125
741,-33.203125
742,-33.203125
743,-31.250000
744,-31.250000
745,-31.250000
746,-31.250000
747,-29.296875
748,-29.296875
749,-27.343750
750,-27.343750
751,-27.343750
752,-25.390625
753,-25.390625
754,-25.390625
755,-23.437500
756,-23.437500
757,-21.484375
758,-21.484375
759,-21.484375
760,-21.484375
761,-19.531250
762,-19.531250
763,-17.578125
764,-17.578125
765,-17.578125
766,-15.625000
767,-15.625000
768,-13.671875
769,-13.671875
770,-13.671875
771,-11.718750
772,-11.718750
773,-11.718750
774,-9.765625
775,-7.812500
776,-7.812500
777,-7.812500
778,-5.859375
779,-5.859375
780,-3.906250
781,-3.906250
782,-3.906250
783,-1.953125
784,-1.953125
785,0.000000
786,0.000000
787,0.000000
788,1.953125
789,3.906250
790,3.906250
791,3.906250
792,5.859375
793,5.859375
794,5.859375
795,7.812500
796,7.812500
797,9.765625
798,9.765625
799,9.765625
800,9.765625
801,11.718750
802,13.671875
803,13.671875
804,13.671875
805,13.671875
806,15.625000
807,15.625000
808,17.578125
809,17.578125
810,17.578125
811,17.578125
812,19.531250
813,19.531250
814,19.531250
815,21.484375
816,21.484375
817,21.484375
818,21.484375
819,23.437500
820,23.437500
821,23.437500
822,23.437500
823,25.390625
824,25.390625
825,25.390625
826,25.390625
827,25.390625
828,27.343750
829,27.343750
830,27.343750
831,27.343750
832,27.343750
833,27.343750
834,27.343750
835,29.296875
836,27.343750
837,29.296875
838,29.296875
839,29.296875
840,29.296875
841,29.296875
842,29.296875
843,29.296875
844,29.296875
845,29.296875
846,31.250000
847,31.250000
848,29.296875
849,31.250000
850,31.250000
851,29.296875
852,29.296875
853,29.296875
854,31.250000
855,31.250000
856,29.296875
857,29.296875
858,29.296875
859,29.296875
860,29.296875
861,29.296875
862,29.296875
863,29.296875
864,27.343750
865,27.343750
866,27.343750
867,27.343750
868,27.343750
869,27.343750
870,27.343750
871,25.390625
872,25.390625
873,25.390625
874,25.390625
875,25.390625
876,25.390625
877,23.437500
878,23.437500
879,23.437500
880,23.437500
881,21.484375
882,21.484375
883,21.484375
884,21.484375
885,19.531250
886,19.531250
887,19.531250
888,17.578125
889,17.578125
890,17.578125
891,15.625000
892,15.625000
893,15.625000
894,13.671875
895,13.671875
896,13.671875
897,11.718750
898,11.718750
899,11.718750
900,9.765625
901,9.765625
902,7.812500
903,7.812500
904,7.812500
905,5.859375
906,5.859375
907,5.859375
908,3.906250
909,3.906250
910,1.953125
911,1.953125
912,1.953125
913,0.000000
914,0.000000
915,-1.953125
916,-1.953125
917,-1.953125
918,-3.906250
919,-5.859375
920,-5.859375
921,-5.859375
922,-5.859375
923,-7.812500
924,-9.765625
925,-9.765625
926,-9.765625
927,-11.718750
928,-11.718750
929,-13.671875
930,-13.671875
931,-13.671875
932,-15.625000
933,-15.625000
934,-15.625000
935,-17.578125
936,-17.578125
937,-19.531250
938,-19.531250
939,-19.531250
940,-21.484375
941,-21.484375
942,-23.437500
943,-23.437500
944,-25.390625
945,-25.390625
946,-25.390625
947,-27.343750
948,-27.343750
949,-27.343750
950,-29.296875
951,-29.296875
952,-29.296875
953,-31.250000
954,-31.250000
955,-31.250000
956,-33.203125
957,-33.203125
958,-33.203125
959,-35.156250
960,-35.156250
961,-35.156250
962,-35.156250
963,-35.156250
964,-37.109375
965,-37.109375
966,-39.062500
967,-37.109375
968,-39.062500
969,-39.062500
970,-39.062500
971,-39.062500
972,-39.062500
973,-41.015625
974,-41.015625
975,-41.015625
976,-41.015625
977,-41.015625
978,-41.015625
979,-41.015625
980,-42.968750
981,-42.968750
982,-42.968750
983,-41.015625
984,-42.968750
985,-42.968750
986,-42.968750
987,-42.968750
988,-42.968750
989,-41.015625
990,-42.968750
991,-42.968750
992,-42.968750
993,-42.968750
994,-42.968750
995,-42.968750
996,-42.968750
997,-42.968750
998,-42.968750
999,-42.968750
1000,-42.968750
1001,-41.015625
1002,-41.015625
1003,-41.015625
1004,-41.015625
1005,-41.015625
1006,-41.015625
1007,-41.015625
1008,-41.015625
1009,-41.015625
1010,-39.062500
1011,-39.062500
1012,-39.062500
1013,-39.062500
1014,-37.109375
1015,-37.109375
1016,-37.109375
1017,-35.156250
1018,-35.156250
1019,-35.156250
1020,-35.156250
1021,-35.156250
1022,-35.156250
1023,-33.203125
1024,-33.203125
1025,-33.203125
1026,-31.250000
1027,-31.250000
1028,-31.250000
1029,-31.250000
1030,-29.296875
1031,-29.296875
1032,-29.296875
1033,-27.343750
1034,-27.343750
1035,-25.390625
1036,-25.390625
1037,-25.390625
1038,-23.437500
1039,-23.437500
1040,-23.437500
1041,-21.484375
1042,-21.484375
1043,-19.531250
1044,-19.531250
1045,-19.531250
1046,-17.578125
1047,-17.578125
1048,-15.625000
1049,-15.625000
1050,-15.625000
1051,-13.671875
1052,-13.671875
1053,-11.718750
1054,-11.718750
1055,-9.765625
1056,-9.765625
1057,-9.765625
1058,-7.812500
1059,-5.859375
1060,-5.859375
1061,-5.859375
1062,-3.906250
1063,-3.906250
1064,-3.906250
1065,-1.953125
1066,-1.953125
1067,0.000000
1068,0.000000
1069,1.953125
1070,1.953125
1071,1.953125
1072,1.953125
1073,3.906250
1074,5.859375
1075,5.859375
1076,5.859375
1077,7.812500
1078,7.812500
1079,9.765625
1080,9.765625
1081,9.765625
1082,9.765625
1083,11.718750
1084,11.718750
1085,13.671875
1086,13.671875
1087,13.671875
1088,15.625000
1089,15.625000
1090,15.625000
1091,17.578125
1092,17.578125
1093,17.578125
1094,19.531250
1095,19.531250
1096,19.531250
1097,19.531250
1098,19.531250
1099,21.484375
1100,21.484375
1101,23.437500
1102,21.484375
1103,23.437500
1104,23.437500
1105,23.437500
1106,25.390625
1107,25.390625
1108,25.390625
1109,25.390625
1110,27.343750
1111,27.343750
1112,27.343750
1113,27.343750
1114,27.343750
1115,29.296875
1116,29.296875
1117,29.296875
1118,29.296875
1119,29.296875
1120,29.296875
1121,29.296875
1122,29.296875
1123,29.296875
1124,29.296875
1125,31.250000
1126,31.250000
1127,29.296875
1128,31.250000
1129,31.250000
1130,31.250000
1131,29.296875
1132,31.250000
1133,31.250000
1134,31.250000
1135,31.250000
1136,31.250000
1137,31.250000
1138,29.296875
1139,31.250000
1140,31.250000
1141,29.296875
1142,29.296875
1143,29.296875
1144,29.296875
1145,29.296875
1146,29.296875
1147,29.296875
1148,29.296875
1149,27.343750
1150,27.343750
1151,27.343750
1152,27.343750
1153,27.343750
1154,27.343750
1155,27.343750
1156,25.390625
1157,25.390625
1158,25.390625
1159,23.437500
1160,23.437500
1161,23.437500
1162,21.484375
1163,21.484375
1164,21.484375
1165,21.484375
1166,19.531250
1167,19.531250
1168,19.531250
1169,19.531250
1170,17.578125
1171,17.578125
1172,17.578125
1173,17.578125
1174,15.625000
1175,15.625000
1176,15.625000
1177,13.671875
1178,13.671875
1179,11.718750
1180,11.718750
1181,11.718750
1182,9.765625
1183,9.765625
1184,9.765625
1185,9.765625
1186,7.812500
1187,7.812500
1188,5.859375
1189,5.859375
1190,3.906250
1191,3.906250
1192,3.906250
1193,1.953125
1194,1.953125
1195,0.000000
1196,0.000000
1197,0.000000
1198,-1.953125
1199,-1.953125
1200,-3.906250
1201,-3.906250
1202,-5.859375
1203,-5.859375
1204,-5.859375
1205,-7.812500
1206,-7.812500
1207,-9.765625
1208,-9.765625
1209,-9.765625
1210,-11.718750
1211,-11.718750
1212,-13.671875
1213,-13.671875
1214,-15.625000
1215,-15.625000
1216,-17.578125
1217,-17.578125
1218,-17.578125
1219,-19.531250
1220,-19.531250
1221,-21.484375
1222,-21.484375
1223,-23.437500
1224,-23.437500
1225,-23.437500
1226,-23.437500
1227,-25.390625
1228,-25.390625
1229,-27.343750
1230,-27.343750
1231,-27.343750
1232,-29.296875
1233,-31.250000
1234,-31.250000
1235,-31.250000
1236,-31.250000
1237,-31.250000
1238,-31.250000
1239,-33.203125
1240,-33.203125
1241,-33.203125
1242,-35.156250
1243,-35.156250
1244,-35.156250
1245,-37.109375
1246,-37.109375
1247,-37.109375
1248,-37.109375
1249,-37.109375
1250,-39.062500
1251,-39.062500
1252,-39.062500
1253,-39.062500
1254,-39.062500
1255,-41.015625
1256,-39.062500
1257,-39.062500
1258,-41.015625
1259,-41.015625
1260,-41.015625
1261,-42.968750
1262,-41.015625
1263,-42.968750
1264,-41.015625
1265,-42.968750
1266,-42.968750
1267,-42.968750
1268,-42.968750
1269,-42.968750
1270,-42.968750
1271,-42.968750
1272,-42.968750
1273,-42.968750
1274,-42.968750
1275,-42.968750
1276,-42.968750
1277,-42.968750
1278,-42.968750
1279,-42.968750
1280,-42.968750
1281,-42.968750
1282,-42.968750
1283,-42.968750
1284,-42.968750
1285,-41.015625
1286,-42.968750
1287,-41.015625
1288,-41.015625
1289,-41.015625
1290,-41.015625
1291,-41.015625
1292,-39.062500
1293,-39.062500
1294,-39.062500
1295,-39.062500
1296,-39.062500
1297,-37.109375
1298,-37.109375
1299,-37.109375
1300,-37.109375
1301,-37.109375
1302,-35.156250
1303,-35.156250
1304,-35.156250
1305,-33.203125
1306,-33.203125
1307,-33.203125
1308,-31.250000
1309,-31.250000
1310,-31.250000
1311,-31.250000
1312,-29.296875
1313,-29.296875
1314,-29.296875
1315,-27.343750
1316,-25.390625
1317,-25.390625
1318,-25.390625
1319,-25.390625
1320,-23.437500
1321,-23.437500
1322,-21.484375
1323,-21.484375
1324,-21.484375
1325,-19.531250
1326,-17.578125
1327,-17.578125
1328,-17.578125
1329,-17.578125
1330,-15.625000
1331,-15.625000
1332,-13.671875
1333,-13.671875
1334,-11.718750
1335,-11.718750
1336,-11.718750
1337,-9.765625
1338,-9.765625
1339,-9.765625
1340,-7.812500
1341,-7.812500
1342,-5.859375
1343,-5.859375
1344,-3.906250
1345,-3.906250
1346,-3.906250
1347,-1.953125
1348,-1.953125
1349,0.000000
1350,0.000000
1351,0.000000
1352,1.953125
1353,1.953125
1354,3.906250
1355,3.906250
1356,3.906250
1357,3.906250
1358,5.859375
1359,7.812500
1360,7.812500
1361,7.812500
1362,7.812500
1363,9.765625
1364,9.765625
1365,11.718750
1366,11.718750
1367,11.718750
1368,13.671875
1369,13.671875
1370,13.671875
1371,15.625000
1372,15.625000
1373,17.578125
1374,17.578125
1375,17.578125
1376,17.578125
1377,19.531250
1378,19.531250
1379,21.484375
1380,21.484375
1381,21.484375
1382,21.484375
1383,23.437500
1384,23.437500
1385,23.437500
1386,23.437500
1387,25.390625
1388,25.390625
1389,25.390625
1390,25.390625
1391,25.390625
1392,27.343750
1393,27.343750
1394,27.343750
1395,27.343750
1396,27.343750
1397,29.296875
1398,27.343750
1399,29.296875
1400,29.296875
1401,29.296875
1402,29.296875
1403,29.296875
1404,29.296875
1405,29.296875
1406,29.296875
1407,29.296875
1408,29.296875
1409,31.250000
1410,31.250000
1411,31.250000
1412,31.250000
1413,29.296875
1414,31.250000
1415,29.296875
1416,29.296875
1417,31.250000
1418,29.296875
1419,29.296875
1420,29.296875
1421,29.296875
1422,29.296875
1423,29.296875
1424,29.296875
1425,29.296875
1426,29.296875
1427,27.343750
1428,27.343750
1429,29.296875
1430,29.296875
1431,27.343750
1432,27.343750
1433,27.343750
1434,27.343750
1435,27.343750
1436,25.390625
1437,25.390625
1438,25.390625
1439,25.390625
1440,25.390625
1441,25.390625
1442,23.437500
1443,23.437500
1444,23.437500
1445,21.484375
1446,21.484375
1447,21.484375
1448,21.484375
1449,19.531250
1450,19.531250
1451,19.531250
1452,19.531250
1453,17.578125
1454,17.578125
1455,17.578125
1456,15.625000
1457,15.625000
1458,15.625000
1459,15.625000
1460,13.671875
1461,13.671875
1462,11.718750
1463,11.718750
1464,11.718750
1465,9.765625
1466,9.765625
1467,7.812500
1468,7.812500
1469,7.812500
1470,7.812500
1471,5.859375
1472,5.859375
1473,3.906250
1474,3.906250
1475,1.953125
1476,1.953125
1477,0.000000
1478,0.000000
1479,0.000000
1480,-1.953125
1481,-1.953125
1482,-3.906250
1483,-3.906250
1484,-3.906250
1485,-5.859375
1486,-7.812500
1487,-7.812500
1488,-9.765625
1489,-9.765625
1490,-9.765625
1491,-9.765625
1492,-11.718750
1493,-11.718750
1494,-13.671875
1495,-11.718750
1496,-15.625000
1497,-15.625000
1498,-17.578125
1499,-17.578125
1500,-17.578125
1501,-19.531250
1502,-19.531250
1503,-21.484375
1504,-21.484375
1505,-21.484375
1506,-23.437500
1507,-23.437500
1508,-25.390625
1509,-25.390625
1510,-25.390625
1511,-25.390625
1512,-27.343750
1513,-27.343750
1514,-27.343750
1515,-29.296875
1516,-29.296875
1517,-31.250000
1518,-31.250000
1519,-31.250000
1520,-31.250000
1521,-33.203125
1522,-33.203125
1523,-33.203125
1524,-35.156250
1525,-35.156250
1526,-35.156250
1527,-35.156250
1528,-37.109375
1529,-37.109375
1530,-37.109375
1531,-37.109375
1532,-39.062500
1533,-39.062500
1534,-39.062500
1535,-39.062500
1536,-39.062500
1537,-39.062500
1538,-41.015625
1539,-41.015625
1540,-41.015625
1541,-41.015625
1542,-41.015625
1543,-42.968750
1544,-42.968750
1545,-42.968750
1546,-42.968750
1547,-42.968750
1548,-42.968750
1549,-42.968750
1550,-42.968750
1551,-42.968750
1552,-42.968750
1553,-42.968750
1554,-42.968750
1555,-42.968750
1556,-42.968750
1557,-42.968750
1558,-42.968750
1559,-42.968750
1560,-42.968750
1561,-41.015625
1562,-46.875000
1563,-42.968750
1564,-42.968750
1565,-41.015625
1566,-42.968750
1567,-41.015625
1568,-41.015625
1569,-41.015625
1570,-41.015625
1571,-41.015625
1572,-41.015625
1573,-39.062500
1574,-39.062500
1575,-39.062500
1576,-39.062500
1577,-39.062500
1578,-35.156250
1579,-39.062500
1580,-37.109375
1581,-37.109375
1582,-35.156250
1583,-35.156250
1584,-35.156250
1585,-35.156250
1586,-33.203125
1587,-33.203125
1588,-33.203125
1589,-33.203125
1590,-31.250000
1591,-31.250000
1592,-31.250000
1593,-31.250000
1594,-29.296875
1595,-27.343750
1596,-29.296875
1597,-27.343750
1598,-27.343750
1599,-27.343750
1600,-25.390625
1601,-25.390625
1602,-25.390625
1603,-23.437500
1604,-23.437500
1605,-21.484375
1606,-21.484375
1607,-21.484375
1608,-19.531250
1609,-19.531250
1610,-17.578125
1611,-17.578125
1612,-15.625000
1613,-15.625000
1614,-15.625000
1615,-13.671875
1616,-13.671875
1617,-13.671875
1618,-11.718750
1619,-11.718750
1620,-9.765625
1621,-9.765625
1622,-7.812500
1623,-7.812500
1624,-5.859375
1625,-5.859375
1626,-5.859375
1627,-3.906250
1628,-3.906250
1629,-1.953125
1630,-1.953125
1631,0.000000
1632,0.000000
1633,0.000000
1634,1.953125
1635,1.953125
1636,1.953125
1637,3.906250
1638,3.906250
1639,5.859375
1640,5.859375
1641,5.859375
1642,7.812500
1643,7.812500
1644,9.765625
1645,9.765625
1646,11.718750
1647,11.718750
1648,11.718750
1649,11.718750
1650,13.671875
1651,13.671875
1652,15.625000
1653,15.625000
1654,15.625000
1655,17.578125
1656,17.578125
1657,17.578125
1658,17.578125
1659,19.531250
1660,19.531250
1661,19.531250
1662,21.484375
1663,19.531250
1664,21.484375
1665,21.484375
1666,23.437500
1667,23.437500
1668,23.437500
1669,25.390625
1670,23.437500
1671,25.390625
1672,25.390625
1673,25.390625
1674,25.390625
1675,27.343750
1676,27.343750
1677,27.343750
1678,27.343750
1679,27.343750
1680,27.343750
1681,27.343750
1682,29.296875
1683,29.296875
1684,29.296875
1685,29.296875
1686,29.296875
1687,29.296875
1688,29.296875
1689,29.296875
1690,29.296875
1691,29.296875
1692,31.250000
1693,29.296875
1694,29.296875
1695,29.296875
1696,31.250000
1697,31.250000
1698,31.250000
1699,31.250000
1700,29.296875
1701,29.296875
1702,31.250000
1703,31.250000
1704,29.296875
1705,29.296875
1706,29.296875
1707,29.296875
1708,29.296875
1709,29.296875
1710,29.296875
1711,29.296875
1712,29.296875
1713,27.343750
1714,27.343750
1715,27.343750
1716,27.343750
1717,27.343750
1718,27.343750
1719,25.390625
1720,25.390625
1721,25.390625
1722,25.390625
1723,23.437500
1724,23.437500
1725,23.437500
1726,23.437500
1727,23.437500
1728,21.484375
1729,21.484375
1730,21.484375
1731,21.484375
1732,19.531250
1733,19.531250
1734,19.531250
1735,17.578125
1736,17.578125
1737,17.578125
1738,17.578125
1739,15.625000
1740,15.625000
1741,13.671875
1742,13.671875
1743,13.671875
1744,11.718750
1745,11.718750
1746,11.718750
1747,9.765625
1748,9.765625
1749,7.812500
1750,7.812500
1751,7.812500
1752,7.812500
1753,5.859375
1754,3.906250
1755,3.906250
1756,3.906250
1757,1.953125
1758,1.953125
1759,0.000000
1760,0.000000
1761,0.000000
1762,-1.953125
1763,-1.953125
1764,-1.953125
1765,-3.906250
1766,-3.906250
1767,-5.859375
1768,-5.859375
1769,-7.812500
1770,-7.812500
1771,-7.812500
1772,-9.765625
1773,-9.765625
1774,-11.718750
1775,-11.718750
1776,-11.718750
1777,-13.671875
1778,-15.625000
1779,-13.671875
1780,-15.625000
1781,-15.625000
1782,-17.578125
1783,-17.578125
1784,-19.531250
1785,-19.531250
1786,-21.484375
1787,-21.484375
1788,-21.484375
1789,-23.437500
1790,-23.437500
1791,-25.390625
1792,-25.390625
1793,-25.390625
1794,-27.343750
1795,-27.343750
1796,-29.296875
1797,-29.296875
1798,-29.296875
1799,-29.296875
1800,-31.250000
1801,-31.250000
1802,-31.250000
1803,-33.203125
1804,-33.203125
1805,-33.203125
1806,-35.156250
1807,-35.156250
1808,-35.156250
1809,-35.156250
1810,-37.109375
1811,-37.109375
1812,-37.109375
1813,-39.062500
1814,-39.062500
1815,-39.062500
1816,-39.062500
1817,-39.062500
1818,-41.015625
1819,-41.015625
1820,-41.015625
1821,-41.015625
1822,-41.015625
1823,-41.015625
1824,-41.015625
1825,-41.015625
1826,-41.015625
1827,-42.968750
1828,-42.968750
1829,-42.968750
1830,-42.968750
1831,-42.968750
1832,-42.968750
1833,-42.968750
1834,-42.968750
1835,-42.968750
1836,-42.968750
1837,-42.968750
1838,-42.968750
1839,-42.968750
1840,-42.968750
1841,-42.968750
1842,-42.968750
1843,-42.968750
1844,-42.968750
1845,-42.968750
1846,-42.968750
1847,-42.968750
1848,-42.968750
1849,-42.968750
1850,-41.015625
1851,-41.015625
1852,-41.015625
1853,-41.015625
1854,-41.015625
1855,-41.015625
1856,-41.015625
1857,-41.015625
1858,-39.062500
1859,-39.062500
1860,-39.062500
1861,-39.062500
1862,-37.109375
1863,-37.109375
1864,-37.109375
1865,-37.109375
1866,-35.156250
1867,-35.156250
1868,-35.156250
1869,-33.203125
1870,-33.203125
1871,-33.203125
1872,-33.203125
1873,-31.250000
1874,-31.250000
1875,-31.250000
1876,-31.250000
1877,-29.296875
1878,-29.296875
1879,-27.343750
1880,-27.343750
1881,-27.343750
1882,-27.343750
1883,-25.390625
1884,-25.390625
1885,-23.437500
1886,-23.437500
1887,-23.437500
1888,-21.484375
1889,-21.484375
1890,-19.531250
1891,-19.531250
1892,-19.531250
1893,-17.578125
1894,-15.625000
1895,-15.625000
1896,-15.625000
1897,-13.671875
1898,-13.671875
1899,-11.718750
1900,-11.718750
1901,-11.718750
1902,-9.765625
1903,-9.765625
1904,-7.812500
1905,-7.812500
1906,-5.859375
1907,-5.859375
1908,-5.859375
1909,-5.859375
1910,-3.906250
1911,-1.953125
1912,-1.953125
1913,-1.953125
1914,0.000000
1915,0.000000
1916,0.000000
1917,1.953125
1918,1.953125
1919,3.906250
1920,3.906250
1921,5.859375
1922,5.859375
1923,5.859375
1924,7.812500
1925,7.812500
1926,7.812500
1927,9.765625
1928,9.765625
1929,11.718750
1930,11.718750
1931,11.718750
1932,13.671875
1933,13.671875
1934,13.671875
1935,15.625000
1936,15.625000
1937,15.625000
1938,17.578125
1939,17.578125
1940,17.578125
1941,21.484375
1942,19.531250
1943,19.531250
1944,21.484375
1945,21.484375
1946,21.484375
1947,23.437500
1948,21.484375
1949,23.437500
1950,23.437500
1951,23.437500
1952,23.437500
1953,25.390625
1954,25.390625
1955,25.390625
1956,25.390625
1957,27.343750
1958,21.484375
1959,27.343750
1960,27.343750
1961,27.343750
1962,27.343750
1963,29.296875
1964,29.296875
1965,29.296875
1966,29.296875
1967,29.296875
1968,29.296875
1969,29.296875
1970,29.296875
1971,29.296875
1972,29.296875
1973,31.250000
1974,29.296875
1975,29.296875
1976,29.296875
1977,31.250000
1978,31.250000
1979,31.250000
1980,29.296875
1981,29.296875
1982,29.296875
1983,31.250000
1984,31.250000
1985,31.250000
1986,29.296875
1987,29.296875
1988,29.296875
1989,29.296875
1990,29.296875
1991,29.296875
1992,29.296875
1993,27.343750
1994,27.343750
1995,27.343750
1996,27.343750
1997,27.343750
1998,27.343750
1999,27.343750
2000,27.343750
2001,27.343750
2002,25.390625
2003,25.390625
2004,25.390625
2005,23.437500
2006,23.437500
2007,23.437500
2008,23.437500
2009,21.484375
2010,21.484375
2011,21.484375
2012,21.484375
2013,21.484375
2014,19.531250
2015,19.531250
2016,19.531250
2017,19.531250
2018,17.578125
2019,17.578125
2020,17.578125
2021,15.625000
2022,15.625000
2023,15.625000
2024,13.671875
2025,13.671875
2026,13.671875
2027,11.718750
2028,11.718750
2029,9.765625
2030,9.765625
2031,9.765625
2032,7.812500
2033,7.812500
2034,7.812500
2035,5.859375
2036,5.859375
2037,5.859375
2038,3.906250
2039,3.906250
2040,3.906250
2041,1.953125
2042,0.000000
2043,0.000000
2044,-1.953125
2045,-1.953125
2046,-1.953125
2047,-3.906250
2048,-3.906250
2049,-5.859375
2050,-5.859375
2051,-7.812500
2052,-7.812500
2053,-7.812500
2054,-9.765625
2055,-9.765625
2056,-9.765625
2057,-11.718750
2058,-13.671875
2059,-13.671875
2060,-13.671875
2061,-15.625000
2062,-15.625000
2063,-15.625000
2064,-17.578125
2065,-17.578125
2066,-19.531250
2067,-19.531250
2068,-19.531250
2069,-21.484375
2070,-23.437500
2071,-23.437500
2072,-23.437500
2073,-23.437500
2074,-25.390625
2075,-25.390625
2076,-27.343750
2077,-27.343750
2078,-27.343750
2079,-29.296875
2080,-29.296875
2081,-29.296875
2082,-31.250000
2083,-31.250000
2084,-33.203125
2085,-31.250000
2086,-33.203125
2087,-33.203125
2088,-35.156250
2089,-35.156250
2090,-35.156250
2091,-35.156250
2092,-35.156250
2093,-35.156250
2094,-37.109375
2095,-37.109375
2096,-37.109375
2097,-37.109375
2098,-39.062500
2099,-39.062500
2100,-39.062500
2101,-39.062500
2102,-39.062500
2103,-39.062500
2104,-41.015625
2105,-41.015625
2106,-41.015625
2107,-41.015625
2108,-41.015625
2109,-42.968750
2110,-42.968750
2111,-41.015625
2112,-42.968750
2113,-42.968750
2114,-42.968750
2115,-42.968750
2116,-42.968750
2117,-42.968750
2118,-42.968750
2119,-42.968750
2120,-42.968750
2121,-44.921875
2122,-42.968750
2123,-42.968750
2124,-42.968750
2125,-42.968750
2126,-42.968750
2127,-42.968750
2128,-42.968750
2129,-42.968750
2130,-42.968750
2131,-42.968750
2132,-42.968750
2133,-41.015625
2134,-41.015625
2135,-41.015625
2136,-41.015625
2137,-41.015625
2138,-41.015625
2139,-41.015625
2140,-39.062500
2141,-39.062500
2142,-42.968750
2143,-41.015625
2144,-37.109375
2145,-37.109375
2146,-37.109375
2147,-37.109375
2148,-35.156250
2149,-35.156250
2150,-35.156250
2151,-35.156250
2152,-33.203125
2153,-33.203125
2154,-33.203125
2155,-31.250000
2156,-31.250000
2157,-31.250000
2158,-29.296875
2159,-29.296875
2160,-29.296875
2161,-27.343750
2162,-29.296875
2163,-27.343750
2164,-25.390625
2165,-25.390625
2166,-23.437500
2167,-23.437500
2168,-23.437500
2169,-23.437500
2170,-21.484375
2171,-21.484375
2172,-19.531250
2173,-19.531250
2174,-19.531250
2175,-17.578125
2176,-17.578125
2177,-15.625000
2178,-15.625000
2179,-15.625000
2180,-13.671875
2181,-13.671875
2182,-11.718750
2183,-11.718750
2184,-11.718750
2185,-11.718750
2186,-7.812500
2187,-7.812500
2188,-7.812500
2189,-7.812500
2190,-5.859375
2191,-5.859375
2192,-1.953125
2193,0.000000
2194,-1.953125
2195,-1.953125
2196,-1.953125
2197,0.000000
2198,0.000000
2199,1.953125
2200,1.953125
2201,3.906250
2202,3.906250
2203,3.906250
2204,5.859375
2205,5.859375
2206,5.859375
2207,7.812500
2208,7.812500
2209,7.812500
2210,9.765625
2211,11.718750
2212,11.718750
2213,11.718750
2214,11.718750
2215,13.671875
2216,13.671875
2217,13.671875
2218,15.625000
2219,17.578125
2220,15.625000
2221,17.578125
2222,17.578125
2223,17.578125
2224,19.531250
2225,19.531250
2226,19.531250
2227,19.531250
2228,21.484375
2229,21.484375
2230,23.437500
2231,23.437500
2232,23.437500
2233,23.437500
2234,23.437500
2235,25.390625
2236,25.390625
2237,25.390625
2238,27.343750
2239,27.343750
2240,27.343750
2241,27.343750
2242,27.343750
2243,27.343750
2244,27.343750
2245,29.296875
2246,29.296875
2247,29.296875
2248,29.296875
2249,29.296875
2250,29.296875
2251,29.296875
2252,29.296875
2253,31.250000
2254,29.296875
2255,29.296875
2256,29.296875
2257,29.296875
2258,29.296875
2259,31.250000
2260,29.296875
2261,31.250000
2262,31.250000
2263,29.296875
2264,29.296875
2265,31.250000
2266,29.296875
2267,29.296875
2268,29.296875
2269,31.250000
2270,29.296875
2271,29.296875
2272,29.296875
2273,29.296875
2274,29.296875
2275,27.343750
2276,29.296875
2277,27.343750
2278,27.343750
2279,27.343750
2280,27.343750
2281,27.343750
2282,27.343750
2283,27.343750
2284,27.343750
2285,25.390625
2286,25.390625
2287,25.390625
2288,25.390625
2289,23.437500
2290,23.437500
2291,23.437500
2292,23.437500
2293,21.484375
2294,21.484375
2295,21.484375
2296,19.531250
2297,19.531250
2298,19.531250
2299,19.531250
2300,19.531250
2301,17.578125
2302,17.578125
2303,15.625000
2304,15.625000
2305,15.625000
2306,15.625000
2307,13.671875
2308,13.671875
2309,11.718750
2310,11.718750
2311,11.718750
2312,9.765625
2313,9.765625
2314,9.765625
2315,7.812500
2316,7.812500
2317,5.859375
2318,5.859375
2319,5.859375
2320,3.906250
2321,3.906250
2322,3.906250
2323,1.953125
2324,0.000000
2325,0.000000
2326,-1.953125
2327,-1.953125
2328,-1.953125
2329,-3.906250
2330,-3.906250
2331,-5.859375
2332,-5.859375
2333,-5.859375
2334,-7.812500
2335,-7.812500
2336,-9.765625
2337,-9.765625
2338,-13.671875
2339,-11.718750
2340,-11.718750
2341,-17.578125
2342,-13.671875
2343,-17.578125
2344,-15.625000
2345,-13.671875
2346,-17.578125
2347,-17.578125
2348,-17.578125
2349,-19.531250
2350,-19.531250
2351,-21.484375
2352,-21.484375
2353,-21.484375
2354,-23.437500
2355,-25.390625
2356,-23.437500
2357,-25.390625
2358,-27.343750
2359,-27.343750
2360,-27.343750
2361,-27.343750
2362,-29.296875
2363,-29.296875
2364,-29.296875
2365,-31.250000
2366,-31.250000
2367,-31.250000
2368,-33.203125
2369,-33.203125
2370,-33.203125
2371,-33.203125
2372,-35.156250
2373,-35.156250
2374,-33.203125
2375,-35.156250
2376,-37.109375
2377,-37.109375
2378,-39.062500
2379,-39.062500
2380,-39.062500
2381,-39.062500
2382,-39.062500
2383,-41.015625
2384,-37.109375
2385,-41.015625
2386,-41.015625
2387,-41.015625
2388,-41.015625
2389,-41.015625
2390,-42.968750
2391,-42.968750
2392,-42.968750
2393,-42.968750
2394,-42.968750
2395,-46.875000
2396,-42.968750
2397,-42.968750
2398,-42.968750
2399,-42.968750
2400,-42.968750
2401,-44.921875
2402,-42.968750
2403,-42.968750
2404,-42.968750
2405,-42.968750
2406,-42.968750
2407,-42.968750
2408,-42.968750
2409,-42.968750
2410,-42.968750
2411,-42.968750
2412,-42.968750
2413,-42.968750
2414,-41.015625
2415,-41.015625
2416,-41.015625
2417,-41.015625
2418,-41.015625
2419,-41.015625
2420,-39.062500
2421,-41.015625
2422,-39.062500
2423,-39.062500
2424,-39.062500
2425,-39.062500
2426,-37.109375
2427,-37.109375
2428,-37.109375
2429,-37.109375
2430,-37.109375
2431,-35.156250
2432,-35.156250
2433,-33.203125
2434,-33.203125
2435,-33.203125
2436,-31.250000
2437,-31.250000
2438,-31.250000
2439,-31.250000
2440,-31.250000
2441,-29.296875
2442,-29.296875
2443,-29.296875
2444,-27.343750
2445,-27.343750
2446,-25.390625
2447,-25.390625
2448,-25.390625
2449,-23.437500
2450,-23.437500
2451,-23.437500
2452,-21.484375
2453,-21.484375
2454,-19.531250
2455,-19.531250
2456,-19.531250
2457,-19.531250
2458,-17.578125
2459,-15.625000
2460,-15.625000
2461,-15.625000
2462,-13.671875
2463,-13.671875
2464,-11.718750
2465,-11.718750
2466,-11.718750
2467,-11.718750
2468,-9.765625
2469,-7.812500
2470,-7.812500
2471,-7.812500
2472,-5.859375
2473,-5.859375
2474,-3.906250
2475,-3.906250
2476,-1.953125
2477,-1.953125
2478,0.000000
2479,0.000000
2480,0.000000
2481,1.953125
2482,1.953125
2483,3.906250
2484,3.906250
2485,3.906250
2486,5.859375
2487,5.859375
2488,7.812500
2489,7.812500
2490,7.812500
2491,7.812500
2492,9.765625
2493,11.718750
2494,11.718750
2495,13.671875
2496,11.718750
2497,13.671875
2498,13.671875
2499,15.625000
2500,15.625000
2501,15.625000
2502,15.625000
2503,17.578125
2504,17.578125
2505,17.578125
2506,19.531250
2507,19.531250
2508,19.531250
2509,19.531250
2510,21.484375
2511,21.484375
2512,21.484375
2513,21.484375
2514,23.437500
2515,23.437500
2516,23.437500
2517,23.437500
2518,23.437500
2519,25.390625
2520,25.390625
2521,25.390625
2522,25.390625
2523,27.343750
2524,27.343750
2525,27.343750
2526,27.343750
2527,27.343750
2528,29.296875
2529,27.343750
2530,29.296875
2531,29.296875
2532,29.296875
2533,29.296875
2534,29.296875
2535,33.203125
2536,29.296875
2537,29.296875
2538,31.250000
2539,31.250000
2540,31.250000
2541,31.250000
2542,31.250000
2543,31.250000
2544,31.250000
2545,29.296875
2546,31.250000
2547,31.250000
2548,31.250000
2549,29.296875
2550,31.250000
2551,31.250000
2552,29.296875
2553,29.296875
2554,29.296875
2555,29.296875
2556,29.296875
2557,29.296875
2558,29.296875
2559,29.296875
2560,27.343750
2561,27.343750
2562,27.343750
2563,27.343750
2564,27.343750
2565,27.343750
2566,27.343750
2567,25.390625
2568,25.390625
2569,25.390625
2570,25.390625
2571,23.437500
2572,23.437500
2573,23.437500
2574,23.437500
2575,21.484375
2576,21.484375
2577,21.484375
2578,23.437500
2579,19.531250
2580,19.531250
2581,17.578125
2582,17.578125
2583,17.578125
2584,17.578125
2585,17.578125
2586,15.625000
2587,15.625000
2588,13.671875
2589,13.671875
2590,13.671875
2591,13.671875
2592,11.718750
2593,9.765625
2594,9.765625
2595,9.765625
2596,7.812500
2597,7.812500
2598,7.812500
2599,5.859375
2600,5.859375
2601,3.906250
2602,3.906250
2603,3.906250
2604,1.953125
2605,1.953125
2606,1.953125
2607,0.000000
2608,0.000000
2609,-1.953125
2610,-1.953125
2611,-1.953125
2612,-1.953125
2613,-3.906250
2614,-3.906250
2615,-5.859375
2616,-5.859375
2617,-7.812500
2618,-9.765625
2619,-9.765625
2620,-9.765625
2621,-11.718750
2622,-11.718750
2623,-13.671875
2624,-13.671875
2625,-13.671875
2626,-13.671875
2627,-15.625000
2628,-15.625000
2629,-17.578125
2630,-17.578125
2631,-19.531250
2632,-19.531250
2633,-21.484375
2634,-21.484375
2635,-21.484375
2636,-23.437500
2637,-23.437500
2638,-25.390625
2639,-25.390625
2640,-27.343750
2641,-27.343750
2642,-27.343750
2643,-27.343750
2644,-29.296875
2645,-29.296875
2646,-29.296875
2647,-31.250000
2648,-31.250000
2649,-31.250000
2650,-33.203125
2651,-33.203125
2652,-33.203125
2653,-33.203125
2654,-35.156250
2655,-35.156250
2656,-35.156250
2657,-35.156250
2658,-37.109375
2659,-37.109375
2660,-37.109375
2661,-37.109375
2662,-37.109375
2663,-39.062500
2664,-39.062500
2665,-39.062500
2666,-39.062500
2667,-39.062500
2668,-41.015625
2669,-41.015625
2670,-42.968750
2671,-41.015625
2672,-41.015625
2673,-41.015625
2674,-41.015625
2675,-42.968750
2676,-42.968750
2677,-42.968750
2678,-42.968750
2679,-42.968750
2680,-42.968750
2681,-42.968750
2682,-42.968750
2683,-42.968750
2684,-42.968750
2685,-42.968750
2686,-42.968750
2687,-42.968750
2688,-42.968750
2689,-42.968750
2690,-42.968750
2691,-42.968750
2692,-42.968750
2693,-42.968750
2694,-42.968750
2695,-42.968750
2696,-42.968750
2697,-41.015625
2698,-41.015625
2699,-41.015625
2700,-41.015625
2701,-41.015625
2702,-41.015625
2703,-41.015625
2704,-39.062500
2705,-39.062500
2706,-39.062500
2707,-39.062500
2708,-37.109375
2709,-37.109375
2710,-37.109375
2711,-37.109375
2712,-37.109375
2713,-37.109375
2714,-35.156250
2715,-35.156250
2716,-35.156250
2717,-33.203125
2718,-33.203125
2719,-33.203125
2720,-31.250000
2721,-31.250000
2722,-29.296875
2723,-29.296875
2724,-29.296875
2725,-27.343750
2726,-27.343750
2727,-27.343750
2728,-27.343750
2729,-25.390625
2730,-25.390625
2731,-21.484375
2732,-23.437500
2733,-23.437500
2734,-21.484375
2735,-21.484375
2736,-21.484375
2737,-21.484375
2738,-19.531250
2739,-17.578125
2740,-17.578125
2741,-17.578125
2742,-15.625000
2743,-15.625000
2744,-13.671875
2745,-13.671875
2746,-13.671875
2747,-11.718750
2748,-9.765625
2749,-9.765625
2750,-9.765625
2751,-9.765625
2752,-7.812500
2753,-7.812500
2754,-5.859375
2755,-5.859375
2756,-3.906250
2757,-3.906250
2758,-1.953125
2759,-1.953125
2760,-1.953125
2761,0.000000
2762,0.000000
2763,1.953125
2764,1.953125
2765,3.906250
2766,3.906250
2767,3.906250
2768,5.859375
2769,5.859375
2770,5.859375
2771,7.812500
2772,7.812500
2773,9.765625
2774,9.765625
2775,9.765625
2776,11.718750
2777,11.718750
2778,11.718750
2779,11.718750
2780,13.671875
2781,11.718750
2782,13.671875
2783,15.625000
2784,17.578125
2785,17.578125
2786,17.578125
2787,17.578125
2788,19.531250
2789,19.531250
2790,19.531250
2791,19.531250
2792,21.484375
2793,21.484375
2794,21.484375
2795,21.484375
2796,21.484375
2797,23.437500
2798,23.437500
2799,25.390625
2800,23.437500
2801,25.390625
2802,25.390625
2803,25.390625
2804,27.343750
2805,25.390625
2806,27.343750
2807,27.343750
2808,27.343750
2809,27.343750
2810,27.343750
2811,29.296875
2812,29.296875
2813,29.296875
2814,29.296875
2815,29.296875
2816,29.296875
2817,31.250000
2818,29.296875
2819,31.250000
2820,29.296875
2821,31.250000
2822,31.250000
2823,31.250000
2824,31.250000
2825,31.250000
2826,29.296875
2827,31.250000
2828,31.250000
2829,31.250000
2830,31.250000
2831,29.296875
2832,29.296875
2833,29.296875
2834,31.250000
2835,29.296875
2836,29.296875
2837,29.296875
2838,29.296875
2839,29.296875
2840,29.296875
2841,29.296875
2842,27.343750
2843,27.343750
2844,27.343750
2845,27.343750
2846,27.343750
2847,27.343750
2848,25.390625
2849,25.390625
2850,25.390625
2851,25.390625
2852,23.437500
2853,23.437500
2854,23.437500
2855,23.437500
2856,23.437500
2857,21.484375
2858,21.484375
2859,21.484375
2860,21.484375
2861,19.531250
2862,19.531250
2863,19.531250
2864,19.531250
2865,17.578125
2866,17.578125
2867,15.625000
2868,15.625000
2869,15.625000
2870,15.625000
2871,15.625000
2872,13.671875
2873,13.671875
2874,11.718750
2875,11.718750
2876,11.718750
2877,9.765625
2878,9.765625
2879,9.765625
2880,7.812500
2881,7.812500
2882,5.859375
2883,5.859375
2884,3.906250
2885,3.906250
2886,3.906250
2887,1.953125
2888,1.953125
2889,0.000000
2890,0.000000
2891,0.000000
2892,-1.953125
2893,-1.953125
2894,-1.953125
2895,-3.906250
2896,-5.859375
2897,-5.859375
2898,-5.859375
2899,-7.812500
2900,-7.812500
2901,-9.765625
2902,-9.765625
2903,-11.718750
2904,-11.718750
2905,-11.718750
2906,-13.671875
2907,-13.671875
2908,-15.625000
2909,-15.625000
2910,-15.625000
2911,-17.578125
2912,-17.578125
2913,-19.531250
2914,-19.531250
2915,-19.531250
2916,-21.484375
2917,-21.484375
2918,-23.437500
2919,-23.437500
2920,-23.437500
2921,-25.390625
2922,-25.390625
2923,-27.343750
2924,-27.343750
2925,-27.343750
2926,-29.296875
2927,-29.296875
2928,-29.296875
2929,-31.250000
2930,-31.250000
2931,-31.250000
2932,-29.296875
2933,-33.203125
2934,-33.203125
2935,-33.203125
2936,-35.156250
2937,-35.156250
2938,-35.156250
2939,-39.062500
2940,-37.109375
2941,-37.109375
2942,-37.109375
2943,-37.109375
2944,-39.062500
2945,-39.062500
2946,-39.062500
2947,-39.062500
2948,-39.062500
2949,-39.062500
2950,-41.015625
2951,-41.015625
2952,-41.015625
2953,-41.015625
2954,-41.015625
2955,-42.968750
2956,-42.968750
2957,-42.968750
2958,-42.968750
2959,-42.968750
2960,-42.968750
2961,-42.968750
2962,-42.968750
2963,-42.968750
2964,-42.968750
2965,-42.968750
2966,-42.968750
2967,-42.968750
2968,-42.968750
2969,-42.968750
2970,-42.968750
2971,-42.968750
2972,-42.968750
2973,-42.968750
2974,-42.968750
2975,-42.968750
2976,-42.968750
2977,-42.968750
2978,-42.968750
2979,-42.968750
2980,-41.015625
2981,-41.015625
2982,-41.015625
2983,-41.015625
2984,-41.015625
2985,-39.062500
2986,-41.015625
2987,-39.062500
2988,-39.062500
2989,-39.062500
2990,-39.062500
2991,-37.109375
2992,-37.109375
2993,-37.109375
2994,-37.109375
2995,-37.109375
2996,-35.156250
2997,-35.156250
2998,-35.156250
2999,-33.203125
3000,-33.203125
3001,-33.203125
3002,-31.250000
3003,-31.250000
3004,-31.250000
3005,-29.296875
3006,-29.296875
3007,-29.296875
3008,-27.343750
3009,-27.343750
3010,-27.343750
3011,-25.390625
3012,-25.390625
3013,-25.390625
3014,-23.437500
3015,-23.437500
3016,-23.437500
3017,-21.484375
3018,-21.484375
3019,-19.531250
3020,-19.531250
3021,-17.578125
3022,-17.578125
3023,-17.578125
3024,-15.625000
3025,-15.625000
3026,-15.625000
3027,-13.671875
3028,-13.671875
3029,-11.718750
3030,-11.718750
3031,-11.718750
3032,-9.765625
3033,-9.765625
3034,-7.812500
3035,-7.812500
3036,-7.812500
3037,-5.859375
3038,-5.859375
3039,-3.906250
3040,-3.906250
3041,-1.953125
3042,-1.953125
3043,-1.953125
3044,0.000000
3045,0.000000
3046,1.953125
3047,1.953125
3048,1.953125
3049,3.906250
3050,5.859375
3051,5.859375
3052,5.859375
3053,7.812500
3054,7.812500
3055,9.765625
3056,7.812500
3057,9.765625
3058,11.718750
3059,11.718750
3060,11.718750
3061,11.718750
3062,13.671875
3063,13.671875
3064,15.625000
3065,17.578125
3066,17.578125
3067,17.578125
3068,17.578125
3069,17.578125
3070,19.531250
3071,19.531250
3072,19.531250
3073,21.484375
3074,21.484375
3075,21.484375
3076,21.484375
3077,23.437500
3078,23.437500
3079,23.437500
3080,23.437500
3081,23.437500
3082,25.390625
3083,25.390625
3084,27.343750
3085,25.390625
3086,27.343750
3087,27.343750
3088,27.343750
3089,27.343750
3090,27.343750
3091,27.343750
3092,29.296875
3093,29.296875
3094,29.296875
3095,29.296875
3096,29.296875
3097,29.296875
3098,29.296875
3099,29.296875
3100,29.296875
3101,31.250000
3102,29.296875
3103,29.296875
3104,29.296875
3105,31.250000
3106,31.250000
3107,31.250000
3108,29.296875
3109,29.296875
3110,31.250000
3111,29.296875
3112,29.296875
3113,29.296875
3114,29.296875
3115,29.296875
3116,31.250000
3117,29.296875
3118,29.296875
3119,29.296875
3120,29.296875
3121,29.296875
3122,29.296875
3123,29.296875
3124,29.296875
3125,27.343750
3126,27.343750
3127,27.343750
3128,27.343750
3129,23.437500
3130,27.343750
3131,25.390625
3132,29.296875
3133,25.390625
3134,25.390625
3135,21.484375
3136,25.390625
3137,23.437500
3138,23.437500
3139,21.484375
3140,21.484375
3141,21.484375
3142,21.484375
3143,21.484375
3144,19.531250
3145,19.531250
3146,17.578125
3147,17.578125
3148,17.578125
3149,17.578125
3150,15.625000
3151,15.625000
3152,15.625000
3153,13.671875
3154,13.671875
3155,13.671875
3156,11.718750
3157,11.718750
3158,9.765625
3159,9.765625
3160,9.765625
3161,9.765625
3162,7.812500
3163,5.859375
3164,9.765625
3165,5.859375
3166,3.906250
3167,3.906250
3168,1.953125
3169,1.953125
3170,1.953125
3171,0.000000
3172,0.000000
3173,-1.953125
3174,-1.953125
3175,-3.906250
3176,-3.906250
3177,-3.906250
3178,-3.906250
3179,-5.859375
3180,-7.812500
3181,-7.812500
3182,-7.812500
3183,-9.765625
3184,-9.765625
3185,-11.718750
3186,-11.718750
3187,-13.671875
3188,-13.671875
3189,-13.671875
3190,-13.671875
3191,-13.671875
3192,-15.625000
3193,-17.578125
3194,-17.578125
3195,-17.578125
3196,-19.531250
3197,-19.531250
3198,-19.531250
3199,-21.484375
3200,-23.437500
3201,-23.437500
3202,-23.437500
3203,-25.390625
3204,-25.390625
3205,-25.390625
3206,-27.343750
3207,-27.343750
3208,-27.343750
3209,-29.296875
3210,-29.296875
3211,-29.296875
3212,-31.250000
3213,-31.250000
3214,-31.250000
3215,-33.203125
3216,-33.203125
3217,-33.203125
3218,-33.203125
3219,-35.156250
3220,-35.156250
3221,-37.109375
3222,-37.109375
3223,-37.109375
3224,-37.109375
3225,-37.109375
3226,-39.062500
3227,-39.062500
3228,-39.062500
3229,-39.062500
3230,-41.015625
3231,-41.015625
3232,-41.015625
3233,-41.015625
3234,-41.015625
3235,-41.015625
3236,-41.015625
3237,-41.015625
3238,-42.968750
3239,-42.968750
3240,-42.968750
3241,-42.968750
3242,-42.968750
3243,-42.968750
3244,-42.968750
3245,-42.968750
3246,-42.968750
3247,-42.968750
3248,-42.968750
3249,-42.968750
3250,-42.968750
3251,-42.968750
3252,-42.968750
3253,-42.968750
3254,-42.968750
3255,-42.968750
3256,-42.968750
3257,-42.968750
3258,-42.968750
3259,-42.968750
3260,-42.968750
3261,-41.015625
3262,-41.015625
3263,-41.015625
3264,-41.015625
3265,-41.015625
3266,-39.062500
3267,-41.015625
3268,-39.062500
3269,-39.062500
3270,-39.062500
3271,-39.062500
3272,-39.062500
3273,-37.109375
3274,-37.109375
3275,-37.109375
3276,-37.109375
3277,-35.156250
3278,-35.156250
3279,-35.156250
3280,-35.156250
3281,-33.203125
3282,-33.203125
3283,-33.203125
3284,-31.250000
3285,-31.250000
3286,-31.250000
3287,-31.250000
3288,-29.296875
3289,-29.296875
3290,-29.296875
3291,-27.343750
3292,-27.343750
3293,-25.390625
3294,-25.390625
3295,-25.390625
3296,-25.390625
3297,-23.437500
3298,-23.437500
3299,-21.484375
3300,-21.484375
3301,-21.484375
3302,-19.531250
3303,-19.531250
3304,-17.578125
3305,-17.578125
3306,-17.578125
3307,-15.625000
3308,-13.671875
3309,-13.671875
3310,-13.671875
3311,-13.671875
3312,-11.718750
3313,-11.718750
3314,-9.765625
3315,-9.765625
3316,-7.812500
3317,-3.906250
3318,-5.859375
3319,-5.859375
3320,-3.906250
3321,-3.906250
3322,-3.906250
3323,-3.906250
3324,-1.953125
3325,0.000000
3326,0.000000
3327,0.000000
3328,1.953125
3329,1.953125
3330,1.953125
3331,3.906250
3332,3.906250
3333,5.859375
3334,5.859375
3335,5.859375
3336,7.812500
3337,7.812500
3338,9.765625
3339,9.765625
3340,9.765625
3341,11.718750
3342,11.718750
3343,13.671875
3344,13.671875
3345,13.671875
3346,13.671875
3347,15.625000
3348,15.625000
3349,17.578125
3350,17.578125
3351,17.578125
3352,17.578125
3353,19.531250
3354,19.531250
3355,19.531250
3356,21.484375
3357,21.484375
3358,21.484375
3359,21.484375
3360,21.484375
3361,21.484375
3362,23.437500
3363,23.437500
3364,23.437500
3365,23.437500
3366,25.390625
3367,27.343750
3368,25.390625
3369,25.390625
3370,25.390625
3371,27.343750
3372,27.343750
3373,27.343750
3374,27.343750
3375,27.343750
3376,29.296875
3377,29.296875
3378,29.296875
3379,29.296875
3380,29.296875
3381,29.296875
3382,29.296875
3383,29.296875
3384,29.296875
3385,29.296875
3386,31.250000
3387,31.250000
3388,31.250000
3389,31.250000
3390,31.250000
3391,31.250000
3392,31.250000
3393,31.250000
3394,31.250000
3395,29.296875
3396,31.250000
3397,31.250000
3398,29.296875
3399,29.296875
3400,29.296875
3401,29.296875
3402,29.296875
3403,29.296875
3404,29.296875
3405,29.296875
3406,29.296875
3407,27.343750
3408,27.343750
3409,27.343750
3410,27.343750
3411,27.343750
3412,27.343750
3413,25.390625
3414,25.390625
3415,25.390625
3416,25.390625
3417,25.390625
3418,23.437500
3419,23.437500
3420,23.437500
3421,23.437500
3422,21.484375
3423,21.484375
3424,21.484375
3425,21.484375
3426,19.531250
3427,19.531250
3428,19.531250
3429,17.578125
3430,15.625000
3431,17.578125
3432,15.625000
3433,15.625000
3434,15.625000
3435,13.671875
3436,13.671875
3437,13.671875
3438,13.671875
3439,11.718750
3440,11.718750
3441,9.765625
3442,9.765625
3443,7.812500
3444,7.812500
3445,7.812500
3446,5.859375
3447,5.859375
3448,5.859375
3449,3.906250
3450,3.906250
3451,3.906250
3452,1.953125
3453,1.953125
3454,0.000000
3455,0.000000
3456,0.000000
3457,-1.953125
3458,-1.953125
3459,-3.906250
3460,-3.906250
3461,-5.859375
3462,-5.859375
3463,-5.859375
3464,-7.812500
3465,-7.812500
3466,-9.765625
3467,-9.765625
3468,-11.718750
3469,-11.718750
3470,-11.718750
3471,-13.671875
3472,-13.671875
3473,-15.625000
3474,-15.625000
3475,-17.578125
3476,-17.578125
3477,-17.578125
3478,-19.531250
3479,-19.531250
3480,-21.484375
3481,-21.484375
3482,-23.437500
3483,-23.437500
3484,-23.437500
3485,-25.390625
3486,-25.390625
3487,-25.390625
3488,-27.343750
3489,-27.343750
3490,-27.343750
3491,-29.296875
3492,-29.296875
3493,-29.296875
3494,-31.250000
3495,-31.250000
3496,-31.250000
3497,-33.203125
3498,-33.203125
3499,-33.203125
3500,-35.156250
3501,-35.156250
3502,-35.156250
3503,-35.156250
3504,-37.109375
3505,-37.109375
3506,-37.109375
3507,-37.109375
3508,-37.109375
3509,-39.062500
3510,-39.062500
3511,-39.062500
3512,-39.062500
3513,-39.062500
3514,-41.015625
3515,-41.015625
3516,-41.015625
3517,-41.015625
3518,-41.015625
3519,-41.015625
3520,-41.015625
3521,-42.968750
3522,-42.968750
3523,-42.968750
3524,-42.968750
3525,-42.968750
3526,-42.968750
3527,-42.968750
3528,-42.968750
3529,-42.968750
3530,-42.968750
3531,-42.968750
3532,-42.968750
3533,-42.968750
3534,-42.968750
3535,-42.968750
3536,-42.968750
3537,-42.968750
3538,-42.968750
3539,-42.968750
3540,-42.968750
3541,-42.968750
3542,-42.968750
3543,-42.968750
3544,-41.015625
3545,-41.015625
3546,-41.015625
3547,-41.015625
3548,-41.015625
3549,-41.015625
3550,-41.015625
3551,-41.015625
3552,-39.062500
3553,-39.062500
3554,-39.062500
3555,-39.062500
3556,-39.062500
3557,-37.109375
3558,-37.109375
3559,-35.156250
3560,-35.156250
3561,-33.203125
3562,-35.156250
3563,-33.203125
3564,-35.156250
3565,-33.203125
3566,-33.203125
3567,-31.250000
3568,-31.250000
3569,-31.250000
3570,-29.296875
3571,-29.296875
3572,-29.296875
3573,-29.296875
3574,-27.343750
3575,-27.343750
3576,-25.390625
3577,-25.390625
3578,-23.437500
3579,-23.437500
3580,-23.437500
3581,-21.484375
3582,-21.484375
3583,-21.484375
3584,-19.531250
3585,-19.531250
3586,-17.578125
3587,-17.578125
3588,-17.578125
3589,-15.625000
3590,-15.625000
3591,-13.671875
3592,-13.671875
3593,-13.671875
3594,-11.718750
3595,-11.718750
3596,-9.765625
3597,-9.765625
3598,-7.812500
3599,-7.812500
3600,-7.812500
3601,-5.859375
3602,-5.859375
3603,-3.906250
3604,-3.906250
3605,-3.906250
3606,-1.953125
3607,-1.953125
3608,0.000000
3609,0.000000
3610,0.000000
3611,1.953125
3612,1.953125
3613,1.953125
3614,3.906250
3615,3.906250
3616,5.859375
3617,5.859375
3618,7.812500
3619,7.812500
3620,7.812500
3621,9.765625
3622,9.765625
3623,9.765625
3624,11.718750
3625,11.718750
3626,13.671875
3627,13.671875
3628,13.671875
3629,15.625000
3630,15.625000
3631,15.625000
3632,17.578125
3633,17.578125
3634,17.578125
3635,17.578125
3636,19.531250
3637,19.531250
3638,19.531250
3639,21.484375
3640,21.484375
3641,21.484375
3642,23.437500
3643,21.484375
3644,23.437500
3645,23.437500
3646,25.390625
3647,25.390625
3648,25.390625
3649,25.390625
3650,27.343750
3651,27.343750
3652,27.343750
3653,27.343750
3654,27.343750
3655,27.343750
3656,27.343750
3657,27.343750
3658,29.296875
3659,29.296875
3660,29.296875
3661,29.296875
3662,29.296875
3663,29.296875
3664,29.296875
3665,29.296875
3666,29.296875
3667,31.250000
3668,29.296875
3669,31.250000
3670,31.250000
3671,31.250000
3672,29.296875
3673,31.250000
3674,31.250000
3675,31.250000
3676,31.250000
3677,31.250000
3678,31.250000
3679,31.250000
3680,31.250000
3681,29.296875
3682,29.296875
3683,29.296875
3684,29.296875
3685,29.296875
3686,29.296875
3687,29.296875
3688,27.343750
3689,27.343750
3690,27.343750
3691,27.343750
3692,27.343750
3693,27.343750
3694,27.343750
3695,23.437500
3696,25.390625
3697,25.390625
3698,25.390625
3699,23.437500
3700,23.437500
3701,23.437500
3702,23.437500
3703,23.437500
3704,21.484375
3705,21.484375
3706,21.484375
3707,21.484375
3708,19.531250
3709,19.531250
3710,19.531250
3711,19.531250
3712,17.578125
3713,17.578125
3714,17.578125
3715,15.625000
3716,15.625000
3717,15.625000
3718,13.671875
3719,13.671875
3720,13.671875
3721,11.718750
3722,11.718750
3723,11.718750
3724,9.765625
3725,9.765625
3726,7.812500
3727,7.812500
3728,7.812500
3729,5.859375
3730,5.859375
3731,3.906250
3732,3.906250
3733,3.906250
3734,1.953125
3735,1.953125
3736,1.953125
3737,0.000000
3738,0.000000
3739,-1.953125
3740,-1.953125
3741,-3.906250
3742,-3.906250
3743,-3.906250
3744,-5.859375
3745,-5.859375
3746,-7.812500
3747,-9.765625
3748,-7.812500
3749,-9.765625
3750,-9.765625
3751,-11.718750
3752,-13.671875
3753,-13.671875
3754,-13.671875
3755,-15.625000
3756,-15.625000
3757,-17.578125
3758,-17.578125
3759,-19.531250
3760,-19.531250
3761,-19.531250
3762,-21.484375
3763,-21.484375
3764,-21.484375
3765,-23.437500
3766,-23.437500
3767,-23.437500
3768,-25.390625
3769,-25.390625
3770,-25.390625
3771,-27.343750
3772,-27.343750
3773,-29.296875
3774,-29.296875
3775,-29.296875
3776,-29.296875
3777,-31.250000
3778,-31.250000
3779,-31.250000
3780,-33.203125
3781,-33.203125
3782,-33.203125
3783,-35.156250
3784,-35.156250
3785,-35.156250
3786,-35.156250
3787,-37.109375
3788,-37.109375
3789,-37.109375
3790,-37.109375
3791,-39.062500
3792,-39.062500
3793,-39.062500
3794,-39.062500
3795,-41.015625
3796,-41.015625
3797,-41.015625
3798,-41.015625
3799,-41.015625
3800,-41.015625
3801,-42.968750
3802,-41.015625
3803,-41.015625
3804,-42.968750
3805,-42.968750
3806,-42.968750
3807,-42.968750
3808,-42.968750
3809,-42.968750
3810,-42.968750
3811,-42.968750
3812,-42.968750
3813,-42.968750
3814,-42.968750
3815,-42.968750
3816,-42.968750
3817,-42.968750
3818,-42.968750
3819,-42.968750
3820,-42.968750
3821,-42.968750
3822,-42.968750
3823,-42.968750
3824,-42.968750
3825,-42.968750
3826,-42.968750
3827,-41.015625
3828,-41.015625
3829,-41.015625
3830,-41.015625
3831,-41.015625
3832,-41.015625
3833,-39.062500
3834,-39.062500
3835,-39.062500
3836,-39.062500
3837,-37.109375
3838,-37.109375
3839,-37.109375
3840,-37.109375
3841,-37.109375
3842,-37.109375
3843,-35.156250
3844,-35.156250
3845,-33.203125
3846,-33.203125
3847,-33.203125
3848,-31.250000
3849,-31.250000
3850,-29.296875
3851,-31.250000
3852,-29.296875
3853,-29.296875
3854,-29.296875
3855,-27.343750
3856,-27.343750
3857,-27.343750
3858,-25.390625
3859,-25.390625
3860,-25.390625
3861,-23.437500
3862,-23.437500
3863,-21.484375
3864,-21.484375
3865,-21.484375
3866,-19.531250
3867,-19.531250
3868,-19.531250
3869,-19.531250
3870,-17.578125
3871,-15.625000
3872,-15.625000
3873,-15.625000
3874,-13.671875
3875,-13.671875
3876,-13.671875
3877,-11.718750
3878,-11.718750
3879,-9.765625
3880,-9.765625
3881,-7.812500
3882,-7.812500
3883,-7.812500
3884,-5.859375
3885,-3.906250
3886,-3.906250
3887,-3.906250
3888,-3.906250
3889,-1.953125
3890,0.000000
3891,0.000000
3892,0.000000
3893,0.000000
3894,1.953125
3895,1.953125
3896,3.906250
3897,3.906250
3898,5.859375
3899,5.859375
3900,7.812500
3901,7.812500
3902,7.812500
3903,9.765625
3904,9.765625
3905,11.718750
3906,11.718750
3907,11.718750
3908,13.671875
3909,13.671875
3910,13.671875
3911,15.625000
3912,15.625000
3913,15.625000
3914,15.625000
3915,17.578125
3916,17.578125
3917,17.578125
3918,19.531250
3919,19.531250
3920,21.484375
3921,21.484375
3922,21.484375
3923,21.484375
3924,23.437500
3925,23.437500
3926,23.437500
3927,23.437500
3928,25.390625
3929,25.390625
3930,25.390625
3931,25.390625
3932,25.390625
3933,25.390625
3934,23.437500
3935,27.343750
3936,27.343750
3937,27.343750
3938,27.343750
3939,29.296875
3940,27.343750
3941,29.296875
3942,29.296875
3943,29.296875
3944,29.296875
3945,29.296875
3946,29.296875
3947,29.296875
3948,29.296875
3949,29.296875
3950,29.296875
3951,29.296875
3952,29.296875
3953,29.296875
3954,29.296875
3955,29.296875
3956,31.250000
3957,31.250000
3958,31.250000
3959,29.296875
3960,29.296875
3961,29.296875
3962,31.250000
3963,31.250000
3964,31.250000
3965,29.296875
3966,29.296875
3967,29.296875
3968,29.296875
3969,29.296875
3970,29.296875
3971,27.343750
3972,27.343750
3973,27.343750
3974,27.343750
3975,27.343750
3976,27.343750
3977,27.343750
3978,25.390625
3979,25.390625
3980,25.390625
3981,25.390625
3982,23.437500
3983,25.390625
3984,23.437500
3985,23.437500
3986,21.484375
3987,23.437500
3988,21.484375
3989,21.484375
3990,19.531250
3991,19.531250
3992,19.531250
3993,17.578125
3994,17.578125
3995,17.578125
3996,17.578125
3997,15.625000
3998,15.625000
3999,15.625000
4000,13.671875
4001,13.671875
4002,13.671875
4003,11.718750
4004,11.718750
4005,9.765625
4006,9.765625
4007,9.765625
4008,7.812500
4009,7.812500
4010,7.812500
4011,7.812500
4012,5.859375
4013,3.906250
4014,3.906250
4015,3.906250
4016,1.953125
4017,1.953125
4018,0.000000
4019,0.000000
4020,0.000000
4021,-1.953125
4022,-1.953125
4023,-3.906250
4024,-3.906250
4025,-5.859375
4026,-5.859375
4027,-5.859375
4028,-7.812500
4029,-7.812500
4030,-9.765625
4031,-9.765625
4032,-11.718750
4033,-11.718750
4034,-11.718750
4035,-13.671875
4036,-13.671875
4037,-13.671875
4038,-15.625000
4039,-15.625000
4040,-17.578125
4041,-17.578125
4042,-17.578125
4043,-19.531250
4044,-19.531250
4045,-19.531250
4046,-21.484375
4047,-21.484375
4048,-23.437500
4049,-23.437500
4050,-25.390625
4051,-27.343750
4052,-25.390625
4053,-27.343750
4054,-25.390625
4055,-27.343750
4056,-29.296875
4057,-29.296875
4058,-31.250000
4059,-31.250000
4060,-31.250000
4061,-33.203125
4062,-31.250000
4063,-33.203125
4064,-33.203125
4065,-35.156250
4066,-35.156250
4067,-35.156250
4068,-37.109375
4069,-37.109375
4070,-37.109375
4071,-37.109375
4072,-39.062500
4073,-39.062500
4074,-39.062500
4075,-39.062500
4076,-41.015625
4077,-41.015625
4078,-41.015625
4079,-41.015625
4080,-41.015625
4081,-41.015625
4082,-41.015625
4083,-41.015625
4084,-41.015625
4085,-41.015625
4086,-42.968750
4087,-42.968750
4088,-41.015625
4089,-42.968750
4090,-42.968750
4091,-44.921875
4092,-42.968750
4093,-42.968750
4094,-42.968750
4095,-42.968750
4096,-42.968750
4097,-42.968750
4098,-42.968750
4099,-42.968750
4100,-42.968750
4101,-42.968750
4102,-42.968750
4103,-42.968750
4104,-42.968750
4105,-42.968750
4106,-42.968750
4107,-42.968750
4108,-41.015625
4109,-41.015625
4110,-41.015625
4111,-41.015625
4112,-41.015625
4113,-39.062500
4114,-39.062500
4115,-39.062500
4116,-39.062500
4117,-39.062500
4118,-39.062500
4119,-39.062500
4120,-37.109375
4121,-37.109375
4122,-37.109375
4123,-37.109375
4124,-37.109375
4125,-35.156250
4126,-35.156250
4127,-35.156250
4128,-35.156250
4129,-33.203125
4130,-33.203125
4131,-33.203125
4132,-31.250000
4133,-31.250000
4134,-31.250000
4135,-29.296875
4136,-29.296875
4137,-29.296875
4138,-27.343750
4139,-27.343750
4140,-27.343750
4141,-25.390625
4142,-25.390625
4143,-25.390625
4144,-23.437500
4145,-23.437500
4146,-21.484375
4147,-21.484375
4148,-21.484375
4149,-19.531250
4150,-19.531250
4151,-17.578125
4152,-17.578125
4153,-17.578125
4154,-15.625000
4155,-15.625000
4156,-15.625000
4157,-13.671875
4158,-11.718750
4159,-11.718750
4160,-11.718750
4161,-9.765625
4162,-9.765625
4163,-7.812500
4164,-7.812500
4165,-7.812500
4166,-5.859375
4167,-5.859375
4168,-3.906250
4169,-3.906250
4170,-1.953125
4171,-1.953125
4172,-1.953125
4173,0.000000
4174,0.000000
4175,1.953125
4176,1.953125
4177,1.953125
4178,3.906250
4179,3.906250
4180,3.906250
4181,5.859375
4182,7.812500
4183,7.812500
4184,7.812500
4185,9.765625
4186,9.765625
4187,9.765625
4188,9.765625
4189,11.718750
4190,11.718750
4191,13.671875
4192,13.671875
4193,13.671875
4194,15.625000
4195,15.625000
4196,15.625000
4197,17.578125
4198,17.578125
4199,17.578125
4200,19.531250
4201,19.531250
4202,19.531250
4203,21.484375
4204,21.484375
4205,19.531250
4206,21.484375
4207,23.437500
4208,23.437500
4209,23.437500
4210,23.437500
4211,25.390625
4212,25.390625
4213,25.390625
4214,25.390625
4215,27.343750
4216,27.343750
4217,25.390625
4218,27.343750
4219,29.296875
4220,27.343750
4221,29.296875
4222,29.296875
4223,29.296875
4224,29.296875
4225,29.296875
4226,29.296875
4227,29.296875
4228,29.296875
4229,29.296875
4230,29.296875
4231,31.250000
4232,31.250000
4233,29.296875
4234,31.250000
4235,31.250000
4236,31.250000
4237,31.250000
4238,31.250000
4239,29.296875
4240,31.250000
4241,31.250000
4242,29.296875
4243,29.296875
4244,31.250000
4245,29.296875
4246,29.296875
4247,29.296875
4248,29.296875
4249,29.296875
4250,29.296875
4251,29.296875
4252,29.296875
4253,29.296875
4254,27.343750
4255,27.343750
4256,27.343750
4257,27.343750
4258,27.343750
4259,27.343750
4260,25.390625
4261,25.390625
4262,25.390625
4263,25.390625
4264,25.390625
4265,23.437500
4266,23.437500
4267,23.437500
4268,21.484375
4269,21.484375
4270,21.484375
4271,21.484375
4272,19.531250
4273,21.484375
4274,19.531250
4275,17.578125
4276,17.578125
4277,17.578125
4278,15.625000
4279,15.625000
4280,15.625000
4281,15.625000
4282,15.625000
4283,13.671875
4284,13.671875
4285,13.671875
4286,11.718750
4287,11.718750
4288,9.765625
4289,9.765625
4290,9.765625
4291,7.812500
4292,7.812500
4293,5.859375
4294,5.859375
4295,5.859375
4296,5.859375
4297,3.906250
4298,1.953125
4299,1.953125
4300,1.953125
4301,0.000000
4302,0.000000
4303,-1.953125
4304,-1.953125
4305,-3.906250
4306,-3.906250
4307,-3.906250
4308,-3.906250
4309,-5.859375
4310,-7.812500
4311,-7.812500
4312,-7.812500
4313,-9.765625
4314,-11.718750
4315,-11.718750
4316,-11.718750
4317,-11.718750
4318,-13.671875
4319,-15.625000
4320,-15.625000
4321,-15.625000
4322,-17.578125
4323,-17.578125
4324,-17.578125
4325,-19.531250
4326,-19.531250
4327,-21.484375
4328,-21.484375
4329,-21.484375
4330,-23.437500
4331,-23.437500
4332,-25.390625
4333,-25.390625
4334,-25.390625
4335,-27.343750
4336,-27.343750
4337,-27.343750
4338,-29.296875
4339,-29.296875
4340,-29.296875
4341,-31.250000
4342,-31.250000
4343,-31.250000
4344,-33.203125
4345,-33.203125
4346,-33.203125
4347,-35.156250
4348,-35.156250
4349,-35.156250
4350,-35.156250
4351,-37.109375
4352,-37.109375
4353,-37.109375
4354,-37.109375
4355,-37.109375
4356,-39.062500
4357,-39.062500
4358,-39.062500
4359,-39.062500
4360,-39.062500
4361,-41.015625
4362,-41.015625
4363,-41.015625
4364,-41.015625
4365,-41.015625
4366,-41.015625
4367,-41.015625
4368,-41.015625
4369,-41.015625
4370,-42.968750
4371,-42.968750
4372,-42.968750
4373,-42.968750
4374,-42.968750
4375,-42.968750
4376,-42.968750
4377,-42.968750
4378,-42.968750
4379,-42.968750
4380,-42.968750
4381,-42.968750
4382,-42.968750
4383,-42.968750
4384,-42.968750
4385,-42.968750
4386,-42.968750
4387,-42.968750
4388,-42.968750
4389,-42.968750
4390,-42.968750
4391,-41.015625
4392,-41.015625
4393,-41.015625
4394,-41.015625
4395,-41.015625
4396,-41.015625
4397,-41.015625
4398,-39.062500
4399,-39.062500
4400,-39.062500
4401,-39.062500
4402,-39.062500
4403,-37.109375
4404,-37.109375
4405,-37.109375
4406,-37.109375
4407,-35.156250
4408,-35.156250
4409,-35.156250
4410,-33.203125
4411,-33.203125
4412,-33.203125
4413,-33.203125
4414,-33.203125
4415,-31.250000
4416,-31.250000
4417,-29.296875
4418,-29.296875
4419,-29.296875
4420,-29.296875
4421,-27.343750
4422,-27.343750
4423,-25.390625
4424,-25.390625
4425,-23.437500
4426,-23.437500
4427,-23.437500
4428,-21.484375
4429,-21.484375
4430,-19.531250
4431,-19.531250
4432,-19.531250
4433,-17.578125
4434,-17.578125
4435,-17.578125
4436,-15.625000
4437,-15.625000
4438,-13.671875
4439,-13.671875
4440,-13.671875
4441,-11.718750
4442,-9.765625
4443,-9.765625
4444,-9.765625
4445,-7.812500
4446,-7.812500
4447,-7.812500
4448,-7.812500
4449,-5.859375
4450,-3.906250
4451,-3.906250
4452,-3.906250
4453,-1.953125
4454,-1.953125
4455,0.000000
4456,0.000000
4457,0.000000
4458,1.953125
4459,1.953125
4460,3.906250
4461,3.906250
4462,3.906250
4463,5.859375
4464,7.812500
4465,7.812500
4466,7.812500
4467,7.812500
4468,9.765625
4469,9.765625
4470,9.765625
4471,11.718750
4472,11.718750
4473,13.671875
4474,13.671875
4475,13.671875
4476,15.625000
4477,15.625000
4478,15.625000
4479,17.578125
4480,17.578125
4481,17.578125
4482,17.578125
4483,19.531250
4484,19.531250
4485,19.531250
4486,21.484375
4487,21.484375
4488,21.484375
4489,23.437500
4490,23.437500
4491,23.437500
4492,23.437500
4493,25.390625
4494,25.390625
4495,25.390625
4496,25.390625
4497,27.343750
4498,27.343750
4499,27.343750
4500,27.343750
4501,27.343750
4502,27.343750
4503,27.343750
4504,27.343750
4505,29.296875
4506,29.296875
4507,29.296875
4508,29.296875
4509,29.296875
4510,29.296875
4511,29.296875
4512,29.296875
4513,31.250000
4514,31.250000
4515,31.250000
4516,29.296875
4517,29.296875
4518,31.250000
4519,31.250000
4520,31.250000
4521,29.296875
4522,29.296875
4523,31.250000
4524,29.296875
4525,29.296875
4526,29.296875
4527,29.296875
4528,31.250000
4529,29.296875
4530,29.296875
4531,29.296875
4532,29.296875
4533,29.296875
4534,29.296875
4535,27.343750
4536,27.343750
4537,27.343750
4538,27.343750
4539,27.343750
4540,27.343750
4541,27.343750
4542,25.390625
4543,25.390625
4544,25.390625
4545,25.390625
4546,25.390625
4547,23.437500
4548,23.437500
4549,23.437500
4550,23.437500
4551,23.437500
4552,21.484375
4553,21.484375
4554,21.484375
4555,19.531250
4556,19.531250
4557,19.531250
4558,17.578125
4559,17.578125
4560,17.578125
4561,17.578125
4562,15.625000
4563,15.625000
4564,15.625000
4565,13.671875
4566,13.671875
4567,13.671875
4568,11.718750
4569,11.718750
4570,9.765625
4571,9.765625
4572,9.765625
4573,7.812500
4574,7.812500
4575,7.812500
4576,5.859375
4577,5.859375
4578,3.906250
4579,3.906250
4580,1.953125
4581,1.953125
4582,1.953125
4583,0.000000
4584,0.000000
4585,-1.953125
4586,-1.953125
4587,-1.953125
4588,-3.906250
4589,-3.906250
4590,-5.859375
4591,-5.859375
4592,-5.859375
4593,-7.812500
4594,-7.812500
4595,-9.765625
4596,-9.765625
4597,-11.718750
4598,-11.718750
4599,-11.718750
4600,-13.671875
4601,-13.671875
4602,-15.625000
4603,-15.625000
4604,-15.625000
4605,-17.578125
4606,-17.578125
4607,-19.531250
4608,-19.531250
4609,-19.531250
4610,-21.484375
4611,-21.484375
4612,-23.437500
4613,-23.437500
4614,-23.437500
4615,-25.390625
4616,-25.390625
4617,-25.390625
4618,-27.343750
4619,-27.343750
4620,-27.343750
4621,-29.296875
4622,-29.296875
4623,-29.296875
4624,-29.296875
4625,-31.250000
4626,-31.250000
4627,-33.203125
4628,-33.203125
4629,-33.203125
4630,-33.203125
4631,-35.156250
4632,-35.156250
4633,-35.156250
4634,-35.156250
4635,-37.109375
4636,-37.109375
4637,-37.109375
4638,-37.109375
4639,-39.062500
4640,-39.062500
4641,-39.062500
4642,-39.062500
4643,-39.062500
4644,-41.015625
4645,-41.015625
4646,-41.015625
4647,-41.015625
4648,-41.015625
4649,-42.968750
4650,-41.015625
4651,-42.968750
4652,-42.968750
4653,-42.968750
4654,-42.968750
4655,-42.968750
4656,-42.968750
4657,-42.968750
4658,-42.968750
4659,-42.968750
4660,-42.968750
4661,-42.968750
4662,-42.968750
4663,-42.968750
4664,-42.968750
4665,-42.968750
4666,-42.968750
4667,-42.968750
4668,-42.968750
4669,-42.968750
4670,-42.968750
4671,-42.968750
4672,-42.968750
4673,-42.968750
4674,-41.015625
4675,-41.015625
4676,-41.015625
4677,-41.015625
4678,-41.015625
4679,-39.062500
4680,-41.015625
4681,-39.062500
4682,-39.062500
4683,-39.062500
4684,-37.109375
4685,-37.109375
4686,-37.109375
4687,-37.109375
4688,-35.156250
4689,-35.156250
4690,-35.156250
4691,-35.156250
4692,-33.203125
4693,-33.203125
4694,-33.203125
4695,-33.203125
4696,-31.250000
4697,-31.250000
4698,-31.250000
4699,-29.296875
4700,-29.296875
4701,-29.296875
4702,-27.343750
4703,-27.343750
4704,-27.343750
4705,-25.390625
4706,-25.390625
4707,-25.390625
4708,-23.437500
4709,-23.437500
4710,-23.437500
4711,-21.484375
4712,-21.484375
4713,-19.531250
4714,-19.531250
4715,-19.531250
4716,-17.578125
4717,-17.578125
4718,-17.578125
4719,-15.625000
4720,-15.625000
4721,-13.671875
4722,-13.671875
4723,-13.671875
4724,-11.718750
4725,-11.718750
4726,-7.812500
4727,-9.765625
4728,-9.765625
4729,-7.812500
4730,-5.859375
4731,-5.859375
4732,-5.859375
4733,-3.906250
4734,-3.906250
4735,-1.953125
4736,-1.953125
4737,-1.953125
4738,0.000000
4739,0.000000
4740,1.953125
4741,1.953125
4742,3.906250
4743,3.906250
4744,3.906250
4745,5.859375
4746,5.859375
4747,7.812500
4748,7.812500
4749,7.812500
4750,9.765625
4751,9.765625
4752,9.765625
4753,11.718750
4754,11.718750
4755,13.671875
4756,13.671875
4757,13.671875
4758,15.625000
4759,15.625000
4760,15.625000
4761,17.578125
4762,17.578125
4763,17.578125
4764,19.531250
4765,19.531250
4766,19.531250
4767,21.484375
4768,21.484375
4769,21.484375
4770,21.484375
4771,21.484375
4772,23.437500
4773,23.437500
4774,23.437500
4775,23.437500
4776,25.390625
4777,25.390625
4778,25.390625
4779,25.390625
4780,25.390625
4781,27.343750
4782,27.343750
4783,27.343750
4784,27.343750
4785,27.343750
4786,27.343750
4787,27.343750
4788,27.343750
4789,29.296875
4790,29.296875
4791,27.343750
4792,29.296875
4793,29.296875
4794,29.296875
4795,29.296875
4796,29.296875
4797,31.250000
4798,29.296875
4799,31.250000
4800,29.296875
4801,31.250000
4802,29.296875
4803,31.250000
4804,31.250000
4805,29.296875
4806,29.296875
4807,29.296875
4808,31.250000
4809,29.296875
4810,31.250000
4811,29.296875
4812,29.296875
4813,31.250000
4814,29.296875
4815,29.296875
4816,29.296875
4817,29.296875
4818,29.296875
4819,29.296875
4820,27.343750
4821,27.343750
4822,27.343750
4823,27.343750
4824,25.390625
4825,27.343750
4826,27.343750
4827,25.390625
4828,25.390625
4829,25.390625
4830,23.437500
4831,23.437500
4832,23.437500
4833,23.437500
4834,21.484375
4835,21.484375
4836,21.484375
4837,21.484375
4838,19.531250
4839,19.531250
4840,17.578125
4841,17.578125
4842,17.578125
4843,17.578125
4844,15.625000
4845,15.625000
4846,15.625000
4847,13.671875
4848,13.671875
4849,13.671875
4850,11.718750
4851,11.718750
4852,9.765625
4853,9.765625
4854,9.765625
4855,7.812500
4856,7.812500
4857,7.812500
4858,5.859375
4859,5.859375
4860,3.906250
4861,3.906250
4862,1.953125
4863,3.906250
4864,1.953125
4865,0.000000
4866,0.000000
4867,0.000000
4868,-1.953125
4869,-1.953125
4870,-1.953125
4871,-3.906250
4872,-3.906250
4873,-5.859375
4874,-3.906250
4875,-7.812500
4876,-7.812500
4877,-7.812500
4878,-9.765625
4879,-9.765625
4880,-11.718750
4881,-11.718750
4882,-11.718750
4883,-13.671875
4884,-13.671875
4885,-15.625000
4886,-15.625000
4887,-15.625000
4888,-17.578125
4889,-19.531250
4890,-19.531250
4891,-19.531250
4892,-21.484375
4893,-21.484375
4894,-21.484375
4895,-23.437500
4896,-23.437500
4897,-25.390625
4898,-25.390625
4899,-25.390625
4900,-29.296875
4901,-27.343750
4902,-29.296875
4903,-29.296875
4904,-29.296875
4905,-31.250000
4906,-33.203125
4907,-31.250000
4908,-31.250000
4909,-33.203125
4910,-33.203125
4911,-33.203125
4912,-35.156250
4913,-35.156250
4914,-35.156250
4915,-37.109375
4916,-37.109375
4917,-37.109375
4918,-37.109375
4919,-39.062500
4920,-39.062500
4921,-39.062500
4922,-39.062500
4923,-39.062500
4924,-39.062500
4925,-39.062500
4926,-41.015625
4927,-41.015625
4928,-41.015625
4929,-41.015625
4930,-41.015625
4931,-42.968750
4932,-42.968750
4933,-41.015625
4934,-42.968750
4935,-42.968750
4936,-42.968750
4937,-42.968750
4938,-42.968750
4939,-42.968750
4940,-42.968750
4941,-42.968750
4942,-42.968750
4943,-42.968750
4944,-42.968750
4945,-42.968750
4946,-42.968750
4947,-42.968750
4948,-42.968750
4949,-42.968750
4950,-42.968750
4951,-42.968750
4952,-42.968750
4953,-41.015625
4954,-41.015625
4955,-41.015625
4956,-41.015625
4957,-41.015625
4958,-41.015625
4959,-41.015625
4960,-41.015625
4961,-41.015625
4962,-41.015625
4963,-39.062500
4964,-39.062500
4965,-39.062500
4966,-37.109375
4967,-39.062500
4968,-37.109375
4969,-37.109375
4970,-37.109375
4971,-37.109375
4972,-35.156250
4973,-35.156250
4974,-35.156250
4975,-33.203125
4976,-33.203125
4977,-33.203125
4978,-33.203125
4979,-31.250000
4980,-31.250000
4981,-31.250000
4982,-31.250000
4983,-29.296875
4984,-29.296875
4985,-27.343750
4986,-27.343750
4987,-27.343750
4988,-25.390625
4989,-25.390625
4990,-23.437500
4991,-23.437500
4992,-23.437500
4993,-21.484375
4994,-21.484375
4995,-19.531250
4996,-19.531250
4997,-19.531250
4998,-17.578125
4999,-17.578125
5000,-17.578125
5001,-15.625000
5002,-15.625000
5003,-15.625000
5004,-13.671875
5005,-11.718750
5006,-11.718750
5007,-11.718750
5008,-9.765625
5009,-9.765625
5010,-7.812500
5011,-7.812500
5012,-7.812500
5013,-5.859375
5014,-5.859375
5015,-3.906250
5016,-3.906250
5017,-1.953125
5018,-1.953125
5019,0.000000
5020,0.000000
5021,0.000000
5022,1.953125
5023,1.953125
5024,1.953125
5025,3.906250
5026,3.906250
5027,3.906250
5028,5.859375
5029,5.859375
5030,7.812500
5031,7.812500
5032,9.765625
5033,9.765625
5034,9.765625
5035,11.718750
5036,11.718750
5037,11.718750
5038,13.671875
5039,13.671875
5040,13.671875
5041,15.625000
5042,15.625000
5043,15.625000
5044,17.578125
5045,17.578125
5046,17.578125
5047,19.531250
5048,19.531250
5049,19.531250
5050,21.484375
5051,21.484375
5052,21.484375
5053,21.484375
5054,21.484375
5055,23.437500
5056,23.437500
5057,25.390625
5058,23.437500
5059,25.390625
5060,25.390625
5061,25.390625
5062,25.390625
5063,27.343750
5064,27.343750
5065,27.343750
5066,27.343750
5067,27.343750
5068,29.296875
5069,29.296875
5070,29.296875
5071,29.296875
5072,29.296875
5073,29.296875
5074,29.296875
5075,29.296875
5076,29.296875
5077,29.296875
5078,31.250000
5079,31.250000
5080,29.296875
5081,31.250000
5082,29.296875
5083,31.250000
5084,31.250000
5085,31.250000
5086,31.250000
5087,29.296875
5088,31.250000
5089,29.296875
5090,31.250000
5091,29.296875
5092,29.296875
5093,29.296875
5094,29.296875
5095,29.296875
5096,29.296875
5097,29.296875
5098,29.296875
5099,29.296875
5100,27.343750
5101,27.343750
5102,27.343750
5103,27.343750
5104,27.343750
5105,27.343750
5106,25.390625
5107,25.390625
5108,25.390625
5109,25.390625
5110,25.390625
5111,23.437500
5112,23.437500
5113,23.437500
5114,23.437500
5115,23.437500
5116,21.484375
5117,21.484375
5118,19.531250
5119,21.484375
5120,19.531250
5121,19.531250
5122,19.531250
5123,17.578125
5124,17.578125
5125,17.578125
5126,17.578125
5127,15.625000
5128,15.625000
5129,13.671875
5130,13.671875
5131,13.671875
5132,11.718750
5133,11.718750
5134,11.718750
5135,9.765625
5136,9.765625
5137,9.765625
5138,7.812500
5139,7.812500
5140,5.859375
5141,5.859375
5142,5.859375
5143,5.859375
5144,3.906250
5145,3.906250
5146,1.953125
5147,1.953125
5148,0.000000
5149,0.000000
5150,-1.953125
5151,-1.953125
5152,-1.953125
5153,-3.906250
5154,-5.859375
5155,-5.859375
5156,-5.859375
5157,-7.812500
5158,-7.812500
5159,-7.812500
5160,-9.765625
5161,-9.765625
5162,-11.718750
5163,-11.718750
5164,-11.718750
5165,-13.671875
5166,-15.625000
5167,-15.625000
5168,-17.578125
5169,-15.625000
5170,-17.578125
5171,-17.578125
5172,-19.531250
5173,-19.531250
5174,-21.484375
5175,-21.484375
5176,-23.437500
5177,-23.437500
5178,-23.437500
5179,-25.390625
5180,-25.390625
5181,-25.390625
5182,-27.343750
5183,-27.343750
5184,-27.343750
5185,-29.296875
5186,-29.296875
5187,-31.250000
5188,-31.250000
5189,-31.250000
5190,-31.250000
5191,-33.203125
5192,-33.203125
5193,-33.203125
5194,-33.203125
5195,-33.203125
5196,-35.156250
5197,-35.156250
5198,-37.109375
5199,-37.109375
5200,-37.109375
5201,-37.109375
5202,-39.062500
5203,-39.062500
5204,-39.062500
5205,-39.062500
5206,-39.062500
5207,-41.015625
5208,-39.062500
5209,-41.015625
5210,-41.015625
5211,-41.015625
5212,-41.015625
5213,-41.015625
5214,-42.968750
5215,-42.968750
5216,-42.968750
5217,-42.968750
5218,-42.968750
5219,-42.968750
5220,-42.968750
5221,-42.968750
5222,-42.968750
5223,-42.968750
5224,-42.968750
5225,-42.968750
5226,-42.968750
5227,-42.968750
5228,-42.968750
5229,-42.968750
5230,-42.968750
5231,-42.968750
5232,-42.968750
5233,-42.968750
5234,-42.968750
5235,-42.968750
5236,-42.968750
5237,-42.968750
5238,-41.015625
5239,-41.015625
5240,-41.015625
5241,-41.015625
5242,-41.015625
5243,-41.015625
5244,-41.015625
5245,-39.062500
5246,-37.109375
5247,-39.062500
5248,-39.062500
5249,-39.062500
5250,-39.062500
5251,-37.109375
5252,-37.109375
5253,-37.109375
5254,-35.156250
5255,-35.156250
5256,-35.156250
5257,-35.156250
5258,-33.203125
5259,-33.203125
5260,-33.203125
5261,-33.203125
5262,-31.250000
5263,-31.250000
5264,-29.296875
5265,-29.296875
5266,-29.296875
5267,-27.343750
5268,-27.343750
5269,-27.343750
5270,-25.390625
5271,-25.390625
5272,-23.437500
5273,-23.437500
5274,-23.437500
5275,-23.437500
5276,-21.484375
5277,-21.484375
5278,-19.531250
5279,-19.531250
5280,-17.578125
5281,-17.578125
5282,-17.578125
5283,-15.625000
5284,-15.625000
5285,-13.671875
5286,-13.671875
5287,-11.718750
5288,-11.718750
5289,-11.718750
5290,-9.765625
5291,-9.765625
5292,-9.765625
5293,-9.765625
5294,-7.812500
5295,-5.859375
5296,-5.859375
5297,-3.906250
5298,-3.906250
5299,-3.906250
5300,-1.953125
5301,-1.953125
5302,0.000000
5303,0.000000
5304,0.000000
5305,1.953125
5306,3.906250
5307,3.906250
5308,3.906250
5309,3.906250
5310,5.859375
5311,5.859375
5312,5.859375
5313,7.812500
5314,7.812500
5315,9.765625
5316,9.765625
5317,9.765625
5318,11.718750
5319,11.718750
5320,11.718750
5321,13.671875
5322,13.671875
5323,13.671875
5324,15.625000
5325,15.625000
5326,17.578125
5327,17.578125
5328,17.578125
5329,17.578125
5330,19.531250
5331,19.531250
5332,19.531250
5333,21.484375
5334,23.437500
5335,23.437500
5336,21.484375
5337,23.437500
5338,23.437500
5339,23.437500
5340,25.390625
5341,25.390625
5342,25.390625
5343,25.390625
5344,25.390625
5345,27.343750
5346,27.343750
5347,27.343750
5348,27.343750
5349,27.343750
5350,27.343750
5351,29.296875
5352,29.296875
5353,29.296875
5354,29.296875
5355,29.296875
5356,29.296875
5357,29.296875
5358,29.296875
5359,29.296875
5360,29.296875
5361,29.296875
5362,31.250000
5363,29.296875
5364,31.250000
5365,31.250000
5366,31.250000
5367,29.296875
5368,29.296875
5369,31.250000
5370,29.296875
5371,31.250000
5372,29.296875
5373,29.296875
5374,29.296875
5375,29.296875
5376,29.296875
5377,29.296875
5378,29.296875
5379,29.296875
5380,27.343750
5381,29.296875
5382,29.296875
5383,27.343750
5384,27.343750
5385,27.343750
5386,27.343750
5387,27.343750
5388,27.343750
5389,27.343750
5390,25.390625
5391,25.390625
5392,25.390625
5393,23.437500
5394,23.437500
5395,23.437500
5396,23.437500
5397,23.437500
5398,23.437500
5399,21.484375
5400,21.484375
5401,21.484375
5402,21.484375
5403,19.531250
5404,19.531250
5405,19.531250
5406,17.578125
5407,17.578125
5408,15.625000
5409,15.625000
5410,15.625000
5411,15.625000
5412,15.625000
5413,13.671875
5414,11.718750
5415,11.718750
5416,11.718750
5417,11.718750
5418,9.765625
5419,9.765625
5420,7.812500
5421,7.812500
5422,5.859375
5423,5.859375
5424,5.859375
5425,5.859375
5426,3.906250
5427,3.906250
5428,1.953125
5429,1.953125
5430,0.000000
5431,0.000000
5432,0.000000
5433,-1.953125
5434,-1.953125
5435,-3.906250
5436,-3.906250
5437,-5.859375
5438,-5.859375
5439,-5.859375
5440,-7.812500
5441,-7.812500
5442,-7.812500
5443,-9.765625
5444,-9.765625
5445,-11.718750
5446,-13.671875
5447,-13.671875
5448,-13.671875
5449,-15.625000
5450,-15.625000
5451,-15.625000
5452,-17.578125
5453,-17.578125
5454,-19.531250
5455,-19.531250
5456,-21.484375
5457,-21.484375
5458,-21.484375
5459,-21.484375
5460,-23.437500
5461,-23.437500
5462,-25.390625
5463,-27.343750
5464,-25.390625
5465,-27.343750
5466,-27.343750
5467,-27.343750
5468,-29.296875
5469,-29.296875
5470,-31.250000
5471,-31.250000
5472,-31.250000
5473,-31.250000
5474,-33.203125
5475,-33.203125
5476,-33.203125
5477,-33.203125
5478,-35.156250
5479,-35.156250
5480,-35.156250
5481,-37.109375
5482,-37.109375
5483,-37.109375
5484,-37.109375
5485,-39.062500
5486,-39.062500
5487,-39.062500
5488,-39.062500
5489,-39.062500
5490,-41.015625
5491,-41.015625
5492,-41.015625
5493,-41.015625
5494,-41.015625
5495,-41.015625
5496,-41.015625
5497,-42.968750
5498,-42.968750
5499,-42.968750
5500,-42.968750
5501,-42.968750
5502,-42.968750
5503,-42.968750
5504,-42.968750
5505,-42.968750
5506,-42.968750
5507,-42.968750
5508,-42.968750
5509,-42.968750
5510,-44.921875
5511,-42.968750
5512,-42.968750
5513,-42.968750
5514,-42.968750
5515,-42.968750
5516,-42.968750
5517,-42.968750
5518,-42.968750
5519,-41.015625
5520,-41.015625
5521,-41.015625
5522,-41.015625
5523,-41.015625
5524,-41.015625
5525,-41.015625
5526,-39.062500
5527,-39.062500
5528,-39.062500
5529,-39.062500
5530,-39.062500
5531,-39.062500
5532,-37.109375
5533,-37.109375
5534,-37.109375
5535,-37.109375
5536,-35.156250
5537,-35.156250
5538,-35.156250
5539,-33.203125
5540,-33.203125
5541,-33.203125
5542,-33.203125
5543,-31.250000
5544,-31.250000
5545,-29.296875
5546,-29.296875
5547,-29.296875
5548,-29.296875
5549,-29.296875
5550,-27.343750
5551,-27.343750
5552,-25.390625
5553,-25.390625
5554,-25.390625
5555,-23.437500
5556,-23.437500
5557,-21.484375
5558,-21.484375
5559,-21.484375
5560,-19.531250
5561,-19.531250
5562,-19.531250
5563,-17.578125
5564,-17.578125
5565,-17.578125
5566,-15.625000
5567,-15.625000
5568,-13.671875
5569,-13.671875
5570,-13.671875
5571,-11.718750
5572,-11.718750
5573,-9.765625
5574,-9.765625
5575,-7.812500
5576,-7.812500
5577,-5.859375
5578,-5.859375
5579,-5.859375
5580,-3.906250
5581,-3.906250
5582,-1.953125
5583,-1.953125
5584,0.000000
5585,0.000000
5586,0.000000
5587,1.953125
5588,1.953125
5589,3.906250
5590,3.906250
5591,3.906250
5592,5.859375
5593,5.859375
5594,7.812500
5595,7.812500
5596,9.765625
5597,9.765625
5598,9.765625
5599,11.718750
5600,11.718750
5601,13.671875
5602,13.671875
5603,13.671875
5604,13.671875
5605,15.625000
5606,15.625000
5607,15.625000
5608,17.578125
5609,17.578125
5610,17.578125
5611,17.578125
5612,19.531250
5613,19.531250
5614,19.531250
5615,21.484375
5616,21.484375
5617,21.484375
5618,21.484375
5619,23.437500
5620,23.437500
5621,23.437500
5622,23.437500
5623,23.437500
5624,23.437500
5625,25.390625
5626,25.390625
5627,25.390625
5628,27.343750
5629,27.343750
5630,27.343750
5631,27.343750
5632,27.343750
5633,27.343750
5634,27.343750
5635,29.296875
5636,29.296875
5637,29.296875
5638,29.296875
5639,29.296875
5640,29.296875
5641,29.296875
5642,29.296875
5643,29.296875
5644,29.296875
5645,31.250000
5646,31.250000
5647,31.250000
5648,31.250000
5649,31.250000
5650,29.296875
5651,29.296875
5652,29.296875
5653,31.250000
5654,31.250000
5655,29.296875
5656,31.250000
5657,29.296875
5658,29.296875
5659,29.296875
5660,29.296875
5661,29.296875
5662,29.296875
5663,29.296875
5664,29.296875
5665,29.296875
5666,29.296875
5667,27.343750
5668,27.343750
5669,27.343750
5670,27.343750
5671,25.390625
5672,25.390625
5673,25.390625
5674,25.390625
5675,25.390625
5676,25.390625
5677,23.437500
5678,23.437500
5679,23.437500
5680,21.484375
5681,21.484375
5682,21.484375
5683,21.484375
5684,19.531250
5685,19.531250
5686,17.578125
5687,17.578125
5688,17.578125
5689,17.578125
5690,15.625000
5691,15.625000
5692,15.625000
5693,13.671875
5694,13.671875
5695,13.671875
5696,11.718750
5697,11.718750
5698,11.718750
5699,9.765625
5700,9.765625
5701,9.765625
5702,7.812500
5703,7.812500
5704,7.812500
5705,5.859375
5706,5.859375
5707,5.859375
5708,3.906250
5709,3.906250
5710,1.953125
5711,1.953125
5712,0.000000
5713,0.000000
5714,0.000000
5715,-1.953125
5716,-1.953125
5717,-1.953125
5718,-3.906250
5719,-3.906250
5720,-5.859375
5721,-5.859375
5722,-7.812500
5723,-7.812500
5724,-9.765625
5725,-9.765625
5726,-9.765625
5727,-9.765625
5728,-11.718750
5729,-13.671875
5730,-13.671875
5731,-13.671875
5732,-15.625000
5733,-15.625000
5734,-17.578125
5735,-17.578125
5736,-17.578125
5737,-17.578125
5738,-19.531250
5739,-21.484375
5740,-21.484375
5741,-23.437500
5742,-23.437500
5743,-23.437500
5744,-25.390625
5745,-25.390625
5746,-25.390625
5747,-27.343750
5748,-27.343750
5749,-29.296875
5750,-29.296875
5751,-29.296875
5752,-29.296875
5753,-31.250000
5754,-31.250000
5755,-33.203125
5756,-33.203125
5757,-33.203125
5758,-33.203125
5759,-35.156250
5760,-35.156250
5761,-35.156250
5762,-35.156250
5763,-37.109375
5764,-37.109375
5765,-37.109375
5766,-39.062500
5767,-37.109375
5768,-39.062500
5769,-39.062500
5770,-39.062500
5771,-39.062500
5772,-39.062500
5773,-41.015625
5774,-41.015625
5775,-41.015625
5776,-41.015625
5777,-41.015625
5778,-41.015625
5779,-41.015625
5780,-42.968750
5781,-41.015625
5782,-42.968750
5783,-41.015625
5784,-42.968750
5785,-42.968750
5786,-42.968750
5787,-42.968750
5788,-42.968750
5789,-42.968750
5790,-42.968750
5791,-42.968750
5792,-42.968750
5793,-42.968750
5794,-42.968750
5795,-42.968750
5796,-42.968750
5797,-42.968750
5798,-42.968750
5799,-42.968750
5800,-41.015625
5801,-42.968750
5802,-42.968750
5803,-41.015625
5804,-41.015625
5805,-41.015625
5806,-41.015625
5807,-41.015625
5808,-39.062500
5809,-39.062500
5810,-39.062500
5811,-39.062500
5812,-39.062500
5813,-39.062500
5814,-37.109375
5815,-37.109375
5816,-37.109375
5817,-37.109375
5818,-37.109375
5819,-35.156250
5820,-35.156250
5821,-35.156250
5822,-35.156250
5823,-33.203125
5824,-33.203125
5825,-33.203125
5826,-31.250000
5827,-31.250000
5828,-31.250000
5829,-29.296875
5830,-29.296875
5831,-29.296875
5832,-27.343750
5833,-27.343750
5834,-25.390625
5835,-25.390625
5836,-25.390625
5837,-23.437500
5838,-23.437500
5839,-23.437500
5840,-21.484375
5841,-21.484375
5842,-19.531250
5843,-19.531250
5844,-19.531250
5845,-17.578125
5846,-17.578125
5847,-15.625000
5848,-15.625000
5849,-15.625000
5850,-13.671875
5851,-13.671875
5852,-11.718750
5853,-11.718750
5854,-11.718750
5855,-9.765625
5856,-9.765625
5857,-7.812500
5858,-7.812500
5859,-7.812500
5860,-5.859375
5861,-5.859375
5862,-5.859375
5863,-3.906250
5864,-1.953125
5865,-1.953125
5866,-1.953125
5867,0.000000
5868,0.000000
5869,1.953125
5870,1.953125
5871,1.953125
5872,3.906250
5873,3.906250
5874,3.906250
5875,5.859375
5876,5.859375
5877,7.812500
5878,7.812500
5879,7.812500
5880,9.765625
5881,9.765625
5882,11.718750
5883,11.718750
5884,11.718750
5885,13.671875
5886,13.671875
5887,13.671875
5888,15.625000
5889,15.625000
5890,17.578125
5891,17.578125
5892,17.578125
5893,17.578125
5894,17.578125
5895,19.531250
5896,19.531250
5897,21.484375
5898,21.484375
5899,21.484375
5900,21.484375
5901,21.484375
5902,23.437500
5903,23.437500
5904,25.390625
5905,25.390625
5906,25.390625
5907,25.390625
5908,25.390625
5909,25.390625
5910,25.390625
5911,27.343750
5912,27.343750
5913,27.343750
5914,29.296875
5915,29.296875
5916,29.296875
5917,29.296875
5918,27.343750
5919,29.296875
5920,29.296875
5921,29.296875
5922,29.296875
5923,29.296875
5924,29.296875
5925,29.296875
5926,31.250000
5927,31.250000
5928,31.250000
5929,31.250000
5930,31.250000
5931,29.296875
5932,29.296875
5933,31.250000
5934,31.250000
5935,31.250000
5936,29.296875
5937,29.296875
5938,29.296875
5939,31.250000
5940,29.296875
5941,29.296875
5942,29.296875
5943,29.296875
5944,29.296875
5945,29.296875
5946,29.296875
5947,27.343750
5948,27.343750
5949,27.343750
5950,27.343750
5951,27.343750
5952,25.390625
5953,25.390625
5954,25.390625
5955,25.390625
5956,25.390625
5957,25.390625
5958,25.390625
5959,23.437500
5960,23.437500
5961,23.437500
5962,23.437500
5963,21.484375
5964,21.484375
5965,19.531250
5966,21.484375
5967,19.531250
5968,19.531250
5969,19.531250
5970,17.578125
5971,17.578125
5972,17.578125
5973,15.625000
5974,15.625000
5975,15.625000
5976,15.625000
5977,13.671875
5978,13.671875
5979,11.718750
5980,11.718750
5981,11.718750
5982,13.671875
5983,9.765625
5984,9.765625
5985,7.812500
5986,7.812500
5987,7.812500
5988,5.859375
5989,5.859375
5990,3.906250
5991,3.906250
5992,3.906250
5993,1.953125
5994,1.953125
5995,0.000000
5996,0.000000
5997,-1.953125
5998,-1.953125
5999,-1.953125
6000,-1.953125
6001,-3.906250
6002,-7.812500
6003,-5.859375
6004,-5.859375
6005,-7.812500
6006,-7.812500
6007,-9.765625
6008,-9.765625
6009,-11.718750
6010,-11.718750
6011,-11.718750
6012,-13.671875
6013,-13.671875
6014,-15.625000
6015,-17.578125
6016,-17.578125
6017,-19.531250
6018,-17.578125
6019,-17.578125
6020,-19.531250
6021,-21.484375
6022,-21.484375
6023,-23.437500
6024,-23.437500
6025,-23.437500
6026,-23.437500
6027,-25.390625
6028,-25.390625
6029,-27.343750
6030,-27.343750
6031,-29.296875
6032,-27.343750
6033,-29.296875
6034,-35.156250
6035,-31.250000
6036,-31.250000
6037,-31.250000
6038,-33.203125
6039,-33.203125
6040,-33.203125
6041,-33.203125
6042,-35.156250
6043,-35.156250
6044,-35.156250
6045,-37.109375
6046,-37.109375
6047,-37.109375
6048,-37.109375
6049,-37.109375
6050,-37.109375
6051,-39.062500
6052,-39.062500
6053,-41.015625
6054,-41.015625
6055,-41.015625
6056,-41.015625
6057,-41.015625
6058,-41.015625
6059,-41.015625
6060,-41.015625
6061,-41.015625
6062,-42.968750
6063,-42.968750
6064,-42.968750
6065,-42.968750
6066,-44.921875
6067,-42.968750
6068,-42.968750
6069,-42.968750
6070,-44.921875
6071,-42.968750
6072,-42.968750
6073,-42.968750
6074,-42.968750
6075,-42.968750
6076,-42.968750
6077,-42.968750
6078,-42.968750
6079,-42.968750
6080,-42.968750
6081,-42.968750
6082,-42.968750
6083,-42.968750
6084,-42.968750
6085,-42.968750
6086,-41.015625
6087,-41.015625
6088,-41.015625
6089,-41.015625
6090,-39.062500
6091,-41.015625
6092,-41.015625
6093,-39.062500
6094,-39.062500
6095,-39.062500
6096,-37.109375
6097,-37.109375
6098,-37.109375
6099,-37.109375
6100,-35.156250
6101,-35.156250
6102,-35.156250
6103,-35.156250
6104,-35.156250
6105,-33.203125
6106,-33.203125
6107,-33.203125
6108,-31.250000
6109,-31.250000
6110,-31.250000
6111,-29.296875
6112,-29.296875
6113,-29.296875
6114,-27.343750
6115,-27.343750
6116,-25.390625
6117,-25.390625
6118,-25.390625
6119,-25.390625
6120,-23.437500
6121,-23.437500
6122,-21.484375
6123,-21.484375
6124,-21.484375
6125,-19.531250
6126,-19.531250
6127,-17.578125
6128,-17.578125
6129,-17.578125
6130,-17.578125
6131,-15.625000
6132,-15.625000
6133,-13.671875
6134,-13.671875
6135,-11.718750
6136,-11.718750
6137,-9.765625
6138,-9.765625
6139,-9.765625
6140,-7.812500
6141,-7.812500
6142,-5.859375
6143,-5.859375
6144,-5.859375
6145,-3.906250
6146,-3.906250
6147,-1.953125
6148,-1.953125
6149,0.000000
6150,0.000000
6151,1.953125
6152,1.953125
6153,1.953125
6154,1.953125
6155,3.906250
6156,3.906250
6157,5.859375
6158,5.859375
6159,7.812500
6160,7.812500
6161,9.765625
6162,9.765625
6163,9.765625
6164,9.765625
6165,11.718750
6166,11.718750
6167,11.718750
6168,13.671875
6169,13.671875
6170,15.625000
6171,15.625000
6172,15.625000
6173,17.578125
6174,17.578125
6175,17.578125
6176,19.531250
6177,17.578125
6178,19.531250
6179,21.484375
6180,21.484375
6181,21.484375
6182,21.484375
6183,23.437500
6184,23.437500
6185,23.437500
6186,23.437500
6187,25.390625
6188,25.390625
6189,25.390625
6190,25.390625
6191,27.343750
6192,27.343750
6193,27.343750
6194,27.343750
6195,27.343750
6196,27.343750
6197,27.343750
6198,29.296875
6199,29.296875
6200,29.296875
6201,29.296875
6202,29.296875
6203,29.296875
6204,29.296875
6205,29.296875
6206,29.296875
6207,29.296875
6208,29.296875
6209,29.296875
6210,31.250000
6211,31.250000
6212,31.250000
6213,31.250000
6214,29.296875
6215,31.250000
6216,29.296875
6217,29.296875
6218,29.296875
6219,29.296875
6220,29.296875
6221,29.296875
6222,29.296875
6223,29.296875
6224,29.296875
6225,29.296875
6226,29.296875
6227,29.296875
6228,29.296875
6229,29.296875
6230,29.296875
6231,27.343750
6232,27.343750
6233,27.343750
6234,25.390625
6235,27.343750
6236,27.343750
6237,25.390625
6238,25.390625
6239,25.390625
6240,25.390625
6241,25.390625
6242,23.437500
6243,23.437500
6244,23.437500
6245,23.437500
6246,21.484375
6247,21.484375
6248,21.484375
6249,19.531250
6250,19.531250
6251,19.531250
6252,19.531250
6253,17.578125
6254,17.578125
6255,17.578125
6256,15.625000
6257,17.578125
6258,15.625000
6259,13.671875
6260,13.671875
6261,11.718750
6262,11.718750
6263,11.718750
6264,11.718750
6265,9.765625
6266,7.812500
6267,7.812500
6268,7.812500
6269,5.859375
6270,5.859375
6271,5.859375
6272,3.906250
6273,3.906250
6274,3.906250
6275,1.953125
6276,1.953125
6277,0.000000
6278,0.000000
6279,0.000000
6280,-1.953125
6281,-1.953125
6282,-3.906250
6283,-3.906250
6284,-3.906250
6285,-5.859375
6286,-7.812500
6287,-7.812500
6288,-7.812500
6289,-9.765625
6290,-9.765625
6291,-11.718750
6292,-11.718750
6293,-11.718750
6294,-13.671875
6295,-13.671875
6296,-15.625000
6297,-15.625000
6298,-17.578125
6299,-17.578125
6300,-17.578125
6301,-19.531250
6302,-19.531250
6303,-19.531250
6304,-21.484375
6305,-21.484375
6306,-23.437500
6307,-23.437500
6308,-23.437500
6309,-23.437500
6310,-25.390625
6311,-25.390625
6312,-25.390625
6313,-27.343750
6314,-29.296875
6315,-29.296875
6316,-29.296875
6317,-29.296875
6318,-31.250000
6319,-31.250000
6320,-33.203125
6321,-33.203125
6322,-33.203125
6323,-33.203125
6324,-35.156250
6325,-35.156250
6326,-35.156250
6327,-37.109375
6328,-37.109375
6329,-37.109375
6330,-37.109375
6331,-37.109375
6332,-39.062500
6333,-39.062500
6334,-39.062500
6335,-39.062500
6336,-41.015625
6337,-41.015625
6338,-41.015625
6339,-41.015625
6340,-41.015625
6341,-41.015625
6342,-42.968750
6343,-41.015625
6344,-42.968750
6345,-42.968750
6346,-42.968750
6347,-42.968750
6348,-42.968750
6349,-42.968750
6350,-42.968750
6351,-42.968750
6352,-42.968750
6353,-44.921875
6354,-42.968750
6355,-42.968750
6356,-42.968750
6357,-42.968750
6358,-42.968750
6359,-42.968750
6360,-42.968750
6361,-42.968750
6362,-42.968750
6363,-42.968750
6364,-42.968750
6365,-42.968750
6366,-42.968750
6367,-41.015625
6368,-41.015625
6369,-41.015625
6370,-41.015625
6371,-41.015625
6372,-41.015625
6373,-39.062500
6374,-39.062500
6375,-39.062500
6376,-39.062500
6377,-39.062500
6378,-39.062500
6379,-37.109375
6380,-37.109375
6381,-37.109375
6382,-37.109375
6383,-35.156250
6384,-35.156250
6385,-35.156250
6386,-33.203125
6387,-33.203125
6388,-33.203125
6389,-33.203125
6390,-31.250000
6391,-31.250000
6392,-31.250000
6393,-29.296875
6394,-29.296875
6395,-29.296875
6396,-27.343750
6397,-27.343750
6398,-27.343750
6399,-27.343750
6400,-25.390625
6401,-25.390625
6402,-23.437500
6403,-23.437500
6404,-23.437500
6405,-21.484375
6406,-21.484375
6407,-21.484375
6408,-19.531250
6409,-19.531250
6410,-17.578125
6411,-17.578125
6412,-17.578125
6413,-15.625000
6414,-15.625000
6415,-13.671875
6416,-13.671875
6417,-11.718750
6418,-11.718750
6419,-11.718750
6420,-9.765625
6421,-9.765625
6422,-7.812500
6423,-7.812500
6424,-5.859375
6425,-5.859375
6426,-5.859375
6427,-3.906250
6428,-3.906250
6429,-1.953125
6430,-1.953125
6431,0.000000
6432,0.000000
6433,0.000000
6434,1.953125
6435,1.953125
6436,3.906250
6437,3.906250
6438,3.906250
6439,5.859375
6440,5.859375
6441,7.812500
6442,7.812500
6443,7.812500
6444,9.765625
6445,9.765625
6446,9.765625
6447,11.718750
6448,11.718750
6449,13.671875
6450,13.671875
6451,13.671875
6452,13.671875
6453,15.625000
6454,15.625000
6455,15.625000
6456,17.578125
6457,17.578125
6458,17.578125
6459,17.578125
6460,19.531250
6461,19.531250
6462,19.531250
6463,21.484375
6464,21.484375
6465,21.484375
6466,21.484375
6467,23.437500
6468,23.437500
6469,23.437500
6470,25.390625
6471,25.390625
6472,25.390625
6473,25.390625
6474,25.390625
6475,27.343750
6476,27.343750
6477,27.343750
6478,27.343750
6479,27.343750
6480,27.343750
6481,27.343750
6482,27.343750
6483,29.296875
6484,29.296875
6485,29.296875
6486,29.296875
6487,29.296875
6488,29.296875
6489,29.296875
6490,29.296875
6491,29.296875
6492,29.296875
6493,31.250000
6494,31.250000
6495,31.250000
6496,31.250000
6497,29.296875
6498,29.296875
6499,29.296875
6500,29.296875
6501,29.296875
6502,31.250000
6503,29.296875
6504,29.296875
6505,29.296875
6506,29.296875
6507,29.296875
6508,29.296875
6509,29.296875
6510,29.296875
6511,29.296875
6512,27.343750
6513,27.343750
6514,27.343750
6515,27.343750
6516,27.343750
6517,27.343750
6518,27.343750
6519,25.390625
6520,25.390625
6521,25.390625
6522,25.390625
6523,25.390625
6524,23.437500
6525,23.437500
6526,23.437500
6527,23.437500
6528,21.484375
6529,21.484375
6530,21.484375
6531,19.531250
6532,19.531250
6533,19.531250
6534,17.578125
6535,19.531250
6536,17.578125
6537,15.625000
6538,15.625000
6539,15.625000
6540,15.625000
6541,13.671875
6542,13.671875
6543,13.671875
6544,11.718750
6545,11.718750
6546,9.765625
6547,9.765625
6548,9.765625
6549,7.812500
6550,7.812500
6551,7.812500
6552,5.859375
6553,5.859375
6554,5.859375
6555,3.906250
6556,3.906250
6557,1.953125
6558,1.953125
6559,1.953125
6560,0.000000
6561,0.000000
6562,0.000000
6563,-1.953125
6564,-1.953125
6565,-3.906250
6566,-3.906250
6567,-5.859375
6568,-5.859375
6569,-7.812500
6570,-9.765625
6571,-7.812500
6572,-9.765625
6573,-9.765625
6574,-11.718750
6575,-11.718750
6576,-13.671875
6577,-13.671875
6578,-13.671875
6579,-15.625000
6580,-15.625000
6581,-17.578125
6582,-17.578125
6583,-17.578125
6584,-19.531250
6585,-19.531250
6586,-19.531250
6587,-21.484375
6588,-23.437500
6589,-23.437500
6590,-23.437500
6591,-25.390625
6592,-25.390625
6593,-27.343750
6594,-27.343750
6595,-27.343750
6596,-29.296875
6597,-29.296875
6598,-29.296875
6599,-29.296875
6600,-31.250000
6601,-31.250000
6602,-31.250000
6603,-33.203125
6604,-31.250000
6605,-35.156250
6606,-35.156250
6607,-35.156250
6608,-37.109375
6609,-35.156250
6610,-37.109375
6611,-37.109375
6612,-37.109375
6613,-37.109375
6614,-39.062500
6615,-39.062500
6616,-39.062500
6617,-39.062500
6618,-39.062500
6619,-41.015625
6620,-39.062500
6621,-41.015625
6622,-42.968750
6623,-41.015625
6624,-41.015625
6625,-42.968750
6626,-42.968750
6627,-41.015625
6628,-42.968750
6629,-42.968750
6630,-42.968750
6631,-42.968750
6632,-42.968750
6633,-42.968750
6634,-42.968750
6635,-42.968750
6636,-42.968750
6637,-42.968750
6638,-42.968750
6639,-42.968750
6640,-42.968750
6641,-42.968750
6642,-42.968750
6643,-42.968750
6644,-42.968750
6645,-42.968750
6646,-42.968750
6647,-42.968750
6648,-42.968750
6649,-42.968750
6650,-42.968750
6651,-41.015625
6652,-41.015625
6653,-41.015625
6654,-41.015625
6655,-41.015625
6656,-41.015625
6657,-41.015625
6658,-39.062500
6659,-39.062500
6660,-39.062500
6661,-39.062500
6662,-37.109375
6663,-37.109375
6664,-37.109375
6665,-37.109375
6666,-35.156250
6667,-35.156250
6668,-35.156250
6669,-33.203125
6670,-33.203125
6671,-31.250000
6672,-33.203125
6673,-31.250000
6674,-31.250000
6675,-31.250000
6676,-29.296875
6677,-29.296875
6678,-29.296875
6679,-27.343750
6680,-27.343750
6681,-25.390625
6682,-25.390625
6683,-25.390625
6684,-23.437500
6685,-23.437500
6686,-21.484375
6687,-21.484375
6688,-21.484375
6689,-21.484375
6690,-19.531250
6691,-19.531250
6692,-17.578125
6693,-17.578125
6694,-15.625000
6695,-15.625000
6696,-15.625000
6697,-13.671875
6698,-13.671875
6699,-11.718750
6700,-11.718750
6701,-11.718750
6702,-9.765625
6703,-9.765625
6704,-9.765625
6705,-7.812500
6706,-7.812500
6707,-5.859375
6708,-5.859375
6709,-3.906250
6710,-3.906250
6711,-3.906250
6712,-1.953125
6713,-1.953125
6714,0.000000
6715,0.000000
6716,1.953125
6717,1.953125
6718,1.953125
6719,3.906250
6720,3.906250
6721,5.859375
6722,5.859375
6723,5.859375
6724,5.859375
6725,7.812500
6726,7.812500
6727,9.765625
6728,9.765625
6729,11.718750
6730,11.718750
6731,11.718750
6732,13.671875
6733,13.671875
6734,13.671875
6735,15.625000
6736,15.625000
6737,15.625000
6738,17.578125
6739,17.578125
6740,17.578125
6741,19.531250
6742,19.531250
6743,19.531250
6744,21.484375
6745,21.484375
6746,21.484375
6747,21.484375
6748,23.437500
6749,23.437500
6750,23.437500
6751,23.437500
6752,25.390625
6753,25.390625
6754,25.390625
6755,25.390625
6756,25.390625
6757,27.343750
6758,27.343750
6759,27.343750
6760,27.343750
6761,27.343750
6762,27.343750
6763,29.296875
6764,29.296875
6765,29.296875
6766,29.296875
6767,29.296875
6768,29.296875
6769,29.296875
6770,29.296875
6771,31.250000
6772,29.296875
6773,31.250000
6774,29.296875
6775,29.296875
6776,31.250000
6777,29.296875
6778,29.296875
6779,31.250000
6780,31.250000
6781,31.250000
6782,31.250000
6783,29.296875
6784,29.296875
6785,29.296875
6786,29.296875
6787,29.296875
6788,29.296875
6789,29.296875
6790,29.296875
6791,29.296875
6792,29.296875
6793,29.296875
6794,27.343750
6795,27.343750
6796,27.343750
6797,27.343750
6798,27.343750
6799,27.343750
6800,25.390625
6801,25.390625
6802,25.390625
6803,25.390625
6804,25.390625
6805,25.390625
6806,23.437500
6807,23.437500
6808,23.437500
6809,21.484375
6810,21.484375
6811,21.484375
6812,21.484375
6813,21.484375
6814,19.531250
6815,19.531250
6816,19.531250
6817,19.531250
6818,17.578125
6819,17.578125
6820,17.578125
6821,15.625000
6822,15.625000
6823,15.625000
6824,13.671875
6825,13.671875
6826,11.718750
6827,11.718750
6828,11.718750
6829,11.718750
6830,9.765625
6831,9.765625
6832,7.812500
6833,7.812500
6834,5.859375
6835,5.859375
6836,5.859375
6837,3.906250
6838,3.906250
6839,1.953125
6840,1.953125
6841,1.953125
6842,0.000000
6843,0.000000
6844,0.000000
6845,-1.953125
6846,-1.953125
6847,-3.906250
6848,-3.906250
6849,-5.859375
6850,-5.859375
6851,-7.812500
6852,-7.812500
6853,-9.765625
6854,-9.765625
6855,-11.718750
6856,-11.718750
6857,-11.718750
6858,-13.671875
6859,-13.671875
6860,-13.671875
6861,-15.625000
6862,-15.625000
6863,-17.578125
6864,-17.578125
6865,-17.578125
6866,-19.531250
6867,-19.531250
6868,-21.484375
6869,-21.484375
6870,-21.484375
6871,-23.437500
6872,-23.437500
6873,-23.437500
6874,-25.390625
6875,-25.390625
6876,-27.343750
6877,-27.343750
6878,-27.343750
6879,-29.296875
6880,-29.296875
6881,-29.296875
6882,-31.250000
6883,-31.250000
6884,-31.250000
6885,-33.203125
6886,-33.203125
6887,-33.203125
6888,-35.156250
6889,-35.156250
6890,-35.156250
6891,-35.156250
6892,-37.109375
6893,-37.109375
6894,-37.109375
6895,-37.109375
6896,-37.109375
6897,-39.062500
6898,-39.062500
6899,-39.062500
6900,-39.062500
6901,-39.062500
6902,-41.015625
6903,-41.015625
6904,-41.015625
6905,-41.015625
6906,-41.015625
6907,-41.015625
6908,-42.968750
6909,-42.968750
6910,-42.968750
6911,-42.968750
6912,-42.968750
6913,-42.968750
6914,-42.968750
6915,-42.968750
6916,-42.968750
6917,-42.968750
6918,-42.968750
6919,-42.968750
6920,-42.968750
6921,-42.968750
6922,-42.968750
6923,-42.968750
6924,-42.968750
6925,-42.968750
6926,-42.968750
6927,-42.968750
6928,-42.968750
6929,-42.968750
6930,-42.968750
6931,-42.968750
6932,-42.968750
6933,-41.015625
6934,-41.015625
6935,-41.015625
6936,-41.015625
6937,-41.015625
6938,-39.062500
6939,-41.015625
6940,-39.062500
6941,-39.062500
6942,-39.062500
6943,-39.062500
6944,-37.109375
6945,-37.109375
6946,-37.109375
6947,-35.156250
6948,-35.156250
6949,-35.156250
6950,-35.156250
6951,-35.156250
6952,-33.203125
6953,-33.203125
6954,-31.250000
6955,-31.250000
6956,-31.250000
6957,-31.250000
6958,-29.296875
6959,-29.296875
6960,-29.296875
6961,-27.343750
6962,-27.343750
6963,-27.343750
6964,-25.390625
6965,-25.390625
6966,-25.390625
6967,-23.437500
6968,-23.437500
6969,-21.484375
6970,-21.484375
6971,-21.484375
6972,-19.531250
6973,-19.531250
6974,-17.578125
6975,-17.578125
6976,-17.578125
6977,-15.625000
6978,-15.625000
6979,-15.625000
6980,-13.671875
6981,-13.671875
6982,-11.718750
6983,-11.718750
6984,-11.718750
6985,-9.765625
6986,-9.765625
6987,-7.812500
6988,-7.812500
6989,-7.812500
6990,-5.859375
6991,-5.859375
6992,-3.906250
6993,-1.953125
6994,-1.953125
6995,-1.953125
6996,-1.953125
6997,0.000000
6998,0.000000
6999,1.953125
7000,1.953125
7001,3.906250
7002,3.906250
7003,3.906250
7004,5.859375
7005,5.859375
7006,7.812500
7007,7.812500
7008,9.765625
7009,9.765625
7010,9.765625
7011,11.718750
7012,11.718750
7013,11.718750
7014,13.671875
7015,13.671875
7016,13.671875
7017,15.625000
7018,15.625000
7019,17.578125
7020,17.578125
7021,17.578125
7022,17.578125
7023,17.578125
7024,19.531250
7025,19.531250
7026,19.531250
7027,21.484375
7028,21.484375
7029,21.484375
7030,21.484375
7031,23.437500
7032,23.437500
7033,23.437500
7034,23.437500
7035,23.437500
7036,25.390625
7037,25.390625
7038,25.390625
7039,25.390625
7040,25.390625
7041,27.343750
7042,27.343750
7043,27.343750
7044,27.343750
7045,27.343750
7046,27.343750
7047,27.343750
7048,29.296875
7049,29.296875
7050,29.296875
7051,29.296875
7052,29.296875
7053,29.296875
7054,29.296875
7055,29.296875
7056,29.296875
7057,29.296875
7058,29.296875
7059,31.250000
7060,29.296875
7061,29.296875
7062,29.296875
7063,29.296875
7064,29.296875
7065,29.296875
7066,29.296875
7067,29.296875
7068,29.296875
7069,29.296875
7070,29.296875
7071,29.296875
7072,29.296875
7073,29.296875
7074,29.296875
7075,29.296875
7076,29.296875
7077,27.343750
7078,27.343750
7079,27.343750
7080,27.343750
7081,27.343750
7082,27.343750
7083,25.390625
7084,25.390625
7085,25.390625
7086,25.390625
7087,25.390625
7088,23.437500
7089,23.437500
7090,23.437500
7091,23.437500
7092,21.484375
7093,21.484375
7094,21.484375
7095,21.484375
7096,21.484375
7097,21.484375
7098,19.531250
7099,17.578125
7100,17.578125
7101,17.578125
7102,15.625000
7103,15.625000
7104,15.625000
7105,13.671875
7106,13.671875
7107,13.671875
7108,11.718750
7109,11.718750
7110,11.718750
7111,9.765625
7112,9.765625
7113,9.765625
7114,7.812500
7115,7.812500
7116,5.859375
7117,5.859375
7118,5.859375
7119,3.906250
7120,3.906250
7121,3.906250
7122,1.953125
7123,1.953125
7124,0.000000
7125,0.000000
7126,0.000000
7127,-1.953125
7128,-1.953125
7129,-3.906250
7130,-3.906250
7131,-3.906250
7132,-5.859375
7133,-5.859375
7134,-7.812500
7135,-7.812500
7136,-9.765625
7137,-9.765625
7138,-11.718750
7139,-11.718750
7140,-11.718750
7141,-13.671875
7142,-13.671875
7143,-15.625000
7144,-15.625000
7145,-15.625000
7146,-17.578125
7147,-17.578125
7148,-19.531250
7149,-19.531250
7150,-19.531250
7151,-21.484375
7152,-21.484375
7153,-21.484375
7154,-23.437500
7155,-23.437500
7156,-25.390625
7157,-25.390625
7158,-25.390625
7159,-27.343750
7160,-27.343750
7161,-29.296875
7162,-29.296875
7163,-29.296875
7164,-29.296875
7165,-31.250000
7166,-31.250000
7167,-31.250000
7168,-33.203125
7169,-33.203125
7170,-33.203125
7171,-35.156250
7172,-35.156250
7173,-35.156250
7174,-35.156250
7175,-37.109375
7176,-37.109375
7177,-37.109375
7178,-37.109375
7179,-39.062500
7180,-39.062500
7181,-39.062500
7182,-39.062500
7183,-41.015625
7184,-39.062500
7185,-41.015625
7186,-41.015625
7187,-41.015625
7188,-41.015625
7189,-41.015625
7190,-42.968750
7191,-42.968750
7192,-42.968750
7193,-42.968750
7194,-42.968750
7195,-42.968750
7196,-42.968750
7197,-42.968750
7198,-42.968750
7199,-42.968750
7200,-42.968750
7201,-42.968750
7202,-42.968750
7203,-42.968750
7204,-42.968750
7205,-42.968750
7206,-42.968750
7207,-42.968750
7208,-42.968750
7209,-42.968750
7210,-42.968750
7211,-42.968750
7212,-42.968750
7213,-42.968750
7214,-42.968750
7215,-41.015625
7216,-41.015625
7217,-41.015625
7218,-41.015625
7219,-39.062500
7220,-39.062500
7221,-39.062500
7222,-39.062500
7223,-39.062500
7224,-37.109375
7225,-37.109375
7226,-37.109375
7227,-37.109375
7228,-37.109375
7229,-37.109375
7230,-35.156250
7231,-35.156250
7232,-35.156250
7233,-35.156250
7234,-33.203125
7235,-33.203125
7236,-33.203125
7237,-33.203125
7238,-31.250000
7239,-31.250000
7240,-31.250000
7241,-31.250000
7242,-29.296875
7243,-29.296875
7244,-27.343750
7245,-27.343750
7246,-27.343750
7247,-25.390625
7248,-25.390625
7249,-23.437500
7250,-23.437500
7251,-23.437500
7252,-21.484375
7253,-21.484375
7254,-21.484375
7255,-19.531250
7256,-19.531250
7257,-17.578125
7258,-17.578125
7259,-15.625000
7260,-15.625000
7261,-15.625000
7262,-13.671875
7263,-13.671875
7264,-11.718750
7265,-11.718750
7266,-11.718750
7267,-9.765625
7268,-9.765625
7269,-7.812500
7270,-7.812500
7271,-7.812500
7272,-5.859375
7273,-5.859375
7274,-3.906250
7275,-1.953125
7276,-3.906250
7277,-1.953125
7278,0.000000
7279,0.000000
7280,0.000000
7281,1.953125
7282,1.953125
7283,3.906250
7284,3.906250
7285,3.906250
7286,5.859375
7287,5.859375
7288,7.812500
7289,7.812500
7290,7.812500
7291,9.765625
7292,9.765625
7293,9.765625
7294,11.718750
7295,11.718750
7296,11.718750
7297,13.671875
7298,13.671875
7299,15.625000
7300,15.625000
7301,15.625000
7302,15.625000
7303,17.578125
7304,17.578125
7305,17.578125
7306,19.531250
7307,19.531250
7308,19.531250
7309,21.484375
7310,21.484375
7311,21.484375
7312,21.484375
7313,21.484375
7314,23.437500
7315,23.437500
7316,23.437500
7317,23.437500
7318,25.390625
7319,25.390625
7320,25.390625
7321,25.390625
7322,27.343750
7323,27.343750
7324,27.343750
7325,27.343750
7326,27.343750
7327,29.296875
7328,27.343750
7329,29.296875
7330,27.343750
7331,29.296875
7332,29.296875
7333,29.296875
7334,29.296875
7335,29.296875
7336,29.296875
7337,29.296875
7338,31.250000
7339,31.250000
7340,29.296875
7341,31.250000
7342,31.250000
7343,31.250000
7344,29.296875
7345,31.250000
7346,31.250000
7347,31.250000
7348,31.250000
7349,29.296875
7350,29.296875
7351,31.250000
7352,29.296875
7353,31.250000
7354,29.296875
7355,29.296875
7356,29.296875
7357,29.296875
7358,29.296875
7359,27.343750
7360,27.343750
7361,27.343750
7362,27.343750
7363,27.343750
7364,25.390625
7365,25.390625
7366,25.390625
7367,25.390625
7368,25.390625
7369,25.390625
7370,23.437500
7371,25.390625
7372,23.437500
7373,23.437500
7374,21.484375
7375,21.484375
7376,21.484375
7377,19.531250
7378,19.531250
7379,19.531250
7380,19.531250
7381,19.531250
7382,19.531250
7383,17.578125
7384,17.578125
7385,15.625000
7386,15.625000
7387,15.625000
7388,13.671875
7389,13.671875
7390,11.718750
7391,11.718750
7392,11.718750
7393,11.718750
7394,9.765625
7395,9.765625
7396,9.765625
7397,7.812500
7398,7.812500
7399,5.859375
7400,5.859375
7401,5.859375
7402,3.906250
7403,3.906250
7404,1.953125
7405,1.953125
7406,0.000000
7407,0.000000
7408,0.000000
7409,-1.953125
7410,-1.953125
7411,-1.953125
7412,-3.906250
7413,-3.906250
7414,-5.859375
7415,-5.859375
7416,-7.812500
7417,-7.812500
7418,-9.765625
7419,-9.765625
7420,-9.765625
7421,-11.718750
7422,-11.718750
7423,-13.671875
7424,-13.671875
7425,-13.671875
7426,-15.625000
7427,-15.625000
7428,-17.578125
7429,-17.578125
7430,-19.531250
7431,-19.531250
7432,-19.531250
7433,-21.484375
7434,-21.484375
7435,-23.437500
7436,-23.437500
7437,-23.437500
7438,-25.390625
7439,-25.390625
7440,-27.343750
7441,-27.343750
7442,-27.343750
7443,-27.343750
7444,-29.296875
7445,-29.296875
7446,-31.250000
7447,-31.250000
7448,-31.250000
7449,-33.203125
7450,-33.203125
7451,-33.203125
7452,-33.203125
7453,-33.203125
7454,-35.156250
7455,-35.156250
7456,-35.156250
7457,-37.109375
7458,-37.109375
7459,-37.109375
7460,-37.109375
7461,-39.062500
7462,-39.062500
7463,-39.062500
7464,-39.062500
7465,-39.062500
7466,-39.062500
7467,-41.015625
7468,-41.015625
7469,-41.015625
7470,-41.015625
7471,-41.015625
7472,-41.015625
7473,-42.968750
7474,-42.968750
7475,-41.015625
7476,-42.968750
7477,-42.968750
7478,-42.968750
7479,-42.968750
7480,-42.968750
7481,-42.968750
7482,-42.968750
7483,-42.968750
7484,-42.968750
7485,-42.968750
7486,-42.968750
7487,-42.968750
7488,-42.968750
7489,-42.968750
7490,-42.968750
7491,-42.968750
7492,-42.968750
7493,-42.968750
7494,-42.968750
7495,-42.968750
7496,-42.968750
7497,-41.015625
7498,-41.015625
7499,-41.015625
7500,-41.015625
7501,-41.015625
7502,-41.015625
7503,-41.015625
7504,-39.062500
7505,-39.062500
7506,-39.062500
7507,-39.062500
7508,-39.062500
7509,-37.109375
7510,-37.109375
7511,-37.109375
7512,-35.156250
7513,-35.156250
7514,-35.156250
7515,-35.156250
7516,-33.203125
7517,-33.203125
7518,-33.203125
7519,-33.203125
7520,-31.250000
7521,-31.250000
7522,-31.250000
7523,-29.296875
7524,-29.296875
7525,-27.343750
7526,-27.343750
7527,-27.343750
7528,-27.343750
7529,-25.390625
7530,-25.390625
7531,-23.437500
7532,-23.437500
7533,-23.437500
7534,-21.484375
7535,-21.484375
7536,-19.531250
7537,-19.531250
7538,-19.531250
7539,-17.578125
7540,-17.578125
7541,-15.625000
7542,-15.625000
7543,-15.625000
7544,-13.671875
7545,-13.671875
7546,-11.718750
7547,-11.718750
7548,-11.718750
7549,-9.765625
7550,-9.765625
7551,-9.765625
7552,-7.812500
7553,-7.812500
7554,-5.859375
7555,-5.859375
7556,-3.906250
7557,-3.906250
7558,-1.953125
7559,-1.953125
7560,-1.953125
7561,0.000000
7562,0.000000
7563,0.000000
7564,1.953125
7565,1.953125
7566,3.906250
7567,3.906250
7568,5.859375
7569,5.859375
7570,5.859375
7571,7.812500
7572,7.812500
7573,7.812500
7574,9.765625
7575,9.765625
7576,9.765625
7577,11.718750
7578,11.718750
7579,13.671875
7580,13.671875
7581,13.671875
7582,11.718750
7583,15.625000
7584,15.625000
7585,17.578125
7586,17.578125
7587,19.531250
7588,19.531250
7589,19.531250
7590,19.531250
7591,21.484375
7592,21.484375
7593,21.484375
7594,21.484375
7595,23.437500
7596,23.437500
7597,23.437500
7598,23.437500
7599,25.390625
7600,25.390625
7601,25.390625
7602,25.390625
7603,27.343750
7604,27.343750
7605,27.343750
7606,27.343750
7607,27.343750
7608,27.343750
7609,29.296875
7610,27.343750
7611,29.296875
7612,27.343750
7613,31.250000
7614,29.296875
7615,29.296875
7616,29.296875
7617,29.296875
7618,29.296875
7619,29.296875
7620,31.250000
7621,31.250000
7622,29.296875
7623,29.296875
7624,31.250000
7625,29.296875
7626,29.296875
7627,29.296875
7628,29.296875
7629,29.296875
7630,29.296875
7631,29.296875
7632,29.296875
7633,29.296875
7634,29.296875
7635,29.296875
7636,29.296875
7637,29.296875
7638,27.343750
7639,29.296875
7640,27.343750
7641,29.296875
7642,29.296875
7643,27.343750
7644,27.343750
7645,25.390625
7646,27.343750
7647,27.343750
7648,25.390625
7649,25.390625
7650,25.390625
7651,25.390625
7652,25.390625
7653,23.437500
7654,23.437500
7655,23.437500
7656,23.437500
7657,21.484375
7658,21.484375
7659,21.484375
7660,21.484375
7661,19.531250
7662,19.531250
7663,19.531250
7664,19.531250
7665,17.578125
7666,17.578125
7667,15.625000
7668,15.625000
7669,15.625000
7670,15.625000
7671,13.671875
7672,13.671875
7673,13.671875
7674,13.671875
7675,11.718750
7676,9.765625
7677,9.765625
7678,9.765625
7679,7.812500
7680,5.859375
7681,7.812500
7682,5.859375
7683,5.859375
7684,3.906250
7685,3.906250
7686,1.953125
7687,1.953125
7688,1.953125
7689,0.000000
7690,0.000000
7691,0.000000
7692,-1.953125
7693,-1.953125
7694,-3.906250
7695,-3.906250
7696,-5.859375
7697,-5.859375
7698,-7.812500
7699,-7.812500
7700,-9.765625
7701,-9.765625
7702,-9.765625
7703,-11.718750
7704,-11.718750
7705,-13.671875
7706,-13.671875
7707,-13.671875
7708,-15.625000
7709,-15.625000
7710,-17.578125
7711,-17.578125
7712,-17.578125
7713,-19.531250
7714,-19.531250
7715,-23.437500
7716,-21.484375
7717,-21.484375
7718,-23.437500
7719,-23.437500
7720,-23.437500
7721,-25.390625
7722,-25.390625
7723,-27.343750
7724,-27.343750
7725,-27.343750
7726,-29.296875
7727,-29.296875
7728,-29.296875
7729,-29.296875
7730,-31.250000
7731,-31.250000
7732,-31.250000
7733,-33.203125
7734,-33.203125
7735,-33.203125
7736,-35.156250
7737,-35.156250
7738,-35.156250
7739,-39.062500
7740,-35.156250
7741,-37.109375
7742,-37.109375
7743,-37.109375
7744,-39.062500
7745,-39.062500
7746,-39.062500
7747,-41.015625
7748,-39.062500
7749,-41.015625
7750,-41.015625
7751,-41.015625
7752,-41.015625
7753,-41.015625
7754,-42.968750
7755,-42.968750
7756,-42.968750
7757,-42.968750
7758,-42.968750
7759,-42.968750
7760,-42.968750
7761,-42.968750
7762,-42.968750
7763,-42.968750
7764,-42.968750
7765,-42.968750
7766,-42.968750
7767,-42.968750
7768,-42.968750
7769,-42.968750
7770,-42.968750
7771,-42.968750
7772,-42.968750
7773,-42.968750
7774,-42.968750
7775,-42.968750
7776,-42.968750
7777,-42.968750
7778,-41.015625
7779,-42.968750
7780,-41.015625
7781,-42.968750
7782,-41.015625
7783,-41.015625
7784,-41.015625
7785,-39.062500
7786,-39.062500
7787,-39.062500
7788,-39.062500
7789,-33.203125
7790,-39.062500
7791,-37.109375
7792,-37.109375
7793,-37.109375
7794,-35.156250
7795,-35.156250
7796,-35.156250
7797,-35.156250
7798,-35.156250
7799,-33.203125
7800,-33.203125
7801,-33.203125
7802,-31.250000
7803,-31.250000
7804,-31.250000
7805,-31.250000
7806,-29.296875
7807,-29.296875
7808,-29.296875
7809,-27.343750
7810,-25.390625
7811,-25.390625
7812,-25.390625
7813,-25.390625
7814,-23.437500
7815,-23.437500
7816,-17.578125
7817,-21.484375
7818,-21.484375
7819,-19.531250
7820,-19.531250
7821,-19.531250
7822,-17.578125
7823,-17.578125
7824,-17.578125
7825,-15.625000
7826,-13.671875
7827,-13.671875
7828,-13.671875
7829,-11.718750
7830,-11.718750
7831,-9.765625
7832,-9.765625
7833,-9.765625
7834,-9.765625
7835,-7.812500
7836,-5.859375
7837,-5.859375
7838,-3.906250
7839,-3.906250
7840,-3.906250
7841,-1.953125
7842,-1.953125
7843,0.000000
7844,0.000000
7845,0.000000
7846,1.953125
7847,1.953125
7848,3.906250
7849,3.906250
7850,3.906250
7851,5.859375
7852,5.859375
7853,7.812500
7854,7.812500
7855,7.812500
7856,9.765625
7857,9.765625
7858,9.765625
7859,11.718750
7860,11.718750
7861,13.671875
7862,13.671875
7863,13.671875
7864,15.625000
7865,15.625000
7866,15.625000
7867,15.625000
7868,17.578125
7869,19.531250
7870,17.578125
7871,19.531250
7872,19.531250
7873,21.484375
7874,19.531250
7875,21.484375
7876,21.484375
7877,21.484375
7878,21.484375
7879,21.484375
7880,23.437500
7881,23.437500
7882,25.390625
7883,25.390625
7884,25.390625
7885,25.390625
7886,25.390625
7887,27.343750
7888,27.343750
7889,27.343750
7890,27.343750
7891,27.343750
7892,27.343750
7893,29.296875
7894,27.343750
7895,29.296875
7896,29.296875
7897,29.296875
7898,29.296875
7899,29.296875
7900,29.296875
7901,31.250000
7902,29.296875
7903,31.250000
7904,31.250000
7905,29.296875
7906,29.296875
7907,29.296875
7908,31.250000
7909,31.250000
7910,31.250000
7911,31.250000
7912,29.296875
7913,31.250000
7914,31.250000
7915,31.250000
7916,29.296875
7917,31.250000
7918,29.296875
7919,29.296875
7920,29.296875
7921,29.296875
7922,29.296875
7923,29.296875
7924,29.296875
7925,27.343750
7926,27.343750
7927,27.343750
7928,27.343750
7929,27.343750
7930,25.390625
7931,25.390625
7932,25.390625
7933,25.390625
7934,25.390625
7935,23.437500
7936,23.437500
7937,23.437500
7938,23.437500
7939,23.437500
7940,19.531250
7941,21.484375
7942,21.484375
7943,21.484375
7944,19.531250
7945,19.531250
7946,17.578125
7947,17.578125
7948,17.578125
7949,17.578125
7950,17.578125
7951,15.625000
7952,15.625000
7953,13.671875
7954,13.671875
7955,13.671875
7956,11.718750
7957,11.718750
7958,9.765625
7959,11.718750
7960,7.812500
7961,7.812500
7962,7.812500
7963,7.812500
7964,5.859375
7965,7.812500
7966,3.906250
7967,3.906250
7968,3.906250
7969,1.953125
7970,1.953125
7971,0.000000
7972,0.000000
7973,0.000000
7974,-1.953125
7975,-1.953125
7976,-3.906250
7977,-3.906250
7978,-3.906250
7979,-5.859375
7980,-7.812500
7981,-7.812500
7982,-7.812500
7983,-7.812500
7984,-9.765625
7985,-11.718750
7986,-11.718750
7987,-11.718750
7988,-13.671875
7989,-13.671875
7990,-15.625000
7991,-15.625000
7992,-15.625000
7993,-17.578125
7994,-17.578125
7995,-19.531250
7996,-19.531250
7997,-19.531250
7998,-21.484375
7999,-21.484375
8000,-21.484375
8001,-23.437500
8002,-23.437500
8003,-25.390625
8004,-25.390625
8005,-25.390625
8006,-27.343750
8007,-27.343750
8008,-29.296875
8009,-29.296875
8010,-29.296875
8011,-31.250000
8012,-31.250000
8013,-31.250000
8014,-33.203125
8015,-33.203125
8016,-33.203125
8017,-33.203125
8018,-35.156250
8019,-35.156250
8020,-35.156250
8021,-35.156250
8022,-37.109375
8023,-37.109375
8024,-37.109375
8025,-37.109375
8026,-39.062500
8027,-39.062500
8028,-39.062500
8029,-41.015625
8030,-39.062500
8031,-41.015625
8032,-41.015625
8033,-41.015625
8034,-41.015625
8035,-41.015625
8036,-41.015625
8037,-42.968750
8038,-41.015625
8039,-41.015625
8040,-42.968750
8041,-42.968750
8042,-42.968750
8043,-42.968750
8044,-42.968750
8045,-42.968750
8046,-42.968750
8047,-42.968750
8048,-42.968750
8049,-42.968750
8050,-42.968750
8051,-42.968750
8052,-42.968750
8053,-42.968750
8054,-42.968750
8055,-42.968750
8056,-42.968750
8057,-41.015625
8058,-42.968750
8059,-42.968750
8060,-41.015625
8061,-41.015625
8062,-41.015625
8063,-41.015625
8064,-41.015625
8065,-41.015625
8066,-41.015625
8067,-41.015625
8068,-41.015625
8069,-39.062500
8070,-39.062500
8071,-39.062500
8072,-39.062500
8073,-37.109375
8074,-37.109375
8075,-37.109375
8076,-37.109375
8077,-35.156250
8078,-35.156250
8079,-35.156250
8080,-35.156250
8081,-35.156250
8082,-33.203125
8083,-33.203125
8084,-33.203125
8085,-33.203125
8086,-31.250000
8087,-31.250000
8088,-29.296875
8089,-29.296875
8090,-29.296875
8091,-27.343750
8092,-27.343750
8093,-25.390625
8094,-25.390625
8095,-25.390625
8096,-23.437500
8097,-23.437500
8098,-23.437500
8099,-21.484375
8100,-21.484375
8101,-19.531250
8102,-19.531250
8103,-19.531250
8104,-17.578125
8105,-17.578125
8106,-15.625000
8107,-15.625000
8108,-13.671875
8109,-13.671875
8110,-13.671875
8111,-11.718750
8112,-11.718750
8113,-11.718750
8114,-9.765625
8115,-9.765625
8116,-7.812500
8117,-7.812500
8118,-5.859375
8119,-5.859375
8120,-5.859375
8121,-3.906250
8122,-3.906250
8123,-1.953125
8124,-1.953125
8125,0.000000
8126,0.000000
8127,0.000000
8128,1.953125
8129,1.953125
8130,3.906250
8131,3.906250
8132,3.906250
8133,5.859375
8134,5.859375
8135,5.859375
8136,7.812500
8137,7.812500
8138,7.812500
8139,9.765625
8140,9.765625
8141,11.718750
8142,11.718750
8143,11.718750
8144,13.671875
8145,13.671875
8146,13.671875
8147,15.625000
8148,15.625000
8149,15.625000
8150,17.578125
8151,17.578125
8152,17.578125
8153,19.531250
8154,19.531250
8155,19.531250
8156,19.531250
8157,21.484375
8158,21.484375
8159,21.484375
8160,23.437500
8161,23.437500
8162,23.437500
8163,23.437500
8164,25.390625
8165,25.390625
8166,25.390625
8167,25.390625
8168,25.390625
8169,27.343750
8170,27.343750
8171,27.343750
8172,27.343750
8173,27.343750
8174,27.343750
8175,29.296875
8176,27.343750
8177,29.296875
8178,29.296875
8179,29.296875
8180,31.250000
8181,29.296875
8182,29.296875
8183,29.296875
8184,29.296875
8185,29.296875
8186,29.296875
8187,31.250000
8188,31.250000
8189,31.250000
8190,31.250000
8191,29.296875
8192,29.296875
8193,31.250000
8194,31.250000
8195,31.250000
8196,29.296875
8197,31.250000
8198,29.296875
8199,29.296875
8200,29.296875
8201,29.296875
8202,29.296875
8203,29.296875
8204,31.250000
8205,27.343750
8206,27.343750
8207,27.343750
8208,27.343750
8209,27.343750
8210,27.343750
8211,27.343750
8212,25.390625
8213,25.390625
8214,25.390625
8215,25.390625
8216,25.390625
8217,23.437500
8218,23.437500
8219,23.437500
8220,23.437500
8221,21.484375
8222,21.484375
8223,21.484375
8224,19.531250
8225,19.531250
8226,19.531250
8227,19.531250
8228,17.578125
8229,17.578125
8230,17.578125
8231,17.578125
8232,15.625000
8233,15.625000
8234,15.625000
8235,13.671875
8236,13.671875
8237,13.671875
8238,11.718750
8239,11.718750
8240,11.718750
8241,9.765625
8242,9.765625
8243,9.765625
8244,7.812500
8245,7.812500
8246,5.859375
8247,5.859375
8248,5.859375
8249,3.906250
8250,3.906250
8251,3.906250
8252,1.953125
8253,1.953125
8254,0.000000
8255,0.000000
8256,-1.953125
8257,-1.953125
8258,-1.953125
8259,-3.906250
8260,-3.906250
8261,-5.859375
8262,-5.859375
8263,-7.812500
8264,-7.812500
8265,-7.812500
8266,-9.765625
8267,-9.765625
8268,-11.718750
8269,-11.718750
8270,-13.671875
8271,-13.671875
8272,-15.625000
8273,-15.625000
8274,-15.625000
8275,-17.578125
8276,-17.578125
8277,-19.531250
8278,-19.531250
8279,-19.531250
8280,-21.484375
8281,-21.484375
8282,-23.437500
8283,-23.437500
8284,-23.437500
8285,-25.390625
8286,-25.390625
8287,-25.390625
8288,-27.343750
8289,-27.343750
8290,-29.296875
8291,-27.343750
8292,-29.296875
8293,-29.296875
8294,-31.250000
8295,-31.250000
8296,-31.250000
8297,-33.203125
8298,-33.203125
8299,-33.203125
8300,-33.203125
8301,-35.156250
8302,-35.156250
8303,-35.156250
8304,-35.156250
8305,-37.109375
8306,-37.109375
8307,-37.109375
8308,-37.109375
8309,-37.109375
8310,-39.062500
8311,-39.062500
8312,-39.062500
8313,-41.015625
8314,-39.062500
8315,-41.015625
8316,-41.015625
8317,-41.015625
8318,-41.015625
8319,-41.015625
8320,-41.015625
8321,-42.968750
8322,-41.015625
8323,-42.968750
8324,-42.968750
8325,-42.968750
8326,-42.968750
8327,-42.968750
8328,-42.968750
8329,-42.968750
8330,-42.968750
8331,-42.968750
8332,-42.968750
8333,-42.968750
8334,-42.968750
8335,-42.968750
8336,-42.968750
8337,-42.968750
8338,-42.968750
8339,-42.968750
8340,-42.968750
8341,-42.968750
8342,-42.968750
8343,-41.015625
8344,-42.968750
8345,-42.968750
8346,-42.968750
8347,-41.015625
8348,-41.015625
8349,-41.015625
8350,-41.015625
8351,-39.062500
8352,-39.062500
8353,-39.062500
8354,-39.062500
8355,-39.062500
8356,-37.109375
8357,-37.109375
8358,-37.109375
8359,-35.156250
8360,-35.156250
8361,-35.156250
8362,-33.203125
8363,-33.203125
8364,-33.203125
8365,-33.203125
8366,-33.203125
8367,-33.203125
8368,-31.250000
8369,-31.250000
8370,-29.296875
8371,-29.296875
8372,-29.296875
8373,-27.343750
8374,-27.343750
8375,-25.390625
8376,-25.390625
8377,-25.390625
8378,-25.390625
8379,-23.437500
8380,-23.437500
8381,-21.484375
8382,-21.484375
8383,-19.531250
8384,-19.531250
8385,-19.531250
8386,-19.531250
8387,-17.578125
8388,-17.578125
8389,-15.625000
8390,-15.625000
8391,-15.625000
8392,-13.671875
8393,-13.671875
8394,-11.718750
8395,-11.718750
8396,-9.765625
8397,-11.718750
8398,-7.812500
8399,-7.812500
8400,-7.812500
8401,-7.812500
8402,-5.859375
8403,-5.859375
8404,-3.906250
8405,-3.906250
8406,-1.953125
8407,-1.953125
8408,0.000000
8409,0.000000
8410,0.000000
8411,1.953125
8412,1.953125
8413,3.906250
8414,3.906250
8415,3.906250
8416,5.859375
8417,5.859375
8418,7.812500
8419,7.812500
8420,9.765625
8421,9.765625
8422,9.765625
8423,9.765625
8424,11.718750
8425,11.718750
8426,13.671875
8427,13.671875
8428,15.625000
8429,15.625000
8430,15.625000
8431,15.625000
8432,17.578125
8433,17.578125
8434,19.531250
8435,19.531250
8436,19.531250
8437,19.531250
8438,21.484375
8439,21.484375
8440,21.484375
8441,21.484375
8442,21.484375
8443,23.437500
8444,23.437500
8445,23.437500
8446,25.390625
8447,25.390625
8448,25.390625
8449,27.343750
8450,25.390625
8451,27.343750
8452,25.390625
8453,27.343750
8454,27.343750
8455,27.343750
8456,27.343750
8457,27.343750
8458,27.343750
8459,29.296875
8460,29.296875
8461,29.296875
8462,29.296875
8463,29.296875
8464,29.296875
8465,29.296875
8466,29.296875
8467,31.250000
8468,29.296875
8469,29.296875
8470,29.296875
8471,29.296875
8472,31.250000
8473,31.250000
8474,29.296875
8475,29.296875
8476,29.296875
8477,31.250000
8478,31.250000
8479,29.296875
8480,29.296875
8481,29.296875
8482,29.296875
8483,29.296875
8484,29.296875
8485,29.296875
8486,29.296875
8487,29.296875
8488,27.343750
8489,29.296875
8490,29.296875
8491,27.343750
8492,27.343750
8493,27.343750
8494,25.390625
8495,25.390625
8496,25.390625
8497,25.390625
8498,25.390625
8499,23.437500
8500,23.437500
8501,23.437500
8502,23.437500
8503,23.437500
8504,21.484375
8505,21.484375
8506,21.484375
8507,21.484375
8508,19.531250
8509,19.531250
8510,19.531250
8511,19.531250
8512,19.531250
8513,17.578125
8514,17.578125
8515,15.625000
8516,15.625000
8517,13.671875
8518,13.671875
8519,13.671875
8520,11.718750
8521,11.718750
8522,9.765625
8523,9.765625
8524,9.765625
8525,7.812500
8526,7.812500
8527,7.812500
8528,7.812500
8529,5.859375
8530,5.859375
8531,3.906250
8532,3.906250
8533,1.953125
8534,1.953125
8535,0.000000
8536,0.000000
8537,0.000000
8538,0.000000
8539,-1.953125
8540,-1.953125
8541,-3.906250
8542,-5.859375
8543,-5.859375
8544,-5.859375
8545,-7.812500
8546,-7.812500
8547,-7.812500
8548,-9.765625
8549,-9.765625
8550,-11.718750
8551,-11.718750
8552,-13.671875
8553,-13.671875
8554,-13.671875
8555,-15.625000
8556,-15.625000
8557,-17.578125
8558,-17.578125
8559,-17.578125
8560,-19.531250
8561,-19.531250
8562,-21.484375
8563,-21.484375
8564,-21.484375
8565,-23.437500
8566,-23.437500
8567,-23.437500
8568,-25.390625
8569,-25.390625
8570,-27.343750
8571,-27.343750
8572,-27.343750
8573,-27.343750
8574,-29.296875
8575,-29.296875
8576,-29.296875
8577,-31.250000
8578,-33.203125
8579,-31.250000
8580,-33.203125
8581,-33.203125
8582,-33.203125
8583,-35.156250
8584,-35.156250
8585,-35.156250
8586,-37.109375
8587,-35.156250
8588,-37.109375
8589,-39.062500
8590,-37.109375
8591,-39.062500
8592,-39.062500
8593,-39.062500
8594,-39.062500
8595,-39.062500
8596,-41.015625
8597,-41.015625
8598,-41.015625
8599,-41.015625
8600,-41.015625
8601,-42.968750
8602,-42.968750
8603,-42.968750
8604,-42.968750
8605,-42.968750
8606,-42.968750
8607,-42.968750
8608,-42.968750
8609,-42.968750
8610,-42.968750
8611,-42.968750
8612,-42.968750
8613,-44.921875
8614,-42.968750
8615,-42.968750
8616,-42.968750
8617,-42.968750
8618,-42.968750
8619,-42.968750
8620,-42.968750
8621,-42.968750
8622,-42.968750
8623,-41.015625
8624,-42.968750
8625,-42.968750
8626,-41.015625
8627,-41.015625
8628,-41.015625
8629,-41.015625
8630,-41.015625
8631,-41.015625
8632,-41.015625
8633,-41.015625
8634,-39.062500
8635,-39.062500
8636,-39.062500
8637,-39.062500
8638,-37.109375
8639,-37.109375
8640,-37.109375
8641,-37.109375
8642,-35.156250
8643,-35.156250
8644,-35.156250
8645,-33.203125
8646,-33.203125
8647,-33.203125
8648,-33.203125
8649,-33.203125
8650,-31.250000
8651,-31.250000
8652,-29.296875
8653,-29.296875
8654,-29.296875
8655,-29.296875
8656,-27.343750
8657,-25.390625
8658,-25.390625
8659,-25.390625
8660,-25.390625
8661,-23.437500
8662,-23.437500
8663,-23.437500
8664,-21.484375
8665,-21.484375
8666,-19.531250
8667,-19.531250
8668,-17.578125
8669,-17.578125
8670,-17.578125
8671,-15.625000
8672,-15.625000
8673,-15.625000
8674,-13.671875
8675,-13.671875
8676,-11.718750
8677,-11.718750
8678,-11.718750
8679,-9.765625
8680,-9.765625
8681,-7.812500
8682,-7.812500
8683,-5.859375
8684,-5.859375
8685,-5.859375
8686,-3.906250
8687,-3.906250
8688,-1.953125
8689,-1.953125
8690,0.000000
8691,0.000000
8692,0.000000
8693,1.953125
8694,1.953125
8695,3.906250
8696,3.906250
8697,3.906250
8698,5.859375
8699,5.859375
8700,7.812500
8701,7.812500
8702,7.812500
8703,9.765625
8704,11.718750
8705,11.718750
8706,11.718750
8707,11.718750
8708,11.718750
8709,13.671875
8710,13.671875
8711,15.625000
8712,15.625000
8713,15.625000
8714,17.578125
8715,17.578125
8716,17.578125
8717,19.531250
8718,19.531250
8719,19.531250
8720,19.531250
8721,19.531250
8722,21.484375
8723,21.484375
8724,21.484375
8725,23.437500
8726,23.437500
8727,23.437500
8728,23.437500
8729,25.390625
8730,25.390625
8731,25.390625
8732,25.390625
8733,25.390625
8734,27.343750
8735,27.343750
8736,27.343750
8737,27.343750
8738,27.343750
8739,29.296875
8740,29.296875
8741,27.343750
8742,29.296875
8743,29.296875
8744,29.296875
8745,29.296875
8746,29.296875
8747,29.296875
8748,31.250000
8749,31.250000
8750,31.250000
8751,29.296875
8752,29.296875
8753,31.250000
8754,31.250000
8755,31.250000
8756,31.250000
8757,31.250000
8758,29.296875
8759,31.250000
8760,29.296875
8761,29.296875
8762,31.250000
8763,29.296875
8764,29.296875
8765,29.296875
8766,29.296875
8767,29.296875
8768,29.296875
8769,29.296875
8770,29.296875
8771,27.343750
8772,29.296875
8773,27.343750
8774,27.343750
8775,27.343750
8776,27.343750
8777,27.343750
8778,25.390625
8779,25.390625
8780,25.390625
8781,23.437500
8782,25.390625
8783,23.437500
8784,23.437500
8785,23.437500
8786,21.484375
8787,21.484375
8788,21.484375
8789,21.484375
8790,19.531250
8791,19.531250
8792,19.531250
8793,17.578125
8794,17.578125
8795,17.578125
8796,15.625000
8797,15.625000
8798,13.671875
8799,13.671875
8800,13.671875
8801,13.671875
8802,11.718750
8803,11.718750
8804,11.718750
8805,9.765625
8806,9.765625
8807,9.765625
8808,7.812500
8809,7.812500
8810,5.859375
8811,5.859375
8812,5.859375
8813,3.906250
8814,3.906250
8815,1.953125
8816,1.953125
8817,1.953125
8818,0.000000
8819,0.000000
8820,0.000000
8821,-1.953125
8822,-1.953125
8823,-3.906250
8824,-3.906250
8825,-5.859375
8826,-5.859375
8827,-5.859375
8828,-7.812500
8829,-7.812500
8830,-7.812500
8831,-9.765625
8832,-9.765625
8833,-11.718750
8834,-11.718750
8835,-13.671875
8836,-13.671875
8837,-15.625000
8838,-15.625000
8839,-17.578125
8840,-17.578125
8841,-17.578125
8842,-19.531250
8843,-19.531250
8844,-21.484375
8845,-21.484375
8846,-23.437500
8847,-21.484375
8848,-23.437500
8849,-25.390625
8850,-25.390625
8851,-25.390625
8852,-25.390625
8853,-27.343750
8854,-27.343750
8855,-29.296875
8856,-29.296875
8857,-29.296875
8858,-29.296875
8859,-31.250000
8860,-33.203125
8861,-33.203125
8862,-33.203125
8863,-33.203125
8864,-35.156250
8865,-35.156250
8866,-35.156250
8867,-35.156250
8868,-35.156250
8869,-37.109375
8870,-37.109375
8871,-37.109375
8872,-37.109375
8873,-39.062500
8874,-39.062500
8875,-39.062500
8876,-39.062500
8877,-39.062500
8878,-39.062500
8879,-41.015625
8880,-41.015625
8881,-41.015625
8882,-41.015625
8883,-41.015625
8884,-42.968750
8885,-42.968750
8886,-41.015625
8887,-42.968750
8888,-42.968750
8889,-42.968750
8890,-42.968750
8891,-42.968750
8892,-42.968750
8893,-42.968750
8894,-42.968750
8895,-42.968750
8896,-42.968750
8897,-42.968750
8898,-42.968750
8899,-42.968750
8900,-42.968750
8901,-42.968750
8902,-42.968750
8903,-42.968750
8904,-42.968750
8905,-42.968750
8906,-42.968750
8907,-42.968750
8908,-42.968750
8909,-41.015625
8910,-41.015625
8911,-41.015625
8912,-41.015625
8913,-41.015625
8914,-39.062500
8915,-41.015625
8916,-39.062500
8917,-39.062500
8918,-39.062500
8919,-39.062500
8920,-39.062500
8921,-37.109375
8922,-37.109375
8923,-37.109375
8924,-35.156250
8925,-37.109375
8926,-35.156250
8927,-35.156250
8928,-33.203125
8929,-33.203125
8930,-33.203125
8931,-33.203125
8932,-31.250000
8933,-31.250000
8934,-31.250000
8935,-29.296875
8936,-29.296875
8937,-27.343750
8938,-27.343750
8939,-27.343750
8940,-27.343750
8941,-25.390625
8942,-25.390625
8943,-23.437500
8944,-23.437500
8945,-23.437500
8946,-21.484375
8947,-21.484375
8948,-19.531250
8949,-19.531250
8950,-19.531250
8951,-17.578125
8952,-17.578125
8953,-17.578125
8954,-15.625000
8955,-15.625000
8956,-13.671875
8957,-13.671875
8958,-11.718750
8959,-11.718750
8960,-11.718750
8961,-9.765625
8962,-9.765625
8963,-7.812500
8964,-7.812500
8965,-7.812500
8966,-5.859375
8967,-5.859375
8968,-5.859375
8969,-3.906250
8970,-1.953125
8971,-1.953125
8972,-1.953125
8973,0.000000
8974,0.000000
8975,1.953125
8976,1.953125
8977,3.906250
8978,3.906250
8979,3.906250
8980,5.859375
8981,5.859375
8982,7.812500
8983,7.812500
8984,7.812500
8985,9.765625
8986,9.765625
8987,9.765625
8988,11.718750
8989,11.718750
8990,11.718750
8991,15.625000
8992,13.671875
8993,13.671875
8994,15.625000
8995,15.625000
8996,15.625000
8997,17.578125
8998,17.578125
8999,17.578125
9000,19.531250
9001,19.531250
9002,19.531250
9003,19.531250
9004,21.484375
9005,21.484375
9006,21.484375
9007,23.437500
9008,23.437500
9009,23.437500
9010,23.437500
9011,25.390625
9012,25.390625
9013,25.390625
9014,25.390625
9015,25.390625
9016,27.343750
9017,27.343750
9018,27.343750
9019,27.343750
9020,27.343750
9021,27.343750
9022,27.343750
9023,29.296875
9024,29.296875
9025,29.296875
9026,29.296875
9027,29.296875
9028,29.296875
9029,29.296875
9030,31.250000
9031,31.250000
9032,29.296875
9033,29.296875
9034,31.250000
9035,29.296875
9036,31.250000
9037,31.250000
9038,31.250000
9039,31.250000
9040,29.296875
9041,29.296875
9042,29.296875
9043,31.250000
9044,29.296875
9045,29.296875
9046,29.296875
9047,29.296875
9048,29.296875
9049,29.296875
9050,29.296875
9051,29.296875
9052,29.296875
9053,27.343750
9054,27.343750
9055,27.343750
9056,27.343750
9057,27.343750
9058,27.343750
9059,27.343750
9060,25.390625
9061,25.390625
9062,25.390625
9063,25.390625
9064,25.390625
9065,23.437500
9066,23.437500
9067,23.437500
9068,23.437500
9069,21.484375
9070,21.484375
9071,19.531250
9072,21.484375
9073,19.531250
9074,19.531250
9075,19.531250
9076,17.578125
9077,17.578125
9078,17.578125
9079,17.578125
9080,15.625000
9081,15.625000
9082,15.625000
9083,13.671875
9084,13.671875
9085,13.671875
9086,11.718750
9087,11.718750
9088,9.765625
9089,9.765625
9090,9.765625
9091,7.812500
9092,7.812500
9093,5.859375
9094,5.859375
9095,5.859375
9096,3.906250
9097,3.906250
9098,1.953125
9099,1.953125
9100,0.000000
9101,0.000000
9102,-1.953125
9103,-1.953125
9104,-1.953125
9105,-3.906250
9106,-3.906250
9107,-3.906250
9108,-5.859375
9109,-5.859375
9110,-7.812500
9111,-7.812500
9112,-9.765625
9113,-9.765625
9114,-11.718750
9115,-11.718750
9116,-11.718750
9117,-11.718750
9118,-13.671875
9119,-15.625000
9120,-15.625000
9121,-15.625000
9122,-17.578125
9123,-17.578125
9124,-19.531250
9125,-19.531250
9126,-19.531250
9127,-21.484375
9128,-21.484375
9129,-21.484375
9130,-23.437500
9131,-23.437500
9132,-25.390625
9133,-25.390625
9134,-25.390625
9135,-27.343750
9136,-27.343750
9137,-27.343750
9138,-27.343750
9139,-29.296875
9140,-31.250000
9141,-31.250000
9142,-31.250000
9143,-31.250000
9144,-33.203125
9145,-33.203125
9146,-33.203125
9147,-33.203125
9148,-35.156250
9149,-35.156250
9150,-35.156250
9151,-37.109375
9152,-37.109375
9153,-37.109375
9154,-37.109375
9155,-37.109375
9156,-39.062500
9157,-39.062500
9158,-39.062500
9159,-39.062500
9160,-41.015625
9161,-41.015625
9162,-41.015625
9163,-41.015625
9164,-41.015625
9165,-41.015625
9166,-42.968750
9167,-42.968750
9168,-42.968750
9169,-42.968750
9170,-42.968750
9171,-42.968750
9172,-42.968750
9173,-42.968750
9174,-42.968750
9175,-42.968750
9176,-42.968750
9177,-42.968750
9178,-44.921875
9179,-42.968750
9180,-42.968750
9181,-42.968750
9182,-42.968750
9183,-42.968750
9184,-42.968750
9185,-42.968750
9186,-42.968750
9187,-42.968750
9188,-42.968750
9189,-41.015625
9190,-41.015625
9191,-42.968750
9192,-41.015625
9193,-41.015625
9194,-41.015625
9195,-41.015625
9196,-41.015625
9197,-41.015625
9198,-39.062500
9199,-39.062500
9200,-39.062500
9201,-39.062500
9202,-39.062500
9203,-37.109375
9204,-37.109375
9205,-37.109375
9206,-37.109375
9207,-35.156250
9208,-35.156250
9209,-33.203125
9210,-33.203125
9211,-33.203125
9212,-33.203125
9213,-31.250000
9214,-31.250000
9215,-31.250000
9216,-29.296875
9217,-29.296875
9218,-29.296875
9219,-27.343750
9220,-27.343750
9221,-27.343750
9222,-25.390625
9223,-25.390625
9224,-25.390625
9225,-23.437500
9226,-23.437500
9227,-23.437500
9228,-21.484375
9229,-21.484375
9230,-21.484375
9231,-19.531250
9232,-19.531250
9233,-17.578125
9234,-17.578125
9235,-17.578125
9236,-15.625000
9237,-15.625000
9238,-15.625000
9239,-13.671875
9240,-13.671875
9241,-11.718750
9242,-11.718750
9243,-9.765625
9244,-9.765625
9245,-9.765625
9246,-7.812500
9247,-7.812500
9248,-5.859375
9249,-5.859375
9250,-3.906250
9251,-3.906250
9252,-3.906250
9253,-1.953125
9254,-1.953125
9255,0.000000
9256,0.000000
9257,0.000000
9258,1.953125
9259,1.953125
9260,3.906250
9261,3.906250
9262,5.859375
9263,5.859375
9264,5.859375
9265,7.812500
9266,7.812500
9267,9.765625
9268,9.765625
9269,9.765625
9270,11.718750
9271,13.671875
9272,13.671875
9273,13.671875
9274,13.671875
9275,13.671875
9276,15.625000
9277,15.625000
9278,17.578125
9279,17.578125
9280,17.578125
9281,19.531250
9282,19.531250
9283,19.531250
9284,19.531250
9285,21.484375
9286,21.484375
9287,21.484375
9288,23.437500
9289,23.437500
9290,23.437500
9291,23.437500
9292,25.390625
9293,25.390625
9294,25.390625
9295,25.390625
9296,25.390625
9297,27.343750
9298,27.343750
9299,27.343750
9300,27.343750
9301,27.343750
9302,27.343750
9303,29.296875
9304,27.343750
9305,27.343750
9306,29.296875
9307,29.296875
9308,29.296875
9309,29.296875
9310,29.296875
9311,29.296875
9312,29.296875
9313,31.250000
9314,29.296875
9315,29.296875
9316,29.296875
9317,29.296875
9318,31.250000
9319,29.296875
9320,31.250000
9321,29.296875
9322,31.250000
9323,29.296875
9324,31.250000
9325,29.296875
9326,29.296875
9327,29.296875
9328,29.296875
9329,29.296875
9330,29.296875
9331,29.296875
9332,29.296875
9333,29.296875
9334,29.296875
9335,29.296875
9336,27.343750
9337,27.343750
9338,27.343750
9339,27.343750
9340,27.343750
9341,27.343750
9342,25.390625
9343,25.390625
9344,25.390625
9345,25.390625
9346,25.390625
9347,25.390625
9348,23.437500
9349,23.437500
9350,23.437500
9351,23.437500
9352,21.484375
9353,21.484375
9354,21.484375
9355,19.531250
9356,19.531250
9357,19.531250
9358,17.578125
9359,17.578125
9360,17.578125
9361,17.578125
9362,15.625000
9363,15.625000
9364,13.671875
9365,13.671875
9366,13.671875
9367,13.671875
9368,11.718750
9369,11.718750
9370,9.765625
9371,11.718750
9372,7.812500
9373,7.812500
9374,7.812500
9375,7.812500
9376,5.859375
9377,3.906250
9378,3.906250
9379,3.906250
9380,3.906250
9381,1.953125
9382,0.000000
9383,0.000000
9384,0.000000
9385,-1.953125
9386,-1.953125
9387,-1.953125
9388,-3.906250
9389,-3.906250
9390,-5.859375
9391,-5.859375
9392,-7.812500
9393,-7.812500
9394,-7.812500
9395,-9.765625
9396,-9.765625
9397,-11.718750
9398,-11.718750
9399,-11.718750
9400,-13.671875
9401,-13.671875
9402,-15.625000
9403,-15.625000
9404,-15.625000
9405,-17.578125
9406,-17.578125
9407,-19.531250
9408,-19.531250
9409,-19.531250
9410,-21.484375
9411,-21.484375
9412,-23.437500
9413,-23.437500
9414,-23.437500
9415,-25.390625
9416,-25.390625
9417,-27.343750
9418,-27.343750
9419,-27.343750
9420,-27.343750
9421,-29.296875
9422,-29.296875
9423,-31.250000
9424,-31.250000
9425,-31.250000
9426,-33.203125
9427,-33.203125
9428,-33.203125
9429,-35.156250
9430,-33.203125
9431,-35.156250
9432,-35.156250
9433,-37.109375
9434,-37.109375
9435,-37.109375
9436,-37.109375
9437,-39.062500
9438,-39.062500
9439,-39.062500
9440,-39.062500
9441,-41.015625
9442,-39.062500
9443,-41.015625
9444,-41.015625
9445,-41.015625
9446,-41.015625
9447,-41.015625
9448,-41.015625
9449,-41.015625
9450,-42.968750
9451,-42.968750
9452,-42.968750
9453,-42.968750
9454,-42.968750
9455,-42.968750
9456,-42.968750
9457,-42.968750
9458,-42.968750
9459,-42.968750
9460,-42.968750
9461,-42.968750
9462,-42.968750
9463,-42.968750
9464,-42.968750
9465,-42.968750
9466,-42.968750
9467,-42.968750
9468,-42.968750
9469,-42.968750
9470,-42.968750
9471,-42.968750
9472,-41.015625
9473,-41.015625
9474,-41.015625
9475,-41.015625
9476,-41.015625
9477,-39.062500
9478,-41.015625
9479,-39.062500
9480,-39.062500
9481,-39.062500
9482,-39.062500
9483,-39.062500
9484,-39.062500
9485,-37.109375
9486,-37.109375
9487,-37.109375
9488,-37.109375
9489,-35.156250
9490,-35.156250
9491,-35.156250
9492,-33.203125
9493,-33.203125
9494,-33.203125
9495,-33.203125
9496,-31.250000
9497,-31.250000
9498,-31.250000
9499,-29.296875
9500,-29.296875
9501,-29.296875
9502,-29.296875
9503,-27.343750
9504,-27.343750
9505,-25.390625
9506,-25.390625
9507,-25.390625
9508,-23.437500
9509,-23.437500
9510,-21.484375
9511,-21.484375
9512,-21.484375
9513,-19.531250
9514,-19.531250
9515,-17.578125
9516,-17.578125
9517,-17.578125
9518,-15.625000
9519,-15.625000
9520,-13.671875
9521,-13.671875
9522,-13.671875
9523,-11.718750
9524,-11.718750
9525,-9.765625
9526,-7.812500
9527,-7.812500
9528,-7.812500
9529,-7.812500
9530,-5.859375
9531,-5.859375
9532,-3.906250
9533,-3.906250
9534,-3.906250
9535,-1.953125
9536,-1.953125
9537,0.000000
9538,0.000000
9539,0.000000
9540,1.953125
9541,3.906250
9542,3.906250
9543,3.906250
9544,5.859375
9545,5.859375
9546,5.859375
9547,7.812500
9548,7.812500
9549,9.765625
9550,9.765625
9551,9.765625
9552,9.765625
9553,11.718750
9554,11.718750
9555,13.671875
9556,13.671875
9557,13.671875
9558,15.625000
9559,15.625000
9560,15.625000
9561,15.625000
9562,17.578125
9563,17.578125
9564,19.531250
9565,19.531250
9566,19.531250
9567,19.531250
9568,21.484375
9569,21.484375
9570,21.484375
9571,21.484375
9572,23.437500
9573,23.437500
9574,23.437500
9575,23.437500
9576,25.390625
9577,25.390625
9578,25.390625
9579,25.390625
9580,25.390625
9581,27.343750
9582,27.343750
9583,27.343750
9584,27.343750
9585,27.343750
9586,27.343750
9587,27.343750
9588,29.296875
9589,29.296875
9590,29.296875
9591,29.296875
9592,29.296875
9593,29.296875
9594,29.296875
9595,29.296875
9596,31.250000
9597,31.250000
9598,31.250000
9599,31.250000
9600,31.250000
9601,29.296875
9602,31.250000
9603,31.250000
9604,31.250000
9605,29.296875
9606,31.250000
9607,31.250000
9608,29.296875
9609,29.296875
9610,29.296875
9611,29.296875
9612,29.296875
9613,29.296875
9614,29.296875
9615,29.296875
9616,29.296875
9617,29.296875
9618,29.296875
9619,27.343750
9620,27.343750
9621,27.343750
9622,27.343750
9623,27.343750
9624,27.343750
9625,25.390625
9626,25.390625
9627,25.390625
9628,25.390625
9629,23.437500
9630,23.437500
9631,23.437500
9632,23.437500
9633,23.437500
9634,21.484375
9635,21.484375
9636,21.484375
9637,19.531250
9638,19.531250
9639,19.531250
9640,19.531250
9641,17.578125
9642,17.578125
9643,17.578125
9644,15.625000
9645,15.625000
9646,15.625000
9647,13.671875
9648,13.671875
9649,13.671875
9650,11.718750
9651,11.718750
9652,11.718750
9653,9.765625
9654,9.765625
9655,7.812500
9656,7.812500
9657,7.812500
9658,5.859375
9659,5.859375
9660,3.906250
9661,3.906250
9662,3.906250
9663,3.906250
9664,1.953125
9665,0.000000
9666,0.000000
9667,0.000000
9668,-1.953125
9669,-1.953125
9670,-3.906250
9671,-3.906250
9672,-3.906250
9673,-5.859375
9674,-5.859375
9675,-7.812500
9676,-7.812500
9677,-9.765625
9678,-9.765625
9679,-9.765625
9680,-11.718750
9681,-11.718750
9682,-13.671875
9683,-13.671875
9684,-15.625000
9685,-15.625000
9686,-15.625000
9687,-17.578125
9688,-17.578125
9689,-19.531250
9690,-19.531250
9691,-21.484375
9692,-21.484375
9693,-21.484375
9694,-21.484375
9695,-23.437500
9696,-23.437500
9697,-25.390625
9698,-25.390625
9699,-25.390625
9700,-27.343750
9701,-27.343750
9702,-29.296875
9703,-29.296875
9704,-29.296875
9705,-31.250000
9706,-31.250000
9707,-31.250000
9708,-33.203125
9709,-33.203125
9710,-33.203125
9711,-33.203125
9712,-35.156250
9713,-35.156250
9714,-35.156250
9715,-35.156250
9716,-37.109375
9717,-39.062500
9718,-37.109375
9719,-37.109375
9720,-39.062500
9721,-39.062500
9722,-39.062500
9723,-39.062500
9724,-39.062500
9725,-39.062500
9726,-41.015625
9727,-41.015625
9728,-41.015625
9729,-41.015625
9730,-41.015625
9731,-41.015625
9732,-41.015625
9733,-42.968750
9734,-42.968750
9735,-42.968750
9736,-42.968750
9737,-42.968750
9738,-42.968750
9739,-42.968750
9740,-42.968750
9741,-42.968750
9742,-42.968750
9743,-42.968750
9744,-42.968750
9745,-42.968750
9746,-42.968750
9747,-42.968750
9748,-42.968750
9749,-42.968750
9750,-42.968750
9751,-42.968750
9752,-41.015625
9753,-42.968750
9754,-41.015625
9755,-41.015625
9756,-41.015625
9757,-41.015625
9758,-41.015625
9759,-41.015625
9760,-41.015625
9761,-41.015625
9762,-39.062500
9763,-39.062500
9764,-39.062500
9765,-39.062500
9766,-39.062500
9767,-37.109375
9768,-39.062500
9769,-37.109375
9770,-37.109375
9771,-35.156250
9772,-35.156250
9773,-35.156250
9774,-35.156250
9775,-33.203125
9776,-33.203125
9777,-33.203125
9778,-33.203125
9779,-31.250000
9780,-31.250000
9781,-31.250000
9782,-29.296875
9783,-29.296875
9784,-29.296875
9785,-27.343750
9786,-27.343750
9787,-25.390625
9788,-25.390625
9789,-25.390625
9790,-23.437500
9791,-23.437500
9792,-23.437500
9793,-21.484375
9794,-21.484375
9795,-19.531250
9796,-19.531250
9797,-19.531250
9798,-17.578125
9799,-17.578125
9800,-17.578125
9801,-15.625000
9802,-15.625000
9803,-13.671875
9804,-13.671875
9805,-11.718750
9806,-11.718750
9807,-9.765625
9808,-9.765625
9809,-9.765625
9810,-7.812500
9811,-7.812500
9812,-7.812500
9813,-5.859375
9814,-5.859375
9815,-3.906250
9816,-3.906250
9817,-1.953125
9818,-1.953125
9819,-1.953125
9820,0.000000
9821,0.000000
9822,1.953125
9823,1.953125
9824,1.953125
9825,3.906250
9826,3.906250
9827,3.906250
9828,5.859375
9829,5.859375
9830,7.812500
9831,7.812500
9832,9.765625
9833,9.765625
9834,9.765625
9835,11.718750
9836,11.718750
9837,11.718750
9838,13.671875
9839,13.671875
9840,13.671875
9841,15.625000
9842,15.625000
9843,15.625000
9844,17.578125
9845,17.578125
9846,17.578125
9847,19.531250
9848,19.531250
9849,19.531250
9850,21.484375
9851,21.484375
9852,21.484375
9853,23.437500
9854,23.437500
9855,23.437500
9856,23.437500
9857,23.437500
9858,25.390625
9859,25.390625
9860,25.390625
9861,27.343750
9862,25.390625
9863,27.343750
9864,27.343750
9865,27.343750
9866,27.343750
9867,27.343750
9868,29.296875
9869,29.296875
9870,29.296875
9871,29.296875
9872,29.296875
9873,29.296875
9874,29.296875
9875,29.296875
9876,29.296875
9877,29.296875
9878,31.250000
9879,29.296875
9880,31.250000
9881,31.250000
9882,31.250000
9883,29.296875
9884,31.250000
9885,31.250000
9886,31.250000
9887,31.250000
9888,29.296875
9889,31.250000
9890,29.296875
9891,29.296875
9892,31.250000
9893,29.296875
9894,29.296875
9895,29.296875
9896,29.296875
9897,29.296875
9898,29.296875
9899,29.296875
9900,29.296875
9901,27.343750
9902,27.343750
9903,27.343750
9904,27.343750
9905,27.343750
9906,25.390625
9907,25.390625
9908,25.390625
9909,25.390625
9910,25.390625
9911,23.437500
9912,23.437500
9913,23.437500
9914,23.437500
9915,23.437500
9916,21.484375
9917,21.484375
9918,21.484375
9919,19.531250
9920,19.531250
9921,19.531250
9922,19.531250
9923,17.578125
9924,17.578125
9925,17.578125
9926,15.625000
9927,15.625000
9928,15.625000
9929,15.625000
9930,13.671875
9931,13.671875
9932,13.671875
9933,11.718750
9934,11.718750
9935,9.765625
9936,9.765625
9937,7.812500
9938,7.812500
9939,7.812500
9940,5.859375
9941,5.859375
9942,5.859375
9943,3.906250
9944,3.906250
9945,1.953125
9946,1.953125
9947,0.000000
9948,0.000000
9949,0.000000
9950,-1.953125
9951,-1.953125
9952,-1.953125
9953,-3.906250
9954,-5.859375
9955,-5.859375
9956,-5.859375
9957,-7.812500
9958,-7.812500
9959,-9.765625
9960,-9.765625
9961,-11.718750
9962,-11.718750
9963,-11.718750
9964,-13.671875
9965,-13.671875
9966,-13.671875
9967,-15.625000
9968,-17.578125
9969,-15.625000
9970,-17.578125
9971,-19.531250
9972,-19.531250
9973,-19.531250
9974,-21.484375
9975,-21.484375
9976,-23.437500
9977,-23.437500
9978,-23.437500
9979,-23.437500
9980,-25.390625
9981,-25.390625
9982,-27.343750
9983,-27.343750
9984,-27.343750
9985,-29.296875
9986,-29.296875
9987,-29.296875
9988,-31.250000
9989,-31.250000
9990,-31.250000
9991,-33.203125
9992,-33.203125
9993,-33.203125
9994,-33.203125
9995,-35.156250
9996,-35.156250
9997,-35.156250
9998,-35.156250
9999,-37.109375
10000,-37.109375
