Channel              :,CH1
Frequency            :,619.8Hz
Period               :,1.613ms
PK-PK                :,128.9mV
Probe attenuation    :,1X
Voltage per ADC value:,0.122070mV
Time interval        :,2.00000us

index,CH1_Voltage(mV)
1,56.640625
2,56.640625
3,56.640625
4,54.687500
5,54.687500
6,54.687500
7,54.687500
8,54.687500
9,54.687500
10,54.687500
11,54.687500
12,52.734375
13,52.734375
14,52.734375
15,52.734375
16,52.734375
17,52.734375
18,52.734375
19,52.734375
20,50.781250
21,50.781250
22,50.781250
23,50.781250
24,50.781250
25,50.781250
26,50.781250
27,48.828125
28,48.828125
29,48.828125
30,48.828125
31,48.828125
32,46.875000
33,46.875000
34,46.875000
35,46.875000
36,46.875000
37,46.875000
38,46.875000
39,44.921875
40,44.921875
41,44.921875
42,44.921875
43,44.921875
44,44.921875
45,42.968750
46,42.968750
47,42.968750
48,42.968750
49,41.015625
50,41.015625
51,41.015625
52,41.015625
53,41.015625
54,39.062500
55,39.062500
56,39.062500
57,39.062500
58,39.062500
59,39.062500
60,37.109375
61,37.109375
62,39.062500
63,37.109375
64,37.109375
65,37.109375
66,35.156250
67,35.156250
68,35.156250
69,35.156250
70,35.156250
71,35.156250
72,33.203125
73,35.156250
74,33.203125
75,33.203125
76,31.250000
77,31.250000
78,31.250000
79,29.296875
80,31.250000
81,31.250000
82,31.250000
83,29.296875
84,29.296875
85,27.343750
86,29.296875
87,27.343750
88,27.343750
89,27.343750
90,25.390625
91,25.390625
92,25.390625
93,25.390625
94,25.390625
95,25.390625
96,23.437500
97,23.437500
98,23.437500
99,21.484375
100,21.484375
101,21.484375
102,21.484375
103,21.484375
104,19.531250
105,19.531250
106,19.531250
107,19.531250
108,19.531250
109,17.578125
110,17.578125
111,17.578125
112,17.578125
113,15.625000
114,15.625000
115,15.625000
116,15.625000
117,13.671875
118,13.671875
119,13.671875
120,13.671875
121,13.671875
122,11.718750
123,11.718750
124,11.718750
125,11.718750
126,9.765625
127,9.765625
128,9.765625
129,9.765625
130,9.765625
131,7.812500
132,7.812500
133,7.812500
134,5.859375
135,7.812500
136,7.812500
137,5.859375
138,5.859375
139,3.906250
140,3.906250
141,3.906250
142,3.906250
143,1.953125
144,1.953125
145,1.953125
146,1.953125
147,0.000000
148,0.000000
149,0.000000
150,-1.953125
151,0.000000
152,0.000000
153,-1.953125
154,-1.953125
155,-3.906250
156,-3.906250
157,-3.906250
158,-3.906250
159,-5.859375
160,-5.859375
161,-5.859375
162,-5.859375
163,-7.812500
164,-7.812500
165,-7.812500
166,-7.812500
167,-9.765625
168,-9.765625
169,-9.765625
170,-11.718750
171,-11.718750
172,-11.718750
173,-11.718750
174,-11.718750
175,-11.718750
176,-13.671875
177,-13.671875
178,-13.671875
179,-15.625000
180,-15.625000
181,-15.625000
182,-15.625000
183,-15.625000
184,-17.578125
185,-17.578125
186,-17.578125
187,-17.578125
188,-19.531250
189,-17.578125
190,-19.531250
191,-19.531250
192,-19.531250
193,-19.531250
194,-21.484375
195,-19.531250
196,-21.484375
197,-23.437500
198,-23.437500
199,-23.437500
200,-23.437500
201,-23.437500
202,-23.437500
203,-25.390625
204,-25.390625
205,-25.390625
206,-25.390625
207,-27.343750
208,-27.343750
209,-27.343750
210,-27.343750
211,-27.343750
212,-27.343750
213,-29.296875
214,-29.296875
215,-29.296875
216,-29.296875
217,-31.250000
218,-31.250000
219,-31.250000
220,-31.250000
221,-31.250000
222,-33.203125
223,-33.203125
224,-31.250000
225,-33.203125
226,-33.203125
227,-35.156250
228,-35.156250
229,-33.203125
230,-35.156250
231,-37.109375
232,-35.156250
233,-37.109375
234,-37.109375
235,-37.109375
236,-37.109375
237,-37.109375
238,-39.062500
239,-39.062500
240,-39.062500
241,-39.062500
242,-39.062500
243,-39.062500
244,-39.062500
245,-39.062500
246,-41.015625
247,-41.015625
248,-41.015625
249,-41.015625
250,-41.015625
251,-42.968750
252,-42.968750
253,-42.968750
254,-42.968750
255,-42.968750
256,-42.968750
257,-44.921875
258,-44.921875
259,-44.921875
260,-44.921875
261,-44.921875
262,-39.062500
263,-44.921875
264,-44.921875
265,-46.875000
266,-46.875000
267,-46.875000
268,-46.875000
269,-46.875000
270,-46.875000
271,-46.875000
272,-46.875000
273,-46.875000
274,-48.828125
275,-48.828125
276,-48.828125
277,-48.828125
278,-48.828125
279,-48.828125
280,-48.828125
281,-48.828125
282,-50.781250
283,-50.781250
284,-50.781250
285,-50.781250
286,-50.781250
287,-50.781250
288,-50.781250
289,-50.781250
290,-50.781250
291,-52.734375
292,-50.781250
293,-52.734375
294,-52.734375
295,-52.734375
296,-52.734375
297,-52.734375
298,-52.734375
299,-52.734375
300,-52.734375
301,-52.734375
302,-52.734375
303,-54.687500
304,-52.734375
305,-52.734375
306,-52.734375
307,-54.687500
308,-54.687500
309,-52.734375
310,-54.687500
311,-54.687500
312,-54.687500
313,-54.687500
314,-54.687500
315,-54.687500
316,-54.687500
317,-54.687500
318,-54.687500
319,-54.687500
320,-54.687500
321,-54.687500
322,-54.687500
323,-54.687500
324,-54.687500
325,-54.687500
326,-54.687500
327,-54.687500
328,-54.687500
329,-52.734375
330,-54.687500
331,-54.687500
332,-54.687500
333,-54.687500
334,-54.687500
335,-54.687500
336,-54.687500
337,-54.687500
338,-54.687500
339,-54.687500
340,-54.687500
341,-56.640625
342,-54.687500
343,-54.687500
344,-54.687500
345,-54.687500
346,-54.687500
347,-54.687500
348,-54.687500
349,-54.687500
350,-54.687500
351,-54.687500
352,-54.687500
353,-54.687500
354,-54.687500
355,-54.687500
356,-54.687500
357,-54.687500
358,-54.687500
359,-54.687500
360,-54.687500
361,-54.687500
362,-54.687500
363,-54.687500
364,-54.687500
365,-54.687500
366,-54.687500
367,-52.734375
368,-52.734375
369,-52.734375
370,-52.734375
371,-54.687500
372,-52.734375
373,-52.734375
374,-52.734375
375,-52.734375
376,-52.734375
377,-52.734375
378,-52.734375
379,-52.734375
380,-52.734375
381,-50.781250
382,-50.781250
383,-50.781250
384,-50.781250
385,-50.781250
386,-50.781250
387,-50.781250
388,-50.781250
389,-48.828125
390,-48.828125
391,-50.781250
392,-48.828125
393,-48.828125
394,-48.828125
395,-48.828125
396,-48.828125
397,-48.828125
398,-46.875000
399,-46.875000
400,-48.828125
401,-46.875000
402,-46.875000
403,-46.875000
404,-46.875000
405,-46.875000
406,-46.875000
407,-44.921875
408,-44.921875
409,-44.921875
410,-44.921875
411,-44.921875
412,-44.921875
413,-44.921875
414,-44.921875
415,-44.921875
416,-44.921875
417,-42.968750
418,-42.968750
419,-42.968750
420,-42.968750
421,-42.968750
422,-41.015625
423,-41.015625
424,-41.015625
425,-41.015625
426,-41.015625
427,-41.015625
428,-41.015625
429,-39.062500
430,-39.062500
431,-39.062500
432,-39.062500
433,-39.062500
434,-37.109375
435,-37.109375
436,-39.062500
437,-37.109375
438,-37.109375
439,-37.109375
440,-37.109375
441,-37.109375
442,-35.156250
443,-35.156250
444,-35.156250
445,-35.156250
446,-33.203125
447,-35.156250
448,-33.203125
449,-33.203125
450,-33.203125
451,-33.203125
452,-31.250000
453,-31.250000
454,-31.250000
455,-31.250000
456,-29.296875
457,-29.296875
458,-29.296875
459,-29.296875
460,-29.296875
461,-27.343750
462,-27.343750
463,-27.343750
464,-27.343750
465,-27.343750
466,-27.343750
467,-25.390625
468,-25.390625
469,-25.390625
470,-25.390625
471,-23.437500
472,-25.390625
473,-23.437500
474,-23.437500
475,-23.437500
476,-21.484375
477,-21.484375
478,-21.484375
479,-21.484375
480,-19.531250
481,-19.531250
482,-19.531250
483,-19.531250
484,-19.531250
485,-19.531250
486,-17.578125
487,-17.578125
488,-17.578125
489,-17.578125
490,-17.578125
491,-15.625000
492,-15.625000
493,-15.625000
494,-13.671875
495,-15.625000
496,-13.671875
497,-13.671875
498,-13.671875
499,-13.671875
500,-11.718750
501,-11.718750
502,-11.718750
503,-11.718750
504,-11.718750
505,-9.765625
506,-11.718750
507,-9.765625
508,-7.812500
509,-7.812500
510,-7.812500
511,-9.765625
512,-5.859375
513,-5.859375
514,-5.859375
515,-5.859375
516,-9.765625
517,-3.906250
518,-3.906250
519,-3.906250
520,-1.953125
521,-1.953125
522,-1.953125
523,-1.953125
524,-1.953125
525,-1.953125
526,0.000000
527,0.000000
528,0.000000
529,1.953125
530,0.000000
531,1.953125
532,1.953125
533,1.953125
534,3.906250
535,3.906250
536,3.906250
537,5.859375
538,3.906250
539,3.906250
540,5.859375
541,5.859375
542,5.859375
543,5.859375
544,7.812500
545,7.812500
546,7.812500
547,9.765625
548,7.812500
549,9.765625
550,9.765625
551,9.765625
552,11.718750
553,11.718750
554,11.718750
555,11.718750
556,13.671875
557,13.671875
558,13.671875
559,15.625000
560,13.671875
561,13.671875
562,15.625000
563,15.625000
564,15.625000
565,15.625000
566,17.578125
567,17.578125
568,17.578125
569,19.531250
570,19.531250
571,19.531250
572,19.531250
573,19.531250
574,21.484375
575,21.484375
576,21.484375
577,21.484375
578,23.437500
579,23.437500
580,23.437500
581,23.437500
582,23.437500
583,25.390625
584,25.390625
585,25.390625
586,25.390625
587,27.343750
588,29.296875
589,27.343750
590,27.343750
591,27.343750
592,29.296875
593,29.296875
594,29.296875
595,29.296875
596,29.296875
597,29.296875
598,31.250000
599,31.250000
600,31.250000
601,31.250000
602,33.203125
603,33.203125
604,33.203125
605,33.203125
606,33.203125
607,35.156250
608,35.156250
609,35.156250
610,35.156250
611,35.156250
612,37.109375
613,37.109375
614,37.109375
615,37.109375
616,37.109375
617,37.109375
618,39.062500
619,37.109375
620,39.062500
621,39.062500
622,39.062500
623,39.062500
624,39.062500
625,41.015625
626,41.015625
627,41.015625
628,41.015625
629,41.015625
630,42.968750
631,42.968750
632,42.968750
633,42.968750
634,42.968750
635,44.921875
636,44.921875
637,44.921875
638,44.921875
639,44.921875
640,44.921875
641,46.875000
642,46.875000
643,46.875000
644,46.875000
645,46.875000
646,46.875000
647,46.875000
648,48.828125
649,48.828125
650,48.828125
651,48.828125
652,48.828125
653,48.828125
654,48.828125
655,50.781250
656,50.781250
657,50.781250
658,50.781250
659,50.781250
660,52.734375
661,52.734375
662,50.781250
663,52.734375
664,52.734375
665,52.734375
666,52.734375
667,54.687500
668,52.734375
669,52.734375
670,52.734375
671,54.687500
672,54.687500
673,54.687500
674,54.687500
675,54.687500
676,54.687500
677,54.687500
678,54.687500
679,56.640625
680,56.640625
681,56.640625
682,56.640625
683,56.640625
684,56.640625
685,56.640625
686,56.640625
687,56.640625
688,58.593750
689,56.640625
690,58.593750
691,56.640625
692,58.593750
693,58.593750
694,58.593750
695,58.593750
696,58.593750
697,58.593750
698,58.593750
699,58.593750
700,58.593750
701,60.546875
702,60.546875
703,60.546875
704,58.593750
705,60.546875
706,60.546875
707,58.593750
708,60.546875
709,60.546875
710,60.546875
711,58.593750
712,60.546875
713,60.546875
714,62.500000
715,60.546875
716,62.500000
717,60.546875
718,62.500000
719,62.500000
720,62.500000
721,62.500000
722,62.500000
723,62.500000
724,62.500000
725,62.500000
726,60.546875
727,62.500000
728,62.500000
729,62.500000
730,62.500000
731,62.500000
732,62.500000
733,62.500000
734,62.500000
735,62.500000
736,62.500000
737,60.546875
738,62.500000
739,62.500000
740,62.500000
741,62.500000
742,62.500000
743,62.500000
744,62.500000
745,62.500000
746,62.500000
747,62.500000
748,62.500000
749,62.500000
750,60.546875
751,62.500000
752,62.500000
753,62.500000
754,62.500000
755,62.500000
756,62.500000
757,62.500000
758,62.500000
759,62.500000
760,62.500000
761,62.500000
762,62.500000
763,62.500000
764,62.500000
765,60.546875
766,62.500000
767,60.546875
768,60.546875
769,62.500000
770,60.546875
771,62.500000
772,60.546875
773,62.500000
774,60.546875
775,60.546875
776,60.546875
777,60.546875
778,62.500000
779,60.546875
780,60.546875
781,60.546875
782,60.546875
783,60.546875
784,60.546875
785,60.546875
786,58.593750
787,58.593750
788,60.546875
789,58.593750
790,58.593750
791,58.593750
792,58.593750
793,58.593750
794,58.593750
795,58.593750
796,58.593750
797,58.593750
798,58.593750
799,56.640625
800,58.593750
801,56.640625
802,56.640625
803,56.640625
804,56.640625
805,56.640625
806,54.687500
807,56.640625
808,56.640625
809,54.687500
810,54.687500
811,54.687500
812,54.687500
813,54.687500
814,54.687500
815,54.687500
816,54.687500
817,52.734375
818,52.734375
819,52.734375
820,52.734375
821,52.734375
822,52.734375
823,52.734375
824,52.734375
825,50.781250
826,50.781250
827,52.734375
828,50.781250
829,50.781250
830,50.781250
831,50.781250
832,50.781250
833,48.828125
834,48.828125
835,48.828125
836,48.828125
837,48.828125
838,48.828125
839,48.828125
840,48.828125
841,46.875000
842,46.875000
843,46.875000
844,46.875000
845,46.875000
846,44.921875
847,46.875000
848,44.921875
849,44.921875
850,44.921875
851,44.921875
852,44.921875
853,42.968750
854,42.968750
855,42.968750
856,42.968750
857,42.968750
858,42.968750
859,41.015625
860,41.015625
861,39.062500
862,41.015625
863,41.015625
864,39.062500
865,39.062500
866,39.062500
867,39.062500
868,39.062500
869,37.109375
870,37.109375
871,37.109375
872,35.156250
873,35.156250
874,35.156250
875,35.156250
876,35.156250
877,35.156250
878,35.156250
879,33.203125
880,33.203125
881,33.203125
882,33.203125
883,31.250000
884,31.250000
885,31.250000
886,31.250000
887,31.250000
888,31.250000
889,29.296875
890,29.296875
891,29.296875
892,29.296875
893,27.343750
894,27.343750
895,27.343750
896,27.343750
897,27.343750
898,27.343750
899,25.390625
900,25.390625
901,25.390625
902,25.390625
903,23.437500
904,23.437500
905,23.437500
906,23.437500
907,23.437500
908,21.484375
909,21.484375
910,21.484375
911,19.531250
912,19.531250
913,19.531250
914,19.531250
915,19.531250
916,17.578125
917,17.578125
918,17.578125
919,15.625000
920,17.578125
921,15.625000
922,17.578125
923,15.625000
924,15.625000
925,13.671875
926,13.671875
927,13.671875
928,13.671875
929,11.718750
930,11.718750
931,11.718750
932,11.718750
933,9.765625
934,9.765625
935,7.812500
936,9.765625
937,7.812500
938,7.812500
939,7.812500
940,7.812500
941,5.859375
942,5.859375
943,5.859375
944,5.859375
945,3.906250
946,3.906250
947,3.906250
948,1.953125
949,1.953125
950,1.953125
951,1.953125
952,1.953125
953,1.953125
954,0.000000
955,0.000000
956,0.000000
957,0.000000
958,-1.953125
959,-1.953125
960,-1.953125
961,-1.953125
962,-1.953125
963,-3.906250
964,-3.906250
965,-3.906250
966,-5.859375
967,-5.859375
968,-5.859375
969,-5.859375
970,-5.859375
971,-7.812500
972,-7.812500
973,-7.812500
974,-9.765625
975,-9.765625
976,-9.765625
977,-9.765625
978,-11.718750
979,-11.718750
980,-11.718750
981,-11.718750
982,-11.718750
983,-13.671875
984,-13.671875
985,-13.671875
986,-13.671875
987,-15.625000
988,-15.625000
989,-15.625000
990,-15.625000
991,-15.625000
992,-17.578125
993,-17.578125
994,-17.578125
995,-17.578125
996,-17.578125
997,-19.531250
998,-19.531250
999,-19.531250
1000,-19.531250
1001,-21.484375
1002,-21.484375
1003,-21.484375
1004,-21.484375
1005,-23.437500
1006,-23.437500
1007,-23.437500
1008,-23.437500
1009,-25.390625
1010,-25.390625
1011,-25.390625
1012,-25.390625
1013,-25.390625
1014,-27.343750
1015,-27.343750
1016,-27.343750
1017,-27.343750
1018,-29.296875
1019,-29.296875
1020,-29.296875
1021,-29.296875
1022,-29.296875
1023,-29.296875
1024,-31.250000
1025,-31.250000
1026,-31.250000
1027,-31.250000
1028,-31.250000
1029,-31.250000
1030,-31.250000
1031,-33.203125
1032,-33.203125
1033,-33.203125
1034,-35.156250
1035,-33.203125
1036,-35.156250
1037,-35.156250
1038,-35.156250
1039,-35.156250
1040,-35.156250
1041,-35.156250
1042,-37.109375
1043,-37.109375
1044,-37.109375
1045,-37.109375
1046,-37.109375
1047,-39.062500
1048,-39.062500
1049,-39.062500
1050,-39.062500
1051,-39.062500
1052,-41.015625
1053,-41.015625
1054,-41.015625
1055,-41.015625
1056,-41.015625
1057,-41.015625
1058,-41.015625
1059,-42.968750
1060,-42.968750
1061,-42.968750
1062,-42.968750
1063,-42.968750
1064,-44.921875
1065,-44.921875
1066,-44.921875
1067,-44.921875
1068,-44.921875
1069,-44.921875
1070,-44.921875
1071,-44.921875
1072,-46.875000
1073,-46.875000
1074,-46.875000
1075,-46.875000
1076,-46.875000
1077,-46.875000
1078,-46.875000
1079,-48.828125
1080,-46.875000
1081,-48.828125
1082,-48.828125
1083,-48.828125
1084,-48.828125
1085,-48.828125
1086,-48.828125
1087,-48.828125
1088,-50.781250
1089,-48.828125
1090,-50.781250
1091,-50.781250
1092,-50.781250
1093,-52.734375
1094,-50.781250
1095,-50.781250
1096,-50.781250
1097,-50.781250
1098,-50.781250
1099,-52.734375
1100,-52.734375
1101,-52.734375
1102,-50.781250
1103,-52.734375
1104,-52.734375
1105,-52.734375
1106,-52.734375
1107,-52.734375
1108,-52.734375
1109,-54.687500
1110,-52.734375
1111,-52.734375
1112,-52.734375
1113,-52.734375
1114,-54.687500
1115,-52.734375
1116,-52.734375
1117,-54.687500
1118,-54.687500
1119,-52.734375
1120,-54.687500
1121,-54.687500
1122,-54.687500
1123,-54.687500
1124,-54.687500
1125,-54.687500
1126,-54.687500
1127,-54.687500
1128,-54.687500
1129,-54.687500
1130,-54.687500
1131,-56.640625
1132,-54.687500
1133,-54.687500
1134,-54.687500
1135,-56.640625
1136,-56.640625
1137,-54.687500
1138,-54.687500
1139,-56.640625
1140,-56.640625
1141,-54.687500
1142,-54.687500
1143,-56.640625
1144,-54.687500
1145,-54.687500
1146,-54.687500
1147,-54.687500
1148,-56.640625
1149,-54.687500
1150,-54.687500
1151,-56.640625
1152,-54.687500
1153,-54.687500
1154,-54.687500
1155,-54.687500
1156,-54.687500
1157,-54.687500
1158,-54.687500
1159,-54.687500
1160,-54.687500
1161,-54.687500
1162,-54.687500
1163,-54.687500
1164,-54.687500
1165,-54.687500
1166,-54.687500
1167,-54.687500
1168,-54.687500
1169,-54.687500
1170,-52.734375
1171,-54.687500
1172,-54.687500
1173,-52.734375
1174,-52.734375
1175,-52.734375
1176,-54.687500
1177,-52.734375
1178,-52.734375
1179,-52.734375
1180,-52.734375
1181,-52.734375
1182,-52.734375
1183,-52.734375
1184,-52.734375
1185,-50.781250
1186,-52.734375
1187,-52.734375
1188,-50.781250
1189,-50.781250
1190,-50.781250
1191,-52.734375
1192,-50.781250
1193,-50.781250
1194,-50.781250
1195,-50.781250
1196,-50.781250
1197,-48.828125
1198,-50.781250
1199,-50.781250
1200,-48.828125
1201,-48.828125
1202,-48.828125
1203,-48.828125
1204,-46.875000
1205,-48.828125
1206,-48.828125
1207,-48.828125
1208,-48.828125
1209,-46.875000
1210,-46.875000
1211,-46.875000
1212,-46.875000
1213,-46.875000
1214,-46.875000
1215,-46.875000
1216,-44.921875
1217,-44.921875
1218,-44.921875
1219,-44.921875
1220,-44.921875
1221,-44.921875
1222,-44.921875
1223,-42.968750
1224,-42.968750
1225,-42.968750
1226,-42.968750
1227,-42.968750
1228,-42.968750
1229,-41.015625
1230,-41.015625
1231,-42.968750
1232,-41.015625
1233,-39.062500
1234,-41.015625
1235,-41.015625
1236,-39.062500
1237,-39.062500
1238,-39.062500
1239,-39.062500
1240,-39.062500
1241,-37.109375
1242,-37.109375
1243,-37.109375
1244,-37.109375
1245,-37.109375
1246,-37.109375
1247,-37.109375
1248,-35.156250
1249,-35.156250
1250,-35.156250
1251,-35.156250
1252,-35.156250
1253,-35.156250
1254,-33.203125
1255,-33.203125
1256,-33.203125
1257,-33.203125
1258,-33.203125
1259,-31.250000
1260,-31.250000
1261,-31.250000
1262,-31.250000
1263,-31.250000
1264,-31.250000
1265,-29.296875
1266,-29.296875
1267,-29.296875
1268,-27.343750
1269,-29.296875
1270,-27.343750
1271,-27.343750
1272,-27.343750
1273,-27.343750
1274,-25.390625
1275,-25.390625
1276,-25.390625
1277,-25.390625
1278,-25.390625
1279,-25.390625
1280,-23.437500
1281,-23.437500
1282,-23.437500
1283,-23.437500
1284,-21.484375
1285,-21.484375
1286,-23.437500
1287,-21.484375
1288,-19.531250
1289,-19.531250
1290,-19.531250
1291,-19.531250
1292,-19.531250
1293,-17.578125
1294,-17.578125
1295,-17.578125
1296,-19.531250
1297,-15.625000
1298,-15.625000
1299,-15.625000
1300,-15.625000
1301,-13.671875
1302,-15.625000
1303,-13.671875
1304,-15.625000
1305,-13.671875
1306,-13.671875
1307,-11.718750
1308,-11.718750
1309,-11.718750
1310,-11.718750
1311,-11.718750
1312,-9.765625
1313,-9.765625
1314,-9.765625
1315,-7.812500
1316,-7.812500
1317,-7.812500
1318,-7.812500
1319,-7.812500
1320,-5.859375
1321,-5.859375
1322,-5.859375
1323,-5.859375
1324,-3.906250
1325,-3.906250
1326,-3.906250
1327,-3.906250
1328,-3.906250
1329,-3.906250
1330,-1.953125
1331,-1.953125
1332,-1.953125
1333,-1.953125
1334,0.000000
1335,0.000000
1336,5.859375
1337,0.000000
1338,1.953125
1339,1.953125
1340,1.953125
1341,1.953125
1342,3.906250
1343,3.906250
1344,3.906250
1345,3.906250
1346,3.906250
1347,5.859375
1348,5.859375
1349,5.859375
1350,5.859375
1351,7.812500
1352,7.812500
1353,7.812500
1354,7.812500
1355,9.765625
1356,9.765625
1357,9.765625
1358,9.765625
1359,9.765625
1360,11.718750
1361,11.718750
1362,13.671875
1363,11.718750
1364,13.671875
1365,13.671875
1366,13.671875
1367,15.625000
1368,13.671875
1369,15.625000
1370,15.625000
1371,15.625000
1372,17.578125
1373,17.578125
1374,17.578125
1375,17.578125
1376,19.531250
1377,17.578125
1378,17.578125
1379,19.531250
1380,21.484375
1381,21.484375
1382,21.484375
1383,21.484375
1384,21.484375
1385,23.437500
1386,23.437500
1387,23.437500
1388,23.437500
1389,23.437500
1390,23.437500
1391,25.390625
1392,25.390625
1393,25.390625
1394,27.343750
1395,25.390625
1396,27.343750
1397,27.343750
1398,27.343750
1399,27.343750
1400,29.296875
1401,29.296875
1402,29.296875
1403,31.250000
1404,31.250000
1405,31.250000
1406,31.250000
1407,31.250000
1408,31.250000
1409,31.250000
1410,31.250000
1411,33.203125
1412,33.203125
1413,33.203125
1414,33.203125
1415,35.156250
1416,35.156250
1417,35.156250
1418,35.156250
1419,35.156250
1420,37.109375
1421,37.109375
1422,37.109375
1423,37.109375
1424,37.109375
1425,39.062500
1426,39.062500
1427,39.062500
1428,39.062500
1429,41.015625
1430,41.015625
1431,41.015625
1432,41.015625
1433,41.015625
1434,41.015625
1435,41.015625
1436,41.015625
1437,42.968750
1438,42.968750
1439,42.968750
1440,42.968750
1441,42.968750
1442,44.921875
1443,44.921875
1444,44.921875
1445,44.921875
1446,44.921875
1447,44.921875
1448,44.921875
1449,46.875000
1450,46.875000
1451,46.875000
1452,46.875000
1453,46.875000
1454,48.828125
1455,48.828125
1456,48.828125
1457,48.828125
1458,48.828125
1459,48.828125
1460,48.828125
1461,50.781250
1462,50.781250
1463,50.781250
1464,50.781250
1465,50.781250
1466,50.781250
1467,50.781250
1468,50.781250
1469,50.781250
1470,52.734375
1471,52.734375
1472,52.734375
1473,52.734375
1474,52.734375
1475,46.875000
1476,54.687500
1477,54.687500
1478,54.687500
1479,54.687500
1480,54.687500
1481,54.687500
1482,54.687500
1483,54.687500
1484,56.640625
1485,56.640625
1486,56.640625
1487,56.640625
1488,56.640625
1489,56.640625
1490,56.640625
1491,56.640625
1492,56.640625
1493,56.640625
1494,56.640625
1495,56.640625
1496,58.593750
1497,56.640625
1498,58.593750
1499,58.593750
1500,58.593750
1501,60.546875
1502,58.593750
1503,58.593750
1504,58.593750
1505,58.593750
1506,58.593750
1507,58.593750
1508,60.546875
1509,60.546875
1510,60.546875
1511,60.546875
1512,60.546875
1513,60.546875
1514,60.546875
1515,60.546875
1516,60.546875
1517,60.546875
1518,62.500000
1519,62.500000
1520,60.546875
1521,60.546875
1522,58.593750
1523,60.546875
1524,60.546875
1525,60.546875
1526,60.546875
1527,60.546875
1528,62.500000
1529,62.500000
1530,62.500000
1531,62.500000
1532,62.500000
1533,60.546875
1534,62.500000
1535,62.500000
1536,64.453125
1537,62.500000
1538,62.500000
1539,62.500000
1540,62.500000
1541,64.453125
1542,62.500000
1543,62.500000
1544,62.500000
1545,62.500000
1546,62.500000
1547,62.500000
1548,62.500000
1549,62.500000
1550,62.500000
1551,62.500000
1552,64.453125
1553,62.500000
1554,62.500000
1555,62.500000
1556,62.500000
1557,62.500000
1558,62.500000
1559,62.500000
1560,62.500000
1561,62.500000
1562,62.500000
1563,62.500000
1564,62.500000
1565,62.500000
1566,62.500000
1567,62.500000
1568,62.500000
1569,62.500000
1570,62.500000
1571,62.500000
1572,62.500000
1573,62.500000
1574,60.546875
1575,60.546875
1576,62.500000
1577,62.500000
1578,62.500000
1579,60.546875
1580,60.546875
1581,60.546875
1582,60.546875
1583,60.546875
1584,60.546875
1585,60.546875
1586,60.546875
1587,60.546875
1588,60.546875
1589,58.593750
1590,60.546875
1591,58.593750
1592,58.593750
1593,60.546875
1594,58.593750
1595,58.593750
1596,58.593750
1597,58.593750
1598,58.593750
1599,58.593750
1600,58.593750
1601,58.593750
1602,58.593750
1603,58.593750
1604,58.593750
1605,56.640625
1606,58.593750
1607,58.593750
1608,56.640625
1609,56.640625
1610,56.640625
1611,56.640625
1612,56.640625
1613,56.640625
1614,56.640625
1615,56.640625
1616,56.640625
1617,54.687500
1618,54.687500
1619,54.687500
1620,54.687500
1621,54.687500
1622,54.687500
1623,54.687500
1624,52.734375
1625,54.687500
1626,52.734375
1627,52.734375
1628,52.734375
1629,52.734375
1630,52.734375
1631,52.734375
1632,52.734375
1633,52.734375
1634,50.781250
1635,50.781250
1636,50.781250
1637,50.781250
1638,50.781250
1639,48.828125
1640,50.781250
1641,48.828125
1642,48.828125
1643,48.828125
1644,48.828125
1645,46.875000
1646,48.828125
1647,46.875000
1648,46.875000
1649,46.875000
1650,46.875000
1651,46.875000
1652,44.921875
1653,46.875000
1654,44.921875
1655,44.921875
1656,44.921875
1657,44.921875
1658,42.968750
1659,42.968750
1660,42.968750
1661,42.968750
1662,42.968750
1663,42.968750
1664,41.015625
1665,42.968750
1666,42.968750
1667,41.015625
1668,41.015625
1669,41.015625
1670,41.015625
1671,39.062500
1672,39.062500
1673,42.968750
1674,39.062500
1675,39.062500
1676,39.062500
1677,37.109375
1678,37.109375
1679,37.109375
1680,37.109375
1681,37.109375
1682,33.203125
1683,35.156250
1684,35.156250
1685,33.203125
1686,35.156250
1687,33.203125
1688,33.203125
1689,33.203125
1690,33.203125
1691,31.250000
1692,31.250000
1693,31.250000
1694,31.250000
1695,31.250000
1696,31.250000
1697,29.296875
1698,29.296875
1699,29.296875
1700,27.343750
1701,27.343750
1702,27.343750
1703,27.343750
1704,27.343750
1705,25.390625
1706,25.390625
1707,25.390625
1708,23.437500
1709,23.437500
1710,23.437500
1711,23.437500
1712,21.484375
1713,23.437500
1714,21.484375
1715,21.484375
1716,21.484375
1717,21.484375
1718,19.531250
1719,19.531250
1720,19.531250
1721,19.531250
1722,19.531250
1723,17.578125
1724,17.578125
1725,17.578125
1726,15.625000
1727,15.625000
1728,15.625000
1729,15.625000
1730,15.625000
1731,15.625000
1732,13.671875
1733,13.671875
1734,13.671875
1735,13.671875
1736,11.718750
1737,11.718750
1738,11.718750
1739,11.718750
1740,11.718750
1741,9.765625
1742,9.765625
1743,9.765625
1744,9.765625
1745,9.765625
1746,7.812500
1747,7.812500
1748,3.906250
1749,5.859375
1750,5.859375
1751,5.859375
1752,5.859375
1753,5.859375
1754,3.906250
1755,3.906250
1756,1.953125
1757,1.953125
1758,1.953125
1759,1.953125
1760,1.953125
1761,0.000000
1762,0.000000
1763,0.000000
1764,0.000000
1765,-1.953125
1766,-1.953125
1767,-1.953125
1768,-1.953125
1769,-3.906250
1770,-3.906250
1771,-3.906250
1772,-3.906250
1773,-3.906250
1774,-5.859375
1775,-5.859375
1776,-5.859375
1777,-7.812500
1778,-7.812500
1779,-7.812500
1780,-7.812500
1781,-7.812500
1782,-9.765625
1783,-9.765625
1784,-9.765625
1785,-9.765625
1786,-11.718750
1787,-11.718750
1788,-11.718750
1789,-11.718750
1790,-11.718750
1791,-13.671875
1792,-13.671875
1793,-13.671875
1794,-15.625000
1795,-15.625000
1796,-15.625000
1797,-15.625000
1798,-15.625000
1799,-17.578125
1800,-17.578125
1801,-19.531250
1802,-17.578125
1803,-19.531250
1804,-19.531250
1805,-19.531250
1806,-19.531250
1807,-19.531250
1808,-19.531250
1809,-21.484375
1810,-21.484375
1811,-21.484375
1812,-21.484375
1813,-23.437500
1814,-23.437500
1815,-23.437500
1816,-23.437500
1817,-23.437500
1818,-25.390625
1819,-25.390625
1820,-25.390625
1821,-25.390625
1822,-25.390625
1823,-27.343750
1824,-27.343750
1825,-27.343750
1826,-27.343750
1827,-27.343750
1828,-29.296875
1829,-29.296875
1830,-29.296875
1831,-29.296875
1832,-29.296875
1833,-31.250000
1834,-31.250000
1835,-31.250000
1836,-31.250000
1837,-31.250000
1838,-33.203125
1839,-33.203125
1840,-33.203125
1841,-33.203125
1842,-35.156250
1843,-35.156250
1844,-35.156250
1845,-35.156250
1846,-35.156250
1847,-35.156250
1848,-37.109375
1849,-37.109375
1850,-37.109375
1851,-39.062500
1852,-39.062500
1853,-37.109375
1854,-39.062500
1855,-39.062500
1856,-39.062500
1857,-39.062500
1858,-41.015625
1859,-41.015625
1860,-41.015625
1861,-41.015625
1862,-41.015625
1863,-41.015625
1864,-41.015625
1865,-41.015625
1866,-41.015625
1867,-42.968750
1868,-42.968750
1869,-42.968750
1870,-42.968750
1871,-42.968750
1872,-44.921875
1873,-42.968750
1874,-44.921875
1875,-44.921875
1876,-44.921875
1877,-44.921875
1878,-44.921875
1879,-44.921875
1880,-46.875000
1881,-46.875000
1882,-46.875000
1883,-46.875000
1884,-46.875000
1885,-46.875000
1886,-46.875000
1887,-46.875000
1888,-48.828125
1889,-48.828125
1890,-48.828125
1891,-48.828125
1892,-48.828125
1893,-48.828125
1894,-48.828125
1895,-48.828125
1896,-50.781250
1897,-50.781250
1898,-50.781250
1899,-50.781250
1900,-50.781250
1901,-50.781250
1902,-50.781250
1903,-50.781250
1904,-50.781250
1905,-52.734375
1906,-52.734375
1907,-52.734375
1908,-52.734375
1909,-52.734375
1910,-52.734375
1911,-52.734375
1912,-52.734375
1913,-52.734375
1914,-52.734375
1915,-52.734375
1916,-52.734375
1917,-52.734375
1918,-52.734375
1919,-54.687500
1920,-52.734375
1921,-54.687500
1922,-54.687500
1923,-52.734375
1924,-54.687500
1925,-54.687500
1926,-54.687500
1927,-54.687500
1928,-54.687500
1929,-54.687500
1930,-54.687500
1931,-54.687500
1932,-54.687500
1933,-54.687500
1934,-54.687500
1935,-56.640625
1936,-54.687500
1937,-54.687500
1938,-54.687500
1939,-54.687500
1940,-54.687500
1941,-54.687500
1942,-54.687500
1943,-54.687500
1944,-54.687500
1945,-54.687500
1946,-54.687500
1947,-54.687500
1948,-54.687500
1949,-56.640625
1950,-54.687500
1951,-54.687500
1952,-54.687500
1953,-54.687500
1954,-54.687500
1955,-54.687500
1956,-54.687500
1957,-56.640625
1958,-56.640625
1959,-54.687500
1960,-54.687500
1961,-54.687500
1962,-54.687500
1963,-54.687500
1964,-54.687500
1965,-54.687500
1966,-54.687500
1967,-54.687500
1968,-54.687500
1969,-54.687500
1970,-54.687500
1971,-54.687500
1972,-54.687500
1973,-54.687500
1974,-54.687500
1975,-54.687500
1976,-54.687500
1977,-54.687500
1978,-54.687500
1979,-54.687500
1980,-54.687500
1981,-52.734375
1982,-52.734375
1983,-54.687500
1984,-52.734375
1985,-52.734375
1986,-52.734375
1987,-52.734375
1988,-52.734375
1989,-52.734375
1990,-52.734375
1991,-52.734375
1992,-52.734375
1993,-52.734375
1994,-52.734375
1995,-50.781250
1996,-50.781250
1997,-50.781250
1998,-50.781250
1999,-50.781250
2000,-50.781250
2001,-50.781250
2002,-50.781250
2003,-48.828125
2004,-48.828125
2005,-50.781250
2006,-48.828125
2007,-48.828125
2008,-48.828125
2009,-48.828125
2010,-48.828125
2011,-48.828125
2012,-48.828125
2013,-48.828125
2014,-46.875000
2015,-46.875000
2016,-48.828125
2017,-46.875000
2018,-46.875000
2019,-46.875000
2020,-46.875000
2021,-46.875000
2022,-46.875000
2023,-46.875000
2024,-46.875000
2025,-44.921875
2026,-44.921875
2027,-44.921875
2028,-46.875000
2029,-44.921875
2030,-44.921875
2031,-42.968750
2032,-42.968750
2033,-42.968750
2034,-42.968750
2035,-42.968750
2036,-42.968750
2037,-41.015625
2038,-42.968750
2039,-41.015625
2040,-41.015625
2041,-41.015625
2042,-41.015625
2043,-39.062500
2044,-41.015625
2045,-39.062500
2046,-39.062500
2047,-39.062500
2048,-39.062500
2049,-39.062500
2050,-39.062500
2051,-37.109375
2052,-35.156250
2053,-37.109375
2054,-37.109375
2055,-35.156250
2056,-35.156250
2057,-35.156250
2058,-33.203125
2059,-35.156250
2060,-35.156250
2061,-33.203125
2062,-33.203125
2063,-33.203125
2064,-31.250000
2065,-33.203125
2066,-31.250000
2067,-31.250000
2068,-31.250000
2069,-33.203125
2070,-31.250000
2071,-31.250000
2072,-29.296875
2073,-29.296875
2074,-29.296875
2075,-29.296875
2076,-29.296875
2077,-27.343750
2078,-27.343750
2079,-27.343750
2080,-27.343750
2081,-25.390625
2082,-27.343750
2083,-25.390625
2084,-25.390625
2085,-25.390625
2086,-29.296875
2087,-23.437500
2088,-23.437500
2089,-23.437500
2090,-23.437500
2091,-25.390625
2092,-21.484375
2093,-21.484375
2094,-21.484375
2095,-21.484375
2096,-21.484375
2097,-19.531250
2098,-19.531250
2099,-19.531250
2100,-19.531250
2101,-19.531250
2102,-17.578125
2103,-17.578125
2104,-17.578125
2105,-17.578125
2106,-17.578125
2107,-15.625000
2108,-15.625000
2109,-15.625000
2110,-15.625000
2111,-13.671875
2112,-13.671875
2113,-13.671875
2114,-11.718750
2115,-13.671875
2116,-11.718750
2117,-11.718750
2118,-11.718750
2119,-9.765625
2120,-7.812500
2121,-9.765625
2122,-9.765625
2123,-7.812500
2124,-7.812500
2125,-7.812500
2126,-7.812500
2127,-5.859375
2128,-5.859375
2129,-5.859375
2130,-5.859375
2131,-5.859375
2132,-5.859375
2133,-3.906250
2134,-3.906250
2135,-5.859375
2136,-1.953125
2137,-1.953125
2138,-1.953125
2139,0.000000
2140,-1.953125
2141,0.000000
2142,0.000000
2143,0.000000
2144,0.000000
2145,1.953125
2146,3.906250
2147,1.953125
2148,1.953125
2149,3.906250
2150,3.906250
2151,3.906250
2152,3.906250
2153,3.906250
2154,5.859375
2155,5.859375
2156,5.859375
2157,5.859375
2158,7.812500
2159,7.812500
2160,7.812500
2161,7.812500
2162,7.812500
2163,7.812500
2164,9.765625
2165,9.765625
2166,9.765625
2167,9.765625
2168,11.718750
2169,11.718750
2170,11.718750
2171,11.718750
2172,13.671875
2173,13.671875
2174,13.671875
2175,15.625000
2176,15.625000
2177,15.625000
2178,15.625000
2179,15.625000
2180,17.578125
2181,17.578125
2182,17.578125
2183,19.531250
2184,17.578125
2185,19.531250
2186,19.531250
2187,19.531250
2188,21.484375
2189,21.484375
2190,21.484375
2191,21.484375
2192,23.437500
2193,23.437500
2194,23.437500
2195,23.437500
2196,23.437500
2197,25.390625
2198,25.390625
2199,25.390625
2200,27.343750
2201,25.390625
2202,27.343750
2203,29.296875
2204,27.343750
2205,27.343750
2206,29.296875
2207,27.343750
2208,29.296875
2209,29.296875
2210,29.296875
2211,31.250000
2212,29.296875
2213,31.250000
2214,31.250000
2215,31.250000
2216,33.203125
2217,33.203125
2218,33.203125
2219,33.203125
2220,33.203125
2221,33.203125
2222,33.203125
2223,33.203125
2224,35.156250
2225,35.156250
2226,35.156250
2227,35.156250
2228,37.109375
2229,37.109375
2230,37.109375
2231,37.109375
2232,37.109375
2233,37.109375
2234,39.062500
2235,39.062500
2236,39.062500
2237,41.015625
2238,41.015625
2239,41.015625
2240,41.015625
2241,41.015625
2242,41.015625
2243,41.015625
2244,41.015625
2245,42.968750
2246,42.968750
2247,42.968750
2248,44.921875
2249,42.968750
2250,44.921875
2251,44.921875
2252,44.921875
2253,44.921875
2254,46.875000
2255,44.921875
2256,46.875000
2257,46.875000
2258,46.875000
2259,46.875000
2260,46.875000
2261,46.875000
2262,46.875000
2263,48.828125
2264,48.828125
2265,46.875000
2266,48.828125
2267,50.781250
2268,48.828125
2269,48.828125
2270,50.781250
2271,50.781250
2272,50.781250
2273,50.781250
2274,50.781250
2275,50.781250
2276,50.781250
2277,52.734375
2278,52.734375
2279,52.734375
2280,52.734375
2281,52.734375
2282,52.734375
2283,52.734375
2284,52.734375
2285,54.687500
2286,54.687500
2287,54.687500
2288,54.687500
2289,54.687500
2290,54.687500
2291,54.687500
2292,54.687500
2293,54.687500
2294,54.687500
2295,56.640625
2296,56.640625
2297,56.640625
2298,56.640625
2299,56.640625
2300,56.640625
2301,56.640625
2302,56.640625
2303,56.640625
2304,58.593750
2305,58.593750
2306,58.593750
2307,56.640625
2308,58.593750
2309,58.593750
2310,58.593750
2311,58.593750
2312,58.593750
2313,58.593750
2314,58.593750
2315,60.546875
2316,60.546875
2317,60.546875
2318,60.546875
2319,60.546875
2320,60.546875
2321,60.546875
2322,60.546875
2323,60.546875
2324,60.546875
2325,60.546875
2326,60.546875
2327,60.546875
2328,60.546875
2329,60.546875
2330,62.500000
2331,60.546875
2332,62.500000
2333,62.500000
2334,62.500000
2335,60.546875
2336,60.546875
2337,60.546875
2338,62.500000
2339,62.500000
2340,62.500000
2341,62.500000
2342,62.500000
2343,62.500000
2344,62.500000
2345,62.500000
2346,62.500000
2347,62.500000
2348,62.500000
2349,60.546875
2350,62.500000
2351,62.500000
2352,62.500000
2353,62.500000
2354,62.500000
2355,62.500000
2356,62.500000
2357,62.500000
2358,62.500000
2359,62.500000
2360,62.500000
2361,62.500000
2362,62.500000
2363,62.500000
2364,62.500000
2365,62.500000
2366,62.500000
2367,62.500000
2368,62.500000
2369,62.500000
2370,62.500000
2371,62.500000
2372,62.500000
2373,62.500000
2374,62.500000
2375,62.500000
2376,62.500000
2377,60.546875
2378,62.500000
2379,62.500000
2380,62.500000
2381,60.546875
2382,60.546875
2383,60.546875
2384,60.546875
2385,62.500000
2386,62.500000
2387,60.546875
2388,60.546875
2389,60.546875
2390,60.546875
2391,60.546875
2392,60.546875
2393,60.546875
2394,60.546875
2395,60.546875
2396,60.546875
2397,60.546875
2398,60.546875
2399,60.546875
2400,60.546875
2401,60.546875
2402,58.593750
2403,58.593750
2404,58.593750
2405,58.593750
2406,58.593750
2407,58.593750
2408,58.593750
2409,58.593750
2410,58.593750
2411,58.593750
2412,58.593750
2413,58.593750
2414,56.640625
2415,56.640625
2416,54.687500
2417,56.640625
2418,56.640625
2419,56.640625
2420,56.640625
2421,56.640625
2422,56.640625
2423,54.687500
2424,54.687500
2425,54.687500
2426,54.687500
2427,54.687500
2428,54.687500
2429,54.687500
2430,54.687500
2431,52.734375
2432,54.687500
2433,54.687500
2434,52.734375
2435,52.734375
2436,48.828125
2437,52.734375
2438,52.734375
2439,52.734375
2440,52.734375
2441,50.781250
2442,50.781250
2443,50.781250
2444,50.781250
2445,50.781250
2446,50.781250
2447,48.828125
2448,48.828125
2449,48.828125
2450,48.828125
2451,48.828125
2452,48.828125
2453,46.875000
2454,48.828125
2455,48.828125
2456,46.875000
2457,46.875000
2458,46.875000
2459,46.875000
2460,44.921875
2461,44.921875
2462,44.921875
2463,44.921875
2464,44.921875
2465,44.921875
2466,44.921875
2467,44.921875
2468,44.921875
2469,42.968750
2470,42.968750
2471,41.015625
2472,42.968750
2473,39.062500
2474,41.015625
2475,41.015625
2476,39.062500
2477,41.015625
2478,37.109375
2479,39.062500
2480,39.062500
2481,39.062500
2482,37.109375
2483,37.109375
2484,35.156250
2485,37.109375
2486,37.109375
2487,35.156250
2488,37.109375
2489,35.156250
2490,35.156250
2491,35.156250
2492,35.156250
2493,33.203125
2494,33.203125
2495,33.203125
2496,33.203125
2497,31.250000
2498,31.250000
2499,31.250000
2500,31.250000
2501,31.250000
2502,29.296875
2503,29.296875
2504,29.296875
2505,29.296875
2506,29.296875
2507,29.296875
2508,27.343750
2509,27.343750
2510,27.343750
2511,27.343750
2512,25.390625
2513,25.390625
2514,25.390625
2515,25.390625
2516,23.437500
2517,25.390625
2518,23.437500
2519,23.437500
2520,23.437500
2521,21.484375
2522,21.484375
2523,19.531250
2524,21.484375
2525,21.484375
2526,19.531250
2527,19.531250
2528,19.531250
2529,19.531250
2530,17.578125
2531,17.578125
2532,17.578125
2533,15.625000
2534,17.578125
2535,15.625000
2536,15.625000
2537,15.625000
2538,13.671875
2539,13.671875
2540,13.671875
2541,13.671875
2542,13.671875
2543,11.718750
2544,11.718750
2545,11.718750
2546,11.718750
2547,9.765625
2548,9.765625
2549,9.765625
2550,9.765625
2551,7.812500
2552,7.812500
2553,7.812500
2554,7.812500
2555,5.859375
2556,5.859375
2557,5.859375
2558,5.859375
2559,3.906250
2560,3.906250
2561,3.906250
2562,3.906250
2563,3.906250
2564,1.953125
2565,0.000000
2566,1.953125
2567,0.000000
2568,0.000000
2569,0.000000
2570,0.000000
2571,0.000000
2572,0.000000
2573,0.000000
2574,-1.953125
2575,-1.953125
2576,-3.906250
2577,-3.906250
2578,-3.906250
2579,-3.906250
2580,-3.906250
2581,-5.859375
2582,-5.859375
2583,-5.859375
2584,-7.812500
2585,-5.859375
2586,-7.812500
2587,-7.812500
2588,-7.812500
2589,-9.765625
2590,-9.765625
2591,-11.718750
2592,-9.765625
2593,-11.718750
2594,-11.718750
2595,-11.718750
2596,-11.718750
2597,-9.765625
2598,-13.671875
2599,-13.671875
2600,-13.671875
2601,-13.671875
2602,-15.625000
2603,-13.671875
2604,-15.625000
2605,-15.625000
2606,-15.625000
2607,-17.578125
2608,-17.578125
2609,-17.578125
2610,-17.578125
2611,-19.531250
2612,-19.531250
2613,-19.531250
2614,-19.531250
2615,-19.531250
2616,-21.484375
2617,-21.484375
2618,-21.484375
2619,-23.437500
2620,-23.437500
2621,-23.437500
2622,-23.437500
2623,-23.437500
2624,-23.437500
2625,-25.390625
2626,-25.390625
2627,-25.390625
2628,-25.390625
2629,-27.343750
2630,-27.343750
2631,-27.343750
2632,-27.343750
2633,-27.343750
2634,-29.296875
2635,-29.296875
2636,-29.296875
2637,-29.296875
2638,-29.296875
2639,-31.250000
2640,-35.156250
2641,-29.296875
2642,-31.250000
2643,-31.250000
2644,-33.203125
2645,-31.250000
2646,-33.203125
2647,-33.203125
2648,-33.203125
2649,-35.156250
2650,-35.156250
2651,-35.156250
2652,-35.156250
2653,-35.156250
2654,-35.156250
2655,-35.156250
2656,-37.109375
2657,-37.109375
2658,-37.109375
2659,-37.109375
2660,-39.062500
2661,-39.062500
2662,-39.062500
2663,-39.062500
2664,-39.062500
2665,-41.015625
2666,-39.062500
2667,-39.062500
2668,-41.015625
2669,-41.015625
2670,-41.015625
2671,-41.015625
2672,-42.968750
2673,-41.015625
2674,-41.015625
2675,-42.968750
2676,-42.968750
2677,-42.968750
2678,-42.968750
2679,-44.921875
2680,-44.921875
2681,-44.921875
2682,-41.015625
2683,-44.921875
2684,-44.921875
2685,-44.921875
2686,-46.875000
2687,-44.921875
2688,-46.875000
2689,-46.875000
2690,-46.875000
2691,-46.875000
2692,-46.875000
2693,-46.875000
2694,-46.875000
2695,-48.828125
2696,-48.828125
2697,-48.828125
2698,-48.828125
2699,-48.828125
2700,-48.828125
2701,-48.828125
2702,-48.828125
2703,-50.781250
2704,-50.781250
2705,-50.781250
2706,-50.781250
2707,-50.781250
2708,-50.781250
2709,-50.781250
2710,-50.781250
2711,-50.781250
2712,-50.781250
2713,-50.781250
2714,-52.734375
2715,-52.734375
2716,-52.734375
2717,-52.734375
2718,-52.734375
2719,-52.734375
2720,-52.734375
2721,-52.734375
2722,-48.828125
2723,-52.734375
2724,-52.734375
2725,-52.734375
2726,-54.687500
2727,-52.734375
2728,-52.734375
2729,-54.687500
2730,-54.687500
2731,-54.687500
2732,-54.687500
2733,-54.687500
2734,-54.687500
2735,-54.687500
2736,-54.687500
2737,-54.687500
2738,-54.687500
2739,-54.687500
2740,-54.687500
2741,-54.687500
2742,-54.687500
2743,-54.687500
2744,-54.687500
2745,-54.687500
2746,-54.687500
2747,-54.687500
2748,-54.687500
2749,-54.687500
2750,-54.687500
2751,-54.687500
2752,-54.687500
2753,-54.687500
2754,-56.640625
2755,-56.640625
2756,-54.687500
2757,-54.687500
2758,-54.687500
2759,-56.640625
2760,-54.687500
2761,-54.687500
2762,-54.687500
2763,-54.687500
2764,-54.687500
2765,-54.687500
2766,-56.640625
2767,-54.687500
2768,-54.687500
2769,-54.687500
2770,-54.687500
2771,-54.687500
2772,-54.687500
2773,-54.687500
2774,-54.687500
2775,-54.687500
2776,-54.687500
2777,-54.687500
2778,-54.687500
2779,-54.687500
2780,-54.687500
2781,-54.687500
2782,-54.687500
2783,-54.687500
2784,-54.687500
2785,-54.687500
2786,-52.734375
2787,-52.734375
2788,-52.734375
2789,-52.734375
2790,-52.734375
2791,-52.734375
2792,-54.687500
2793,-52.734375
2794,-52.734375
2795,-52.734375
2796,-52.734375
2797,-52.734375
2798,-52.734375
2799,-52.734375
2800,-52.734375
2801,-50.781250
2802,-50.781250
2803,-52.734375
2804,-50.781250
2805,-50.781250
2806,-50.781250
2807,-50.781250
2808,-50.781250
2809,-50.781250
2810,-50.781250
2811,-50.781250
2812,-50.781250
2813,-50.781250
2814,-48.828125
2815,-50.781250
2816,-48.828125
2817,-48.828125
2818,-48.828125
2819,-48.828125
2820,-48.828125
2821,-46.875000
2822,-48.828125
2823,-48.828125
2824,-46.875000
2825,-46.875000
2826,-48.828125
2827,-46.875000
2828,-46.875000
2829,-46.875000
2830,-44.921875
2831,-46.875000
2832,-44.921875
2833,-44.921875
2834,-44.921875
2835,-44.921875
2836,-44.921875
2837,-44.921875
2838,-42.968750
2839,-42.968750
2840,-42.968750
2841,-42.968750
2842,-42.968750
2843,-42.968750
2844,-42.968750
2845,-41.015625
2846,-41.015625
2847,-41.015625
2848,-39.062500
2849,-41.015625
2850,-41.015625
2851,-39.062500
2852,-39.062500
2853,-39.062500
2854,-39.062500
2855,-39.062500
2856,-37.109375
2857,-37.109375
2858,-39.062500
2859,-37.109375
2860,-37.109375
2861,-37.109375
2862,-35.156250
2863,-35.156250
2864,-35.156250
2865,-35.156250
2866,-35.156250
2867,-35.156250
2868,-33.203125
2869,-33.203125
2870,-33.203125
2871,-33.203125
2872,-33.203125
2873,-33.203125
2874,-33.203125
2875,-33.203125
2876,-31.250000
2877,-31.250000
2878,-31.250000
2879,-29.296875
2880,-29.296875
2881,-31.250000
2882,-29.296875
2883,-29.296875
2884,-27.343750
2885,-25.390625
2886,-27.343750
2887,-27.343750
2888,-27.343750
2889,-27.343750
2890,-25.390625
2891,-25.390625
2892,-25.390625
2893,-25.390625
2894,-25.390625
2895,-23.437500
2896,-23.437500
2897,-23.437500
2898,-23.437500
2899,-21.484375
2900,-21.484375
2901,-21.484375
2902,-21.484375
2903,-21.484375
2904,-19.531250
2905,-19.531250
2906,-19.531250
2907,-17.578125
2908,-19.531250
2909,-17.578125
2910,-17.578125
2911,-15.625000
2912,-15.625000
2913,-15.625000
2914,-15.625000
2915,-15.625000
2916,-13.671875
2917,-13.671875
2918,-13.671875
2919,-13.671875
2920,-13.671875
2921,-13.671875
2922,-11.718750
2923,-11.718750
2924,-11.718750
2925,-9.765625
2926,-9.765625
2927,-9.765625
2928,-9.765625
2929,-9.765625
2930,-7.812500
2931,-7.812500
2932,-7.812500
2933,-7.812500
2934,-7.812500
2935,-5.859375
2936,-5.859375
2937,-5.859375
2938,-5.859375
2939,-5.859375
2940,-3.906250
2941,-3.906250
2942,-3.906250
2943,-3.906250
2944,-3.906250
2945,-1.953125
2946,-1.953125
2947,-1.953125
2948,-1.953125
2949,0.000000
2950,0.000000
2951,0.000000
2952,0.000000
2953,1.953125
2954,1.953125
2955,1.953125
2956,1.953125
2957,3.906250
2958,3.906250
2959,3.906250
2960,3.906250
2961,3.906250
2962,5.859375
2963,5.859375
2964,5.859375
2965,7.812500
2966,7.812500
2967,7.812500
2968,7.812500
2969,3.906250
2970,9.765625
2971,9.765625
2972,11.718750
2973,11.718750
2974,11.718750
2975,11.718750
2976,11.718750
2977,13.671875
2978,13.671875
2979,13.671875
2980,13.671875
2981,13.671875
2982,15.625000
2983,15.625000
2984,15.625000
2985,15.625000
2986,17.578125
2987,17.578125
2988,17.578125
2989,17.578125
2990,17.578125
2991,19.531250
2992,19.531250
2993,19.531250
2994,19.531250
2995,19.531250
2996,21.484375
2997,21.484375
2998,21.484375
2999,21.484375
3000,23.437500
3001,23.437500
3002,23.437500
3003,23.437500
3004,23.437500
3005,23.437500
3006,23.437500
3007,25.390625
3008,25.390625
3009,25.390625
3010,25.390625
3011,25.390625
3012,27.343750
3013,27.343750
3014,27.343750
3015,27.343750
3016,29.296875
3017,27.343750
3018,29.296875
3019,29.296875
3020,29.296875
3021,31.250000
3022,31.250000
3023,29.296875
3024,33.203125
3025,33.203125
3026,33.203125
3027,33.203125
3028,33.203125
3029,35.156250
3030,35.156250
3031,35.156250
3032,35.156250
3033,35.156250
3034,37.109375
3035,37.109375
3036,37.109375
3037,37.109375
3038,37.109375
3039,39.062500
3040,39.062500
3041,39.062500
3042,39.062500
3043,39.062500
3044,39.062500
3045,41.015625
3046,41.015625
3047,41.015625
3048,41.015625
3049,41.015625
3050,42.968750
3051,42.968750
3052,42.968750
3053,42.968750
3054,42.968750
3055,42.968750
3056,42.968750
3057,42.968750
3058,44.921875
3059,44.921875
3060,44.921875
3061,44.921875
3062,46.875000
3063,46.875000
3064,46.875000
3065,46.875000
3066,44.921875
3067,46.875000
3068,46.875000
3069,46.875000
3070,46.875000
3071,48.828125
3072,50.781250
3073,48.828125
3074,48.828125
3075,48.828125
3076,48.828125
3077,50.781250
3078,50.781250
3079,50.781250
3080,50.781250
3081,50.781250
3082,50.781250
3083,50.781250
3084,52.734375
3085,52.734375
3086,52.734375
3087,52.734375
3088,52.734375
3089,52.734375
3090,52.734375
3091,56.640625
3092,52.734375
3093,54.687500
3094,54.687500
3095,54.687500
3096,54.687500
3097,54.687500
3098,54.687500
3099,54.687500
3100,54.687500
3101,56.640625
3102,56.640625
3103,56.640625
3104,56.640625
3105,56.640625
3106,56.640625
3107,56.640625
3108,56.640625
3109,56.640625
3110,56.640625
3111,58.593750
3112,58.593750
3113,56.640625
3114,58.593750
3115,58.593750
3116,58.593750
3117,58.593750
3118,58.593750
3119,58.593750
3120,58.593750
3121,58.593750
3122,58.593750
3123,58.593750
3124,58.593750
3125,58.593750
3126,58.593750
3127,60.546875
3128,60.546875
3129,60.546875
3130,60.546875
3131,60.546875
3132,60.546875
3133,60.546875
3134,60.546875
3135,60.546875
3136,60.546875
3137,60.546875
3138,60.546875
3139,60.546875
3140,60.546875
3141,60.546875
3142,60.546875
3143,60.546875
3144,60.546875
3145,62.500000
3146,62.500000
3147,62.500000
3148,62.500000
3149,62.500000
3150,62.500000
3151,62.500000
3152,62.500000
3153,60.546875
3154,62.500000
3155,62.500000
3156,62.500000
3157,62.500000
3158,62.500000
3159,62.500000
3160,62.500000
3161,62.500000
3162,62.500000
3163,62.500000
3164,62.500000
3165,62.500000
3166,62.500000
3167,62.500000
3168,62.500000
3169,62.500000
3170,62.500000
3171,64.453125
3172,62.500000
3173,62.500000
3174,62.500000
3175,62.500000
3176,62.500000
3177,62.500000
3178,62.500000
3179,62.500000
3180,62.500000
3181,62.500000
3182,62.500000
3183,62.500000
3184,62.500000
3185,62.500000
3186,62.500000
3187,60.546875
3188,60.546875
3189,60.546875
3190,60.546875
3191,60.546875
3192,60.546875
3193,60.546875
3194,60.546875
3195,62.500000
3196,60.546875
3197,60.546875
3198,60.546875
3199,60.546875
3200,60.546875
3201,60.546875
3202,60.546875
3203,60.546875
3204,60.546875
3205,58.593750
3206,60.546875
3207,58.593750
3208,58.593750
3209,58.593750
3210,58.593750
3211,58.593750
3212,58.593750
3213,58.593750
3214,58.593750
3215,58.593750
3216,58.593750
3217,58.593750
3218,56.640625
3219,58.593750
3220,56.640625
3221,56.640625
3222,56.640625
3223,56.640625
3224,56.640625
3225,56.640625
3226,52.734375
3227,52.734375
3228,56.640625
3229,56.640625
3230,56.640625
3231,56.640625
3232,54.687500
3233,54.687500
3234,54.687500
3235,54.687500
3236,54.687500
3237,52.734375
3238,54.687500
3239,52.734375
3240,52.734375
3241,52.734375
3242,52.734375
3243,52.734375
3244,52.734375
3245,52.734375
3246,52.734375
3247,52.734375
3248,50.781250
3249,50.781250
3250,50.781250
3251,50.781250
3252,48.828125
3253,48.828125
3254,48.828125
3255,52.734375
3256,48.828125
3257,48.828125
3258,48.828125
3259,48.828125
3260,48.828125
3261,46.875000
3262,46.875000
3263,46.875000
3264,46.875000
3265,46.875000
3266,46.875000
3267,44.921875
3268,44.921875
3269,46.875000
3270,44.921875
3271,44.921875
3272,44.921875
3273,44.921875
3274,44.921875
3275,42.968750
3276,42.968750
3277,42.968750
3278,42.968750
3279,42.968750
3280,41.015625
3281,41.015625
3282,41.015625
3283,41.015625
3284,41.015625
3285,41.015625
3286,41.015625
3287,39.062500
3288,39.062500
3289,39.062500
3290,39.062500
3291,39.062500
3292,37.109375
3293,37.109375
3294,37.109375
3295,35.156250
3296,37.109375
3297,35.156250
3298,35.156250
3299,35.156250
3300,33.203125
3301,35.156250
3302,33.203125
3303,33.203125
3304,33.203125
3305,33.203125
3306,33.203125
3307,31.250000
3308,31.250000
3309,31.250000
3310,31.250000
3311,29.296875
3312,29.296875
3313,29.296875
3314,27.343750
3315,29.296875
3316,27.343750
3317,27.343750
3318,27.343750
3319,25.390625
3320,25.390625
3321,25.390625
3322,25.390625
3323,25.390625
3324,23.437500
3325,23.437500
3326,23.437500
3327,23.437500
3328,21.484375
3329,21.484375
3330,21.484375
3331,21.484375
3332,19.531250
3333,19.531250
3334,19.531250
3335,19.531250
3336,19.531250
3337,17.578125
3338,17.578125
3339,17.578125
3340,17.578125
3341,17.578125
3342,15.625000
3343,15.625000
3344,13.671875
3345,15.625000
3346,13.671875
3347,13.671875
3348,13.671875
3349,13.671875
3350,11.718750
3351,11.718750
3352,11.718750
3353,11.718750
3354,9.765625
3355,9.765625
3356,9.765625
3357,9.765625
3358,7.812500
3359,7.812500
3360,7.812500
3361,7.812500
3362,7.812500
3363,7.812500
3364,5.859375
3365,5.859375
3366,5.859375
3367,3.906250
3368,3.906250
3369,3.906250
3370,3.906250
3371,3.906250
3372,1.953125
3373,1.953125
3374,1.953125
3375,0.000000
3376,0.000000
3377,0.000000
3378,0.000000
3379,0.000000
3380,-1.953125
3381,-1.953125
3382,-1.953125
3383,-1.953125
3384,-1.953125
3385,-3.906250
3386,-3.906250
3387,-5.859375
3388,-5.859375
3389,-5.859375
3390,-5.859375
3391,-5.859375
3392,-7.812500
3393,-7.812500
3394,-7.812500
3395,-7.812500
3396,-9.765625
3397,-9.765625
3398,-9.765625
3399,-9.765625
3400,-9.765625
3401,-11.718750
3402,-11.718750
3403,-11.718750
3404,-13.671875
3405,-13.671875
3406,-13.671875
3407,-13.671875
3408,-15.625000
3409,-15.625000
3410,-15.625000
3411,-15.625000
3412,-15.625000
3413,-15.625000
3414,-17.578125
3415,-17.578125
3416,-17.578125
3417,-19.531250
3418,-19.531250
3419,-19.531250
3420,-19.531250
3421,-19.531250
3422,-19.531250
3423,-21.484375
3424,-21.484375
3425,-21.484375
3426,-21.484375
3427,-21.484375
3428,-23.437500
3429,-23.437500
3430,-23.437500
3431,-23.437500
3432,-23.437500
3433,-25.390625
3434,-25.390625
3435,-25.390625
3436,-25.390625
3437,-27.343750
3438,-27.343750
3439,-27.343750
3440,-27.343750
3441,-29.296875
3442,-29.296875
3443,-29.296875
3444,-29.296875
3445,-29.296875
3446,-31.250000
3447,-31.250000
3448,-31.250000
3449,-31.250000
3450,-31.250000
3451,-31.250000
3452,-33.203125
3453,-33.203125
3454,-33.203125
3455,-33.203125
3456,-33.203125
3457,-35.156250
3458,-35.156250
3459,-35.156250
3460,-35.156250
3461,-37.109375
3462,-37.109375
3463,-37.109375
3464,-37.109375
3465,-37.109375
3466,-37.109375
3467,-37.109375
3468,-39.062500
3469,-39.062500
3470,-39.062500
3471,-39.062500
3472,-39.062500
3473,-41.015625
3474,-41.015625
3475,-41.015625
3476,-41.015625
3477,-41.015625
3478,-41.015625
3479,-42.968750
3480,-41.015625
3481,-42.968750
3482,-42.968750
3483,-42.968750
3484,-42.968750
3485,-42.968750
3486,-42.968750
3487,-42.968750
3488,-44.921875
3489,-44.921875
3490,-44.921875
3491,-44.921875
3492,-44.921875
3493,-44.921875
3494,-44.921875
3495,-44.921875
3496,-46.875000
3497,-46.875000
3498,-46.875000
3499,-46.875000
3500,-46.875000
3501,-46.875000
3502,-48.828125
3503,-48.828125
3504,-46.875000
3505,-48.828125
3506,-48.828125
3507,-48.828125
3508,-48.828125
3509,-48.828125
3510,-50.781250
3511,-50.781250
3512,-50.781250
3513,-50.781250
3514,-50.781250
3515,-50.781250
3516,-50.781250
3517,-50.781250
3518,-50.781250
3519,-50.781250
3520,-50.781250
3521,-52.734375
3522,-52.734375
3523,-52.734375
3524,-52.734375
3525,-52.734375
3526,-52.734375
3527,-52.734375
3528,-52.734375
3529,-52.734375
3530,-52.734375
3531,-52.734375
3532,-52.734375
3533,-54.687500
3534,-52.734375
3535,-52.734375
3536,-54.687500
3537,-54.687500
3538,-54.687500
3539,-54.687500
3540,-54.687500
3541,-54.687500
3542,-54.687500
3543,-54.687500
3544,-54.687500
3545,-54.687500
3546,-54.687500
3547,-54.687500
3548,-54.687500
3549,-54.687500
3550,-54.687500
3551,-54.687500
3552,-54.687500
3553,-54.687500
3554,-54.687500
3555,-54.687500
3556,-54.687500
3557,-54.687500
3558,-54.687500
3559,-54.687500
3560,-54.687500
3561,-54.687500
3562,-54.687500
3563,-54.687500
3564,-54.687500
3565,-56.640625
3566,-54.687500
3567,-54.687500
3568,-54.687500
3569,-54.687500
3570,-54.687500
3571,-56.640625
3572,-54.687500
3573,-54.687500
3574,-52.734375
3575,-54.687500
3576,-54.687500
3577,-54.687500
3578,-54.687500
3579,-54.687500
3580,-54.687500
3581,-54.687500
3582,-54.687500
3583,-54.687500
3584,-54.687500
3585,-54.687500
3586,-54.687500
3587,-54.687500
3588,-54.687500
3589,-54.687500
3590,-54.687500
3591,-54.687500
3592,-54.687500
3593,-54.687500
3594,-54.687500
3595,-52.734375
3596,-54.687500
3597,-52.734375
3598,-52.734375
3599,-52.734375
3600,-52.734375
3601,-52.734375
3602,-52.734375
3603,-52.734375
3604,-50.781250
3605,-52.734375
3606,-52.734375
3607,-52.734375
3608,-54.687500
3609,-52.734375
3610,-52.734375
3611,-50.781250
3612,-50.781250
3613,-52.734375
3614,-50.781250
3615,-50.781250
3616,-50.781250
3617,-50.781250
3618,-50.781250
3619,-48.828125
3620,-50.781250
3621,-48.828125
3622,-48.828125
3623,-48.828125
3624,-48.828125
3625,-48.828125
3626,-48.828125
3627,-48.828125
3628,-46.875000
3629,-46.875000
3630,-46.875000
3631,-46.875000
3632,-46.875000
3633,-46.875000
3634,-46.875000
3635,-46.875000
3636,-46.875000
3637,-46.875000
3638,-46.875000
3639,-44.921875
3640,-44.921875
3641,-44.921875
3642,-44.921875
3643,-44.921875
3644,-44.921875
3645,-44.921875
3646,-44.921875
3647,-41.015625
3648,-42.968750
3649,-42.968750
3650,-42.968750
3651,-42.968750
3652,-42.968750
3653,-42.968750
3654,-41.015625
3655,-41.015625
3656,-41.015625
3657,-41.015625
3658,-41.015625
3659,-41.015625
3660,-39.062500
3661,-39.062500
3662,-39.062500
3663,-39.062500
3664,-39.062500
3665,-37.109375
3666,-37.109375
3667,-37.109375
3668,-37.109375
3669,-37.109375
3670,-37.109375
3671,-35.156250
3672,-35.156250
3673,-35.156250
3674,-35.156250
3675,-33.203125
3676,-33.203125
3677,-33.203125
3678,-33.203125
3679,-33.203125
3680,-33.203125
3681,-31.250000
3682,-31.250000
3683,-31.250000
3684,-31.250000
3685,-31.250000
3686,-29.296875
3687,-29.296875
3688,-29.296875
3689,-29.296875
3690,-29.296875
3691,-27.343750
3692,-27.343750
3693,-27.343750
3694,-27.343750
3695,-27.343750
3696,-25.390625
3697,-25.390625
3698,-25.390625
3699,-25.390625
3700,-23.437500
3701,-23.437500
3702,-23.437500
3703,-23.437500
3704,-23.437500
3705,-23.437500
3706,-21.484375
3707,-21.484375
3708,-21.484375
3709,-21.484375
3710,-21.484375
3711,-19.531250
3712,-19.531250
3713,-19.531250
3714,-19.531250
3715,-19.531250
3716,-17.578125
3717,-19.531250
3718,-17.578125
3719,-17.578125
3720,-17.578125
3721,-17.578125
3722,-15.625000
3723,-15.625000
3724,-15.625000
3725,-13.671875
3726,-13.671875
3727,-13.671875
3728,-13.671875
3729,-11.718750
3730,-11.718750
3731,-11.718750
3732,-11.718750
3733,-11.718750
3734,-9.765625
3735,-9.765625
3736,-9.765625
3737,-7.812500
3738,-7.812500
3739,-1.953125
3740,-7.812500
3741,-7.812500
3742,-5.859375
3743,-5.859375
3744,-5.859375
3745,-5.859375
3746,-3.906250
3747,-3.906250
3748,-3.906250
3749,-3.906250
3750,-1.953125
3751,-1.953125
3752,-1.953125
3753,-1.953125
3754,-1.953125
3755,-1.953125
3756,0.000000
3757,0.000000
3758,0.000000
3759,0.000000
3760,1.953125
3761,1.953125
3762,1.953125
3763,1.953125
3764,3.906250
3765,3.906250
3766,3.906250
3767,3.906250
3768,5.859375
3769,5.859375
3770,5.859375
3771,5.859375
3772,5.859375
3773,7.812500
3774,7.812500
3775,7.812500
3776,7.812500
3777,9.765625
3778,9.765625
3779,9.765625
3780,9.765625
3781,11.718750
3782,9.765625
3783,7.812500
3784,11.718750
3785,11.718750
3786,11.718750
3787,13.671875
3788,13.671875
3789,15.625000
3790,15.625000
3791,15.625000
3792,15.625000
3793,15.625000
3794,17.578125
3795,15.625000
3796,17.578125
3797,17.578125
3798,17.578125
3799,19.531250
3800,19.531250
3801,19.531250
3802,19.531250
3803,21.484375
3804,21.484375
3805,21.484375
3806,21.484375
3807,23.437500
3808,25.390625
3809,21.484375
3810,23.437500
3811,23.437500
3812,23.437500
3813,25.390625
3814,25.390625
3815,27.343750
3816,27.343750
3817,27.343750
3818,27.343750
3819,27.343750
3820,27.343750
3821,29.296875
3822,29.296875
3823,29.296875
3824,29.296875
3825,29.296875
3826,29.296875
3827,31.250000
3828,31.250000
3829,31.250000
3830,31.250000
3831,31.250000
3832,33.203125
3833,33.203125
3834,35.156250
3835,33.203125
3836,35.156250
3837,33.203125
3838,35.156250
3839,35.156250
3840,35.156250
3841,35.156250
3842,37.109375
3843,37.109375
3844,37.109375
3845,37.109375
3846,37.109375
3847,37.109375
3848,39.062500
3849,39.062500
3850,39.062500
3851,39.062500
3852,39.062500
3853,41.015625
3854,41.015625
3855,41.015625
3856,41.015625
3857,41.015625
3858,42.968750
3859,42.968750
3860,42.968750
3861,42.968750
3862,42.968750
3863,44.921875
3864,42.968750
3865,44.921875
3866,44.921875
3867,44.921875
3868,44.921875
3869,44.921875
3870,46.875000
3871,46.875000
3872,46.875000
3873,46.875000
3874,46.875000
3875,46.875000
3876,48.828125
3877,48.828125
3878,48.828125
3879,48.828125
3880,48.828125
3881,48.828125
3882,48.828125
3883,50.781250
3884,50.781250
3885,50.781250
3886,50.781250
3887,50.781250
3888,50.781250
3889,50.781250
3890,50.781250
3891,52.734375
3892,52.734375
3893,52.734375
3894,52.734375
3895,52.734375
3896,52.734375
3897,52.734375
3898,52.734375
3899,52.734375
3900,52.734375
3901,54.687500
3902,54.687500
3903,52.734375
3904,54.687500
3905,54.687500
3906,54.687500
3907,54.687500
3908,54.687500
3909,56.640625
3910,56.640625
3911,56.640625
3912,56.640625
3913,56.640625
3914,56.640625
3915,56.640625
3916,56.640625
3917,56.640625
3918,56.640625
3919,56.640625
3920,58.593750
3921,58.593750
3922,58.593750
3923,58.593750
3924,58.593750
3925,58.593750
3926,58.593750
3927,58.593750
3928,58.593750
3929,58.593750
3930,58.593750
3931,60.546875
3932,60.546875
3933,60.546875
3934,60.546875
3935,60.546875
3936,60.546875
3937,60.546875
3938,60.546875
3939,60.546875
3940,60.546875
3941,60.546875
3942,60.546875
3943,60.546875
3944,60.546875
3945,62.500000
3946,62.500000
3947,62.500000
3948,62.500000
3949,62.500000
3950,62.500000
3951,60.546875
3952,62.500000
3953,62.500000
3954,62.500000
3955,62.500000
3956,62.500000
3957,62.500000
3958,62.500000
3959,62.500000
3960,62.500000
3961,62.500000
3962,62.500000
3963,62.500000
3964,62.500000
3965,62.500000
3966,62.500000
3967,62.500000
3968,62.500000
3969,62.500000
3970,62.500000
3971,62.500000
3972,62.500000
3973,62.500000
3974,62.500000
3975,62.500000
3976,62.500000
3977,62.500000
3978,62.500000
3979,62.500000
3980,62.500000
3981,62.500000
3982,62.500000
3983,62.500000
3984,62.500000
3985,62.500000
3986,62.500000
3987,62.500000
3988,62.500000
3989,62.500000
3990,62.500000
3991,62.500000
3992,60.546875
3993,62.500000
3994,60.546875
3995,62.500000
3996,62.500000
3997,62.500000
3998,60.546875
3999,62.500000
4000,60.546875
4001,60.546875
4002,60.546875
4003,60.546875
4004,60.546875
4005,60.546875
4006,60.546875
4007,60.546875
4008,60.546875
4009,60.546875
4010,60.546875
4011,60.546875
4012,60.546875
4013,58.593750
4014,58.593750
4015,58.593750
4016,58.593750
4017,58.593750
4018,58.593750
4019,58.593750
4020,58.593750
4021,58.593750
4022,58.593750
4023,58.593750
4024,58.593750
4025,56.640625
4026,58.593750
4027,56.640625
4028,56.640625
4029,56.640625
4030,56.640625
4031,56.640625
4032,56.640625
4033,56.640625
4034,56.640625
4035,54.687500
4036,50.781250
4037,54.687500
4038,54.687500
4039,54.687500
4040,54.687500
4041,54.687500
4042,54.687500
4043,52.734375
4044,52.734375
4045,54.687500
4046,52.734375
4047,54.687500
4048,52.734375
4049,52.734375
4050,52.734375
4051,52.734375
4052,52.734375
4053,52.734375
4054,50.781250
4055,50.781250
4056,50.781250
4057,50.781250
4058,50.781250
4059,50.781250
4060,50.781250
4061,50.781250
4062,48.828125
4063,48.828125
4064,48.828125
4065,48.828125
4066,48.828125
4067,48.828125
4068,46.875000
4069,46.875000
4070,46.875000
4071,46.875000
4072,46.875000
4073,46.875000
4074,44.921875
4075,44.921875
4076,44.921875
4077,44.921875
4078,44.921875
4079,42.968750
4080,44.921875
4081,42.968750
4082,42.968750
4083,42.968750
4084,42.968750
4085,41.015625
4086,41.015625
4087,41.015625
4088,41.015625
4089,41.015625
4090,35.156250
4091,41.015625
4092,39.062500
4093,39.062500
4094,39.062500
4095,39.062500
4096,39.062500
4097,39.062500
4098,37.109375
4099,37.109375
4100,37.109375
4101,35.156250
4102,35.156250
4103,35.156250
4104,35.156250
4105,35.156250
4106,35.156250
4107,33.203125
4108,33.203125
4109,33.203125
4110,33.203125
4111,33.203125
4112,33.203125
4113,31.250000
4114,31.250000
4115,31.250000
4116,31.250000
4117,29.296875
4118,29.296875
4119,29.296875
4120,29.296875
4121,29.296875
4122,25.390625
4123,27.343750
4124,27.343750
4125,27.343750
4126,27.343750
4127,25.390625
4128,25.390625
4129,25.390625
4130,25.390625
4131,23.437500
4132,23.437500
4133,23.437500
4134,21.484375
4135,21.484375
4136,21.484375
4137,21.484375
4138,21.484375
4139,21.484375
4140,19.531250
4141,19.531250
4142,19.531250
4143,19.531250
4144,19.531250
4145,17.578125
4146,17.578125
4147,17.578125
4148,15.625000
4149,15.625000
4150,15.625000
4151,15.625000
4152,15.625000
4153,13.671875
4154,13.671875
4155,13.671875
4156,13.671875
4157,11.718750
4158,11.718750
4159,11.718750
4160,11.718750
4161,9.765625
4162,9.765625
4163,9.765625
4164,9.765625
4165,9.765625
4166,7.812500
4167,7.812500
4168,7.812500
4169,7.812500
4170,5.859375
4171,5.859375
4172,5.859375
4173,5.859375
4174,3.906250
4175,3.906250
4176,3.906250
4177,1.953125
4178,1.953125
4179,1.953125
4180,1.953125
4181,1.953125
4182,1.953125
4183,3.906250
4184,0.000000
4185,0.000000
4186,0.000000
4187,-1.953125
4188,-1.953125
4189,-3.906250
4190,-1.953125
4191,-3.906250
4192,-3.906250
4193,-1.953125
4194,-3.906250
4195,-5.859375
4196,-5.859375
4197,-5.859375
4198,-5.859375
4199,-5.859375
4200,-7.812500
4201,-7.812500
4202,-7.812500
4203,-9.765625
4204,-7.812500
4205,-9.765625
4206,-9.765625
4207,-9.765625
4208,-11.718750
4209,-11.718750
4210,-11.718750
4211,-11.718750
4212,-11.718750
4213,-13.671875
4214,-13.671875
4215,-13.671875
4216,-15.625000
4217,-15.625000
4218,-15.625000
4219,-15.625000
4220,-15.625000
4221,-17.578125
4222,-17.578125
4223,-17.578125
4224,-17.578125
4225,-17.578125
4226,-19.531250
4227,-19.531250
4228,-19.531250
4229,-21.484375
4230,-21.484375
4231,-21.484375
4232,-21.484375
4233,-21.484375
4234,-23.437500
4235,-23.437500
4236,-23.437500
4237,-23.437500
4238,-23.437500
4239,-25.390625
4240,-27.343750
4241,-25.390625
4242,-25.390625
4243,-25.390625
4244,-27.343750
4245,-27.343750
4246,-27.343750
4247,-27.343750
4248,-29.296875
4249,-29.296875
4250,-29.296875
4251,-29.296875
4252,-29.296875
4253,-31.250000
4254,-31.250000
4255,-31.250000
4256,-31.250000
4257,-31.250000
4258,-33.203125
4259,-33.203125
4260,-33.203125
4261,-33.203125
4262,-33.203125
4263,-33.203125
4264,-33.203125
4265,-35.156250
4266,-35.156250
4267,-35.156250
4268,-35.156250
4269,-37.109375
4270,-35.156250
4271,-37.109375
4272,-37.109375
4273,-37.109375
4274,-39.062500
4275,-39.062500
4276,-37.109375
4277,-39.062500
4278,-39.062500
4279,-39.062500
4280,-39.062500
4281,-39.062500
4282,-41.015625
4283,-41.015625
4284,-41.015625
4285,-42.968750
4286,-41.015625
4287,-42.968750
4288,-42.968750
4289,-42.968750
4290,-42.968750
4291,-42.968750
4292,-42.968750
4293,-42.968750
4294,-44.921875
4295,-44.921875
4296,-44.921875
4297,-44.921875
4298,-44.921875
4299,-44.921875
4300,-44.921875
4301,-44.921875
4302,-48.828125
4303,-46.875000
4304,-46.875000
4305,-46.875000
4306,-46.875000
4307,-46.875000
4308,-48.828125
4309,-48.828125
4310,-48.828125
4311,-46.875000
4312,-48.828125
4313,-48.828125
4314,-48.828125
4315,-48.828125
4316,-48.828125
4317,-48.828125
4318,-50.781250
4319,-48.828125
4320,-48.828125
4321,-50.781250
4322,-50.781250
4323,-50.781250
4324,-48.828125
4325,-50.781250
4326,-50.781250
4327,-50.781250
4328,-52.734375
4329,-52.734375
4330,-50.781250
4331,-52.734375
4332,-52.734375
4333,-52.734375
4334,-52.734375
4335,-52.734375
4336,-52.734375
4337,-52.734375
4338,-52.734375
4339,-52.734375
4340,-52.734375
4341,-54.687500
4342,-54.687500
4343,-54.687500
4344,-52.734375
4345,-52.734375
4346,-54.687500
4347,-54.687500
4348,-54.687500
4349,-54.687500
4350,-54.687500
4351,-54.687500
4352,-54.687500
4353,-54.687500
4354,-54.687500
4355,-54.687500
4356,-54.687500
4357,-54.687500
4358,-54.687500
4359,-54.687500
4360,-54.687500
4361,-54.687500
4362,-54.687500
4363,-54.687500
4364,-54.687500
4365,-54.687500
4366,-56.640625
4367,-54.687500
4368,-56.640625
4369,-56.640625
4370,-54.687500
4371,-56.640625
4372,-54.687500
4373,-56.640625
4374,-56.640625
4375,-54.687500
4376,-56.640625
4377,-54.687500
4378,-54.687500
4379,-54.687500
4380,-56.640625
4381,-54.687500
4382,-56.640625
4383,-56.640625
4384,-54.687500
4385,-54.687500
4386,-54.687500
4387,-54.687500
4388,-54.687500
4389,-54.687500
4390,-54.687500
4391,-50.781250
4392,-54.687500
4393,-54.687500
4394,-54.687500
4395,-54.687500
4396,-54.687500
4397,-54.687500
4398,-54.687500
4399,-54.687500
4400,-54.687500
4401,-54.687500
4402,-54.687500
4403,-52.734375
4404,-52.734375
4405,-52.734375
4406,-52.734375
4407,-52.734375
4408,-52.734375
4409,-52.734375
4410,-52.734375
4411,-52.734375
4412,-52.734375
4413,-52.734375
4414,-52.734375
4415,-52.734375
4416,-52.734375
4417,-50.781250
4418,-52.734375
4419,-52.734375
4420,-50.781250
4421,-50.781250
4422,-50.781250
4423,-50.781250
4424,-50.781250
4425,-50.781250
4426,-50.781250
4427,-50.781250
4428,-50.781250
4429,-50.781250
4430,-50.781250
4431,-48.828125
4432,-48.828125
4433,-48.828125
4434,-48.828125
4435,-48.828125
4436,-48.828125
4437,-48.828125
4438,-48.828125
4439,-48.828125
4440,-46.875000
4441,-46.875000
4442,-46.875000
4443,-46.875000
4444,-46.875000
4445,-44.921875
4446,-46.875000
4447,-44.921875
4448,-44.921875
4449,-44.921875
4450,-44.921875
4451,-44.921875
4452,-42.968750
4453,-42.968750
4454,-42.968750
4455,-42.968750
4456,-42.968750
4457,-42.968750
4458,-41.015625
4459,-42.968750
4460,-42.968750
4461,-41.015625
4462,-41.015625
4463,-41.015625
4464,-41.015625
4465,-41.015625
4466,-39.062500
4467,-39.062500
4468,-39.062500
4469,-39.062500
4470,-39.062500
4471,-39.062500
4472,-37.109375
4473,-37.109375
4474,-37.109375
4475,-37.109375
4476,-37.109375
4477,-35.156250
4478,-37.109375
4479,-35.156250
4480,-35.156250
4481,-35.156250
4482,-35.156250
4483,-35.156250
4484,-33.203125
4485,-33.203125
4486,-33.203125
4487,-33.203125
4488,-33.203125
4489,-31.250000
4490,-31.250000
4491,-31.250000
4492,-31.250000
4493,-31.250000
4494,-31.250000
4495,-29.296875
4496,-29.296875
4497,-29.296875
4498,-29.296875
4499,-29.296875
4500,-29.296875
4501,-27.343750
4502,-27.343750
4503,-27.343750
4504,-27.343750
4505,-25.390625
4506,-25.390625
4507,-25.390625
4508,-25.390625
4509,-23.437500
4510,-23.437500
4511,-23.437500
4512,-23.437500
4513,-21.484375
4514,-23.437500
4515,-21.484375
4516,-21.484375
4517,-21.484375
4518,-21.484375
4519,-19.531250
4520,-19.531250
4521,-19.531250
4522,-19.531250
4523,-17.578125
4524,-17.578125
4525,-17.578125
4526,-17.578125
4527,-15.625000
4528,-15.625000
4529,-15.625000
4530,-15.625000
4531,-15.625000
4532,-15.625000
4533,-13.671875
4534,-13.671875
4535,-13.671875
4536,-11.718750
4537,-11.718750
4538,-9.765625
4539,-11.718750
4540,-11.718750
4541,-11.718750
4542,-9.765625
4543,-9.765625
4544,-9.765625
4545,-5.859375
4546,-7.812500
4547,-7.812500
4548,-7.812500
4549,-7.812500
4550,-5.859375
4551,-5.859375
4552,-5.859375
4553,-5.859375
4554,-5.859375
4555,-3.906250
4556,-3.906250
4557,-3.906250
4558,-3.906250
4559,-1.953125
4560,-1.953125
4561,-1.953125
4562,-1.953125
4563,-1.953125
4564,0.000000
4565,0.000000
4566,0.000000
4567,0.000000
4568,1.953125
4569,1.953125
4570,1.953125
4571,3.906250
4572,3.906250
4573,3.906250
4574,3.906250
4575,3.906250
4576,5.859375
4577,5.859375
4578,5.859375
4579,7.812500
4580,7.812500
4581,7.812500
4582,7.812500
4583,9.765625
4584,9.765625
4585,9.765625
4586,9.765625
4587,9.765625
4588,11.718750
4589,11.718750
4590,11.718750
4591,11.718750
4592,11.718750
4593,13.671875
4594,13.671875
4595,13.671875
4596,13.671875
4597,15.625000
4598,15.625000
4599,15.625000
4600,15.625000
4601,17.578125
4602,15.625000
4603,17.578125
4604,17.578125
4605,17.578125
4606,19.531250
4607,19.531250
4608,19.531250
4609,19.531250
4610,19.531250
4611,19.531250
4612,21.484375
4613,21.484375
4614,21.484375
4615,23.437500
4616,21.484375
4617,23.437500
4618,23.437500
4619,23.437500
4620,23.437500
4621,25.390625
4622,25.390625
4623,25.390625
4624,25.390625
4625,25.390625
4626,27.343750
4627,27.343750
4628,27.343750
4629,27.343750
4630,29.296875
4631,29.296875
4632,29.296875
4633,29.296875
4634,31.250000
4635,31.250000
4636,31.250000
4637,31.250000
4638,31.250000
4639,31.250000
4640,33.203125
4641,33.203125
4642,33.203125
4643,35.156250
4644,35.156250
4645,35.156250
4646,35.156250
4647,35.156250
4648,37.109375
4649,35.156250
4650,37.109375
4651,37.109375
4652,37.109375
4653,37.109375
4654,39.062500
4655,39.062500
4656,39.062500
4657,39.062500
4658,39.062500
4659,39.062500
4660,41.015625
4661,41.015625
4662,41.015625
4663,41.015625
4664,41.015625
4665,42.968750
4666,42.968750
4667,42.968750
4668,42.968750
4669,42.968750
4670,44.921875
4671,44.921875
4672,44.921875
4673,44.921875
4674,44.921875
4675,44.921875
4676,44.921875
4677,44.921875
4678,44.921875
4679,46.875000
4680,46.875000
4681,46.875000
4682,46.875000
4683,46.875000
4684,46.875000
4685,48.828125
4686,48.828125
4687,48.828125
4688,48.828125
4689,48.828125
4690,48.828125
4691,50.781250
4692,50.781250
4693,50.781250
4694,50.781250
4695,50.781250
4696,50.781250
4697,50.781250
4698,52.734375
4699,52.734375
4700,52.734375
4701,52.734375
4702,52.734375
4703,52.734375
4704,52.734375
4705,54.687500
4706,54.687500
4707,54.687500
4708,54.687500
4709,54.687500
4710,54.687500
4711,54.687500
4712,54.687500
4713,56.640625
4714,56.640625
4715,56.640625
4716,56.640625
4717,56.640625
4718,56.640625
4719,56.640625
4720,50.781250
4721,56.640625
4722,58.593750
4723,58.593750
4724,58.593750
4725,58.593750
4726,58.593750
4727,60.546875
4728,58.593750
4729,58.593750
4730,58.593750
4731,58.593750
4732,58.593750
4733,58.593750
4734,58.593750
4735,58.593750
4736,58.593750
4737,60.546875
4738,60.546875
4739,60.546875
4740,60.546875
4741,58.593750
4742,60.546875
4743,60.546875
4744,60.546875
4745,60.546875
4746,60.546875
4747,60.546875
4748,60.546875
4749,62.500000
4750,60.546875
4751,60.546875
4752,60.546875
4753,60.546875
4754,60.546875
4755,62.500000
4756,62.500000
4757,60.546875
4758,62.500000
4759,62.500000
4760,62.500000
4761,62.500000
4762,62.500000
4763,62.500000
4764,60.546875
4765,62.500000
4766,62.500000
4767,62.500000
4768,62.500000
4769,62.500000
4770,62.500000
4771,62.500000
4772,62.500000
4773,62.500000
4774,62.500000
4775,62.500000
4776,62.500000
4777,62.500000
4778,62.500000
4779,62.500000
4780,62.500000
4781,62.500000
4782,62.500000
4783,62.500000
4784,62.500000
4785,62.500000
4786,62.500000
4787,62.500000
4788,64.453125
4789,62.500000
4790,62.500000
4791,62.500000
4792,62.500000
4793,62.500000
4794,62.500000
4795,62.500000
4796,62.500000
4797,62.500000
4798,62.500000
4799,68.359375
4800,62.500000
4801,62.500000
4802,60.546875
4803,60.546875
4804,62.500000
4805,60.546875
4806,60.546875
4807,60.546875
4808,60.546875
4809,60.546875
4810,60.546875
4811,60.546875
4812,60.546875
4813,60.546875
4814,60.546875
4815,60.546875
4816,60.546875
4817,60.546875
4818,60.546875
4819,60.546875
4820,60.546875
4821,58.593750
4822,58.593750
4823,58.593750
4824,58.593750
4825,58.593750
4826,58.593750
4827,58.593750
4828,58.593750
4829,58.593750
4830,58.593750
4831,58.593750
4832,58.593750
4833,58.593750
4834,56.640625
4835,56.640625
4836,56.640625
4837,56.640625
4838,56.640625
4839,56.640625
4840,56.640625
4841,56.640625
4842,56.640625
4843,56.640625
4844,54.687500
4845,54.687500
4846,54.687500
4847,54.687500
4848,54.687500
4849,54.687500
4850,52.734375
4851,54.687500
4852,54.687500
4853,54.687500
4854,52.734375
4855,52.734375
4856,52.734375
4857,52.734375
4858,52.734375
4859,52.734375
4860,52.734375
4861,50.781250
4862,50.781250
4863,50.781250
4864,50.781250
4865,50.781250
4866,50.781250
4867,50.781250
4868,48.828125
4869,50.781250
4870,48.828125
4871,48.828125
4872,48.828125
4873,48.828125
4874,48.828125
4875,46.875000
4876,46.875000
4877,46.875000
4878,46.875000
4879,46.875000
4880,46.875000
4881,46.875000
4882,44.921875
4883,44.921875
4884,44.921875
4885,44.921875
4886,44.921875
4887,42.968750
4888,42.968750
4889,42.968750
4890,42.968750
4891,42.968750
4892,41.015625
4893,41.015625
4894,41.015625
4895,41.015625
4896,41.015625
4897,41.015625
4898,41.015625
4899,41.015625
4900,39.062500
4901,41.015625
4902,39.062500
4903,39.062500
4904,39.062500
4905,37.109375
4906,37.109375
4907,37.109375
4908,37.109375
4909,37.109375
4910,35.156250
4911,35.156250
4912,35.156250
4913,35.156250
4914,35.156250
4915,33.203125
4916,33.203125
4917,33.203125
4918,33.203125
4919,33.203125
4920,31.250000
4921,31.250000
4922,31.250000
4923,31.250000
4924,29.296875
4925,29.296875
4926,29.296875
4927,29.296875
4928,29.296875
4929,27.343750
4930,27.343750
4931,27.343750
4932,27.343750
4933,25.390625
4934,25.390625
4935,25.390625
4936,25.390625
4937,25.390625
4938,27.343750
4939,23.437500
4940,25.390625
4941,23.437500
4942,21.484375
4943,21.484375
4944,21.484375
4945,21.484375
4946,19.531250
4947,19.531250
4948,19.531250
4949,19.531250
4950,17.578125
4951,19.531250
4952,17.578125
4953,15.625000
4954,17.578125
4955,15.625000
4956,11.718750
4957,15.625000
4958,15.625000
4959,15.625000
4960,13.671875
4961,13.671875
4962,13.671875
4963,13.671875
4964,11.718750
4965,11.718750
4966,11.718750
4967,11.718750
4968,11.718750
4969,11.718750
4970,9.765625
4971,9.765625
4972,9.765625
4973,9.765625
4974,7.812500
4975,7.812500
4976,7.812500
4977,5.859375
4978,5.859375
4979,5.859375
4980,5.859375
4981,5.859375
4982,3.906250
4983,3.906250
4984,3.906250
4985,3.906250
4986,1.953125
4987,1.953125
4988,1.953125
4989,1.953125
4990,1.953125
4991,0.000000
4992,0.000000
4993,0.000000
4994,0.000000
4995,-1.953125
4996,-1.953125
4997,-1.953125
4998,-3.906250
4999,-3.906250
5000,-3.906250
5001,-5.859375
5002,-5.859375
5003,-5.859375
5004,-5.859375
5005,-5.859375
5006,-7.812500
5007,-7.812500
5008,-7.812500
5009,-9.765625
5010,-7.812500
5011,-9.765625
5012,-11.718750
5013,-9.765625
5014,-9.765625
5015,-11.718750
5016,-11.718750
5017,-11.718750
5018,-11.718750
5019,-13.671875
5020,-13.671875
5021,-13.671875
5022,-13.671875
5023,-15.625000
5024,-15.625000
5025,-15.625000
5026,-15.625000
5027,-17.578125
5028,-17.578125
5029,-17.578125
5030,-17.578125
5031,-17.578125
5032,-17.578125
5033,-17.578125
5034,-19.531250
5035,-19.531250
5036,-19.531250
5037,-19.531250
5038,-21.484375
5039,-21.484375
5040,-21.484375
5041,-21.484375
5042,-21.484375
5043,-23.437500
5044,-23.437500
5045,-23.437500
5046,-23.437500
5047,-25.390625
5048,-25.390625
5049,-25.390625
5050,-25.390625
5051,-27.343750
5052,-27.343750
5053,-27.343750
5054,-27.343750
5055,-27.343750
5056,-29.296875
5057,-31.250000
5058,-27.343750
5059,-29.296875
5060,-29.296875
5061,-31.250000
5062,-31.250000
5063,-31.250000
5064,-31.250000
5065,-31.250000
5066,-31.250000
5067,-33.203125
5068,-33.203125
5069,-33.203125
5070,-33.203125
5071,-35.156250
5072,-35.156250
5073,-35.156250
5074,-35.156250
5075,-35.156250
5076,-35.156250
5077,-37.109375
5078,-37.109375
5079,-35.156250
5080,-37.109375
5081,-37.109375
5082,-39.062500
5083,-37.109375
5084,-39.062500
5085,-39.062500
5086,-39.062500
5087,-39.062500
5088,-39.062500
5089,-41.015625
5090,-41.015625
5091,-41.015625
5092,-41.015625
5093,-41.015625
5094,-41.015625
5095,-42.968750
5096,-42.968750
5097,-42.968750
5098,-42.968750
5099,-42.968750
5100,-42.968750
5101,-42.968750
5102,-42.968750
5103,-44.921875
5104,-44.921875
5105,-44.921875
5106,-44.921875
5107,-44.921875
5108,-44.921875
5109,-44.921875
5110,-46.875000
5111,-46.875000
5112,-46.875000
5113,-46.875000
5114,-46.875000
5115,-46.875000
5116,-46.875000
5117,-48.828125
5118,-46.875000
5119,-48.828125
5120,-48.828125
5121,-48.828125
5122,-48.828125
5123,-48.828125
5124,-50.781250
5125,-48.828125
5126,-50.781250
5127,-48.828125
5128,-50.781250
5129,-50.781250
5130,-50.781250
5131,-50.781250
5132,-50.781250
5133,-50.781250
5134,-50.781250
5135,-50.781250
5136,-50.781250
5137,-50.781250
5138,-52.734375
5139,-52.734375
5140,-52.734375
5141,-52.734375
5142,-52.734375
5143,-52.734375
5144,-52.734375
5145,-52.734375
5146,-52.734375
5147,-52.734375
5148,-54.687500
5149,-52.734375
5150,-52.734375
5151,-54.687500
5152,-52.734375
5153,-54.687500
5154,-54.687500
5155,-54.687500
5156,-54.687500
5157,-54.687500
5158,-54.687500
5159,-54.687500
5160,-56.640625
5161,-54.687500
5162,-54.687500
5163,-54.687500
5164,-54.687500
5165,-54.687500
5166,-54.687500
5167,-54.687500
5168,-54.687500
5169,-54.687500
5170,-54.687500
5171,-54.687500
5172,-54.687500
5173,-54.687500
5174,-54.687500
5175,-54.687500
5176,-54.687500
5177,-54.687500
5178,-54.687500
5179,-54.687500
5180,-54.687500
5181,-54.687500
5182,-54.687500
5183,-54.687500
5184,-54.687500
5185,-54.687500
5186,-54.687500
5187,-54.687500
5188,-56.640625
5189,-54.687500
5190,-56.640625
5191,-56.640625
5192,-54.687500
5193,-52.734375
5194,-54.687500
5195,-54.687500
5196,-54.687500
5197,-54.687500
5198,-54.687500
5199,-54.687500
5200,-54.687500
5201,-54.687500
5202,-54.687500
5203,-54.687500
5204,-54.687500
5205,-54.687500
5206,-54.687500
5207,-54.687500
5208,-54.687500
5209,-52.734375
5210,-52.734375
5211,-52.734375
5212,-52.734375
5213,-52.734375
5214,-52.734375
5215,-52.734375
5216,-52.734375
5217,-52.734375
5218,-52.734375
5219,-52.734375
5220,-52.734375
5221,-52.734375
5222,-52.734375
5223,-50.781250
5224,-50.781250
5225,-50.781250
5226,-50.781250
5227,-50.781250
5228,-48.828125
5229,-50.781250
5230,-50.781250
5231,-50.781250
5232,-50.781250
5233,-50.781250
5234,-50.781250
5235,-50.781250
5236,-48.828125
5237,-48.828125
5238,-48.828125
5239,-48.828125
5240,-48.828125
5241,-48.828125
5242,-46.875000
5243,-48.828125
5244,-46.875000
5245,-46.875000
5246,-46.875000
5247,-46.875000
5248,-46.875000
5249,-46.875000
5250,-46.875000
5251,-44.921875
5252,-46.875000
5253,-44.921875
5254,-42.968750
5255,-44.921875
5256,-44.921875
5257,-44.921875
5258,-44.921875
5259,-44.921875
5260,-42.968750
5261,-44.921875
5262,-42.968750
5263,-42.968750
5264,-42.968750
5265,-42.968750
5266,-42.968750
5267,-42.968750
5268,-41.015625
5269,-42.968750
5270,-41.015625
5271,-41.015625
5272,-41.015625
5273,-41.015625
5274,-39.062500
5275,-39.062500
5276,-39.062500
5277,-39.062500
5278,-37.109375
5279,-37.109375
5280,-37.109375
5281,-37.109375
5282,-37.109375
5283,-37.109375
5284,-37.109375
5285,-37.109375
5286,-35.156250
5287,-35.156250
5288,-35.156250
5289,-35.156250
5290,-35.156250
5291,-33.203125
5292,-33.203125
5293,-33.203125
5294,-33.203125
5295,-31.250000
5296,-31.250000
5297,-31.250000
5298,-31.250000
5299,-31.250000
5300,-29.296875
5301,-29.296875
5302,-29.296875
5303,-29.296875
5304,-29.296875
5305,-29.296875
5306,-27.343750
5307,-27.343750
5308,-27.343750
5309,-27.343750
5310,-27.343750
5311,-25.390625
5312,-25.390625
5313,-25.390625
5314,-25.390625
5315,-25.390625
5316,-25.390625
5317,-23.437500
5318,-23.437500
5319,-23.437500
5320,-23.437500
5321,-21.484375
5322,-21.484375
5323,-21.484375
5324,-21.484375
5325,-21.484375
5326,-19.531250
5327,-19.531250
5328,-19.531250
5329,-19.531250
5330,-19.531250
5331,-17.578125
5332,-19.531250
5333,-17.578125
5334,-17.578125
5335,-15.625000
5336,-15.625000
5337,-15.625000
5338,-15.625000
5339,-13.671875
5340,-13.671875
5341,-13.671875
5342,-13.671875
5343,-13.671875
5344,-11.718750
5345,-11.718750
5346,-11.718750
5347,-11.718750
5348,-9.765625
5349,-9.765625
5350,-9.765625
5351,-9.765625
5352,-9.765625
5353,-7.812500
5354,-7.812500
5355,-7.812500
5356,-7.812500
5357,-7.812500
5358,-5.859375
5359,-5.859375
5360,-3.906250
5361,-3.906250
5362,-3.906250
5363,-3.906250
5364,-1.953125
5365,-1.953125
5366,-3.906250
5367,-1.953125
5368,-1.953125
5369,-1.953125
5370,-1.953125
5371,0.000000
5372,0.000000
5373,1.953125
5374,1.953125
5375,1.953125
5376,1.953125
5377,1.953125
5378,3.906250
5379,3.906250
5380,3.906250
5381,3.906250
5382,3.906250
5383,3.906250
5384,5.859375
5385,5.859375
5386,5.859375
5387,5.859375
5388,7.812500
5389,7.812500
5390,7.812500
5391,7.812500
5392,9.765625
5393,9.765625
5394,9.765625
5395,9.765625
5396,11.718750
5397,11.718750
5398,11.718750
5399,13.671875
5400,13.671875
5401,13.671875
5402,13.671875
5403,13.671875
5404,15.625000
5405,13.671875
5406,15.625000
5407,15.625000
5408,15.625000
5409,15.625000
5410,17.578125
5411,17.578125
5412,17.578125
5413,17.578125
5414,19.531250
5415,19.531250
5416,19.531250
5417,19.531250
5418,21.484375
5419,21.484375
5420,21.484375
5421,21.484375
5422,23.437500
5423,23.437500
5424,23.437500
5425,23.437500
5426,25.390625
5427,25.390625
5428,25.390625
5429,25.390625
5430,25.390625
5431,27.343750
5432,27.343750
5433,27.343750
5434,27.343750
5435,27.343750
5436,29.296875
5437,29.296875
5438,29.296875
5439,29.296875
5440,31.250000
5441,29.296875
5442,31.250000
5443,31.250000
5444,31.250000
5445,31.250000
5446,31.250000
5447,33.203125
5448,33.203125
5449,33.203125
5450,33.203125
5451,33.203125
5452,35.156250
5453,35.156250
5454,35.156250
5455,35.156250
5456,37.109375
5457,37.109375
5458,37.109375
5459,37.109375
5460,37.109375
5461,39.062500
5462,37.109375
5463,39.062500
5464,39.062500
5465,39.062500
5466,39.062500
5467,39.062500
5468,41.015625
5469,41.015625
5470,41.015625
5471,41.015625
5472,42.968750
5473,42.968750
5474,42.968750
5475,42.968750
5476,42.968750
5477,42.968750
5478,44.921875
5479,44.921875
5480,44.921875
5481,44.921875
5482,44.921875
5483,44.921875
5484,46.875000
5485,46.875000
5486,46.875000
5487,46.875000
5488,46.875000
5489,48.828125
5490,48.828125
5491,48.828125
5492,48.828125
5493,48.828125
5494,48.828125
5495,48.828125
5496,48.828125
5497,50.781250
5498,50.781250
5499,50.781250
5500,50.781250
5501,50.781250
5502,50.781250
5503,50.781250
5504,50.781250
5505,52.734375
5506,52.734375
5507,52.734375
5508,52.734375
5509,52.734375
5510,52.734375
5511,52.734375
5512,54.687500
5513,52.734375
5514,52.734375
5515,54.687500
5516,54.687500
5517,54.687500
5518,54.687500
5519,54.687500
5520,54.687500
5521,54.687500
5522,54.687500
5523,56.640625
5524,56.640625
5525,56.640625
5526,56.640625
5527,56.640625
5528,56.640625
5529,56.640625
5530,56.640625
5531,56.640625
5532,56.640625
5533,58.593750
5534,58.593750
5535,58.593750
5536,58.593750
5537,58.593750
5538,58.593750
5539,58.593750
5540,58.593750
5541,58.593750
5542,58.593750
5543,58.593750
5544,58.593750
5545,60.546875
5546,60.546875
5547,60.546875
5548,62.500000
5549,60.546875
5550,60.546875
5551,60.546875
5552,60.546875
5553,60.546875
5554,60.546875
5555,60.546875
5556,60.546875
5557,60.546875
5558,60.546875
5559,62.500000
5560,62.500000
5561,60.546875
5562,62.500000
5563,60.546875
5564,62.500000
5565,62.500000
5566,60.546875
5567,62.500000
5568,62.500000
5569,62.500000
5570,62.500000
5571,68.359375
5572,62.500000
5573,62.500000
5574,62.500000
5575,62.500000
5576,62.500000
5577,62.500000
5578,62.500000
5579,62.500000
5580,60.546875
5581,62.500000
5582,62.500000
5583,62.500000
5584,62.500000
5585,62.500000
5586,62.500000
5587,62.500000
5588,62.500000
5589,60.546875
5590,58.593750
5591,62.500000
5592,62.500000
5593,62.500000
5594,62.500000
5595,62.500000
5596,62.500000
5597,62.500000
5598,62.500000
5599,62.500000
5600,62.500000
5601,62.500000
5602,62.500000
5603,62.500000
5604,62.500000
5605,60.546875
5606,62.500000
5607,62.500000
5608,68.359375
5609,60.546875
5610,62.500000
5611,62.500000
5612,62.500000
5613,62.500000
5614,62.500000
5615,60.546875
5616,62.500000
5617,60.546875
5618,60.546875
5619,60.546875
5620,62.500000
5621,60.546875
5622,60.546875
5623,60.546875
5624,60.546875
5625,60.546875
5626,60.546875
5627,60.546875
5628,60.546875
5629,58.593750
5630,58.593750
5631,58.593750
5632,58.593750
5633,60.546875
5634,58.593750
5635,58.593750
5636,58.593750
5637,58.593750
5638,58.593750
5639,58.593750
5640,58.593750
5641,56.640625
5642,56.640625
5643,58.593750
5644,56.640625
5645,56.640625
5646,56.640625
5647,56.640625
5648,56.640625
5649,54.687500
5650,56.640625
5651,54.687500
5652,56.640625
5653,54.687500
5654,54.687500
5655,52.734375
5656,54.687500
5657,52.734375
5658,54.687500
5659,54.687500
5660,52.734375
5661,52.734375
5662,52.734375
5663,52.734375
5664,52.734375
5665,52.734375
5666,52.734375
5667,52.734375
5668,52.734375
5669,50.781250
5670,50.781250
5671,50.781250
5672,50.781250
5673,50.781250
5674,50.781250
5675,50.781250
5676,50.781250
5677,48.828125
5678,48.828125
5679,48.828125
5680,46.875000
5681,48.828125
5682,48.828125
5683,46.875000
5684,46.875000
5685,46.875000
5686,46.875000
5687,46.875000
5688,46.875000
5689,44.921875
5690,44.921875
5691,44.921875
5692,44.921875
5693,44.921875
5694,44.921875
5695,44.921875
5696,42.968750
5697,42.968750
5698,42.968750
5699,42.968750
5700,42.968750
5701,41.015625
5702,41.015625
5703,41.015625
5704,41.015625
5705,41.015625
5706,41.015625
5707,39.062500
5708,39.062500
5709,39.062500
5710,39.062500
5711,39.062500
5712,37.109375
5713,37.109375
5714,37.109375
5715,37.109375
5716,37.109375
5717,35.156250
5718,35.156250
5719,35.156250
5720,35.156250
5721,33.203125
5722,33.203125
5723,33.203125
5724,33.203125
5725,33.203125
5726,33.203125
5727,33.203125
5728,31.250000
5729,31.250000
5730,31.250000
5731,31.250000
5732,29.296875
5733,29.296875
5734,29.296875
5735,29.296875
5736,27.343750
5737,29.296875
5738,27.343750
5739,27.343750
5740,25.390625
5741,25.390625
5742,25.390625
5743,25.390625
5744,25.390625
5745,25.390625
5746,23.437500
5747,23.437500
5748,21.484375
5749,23.437500
5750,23.437500
5751,21.484375
5752,21.484375
5753,21.484375
5754,21.484375
5755,21.484375
5756,19.531250
5757,19.531250
5758,19.531250
5759,17.578125
5760,17.578125
5761,17.578125
5762,17.578125
5763,15.625000
5764,15.625000
5765,15.625000
5766,15.625000
5767,15.625000
5768,13.671875
5769,13.671875
5770,13.671875
5771,11.718750
5772,11.718750
5773,11.718750
5774,11.718750
5775,11.718750
5776,9.765625
5777,9.765625
5778,9.765625
5779,9.765625
5780,7.812500
5781,7.812500
5782,7.812500
5783,7.812500
5784,5.859375
5785,5.859375
5786,5.859375
5787,5.859375
5788,3.906250
5789,3.906250
5790,3.906250
5791,3.906250
5792,3.906250
5793,1.953125
5794,1.953125
5795,1.953125
5796,1.953125
5797,0.000000
5798,0.000000
5799,0.000000
5800,0.000000
5801,0.000000
5802,-1.953125
5803,-1.953125
5804,-3.906250
5805,-3.906250
5806,-3.906250
5807,-3.906250
5808,-3.906250
5809,-3.906250
5810,-5.859375
5811,-5.859375
5812,-5.859375
5813,-5.859375
5814,-5.859375
5815,-7.812500
5816,-7.812500
5817,-7.812500
5818,-7.812500
5819,-9.765625
5820,-9.765625
5821,-9.765625
5822,-11.718750
5823,-11.718750
5824,-11.718750
5825,-11.718750
5826,-13.671875
5827,-13.671875
5828,-13.671875
5829,-13.671875
5830,-13.671875
5831,-13.671875
5832,-15.625000
5833,-15.625000
5834,-15.625000
5835,-15.625000
5836,-17.578125
5837,-17.578125
5838,-17.578125
5839,-17.578125
5840,-19.531250
5841,-19.531250
5842,-21.484375
5843,-19.531250
5844,-19.531250
5845,-21.484375
5846,-21.484375
5847,-21.484375
5848,-23.437500
5849,-23.437500
5850,-23.437500
5851,-23.437500
5852,-23.437500
5853,-25.390625
5854,-25.390625
5855,-25.390625
5856,-25.390625
5857,-25.390625
5858,-27.343750
5859,-27.343750
5860,-27.343750
5861,-27.343750
5862,-27.343750
5863,-29.296875
5864,-29.296875
5865,-29.296875
5866,-27.343750
5867,-29.296875
5868,-31.250000
5869,-31.250000
5870,-31.250000
5871,-31.250000
5872,-33.203125
5873,-31.250000
5874,-33.203125
5875,-33.203125
5876,-33.203125
5877,-33.203125
5878,-35.156250
5879,-35.156250
5880,-35.156250
5881,-35.156250
5882,-35.156250
5883,-35.156250
5884,-37.109375
5885,-35.156250
5886,-37.109375
5887,-37.109375
5888,-37.109375
5889,-39.062500
5890,-39.062500
5891,-37.109375
5892,-39.062500
5893,-39.062500
5894,-39.062500
5895,-41.015625
5896,-39.062500
5897,-41.015625
5898,-41.015625
5899,-41.015625
5900,-41.015625
5901,-41.015625
5902,-41.015625
5903,-42.968750
5904,-42.968750
5905,-42.968750
5906,-42.968750
5907,-42.968750
5908,-42.968750
5909,-44.921875
5910,-44.921875
5911,-44.921875
5912,-44.921875
5913,-44.921875
5914,-44.921875
5915,-44.921875
5916,-46.875000
5917,-46.875000
5918,-46.875000
5919,-46.875000
5920,-46.875000
5921,-46.875000
5922,-46.875000
5923,-48.828125
5924,-48.828125
5925,-46.875000
5926,-48.828125
5927,-48.828125
5928,-48.828125
5929,-48.828125
5930,-48.828125
5931,-48.828125
5932,-48.828125
5933,-48.828125
5934,-50.781250
5935,-48.828125
5936,-50.781250
5937,-50.781250
5938,-50.781250
5939,-50.781250
5940,-50.781250
5941,-50.781250
5942,-50.781250
5943,-50.781250
5944,-50.781250
5945,-52.734375
5946,-52.734375
5947,-52.734375
5948,-52.734375
5949,-52.734375
5950,-52.734375
5951,-52.734375
5952,-52.734375
5953,-52.734375
5954,-54.687500
5955,-52.734375
5956,-52.734375
5957,-52.734375
5958,-52.734375
5959,-54.687500
5960,-54.687500
5961,-54.687500
5962,-54.687500
5963,-54.687500
5964,-54.687500
5965,-54.687500
5966,-54.687500
5967,-54.687500
5968,-54.687500
5969,-54.687500
5970,-54.687500
5971,-54.687500
5972,-54.687500
5973,-54.687500
5974,-54.687500
5975,-54.687500
5976,-54.687500
5977,-54.687500
5978,-54.687500
5979,-56.640625
5980,-54.687500
5981,-54.687500
5982,-54.687500
5983,-54.687500
5984,-54.687500
5985,-54.687500
5986,-54.687500
5987,-56.640625
5988,-54.687500
5989,-56.640625
5990,-54.687500
5991,-54.687500
5992,-54.687500
5993,-54.687500
5994,-54.687500
5995,-54.687500
5996,-54.687500
5997,-54.687500
5998,-54.687500
5999,-54.687500
6000,-54.687500
6001,-54.687500
6002,-54.687500
6003,-54.687500
6004,-54.687500
6005,-54.687500
6006,-54.687500
6007,-54.687500
6008,-54.687500
6009,-54.687500
6010,-54.687500
6011,-54.687500
6012,-54.687500
6013,-54.687500
6014,-52.734375
6015,-54.687500
6016,-52.734375
6017,-54.687500
6018,-52.734375
6019,-52.734375
6020,-54.687500
6021,-52.734375
6022,-52.734375
6023,-52.734375
6024,-52.734375
6025,-52.734375
6026,-52.734375
6027,-52.734375
6028,-52.734375
6029,-52.734375
6030,-52.734375
6031,-52.734375
6032,-50.781250
6033,-50.781250
6034,-50.781250
6035,-50.781250
6036,-50.781250
6037,-50.781250
6038,-50.781250
6039,-50.781250
6040,-50.781250
6041,-50.781250
6042,-48.828125
6043,-48.828125
6044,-48.828125
6045,-48.828125
6046,-48.828125
6047,-48.828125
6048,-48.828125
6049,-48.828125
6050,-48.828125
6051,-48.828125
6052,-46.875000
6053,-46.875000
6054,-46.875000
6055,-46.875000
6056,-46.875000
6057,-46.875000
6058,-44.921875
6059,-44.921875
6060,-46.875000
6061,-44.921875
6062,-44.921875
6063,-46.875000
6064,-44.921875
6065,-44.921875
6066,-44.921875
6067,-42.968750
6068,-42.968750
6069,-42.968750
6070,-42.968750
6071,-42.968750
6072,-41.015625
6073,-41.015625
6074,-41.015625
6075,-41.015625
6076,-41.015625
6077,-41.015625
6078,-41.015625
6079,-41.015625
6080,-37.109375
6081,-39.062500
6082,-39.062500
6083,-39.062500
6084,-39.062500
6085,-39.062500
6086,-37.109375
6087,-37.109375
6088,-37.109375
6089,-37.109375
6090,-37.109375
6091,-37.109375
6092,-35.156250
6093,-35.156250
6094,-35.156250
6095,-35.156250
6096,-37.109375
6097,-35.156250
6098,-33.203125
6099,-33.203125
6100,-33.203125
6101,-33.203125
6102,-31.250000
6103,-31.250000
6104,-31.250000
6105,-31.250000
6106,-31.250000
6107,-31.250000
6108,-31.250000
6109,-29.296875
6110,-29.296875
6111,-31.250000
6112,-29.296875
6113,-29.296875
6114,-27.343750
6115,-27.343750
6116,-27.343750
6117,-27.343750
6118,-27.343750
6119,-25.390625
6120,-25.390625
6121,-25.390625
6122,-25.390625
6123,-25.390625
6124,-23.437500
6125,-23.437500
6126,-23.437500
6127,-23.437500
6128,-23.437500
6129,-21.484375
6130,-27.343750
6131,-19.531250
6132,-19.531250
6133,-19.531250
6134,-19.531250
6135,-19.531250
6136,-17.578125
6137,-17.578125
6138,-17.578125
6139,-21.484375
6140,-15.625000
6141,-17.578125
6142,-15.625000
6143,-15.625000
6144,-15.625000
6145,-13.671875
6146,-13.671875
6147,-13.671875
6148,-13.671875
6149,-13.671875
6150,-13.671875
6151,-11.718750
6152,-11.718750
6153,-11.718750
6154,-11.718750
6155,-9.765625
6156,-9.765625
6157,-9.765625
6158,-9.765625
6159,-9.765625
6160,-11.718750
6161,-7.812500
6162,-9.765625
6163,-5.859375
6164,-7.812500
6165,-7.812500
6166,-5.859375
6167,-5.859375
6168,-5.859375
6169,-3.906250
6170,-3.906250
6171,-3.906250
6172,-3.906250
6173,-1.953125
6174,-1.953125
6175,-1.953125
6176,-1.953125
6177,0.000000
6178,0.000000
6179,0.000000
6180,0.000000
6181,0.000000
6182,1.953125
6183,1.953125
6184,1.953125
6185,1.953125
6186,3.906250
6187,3.906250
6188,3.906250
6189,3.906250
6190,5.859375
6191,5.859375
6192,5.859375
6193,5.859375
6194,7.812500
6195,7.812500
6196,7.812500
6197,9.765625
6198,9.765625
6199,9.765625
6200,9.765625
6201,9.765625
6202,9.765625
6203,11.718750
6204,11.718750
6205,11.718750
6206,11.718750
6207,13.671875
6208,13.671875
6209,13.671875
6210,13.671875
6211,15.625000
6212,15.625000
6213,15.625000
6214,15.625000
6215,15.625000
6216,17.578125
6217,17.578125
6218,17.578125
6219,17.578125
6220,19.531250
6221,17.578125
6222,19.531250
6223,19.531250
6224,19.531250
6225,19.531250
6226,21.484375
6227,21.484375
6228,21.484375
6229,21.484375
6230,23.437500
6231,23.437500
6232,23.437500
6233,23.437500
6234,25.390625
6235,25.390625
6236,25.390625
6237,25.390625
6238,25.390625
6239,25.390625
6240,27.343750
6241,27.343750
6242,27.343750
6243,27.343750
6244,29.296875
6245,29.296875
6246,29.296875
6247,29.296875
6248,29.296875
6249,31.250000
6250,31.250000
6251,29.296875
6252,31.250000
6253,33.203125
6254,33.203125
6255,33.203125
6256,33.203125
6257,35.156250
6258,35.156250
6259,33.203125
6260,35.156250
6261,35.156250
6262,35.156250
6263,37.109375
6264,37.109375
6265,37.109375
6266,37.109375
6267,37.109375
6268,37.109375
6269,39.062500
6270,39.062500
6271,39.062500
6272,39.062500
6273,39.062500
6274,41.015625
6275,41.015625
6276,41.015625
6277,41.015625
6278,41.015625
6279,42.968750
6280,41.015625
6281,42.968750
6282,42.968750
6283,42.968750
6284,42.968750
6285,44.921875
6286,42.968750
6287,44.921875
6288,44.921875
6289,44.921875
6290,44.921875
6291,44.921875
6292,46.875000
6293,46.875000
6294,46.875000
6295,46.875000
6296,46.875000
6297,46.875000
6298,46.875000
6299,48.828125
6300,48.828125
6301,48.828125
6302,48.828125
6303,48.828125
6304,48.828125
6305,50.781250
6306,50.781250
6307,50.781250
6308,50.781250
6309,50.781250
6310,50.781250
6311,50.781250
6312,50.781250
6313,52.734375
6314,52.734375
6315,52.734375
6316,52.734375
6317,52.734375
6318,54.687500
6319,52.734375
6320,52.734375
6321,54.687500
6322,54.687500
6323,54.687500
6324,54.687500
6325,54.687500
6326,54.687500
6327,54.687500
6328,54.687500
6329,56.640625
6330,56.640625
6331,56.640625
6332,56.640625
6333,56.640625
6334,56.640625
6335,56.640625
6336,56.640625
6337,56.640625
6338,56.640625
6339,56.640625
6340,58.593750
6341,58.593750
6342,58.593750
6343,58.593750
6344,60.546875
6345,58.593750
6346,58.593750
6347,58.593750
6348,58.593750
6349,58.593750
6350,58.593750
6351,58.593750
6352,60.546875
6353,60.546875
6354,58.593750
6355,58.593750
6356,60.546875
6357,56.640625
6358,60.546875
6359,60.546875
6360,60.546875
6361,62.500000
6362,60.546875
6363,60.546875
6364,60.546875
6365,60.546875
6366,60.546875
6367,60.546875
6368,62.500000
6369,60.546875
6370,60.546875
6371,60.546875
6372,60.546875
6373,60.546875
6374,62.500000
6375,62.500000
6376,62.500000
6377,60.546875
6378,62.500000
6379,60.546875
6380,62.500000
6381,62.500000
6382,62.500000
6383,62.500000
6384,62.500000
6385,62.500000
6386,62.500000
6387,62.500000
6388,62.500000
6389,62.500000
6390,62.500000
6391,62.500000
6392,62.500000
6393,62.500000
6394,62.500000
6395,62.500000
6396,62.500000
6397,62.500000
6398,62.500000
6399,62.500000
6400,62.500000
6401,62.500000
6402,62.500000
6403,62.500000
6404,62.500000
6405,62.500000
6406,62.500000
6407,62.500000
6408,62.500000
6409,62.500000
6410,62.500000
6411,62.500000
6412,62.500000
6413,62.500000
6414,60.546875
6415,60.546875
6416,62.500000
6417,62.500000
6418,60.546875
6419,60.546875
6420,60.546875
6421,60.546875
6422,60.546875
6423,60.546875
6424,60.546875
6425,60.546875
6426,60.546875
6427,60.546875
6428,58.593750
6429,58.593750
6430,60.546875
6431,60.546875
6432,60.546875
6433,58.593750
6434,58.593750
6435,58.593750
6436,58.593750
6437,58.593750
6438,58.593750
6439,58.593750
6440,58.593750
6441,58.593750
6442,58.593750
6443,58.593750
6444,58.593750
6445,58.593750
6446,58.593750
6447,58.593750
6448,56.640625
6449,56.640625
6450,56.640625
6451,56.640625
6452,56.640625
6453,56.640625
6454,56.640625
6455,56.640625
6456,56.640625
6457,56.640625
6458,56.640625
6459,56.640625
6460,54.687500
6461,54.687500
6462,54.687500
6463,54.687500
6464,54.687500
6465,54.687500
6466,54.687500
6467,52.734375
6468,52.734375
6469,54.687500
6470,52.734375
6471,52.734375
6472,52.734375
6473,52.734375
6474,52.734375
6475,52.734375
6476,50.781250
6477,50.781250
6478,50.781250
6479,50.781250
6480,50.781250
6481,50.781250
6482,50.781250
6483,48.828125
6484,48.828125
6485,48.828125
6486,48.828125
6487,46.875000
6488,48.828125
6489,48.828125
6490,46.875000
6491,46.875000
6492,46.875000
6493,46.875000
6494,46.875000
6495,46.875000
6496,44.921875
6497,44.921875
6498,44.921875
6499,44.921875
6500,44.921875
6501,42.968750
6502,42.968750
6503,42.968750
6504,42.968750
6505,42.968750
6506,42.968750
6507,42.968750
6508,41.015625
6509,41.015625
6510,41.015625
6511,41.015625
6512,41.015625
6513,39.062500
6514,39.062500
6515,39.062500
6516,39.062500
6517,39.062500
6518,39.062500
6519,37.109375
6520,37.109375
6521,37.109375
6522,37.109375
6523,37.109375
6524,37.109375
6525,35.156250
6526,35.156250
6527,33.203125
6528,35.156250
6529,35.156250
6530,33.203125
6531,33.203125
6532,33.203125
6533,33.203125
6534,31.250000
6535,31.250000
6536,31.250000
6537,31.250000
6538,29.296875
6539,29.296875
6540,29.296875
6541,29.296875
6542,29.296875
6543,27.343750
6544,27.343750
6545,27.343750
6546,27.343750
6547,27.343750
6548,25.390625
6549,25.390625
6550,25.390625
6551,25.390625
6552,23.437500
6553,23.437500
6554,23.437500
6555,23.437500
6556,23.437500
6557,21.484375
6558,21.484375
6559,21.484375
6560,21.484375
6561,21.484375
6562,19.531250
6563,19.531250
6564,19.531250
6565,19.531250
6566,17.578125
6567,17.578125
6568,17.578125
6569,17.578125
6570,15.625000
6571,15.625000
6572,15.625000
6573,15.625000
6574,13.671875
6575,13.671875
6576,13.671875
6577,13.671875
6578,13.671875
6579,9.765625
6580,11.718750
6581,11.718750
6582,11.718750
6583,9.765625
6584,11.718750
6585,9.765625
6586,9.765625
6587,9.765625
6588,7.812500
6589,7.812500
6590,7.812500
6591,7.812500
6592,7.812500
6593,5.859375
6594,5.859375
6595,5.859375
6596,3.906250
6597,3.906250
6598,3.906250
6599,3.906250
6600,1.953125
6601,1.953125
6602,1.953125
6603,1.953125
6604,0.000000
6605,0.000000
6606,0.000000
6607,0.000000
6608,-1.953125
6609,-1.953125
6610,-1.953125
6611,-1.953125
6612,-3.906250
6613,-3.906250
6614,-3.906250
6615,-3.906250
6616,-3.906250
6617,-5.859375
6618,-5.859375
6619,-5.859375
6620,-5.859375
6621,-5.859375
6622,-7.812500
6623,-7.812500
6624,-9.765625
6625,-7.812500
6626,-9.765625
6627,-9.765625
6628,-9.765625
6629,-11.718750
6630,-11.718750
6631,-11.718750
6632,-11.718750
6633,-11.718750
6634,-13.671875
6635,-13.671875
6636,-13.671875
6637,-13.671875
6638,-13.671875
6639,-15.625000
6640,-15.625000
6641,-17.578125
6642,-15.625000
6643,-15.625000
6644,-17.578125
6645,-17.578125
6646,-17.578125
6647,-17.578125
6648,-19.531250
6649,-19.531250
6650,-19.531250
6651,-21.484375
6652,-21.484375
6653,-21.484375
6654,-21.484375
6655,-21.484375
6656,-21.484375
6657,-21.484375
6658,-23.437500
6659,-23.437500
6660,-23.437500
6661,-23.437500
6662,-25.390625
6663,-25.390625
6664,-25.390625
6665,-25.390625
6666,-25.390625
6667,-27.343750
6668,-27.343750
6669,-27.343750
6670,-27.343750
6671,-29.296875
6672,-29.296875
6673,-29.296875
6674,-29.296875
6675,-29.296875
6676,-31.250000
6677,-31.250000
6678,-31.250000
6679,-31.250000
6680,-31.250000
6681,-33.203125
6682,-33.203125
6683,-33.203125
6684,-35.156250
6685,-33.203125
6686,-35.156250
6687,-35.156250
6688,-35.156250
6689,-35.156250
6690,-37.109375
6691,-35.156250
6692,-37.109375
6693,-37.109375
6694,-37.109375
6695,-37.109375
6696,-37.109375
6697,-37.109375
6698,-39.062500
6699,-39.062500
6700,-33.203125
6701,-39.062500
6702,-37.109375
6703,-41.015625
6704,-41.015625
6705,-41.015625
6706,-41.015625
6707,-41.015625
6708,-42.968750
6709,-41.015625
6710,-41.015625
6711,-42.968750
6712,-42.968750
6713,-42.968750
6714,-42.968750
6715,-42.968750
6716,-46.875000
6717,-44.921875
6718,-44.921875
6719,-42.968750
6720,-44.921875
6721,-44.921875
6722,-44.921875
6723,-44.921875
6724,-44.921875
6725,-46.875000
6726,-46.875000
6727,-46.875000
6728,-46.875000
6729,-46.875000
6730,-46.875000
6731,-48.828125
6732,-48.828125
6733,-48.828125
6734,-48.828125
6735,-48.828125
6736,-48.828125
6737,-48.828125
6738,-48.828125
6739,-48.828125
6740,-48.828125
6741,-50.781250
6742,-50.781250
6743,-50.781250
6744,-50.781250
6745,-50.781250
6746,-50.781250
6747,-50.781250
6748,-52.734375
6749,-50.781250
6750,-50.781250
6751,-52.734375
6752,-52.734375
6753,-52.734375
6754,-52.734375
6755,-52.734375
6756,-52.734375
6757,-52.734375
6758,-52.734375
6759,-52.734375
6760,-52.734375
6761,-54.687500
6762,-52.734375
6763,-52.734375
6764,-52.734375
6765,-54.687500
6766,-52.734375
6767,-52.734375
6768,-54.687500
6769,-54.687500
6770,-54.687500
6771,-54.687500
6772,-54.687500
6773,-54.687500
6774,-54.687500
6775,-54.687500
6776,-54.687500
6777,-54.687500
6778,-54.687500
6779,-54.687500
6780,-54.687500
6781,-54.687500
6782,-54.687500
6783,-54.687500
6784,-54.687500
6785,-54.687500
6786,-54.687500
6787,-54.687500
6788,-54.687500
6789,-54.687500
6790,-54.687500
6791,-54.687500
6792,-60.546875
6793,-54.687500
6794,-54.687500
6795,-54.687500
6796,-54.687500
6797,-54.687500
6798,-54.687500
6799,-54.687500
6800,-54.687500
6801,-56.640625
6802,-54.687500
6803,-54.687500
6804,-54.687500
6805,-54.687500
6806,-54.687500
6807,-54.687500
6808,-54.687500
6809,-54.687500
6810,-56.640625
6811,-54.687500
6812,-54.687500
6813,-54.687500
6814,-54.687500
6815,-54.687500
6816,-54.687500
6817,-54.687500
6818,-54.687500
6819,-54.687500
6820,-54.687500
6821,-54.687500
6822,-54.687500
6823,-54.687500
6824,-52.734375
6825,-52.734375
6826,-54.687500
6827,-52.734375
6828,-52.734375
6829,-52.734375
6830,-52.734375
6831,-52.734375
6832,-52.734375
6833,-52.734375
6834,-52.734375
6835,-52.734375
6836,-52.734375
6837,-52.734375
6838,-50.781250
6839,-50.781250
6840,-50.781250
6841,-50.781250
6842,-50.781250
6843,-50.781250
6844,-50.781250
6845,-50.781250
6846,-50.781250
6847,-50.781250
6848,-48.828125
6849,-48.828125
6850,-46.875000
6851,-48.828125
6852,-48.828125
6853,-48.828125
6854,-48.828125
6855,-48.828125
6856,-48.828125
6857,-48.828125
6858,-48.828125
6859,-46.875000
6860,-46.875000
6861,-46.875000
6862,-46.875000
6863,-46.875000
6864,-46.875000
6865,-46.875000
6866,-46.875000
6867,-44.921875
6868,-44.921875
6869,-44.921875
6870,-44.921875
6871,-44.921875
6872,-44.921875
6873,-44.921875
6874,-44.921875
6875,-44.921875
6876,-42.968750
6877,-42.968750
6878,-42.968750
6879,-42.968750
6880,-42.968750
6881,-42.968750
6882,-42.968750
6883,-41.015625
6884,-41.015625
6885,-41.015625
6886,-41.015625
6887,-39.062500
6888,-41.015625
6889,-41.015625
6890,-39.062500
6891,-39.062500
6892,-37.109375
6893,-37.109375
6894,-39.062500
6895,-37.109375
6896,-37.109375
6897,-37.109375
6898,-37.109375
6899,-37.109375
6900,-35.156250
6901,-35.156250
6902,-35.156250
6903,-35.156250
6904,-35.156250
6905,-33.203125
6906,-33.203125
6907,-33.203125
6908,-33.203125
6909,-33.203125
6910,-33.203125
6911,-31.250000
6912,-31.250000
6913,-31.250000
6914,-31.250000
6915,-31.250000
6916,-29.296875
6917,-29.296875
6918,-29.296875
6919,-29.296875
6920,-27.343750
6921,-27.343750
6922,-27.343750
6923,-27.343750
6924,-27.343750
6925,-27.343750
6926,-25.390625
6927,-25.390625
6928,-25.390625
6929,-25.390625
6930,-25.390625
6931,-25.390625
6932,-23.437500
6933,-23.437500
6934,-23.437500
6935,-23.437500
6936,-23.437500
6937,-21.484375
6938,-21.484375
6939,-19.531250
6940,-19.531250
6941,-17.578125
6942,-19.531250
6943,-19.531250
6944,-19.531250
6945,-17.578125
6946,-17.578125
6947,-17.578125
6948,-15.625000
6949,-17.578125
6950,-15.625000
6951,-15.625000
6952,-15.625000
6953,-15.625000
6954,-13.671875
6955,-13.671875
6956,-13.671875
6957,-13.671875
6958,-13.671875
6959,-11.718750
6960,-11.718750
6961,-11.718750
6962,-9.765625
6963,-9.765625
6964,-9.765625
6965,-9.765625
6966,-9.765625
6967,-7.812500
6968,-7.812500
6969,-7.812500
6970,-7.812500
6971,-5.859375
6972,-5.859375
6973,-5.859375
6974,-5.859375
6975,-5.859375
6976,-3.906250
6977,-3.906250
6978,-3.906250
6979,-3.906250
6980,-1.953125
6981,-1.953125
6982,-1.953125
6983,-1.953125
6984,0.000000
6985,0.000000
6986,0.000000
6987,0.000000
6988,0.000000
6989,1.953125
6990,1.953125
6991,1.953125
6992,1.953125
6993,3.906250
6994,3.906250
6995,3.906250
6996,3.906250
6997,5.859375
6998,5.859375
6999,5.859375
7000,5.859375
7001,5.859375
7002,7.812500
7003,7.812500
7004,7.812500
7005,7.812500
7006,7.812500
7007,9.765625
7008,9.765625
7009,9.765625
7010,9.765625
7011,11.718750
7012,11.718750
7013,11.718750
7014,11.718750
7015,13.671875
7016,13.671875
7017,13.671875
7018,13.671875
7019,13.671875
7020,15.625000
7021,15.625000
7022,15.625000
7023,15.625000
7024,17.578125
7025,17.578125
7026,17.578125
7027,19.531250
7028,19.531250
7029,19.531250
7030,19.531250
7031,19.531250
7032,21.484375
7033,21.484375
7034,21.484375
7035,21.484375
7036,23.437500
7037,23.437500
7038,23.437500
7039,23.437500
7040,25.390625
7041,25.390625
7042,25.390625
7043,25.390625
7044,25.390625
7045,27.343750
7046,27.343750
7047,27.343750
7048,27.343750
7049,27.343750
7050,29.296875
7051,29.296875
7052,29.296875
7053,29.296875
7054,31.250000
7055,31.250000
7056,31.250000
7057,31.250000
7058,31.250000
7059,31.250000
7060,31.250000
7061,33.203125
7062,33.203125
7063,33.203125
7064,33.203125
7065,33.203125
7066,35.156250
7067,35.156250
7068,35.156250
7069,35.156250
7070,37.109375
7071,37.109375
7072,37.109375
7073,37.109375
7074,37.109375
7075,37.109375
7076,39.062500
7077,39.062500
7078,39.062500
7079,39.062500
7080,39.062500
7081,41.015625
7082,41.015625
7083,41.015625
7084,41.015625
7085,41.015625
7086,42.968750
7087,42.968750
7088,42.968750
7089,42.968750
7090,42.968750
7091,42.968750
7092,44.921875
7093,42.968750
7094,44.921875
7095,44.921875
7096,44.921875
7097,44.921875
7098,44.921875
7099,46.875000
7100,46.875000
7101,46.875000
7102,46.875000
7103,48.828125
7104,46.875000
7105,48.828125
7106,48.828125
7107,48.828125
7108,48.828125
7109,48.828125
7110,48.828125
7111,50.781250
7112,50.781250
7113,50.781250
7114,50.781250
7115,50.781250
7116,50.781250
7117,50.781250
7118,52.734375
7119,52.734375
7120,52.734375
7121,52.734375
7122,52.734375
7123,52.734375
7124,52.734375
7125,52.734375
7126,52.734375
7127,54.687500
7128,54.687500
7129,54.687500
7130,54.687500
7131,54.687500
7132,54.687500
7133,54.687500
7134,54.687500
7135,54.687500
7136,56.640625
7137,56.640625
7138,56.640625
7139,56.640625
7140,56.640625
7141,56.640625
7142,56.640625
7143,56.640625
7144,56.640625
7145,56.640625
7146,58.593750
7147,58.593750
7148,58.593750
7149,58.593750
7150,58.593750
7151,58.593750
7152,58.593750
7153,58.593750
7154,58.593750
7155,58.593750
7156,58.593750
7157,60.546875
7158,58.593750
7159,60.546875
7160,60.546875
7161,60.546875
7162,60.546875
7163,60.546875
7164,60.546875
7165,60.546875
7166,60.546875
7167,60.546875
7168,60.546875
7169,60.546875
7170,62.500000
7171,60.546875
7172,60.546875
7173,62.500000
7174,62.500000
7175,62.500000
7176,60.546875
7177,62.500000
7178,62.500000
7179,62.500000
7180,62.500000
7181,62.500000
7182,62.500000
7183,62.500000
7184,62.500000
7185,62.500000
7186,62.500000
7187,60.546875
7188,62.500000
7189,62.500000
7190,62.500000
7191,62.500000
7192,62.500000
7193,62.500000
7194,62.500000
7195,62.500000
7196,62.500000
7197,62.500000
7198,62.500000
7199,62.500000
7200,62.500000
7201,62.500000
7202,62.500000
7203,62.500000
7204,64.453125
7205,62.500000
7206,62.500000
7207,62.500000
7208,62.500000
7209,62.500000
7210,62.500000
7211,62.500000
7212,62.500000
7213,62.500000
7214,62.500000
7215,62.500000
7216,62.500000
7217,62.500000
7218,62.500000
7219,62.500000
7220,62.500000
7221,62.500000
7222,62.500000
7223,62.500000
7224,62.500000
7225,62.500000
7226,62.500000
7227,62.500000
7228,62.500000
7229,62.500000
7230,60.546875
7231,62.500000
7232,60.546875
7233,60.546875
7234,60.546875
7235,60.546875
7236,60.546875
7237,60.546875
7238,60.546875
7239,60.546875
7240,60.546875
7241,60.546875
7242,60.546875
7243,60.546875
7244,60.546875
7245,58.593750
7246,58.593750
7247,58.593750
7248,58.593750
7249,58.593750
7250,58.593750
7251,58.593750
7252,58.593750
7253,58.593750
7254,58.593750
7255,56.640625
7256,58.593750
7257,56.640625
7258,56.640625
7259,56.640625
7260,56.640625
7261,56.640625
7262,54.687500
7263,56.640625
7264,56.640625
7265,56.640625
7266,54.687500
7267,54.687500
7268,54.687500
7269,54.687500
7270,54.687500
7271,54.687500
7272,54.687500
7273,54.687500
7274,54.687500
7275,52.734375
7276,52.734375
7277,52.734375
7278,52.734375
7279,52.734375
7280,52.734375
7281,52.734375
7282,52.734375
7283,52.734375
7284,50.781250
7285,50.781250
7286,50.781250
7287,50.781250
7288,50.781250
7289,50.781250
7290,50.781250
7291,48.828125
7292,48.828125
7293,48.828125
7294,48.828125
7295,48.828125
7296,48.828125
7297,48.828125
7298,46.875000
7299,46.875000
7300,46.875000
7301,46.875000
7302,46.875000
7303,46.875000
7304,44.921875
7305,44.921875
7306,44.921875
7307,44.921875
7308,44.921875
7309,42.968750
7310,42.968750
7311,42.968750
7312,42.968750
7313,41.015625
7314,42.968750
7315,41.015625
7316,41.015625
7317,41.015625
7318,41.015625
7319,41.015625
7320,41.015625
7321,39.062500
7322,39.062500
7323,39.062500
7324,39.062500
7325,37.109375
7326,37.109375
7327,39.062500
7328,37.109375
7329,37.109375
7330,37.109375
7331,37.109375
7332,35.156250
7333,35.156250
7334,35.156250
7335,35.156250
7336,35.156250
7337,33.203125
7338,33.203125
7339,33.203125
7340,31.250000
7341,31.250000
7342,31.250000
7343,31.250000
7344,31.250000
7345,31.250000
7346,29.296875
7347,29.296875
7348,29.296875
7349,29.296875
7350,29.296875
7351,29.296875
7352,27.343750
7353,27.343750
7354,29.296875
7355,27.343750
7356,25.390625
7357,25.390625
7358,25.390625
7359,25.390625
7360,25.390625
7361,23.437500
7362,23.437500
7363,23.437500
7364,23.437500
7365,21.484375
7366,21.484375
7367,21.484375
7368,21.484375
7369,21.484375
7370,19.531250
7371,19.531250
7372,17.578125
7373,17.578125
7374,17.578125
7375,17.578125
7376,17.578125
7377,17.578125
7378,15.625000
7379,15.625000
7380,15.625000
7381,15.625000
7382,13.671875
7383,13.671875
7384,13.671875
7385,13.671875
7386,13.671875
7387,11.718750
7388,11.718750
7389,11.718750
7390,11.718750
7391,9.765625
7392,9.765625
7393,9.765625
7394,9.765625
7395,7.812500
7396,7.812500
7397,7.812500
7398,5.859375
7399,5.859375
7400,5.859375
7401,5.859375
7402,5.859375
7403,3.906250
7404,3.906250
7405,3.906250
7406,3.906250
7407,1.953125
7408,1.953125
7409,1.953125
7410,1.953125
7411,1.953125
7412,0.000000
7413,0.000000
7414,0.000000
7415,0.000000
7416,-1.953125
7417,-1.953125
7418,-1.953125
7419,-1.953125
7420,-1.953125
7421,-3.906250
7422,-3.906250
7423,-3.906250
7424,-3.906250
7425,-5.859375
7426,-5.859375
7427,-5.859375
7428,-7.812500
7429,-5.859375
7430,-7.812500
7431,-7.812500
7432,-7.812500
7433,-7.812500
7434,-9.765625
7435,-9.765625
7436,-9.765625
7437,-11.718750
7438,-11.718750
7439,-11.718750
7440,-11.718750
7441,-13.671875
7442,-13.671875
7443,-13.671875
7444,-13.671875
7445,-13.671875
7446,-15.625000
7447,-15.625000
7448,-17.578125
7449,-15.625000
7450,-17.578125
7451,-17.578125
7452,-17.578125
7453,-17.578125
7454,-19.531250
7455,-19.531250
7456,-19.531250
7457,-19.531250
7458,-21.484375
7459,-21.484375
7460,-23.437500
7461,-21.484375
7462,-21.484375
7463,-21.484375
7464,-23.437500
7465,-23.437500
7466,-23.437500
7467,-23.437500
7468,-25.390625
7469,-25.390625
7470,-25.390625
7471,-25.390625
7472,-27.343750
7473,-27.343750
7474,-27.343750
7475,-27.343750
7476,-27.343750
7477,-27.343750
7478,-29.296875
7479,-29.296875
7480,-29.296875
7481,-29.296875
7482,-29.296875
7483,-31.250000
7484,-31.250000
7485,-31.250000
7486,-31.250000
7487,-31.250000
7488,-31.250000
7489,-33.203125
7490,-33.203125
7491,-33.203125
7492,-33.203125
7493,-33.203125
7494,-35.156250
7495,-33.203125
7496,-35.156250
7497,-35.156250
7498,-35.156250
7499,-35.156250
7500,-37.109375
7501,-37.109375
7502,-37.109375
7503,-37.109375
7504,-39.062500
7505,-39.062500
7506,-39.062500
7507,-39.062500
7508,-39.062500
7509,-39.062500
7510,-41.015625
7511,-41.015625
7512,-41.015625
7513,-41.015625
7514,-41.015625
7515,-42.968750
7516,-41.015625
7517,-42.968750
7518,-42.968750
7519,-42.968750
7520,-42.968750
7521,-42.968750
7522,-44.921875
7523,-42.968750
7524,-44.921875
7525,-44.921875
7526,-44.921875
7527,-44.921875
7528,-46.875000
7529,-46.875000
7530,-46.875000
7531,-46.875000
7532,-46.875000
7533,-46.875000
7534,-46.875000
7535,-46.875000
7536,-46.875000
7537,-46.875000
7538,-46.875000
7539,-46.875000
7540,-46.875000
7541,-48.828125
7542,-48.828125
7543,-48.828125
7544,-48.828125
7545,-48.828125
7546,-50.781250
7547,-48.828125
7548,-48.828125
7549,-50.781250
7550,-50.781250
7551,-50.781250
7552,-50.781250
7553,-50.781250
7554,-50.781250
7555,-50.781250
7556,-50.781250
7557,-50.781250
7558,-50.781250
7559,-50.781250
7560,-52.734375
7561,-52.734375
7562,-52.734375
7563,-52.734375
7564,-52.734375
7565,-52.734375
7566,-52.734375
7567,-52.734375
7568,-52.734375
7569,-52.734375
7570,-52.734375
7571,-52.734375
7572,-52.734375
7573,-54.687500
7574,-54.687500
7575,-54.687500
7576,-54.687500
7577,-54.687500
7578,-54.687500
7579,-54.687500
7580,-52.734375
7581,-54.687500
7582,-54.687500
7583,-54.687500
7584,-54.687500
7585,-54.687500
7586,-54.687500
7587,-54.687500
7588,-54.687500
7589,-54.687500
7590,-54.687500
7591,-54.687500
7592,-54.687500
7593,-54.687500
7594,-54.687500
7595,-56.640625
7596,-54.687500
7597,-54.687500
7598,-56.640625
7599,-54.687500
7600,-54.687500
7601,-54.687500
7602,-54.687500
7603,-54.687500
7604,-54.687500
7605,-54.687500
7606,-54.687500
7607,-56.640625
7608,-54.687500
7609,-54.687500
7610,-54.687500
7611,-54.687500
7612,-54.687500
7613,-54.687500
7614,-54.687500
7615,-54.687500
7616,-54.687500
7617,-54.687500
7618,-54.687500
7619,-54.687500
7620,-54.687500
7621,-54.687500
7622,-54.687500
7623,-54.687500
7624,-54.687500
7625,-52.734375
7626,-54.687500
7627,-52.734375
7628,-52.734375
7629,-52.734375
7630,-52.734375
7631,-52.734375
7632,-54.687500
7633,-52.734375
7634,-52.734375
7635,-52.734375
7636,-52.734375
7637,-52.734375
7638,-52.734375
7639,-52.734375
7640,-52.734375
7641,-52.734375
7642,-52.734375
7643,-52.734375
7644,-52.734375
7645,-50.781250
7646,-52.734375
7647,-50.781250
7648,-50.781250
7649,-50.781250
7650,-50.781250
7651,-50.781250
7652,-50.781250
7653,-50.781250
7654,-48.828125
7655,-50.781250
7656,-50.781250
7657,-50.781250
7658,-48.828125
7659,-48.828125
7660,-48.828125
7661,-48.828125
7662,-48.828125
7663,-48.828125
7664,-48.828125
7665,-48.828125
7666,-46.875000
7667,-46.875000
7668,-46.875000
7669,-46.875000
7670,-46.875000
7671,-46.875000
7672,-46.875000
7673,-46.875000
7674,-44.921875
7675,-44.921875
7676,-46.875000
7677,-44.921875
7678,-44.921875
7679,-44.921875
7680,-44.921875
7681,-42.968750
7682,-42.968750
7683,-42.968750
7684,-42.968750
7685,-42.968750
7686,-42.968750
7687,-41.015625
7688,-41.015625
7689,-41.015625
7690,-41.015625
7691,-41.015625
7692,-41.015625
7693,-41.015625
7694,-41.015625
7695,-39.062500
7696,-39.062500
7697,-39.062500
7698,-39.062500
7699,-39.062500
7700,-37.109375
7701,-39.062500
7702,-37.109375
7703,-37.109375
7704,-37.109375
7705,-35.156250
7706,-37.109375
7707,-35.156250
7708,-35.156250
7709,-35.156250
7710,-35.156250
7711,-35.156250
7712,-33.203125
7713,-33.203125
7714,-33.203125
7715,-33.203125
7716,-33.203125
7717,-33.203125
7718,-33.203125
7719,-31.250000
7720,-31.250000
7721,-31.250000
7722,-31.250000
7723,-29.296875
7724,-29.296875
7725,-31.250000
7726,-29.296875
7727,-29.296875
7728,-29.296875
7729,-27.343750
7730,-27.343750
7731,-29.296875
7732,-27.343750
7733,-27.343750
7734,-25.390625
7735,-25.390625
7736,-25.390625
7737,-25.390625
7738,-25.390625
7739,-23.437500
7740,-23.437500
7741,-23.437500
7742,-21.484375
7743,-21.484375
7744,-21.484375
7745,-21.484375
7746,-21.484375
7747,-19.531250
7748,-19.531250
7749,-19.531250
7750,-19.531250
7751,-19.531250
7752,-17.578125
7753,-19.531250
7754,-17.578125
7755,-17.578125
7756,-15.625000
7757,-15.625000
7758,-15.625000
7759,-15.625000
7760,-15.625000
7761,-13.671875
7762,-13.671875
7763,-13.671875
7764,-13.671875
7765,-11.718750
7766,-11.718750
7767,-11.718750
7768,-11.718750
7769,-11.718750
7770,-9.765625
7771,-9.765625
7772,-9.765625
7773,-9.765625
7774,-7.812500
7775,-7.812500
7776,-7.812500
7777,-7.812500
7778,-5.859375
7779,-5.859375
7780,-5.859375
7781,-5.859375
7782,-3.906250
7783,-3.906250
7784,-3.906250
7785,-3.906250
7786,-3.906250
7787,-1.953125
7788,-1.953125
7789,-1.953125
7790,-1.953125
7791,-1.953125
7792,0.000000
7793,0.000000
7794,-1.953125
7795,0.000000
7796,1.953125
7797,1.953125
7798,1.953125
7799,1.953125
7800,3.906250
7801,3.906250
7802,3.906250
7803,5.859375
7804,5.859375
7805,5.859375
7806,7.812500
7807,5.859375
7808,7.812500
7809,7.812500
7810,7.812500
7811,7.812500
7812,9.765625
7813,9.765625
7814,9.765625
7815,9.765625
7816,9.765625
7817,11.718750
7818,11.718750
7819,11.718750
7820,13.671875
7821,13.671875
7822,13.671875
7823,13.671875
7824,13.671875
7825,13.671875
7826,17.578125
7827,15.625000
7828,15.625000
7829,15.625000
7830,17.578125
7831,17.578125
7832,17.578125
7833,15.625000
7834,19.531250
7835,19.531250
7836,19.531250
7837,19.531250
7838,19.531250
7839,21.484375
7840,21.484375
7841,23.437500
7842,21.484375
7843,21.484375
7844,23.437500
7845,23.437500
7846,23.437500
7847,25.390625
7848,17.578125
7849,23.437500
7850,25.390625
7851,25.390625
7852,23.437500
7853,25.390625
7854,27.343750
7855,27.343750
7856,27.343750
7857,27.343750
7858,29.296875
7859,29.296875
7860,29.296875
7861,29.296875
7862,31.250000
7863,29.296875
7864,31.250000
7865,31.250000
7866,31.250000
7867,31.250000
7868,33.203125
7869,33.203125
7870,33.203125
7871,35.156250
7872,33.203125
7873,35.156250
7874,35.156250
7875,35.156250
7876,35.156250
7877,35.156250
7878,37.109375
7879,37.109375
7880,37.109375
7881,37.109375
7882,37.109375
7883,37.109375
7884,39.062500
7885,39.062500
7886,39.062500
7887,39.062500
7888,39.062500
7889,41.015625
7890,41.015625
7891,41.015625
7892,42.968750
7893,44.921875
7894,42.968750
7895,41.015625
7896,42.968750
7897,42.968750
7898,42.968750
7899,42.968750
7900,48.828125
7901,44.921875
7902,44.921875
7903,44.921875
7904,44.921875
7905,44.921875
7906,44.921875
7907,46.875000
7908,44.921875
7909,46.875000
7910,46.875000
7911,46.875000
7912,46.875000
7913,46.875000
7914,48.828125
7915,48.828125
7916,48.828125
7917,48.828125
7918,48.828125
7919,48.828125
7920,48.828125
7921,48.828125
7922,50.781250
7923,50.781250
7924,50.781250
7925,50.781250
7926,50.781250
7927,50.781250
7928,52.734375
7929,52.734375
7930,52.734375
7931,52.734375
7932,52.734375
7933,52.734375
7934,54.687500
7935,54.687500
7936,52.734375
7937,54.687500
7938,54.687500
7939,54.687500
7940,54.687500
7941,52.734375
7942,56.640625
7943,54.687500
7944,56.640625
7945,56.640625
7946,56.640625
7947,56.640625
7948,56.640625
7949,56.640625
7950,56.640625
7951,56.640625
7952,56.640625
7953,58.593750
7954,50.781250
7955,58.593750
7956,58.593750
7957,58.593750
7958,58.593750
7959,58.593750
7960,58.593750
7961,58.593750
7962,58.593750
7963,58.593750
7964,58.593750
7965,58.593750
7966,58.593750
7967,60.546875
7968,60.546875
7969,60.546875
7970,60.546875
7971,60.546875
7972,60.546875
7973,60.546875
7974,60.546875
7975,60.546875
7976,60.546875
7977,60.546875
7978,60.546875
7979,60.546875
7980,60.546875
7981,62.500000
7982,60.546875
7983,60.546875
7984,62.500000
7985,60.546875
7986,62.500000
7987,62.500000
7988,62.500000
7989,62.500000
7990,62.500000
7991,62.500000
7992,62.500000
7993,62.500000
7994,62.500000
7995,62.500000
7996,62.500000
7997,62.500000
7998,62.500000
7999,62.500000
8000,62.500000
8001,62.500000
8002,62.500000
8003,62.500000
8004,62.500000
8005,64.453125
8006,62.500000
8007,62.500000
8008,62.500000
8009,62.500000
8010,62.500000
8011,62.500000
8012,62.500000
8013,62.500000
8014,62.500000
8015,62.500000
8016,62.500000
8017,62.500000
8018,62.500000
8019,62.500000
8020,62.500000
8021,62.500000
8022,62.500000
8023,62.500000
8024,58.593750
8025,62.500000
8026,62.500000
8027,62.500000
8028,62.500000
8029,60.546875
8030,62.500000
8031,60.546875
8032,62.500000
8033,62.500000
8034,60.546875
8035,60.546875
8036,60.546875
8037,62.500000
8038,60.546875
8039,60.546875
8040,60.546875
8041,60.546875
8042,60.546875
8043,60.546875
8044,60.546875
8045,58.593750
8046,60.546875
8047,60.546875
8048,58.593750
8049,60.546875
8050,58.593750
8051,58.593750
8052,58.593750
8053,58.593750
8054,58.593750
8055,58.593750
8056,58.593750
8057,58.593750
8058,58.593750
8059,56.640625
8060,58.593750
8061,58.593750
8062,58.593750
8063,58.593750
8064,54.687500
8065,60.546875
8066,56.640625
8067,56.640625
8068,56.640625
8069,54.687500
8070,56.640625
8071,56.640625
8072,56.640625
8073,56.640625
8074,54.687500
8075,56.640625
8076,54.687500
8077,54.687500
8078,54.687500
8079,54.687500
8080,54.687500
8081,54.687500
8082,54.687500
8083,54.687500
8084,52.734375
8085,52.734375
8086,52.734375
8087,52.734375
8088,52.734375
8089,52.734375
8090,50.781250
8091,50.781250
8092,50.781250
8093,50.781250
8094,50.781250
8095,50.781250
8096,50.781250
8097,50.781250
8098,48.828125
8099,48.828125
8100,48.828125
8101,48.828125
8102,48.828125
8103,48.828125
8104,46.875000
8105,46.875000
8106,46.875000
8107,46.875000
8108,44.921875
8109,46.875000
8110,46.875000
8111,44.921875
8112,44.921875
8113,44.921875
8114,44.921875
8115,44.921875
8116,44.921875
8117,44.921875
8118,42.968750
8119,42.968750
8120,42.968750
8121,42.968750
8122,41.015625
8123,41.015625
8124,41.015625
8125,41.015625
8126,41.015625
8127,41.015625
8128,39.062500
8129,39.062500
8130,39.062500
8131,39.062500
8132,39.062500
8133,39.062500
8134,37.109375
8135,37.109375
8136,37.109375
8137,37.109375
8138,37.109375
8139,35.156250
8140,35.156250
8141,35.156250
8142,35.156250
8143,35.156250
8144,33.203125
8145,33.203125
8146,33.203125
8147,33.203125
8148,33.203125
8149,31.250000
8150,31.250000
8151,33.203125
8152,31.250000
8153,29.296875
8154,29.296875
8155,29.296875
8156,29.296875
8157,29.296875
8158,29.296875
8159,27.343750
8160,27.343750
8161,27.343750
8162,27.343750
8163,25.390625
8164,25.390625
8165,25.390625
8166,25.390625
8167,23.437500
8168,23.437500
8169,23.437500
8170,23.437500
8171,23.437500
8172,23.437500
8173,21.484375
8174,21.484375
8175,21.484375
8176,19.531250
8177,19.531250
8178,19.531250
8179,19.531250
8180,19.531250
8181,19.531250
8182,17.578125
8183,17.578125
8184,17.578125
8185,15.625000
8186,15.625000
8187,15.625000
8188,15.625000
8189,15.625000
8190,13.671875
8191,13.671875
8192,13.671875
8193,13.671875
8194,13.671875
8195,11.718750
8196,11.718750
8197,11.718750
8198,11.718750
8199,9.765625
8200,9.765625
8201,9.765625
8202,9.765625
8203,7.812500
8204,7.812500
8205,7.812500
8206,7.812500
8207,5.859375
8208,5.859375
8209,5.859375
8210,5.859375
8211,3.906250
8212,3.906250
8213,3.906250
8214,3.906250
8215,1.953125
8216,1.953125
8217,0.000000
8218,1.953125
8219,1.953125
8220,0.000000
8221,0.000000
8222,0.000000
8223,0.000000
8224,-1.953125
8225,-1.953125
8226,-1.953125
8227,-3.906250
8228,-3.906250
8229,-3.906250
8230,-5.859375
8231,-3.906250
8232,-5.859375
8233,-3.906250
8234,-5.859375
8235,-7.812500
8236,-7.812500
8237,-7.812500
8238,-7.812500
8239,-9.765625
8240,-7.812500
8241,-9.765625
8242,-9.765625
8243,-9.765625
8244,-9.765625
8245,-11.718750
8246,-11.718750
8247,-11.718750
8248,-11.718750
8249,-13.671875
8250,-13.671875
8251,-13.671875
8252,-13.671875
8253,-15.625000
8254,-15.625000
8255,-15.625000
8256,-15.625000
8257,-15.625000
8258,-17.578125
8259,-17.578125
8260,-17.578125
8261,-17.578125
8262,-19.531250
8263,-19.531250
8264,-19.531250
8265,-19.531250
8266,-19.531250
8267,-19.531250
8268,-21.484375
8269,-21.484375
8270,-23.437500
8271,-23.437500
8272,-23.437500
8273,-23.437500
8274,-23.437500
8275,-23.437500
8276,-23.437500
8277,-25.390625
8278,-25.390625
8279,-25.390625
8280,-25.390625
8281,-27.343750
8282,-27.343750
8283,-27.343750
8284,-27.343750
8285,-27.343750
8286,-29.296875
8287,-29.296875
8288,-29.296875
8289,-29.296875
8290,-31.250000
8291,-31.250000
8292,-31.250000
8293,-31.250000
8294,-31.250000
8295,-31.250000
8296,-33.203125
8297,-33.203125
8298,-33.203125
8299,-33.203125
8300,-33.203125
8301,-35.156250
8302,-35.156250
8303,-37.109375
8304,-35.156250
8305,-37.109375
8306,-37.109375
8307,-37.109375
8308,-37.109375
8309,-37.109375
8310,-37.109375
8311,-39.062500
8312,-37.109375
8313,-39.062500
8314,-39.062500
8315,-39.062500
8316,-39.062500
8317,-39.062500
8318,-39.062500
8319,-41.015625
8320,-41.015625
8321,-41.015625
8322,-41.015625
8323,-41.015625
8324,-42.968750
8325,-41.015625
8326,-42.968750
8327,-42.968750
8328,-42.968750
8329,-42.968750
8330,-42.968750
8331,-42.968750
8332,-44.921875
8333,-44.921875
8334,-44.921875
8335,-44.921875
8336,-44.921875
8337,-44.921875
8338,-46.875000
8339,-46.875000
8340,-46.875000
8341,-46.875000
8342,-46.875000
8343,-48.828125
8344,-46.875000
8345,-46.875000
8346,-46.875000
8347,-46.875000
8348,-48.828125
8349,-48.828125
8350,-48.828125
8351,-48.828125
8352,-48.828125
8353,-50.781250
8354,-48.828125
8355,-48.828125
8356,-50.781250
8357,-50.781250
8358,-50.781250
8359,-50.781250
8360,-50.781250
8361,-50.781250
8362,-50.781250
8363,-50.781250
8364,-50.781250
8365,-52.734375
8366,-52.734375
8367,-50.781250
8368,-52.734375
8369,-52.734375
8370,-52.734375
8371,-52.734375
8372,-52.734375
8373,-52.734375
8374,-52.734375
8375,-52.734375
8376,-52.734375
8377,-52.734375
8378,-54.687500
8379,-50.781250
8380,-52.734375
8381,-54.687500
8382,-52.734375
8383,-54.687500
8384,-54.687500
8385,-54.687500
8386,-54.687500
8387,-54.687500
8388,-54.687500
8389,-54.687500
8390,-56.640625
8391,-54.687500
8392,-54.687500
8393,-54.687500
8394,-54.687500
8395,-54.687500
8396,-54.687500
8397,-54.687500
8398,-54.687500
8399,-54.687500
8400,-54.687500
8401,-54.687500
8402,-54.687500
8403,-54.687500
8404,-54.687500
8405,-54.687500
8406,-54.687500
8407,-54.687500
8408,-54.687500
8409,-50.781250
8410,-54.687500
8411,-54.687500
8412,-56.640625
8413,-54.687500
8414,-54.687500
8415,-56.640625
8416,-56.640625
8417,-54.687500
8418,-54.687500
8419,-54.687500
8420,-54.687500
8421,-54.687500
8422,-56.640625
8423,-54.687500
8424,-54.687500
8425,-54.687500
8426,-54.687500
8427,-54.687500
8428,-54.687500
8429,-54.687500
8430,-54.687500
8431,-54.687500
8432,-54.687500
8433,-54.687500
8434,-54.687500
8435,-54.687500
8436,-54.687500
8437,-54.687500
8438,-54.687500
8439,-52.734375
8440,-54.687500
8441,-54.687500
8442,-52.734375
8443,-52.734375
8444,-52.734375
8445,-52.734375
8446,-52.734375
8447,-52.734375
8448,-52.734375
8449,-52.734375
8450,-52.734375
8451,-52.734375
8452,-52.734375
8453,-52.734375
8454,-50.781250
8455,-50.781250
8456,-50.781250
8457,-50.781250
8458,-50.781250
8459,-50.781250
8460,-50.781250
8461,-50.781250
8462,-50.781250
8463,-50.781250
8464,-48.828125
8465,-50.781250
8466,-48.828125
8467,-48.828125
8468,-48.828125
8469,-48.828125
8470,-46.875000
8471,-48.828125
8472,-46.875000
8473,-46.875000
8474,-46.875000
8475,-46.875000
8476,-46.875000
8477,-46.875000
8478,-46.875000
8479,-46.875000
8480,-44.921875
8481,-46.875000
8482,-44.921875
8483,-44.921875
8484,-44.921875
8485,-44.921875
8486,-42.968750
8487,-44.921875
8488,-44.921875
8489,-44.921875
8490,-42.968750
8491,-42.968750
8492,-42.968750
8493,-42.968750
8494,-42.968750
8495,-41.015625
8496,-41.015625
8497,-41.015625
8498,-41.015625
8499,-41.015625
8500,-41.015625
8501,-41.015625
8502,-39.062500
8503,-39.062500
8504,-39.062500
8505,-39.062500
8506,-39.062500
8507,-39.062500
8508,-39.062500
8509,-37.109375
8510,-37.109375
8511,-37.109375
8512,-37.109375
8513,-37.109375
8514,-35.156250
8515,-35.156250
8516,-35.156250
8517,-35.156250
8518,-35.156250
8519,-35.156250
8520,-33.203125
8521,-33.203125
8522,-33.203125
8523,-33.203125
8524,-31.250000
8525,-31.250000
8526,-31.250000
8527,-31.250000
8528,-31.250000
8529,-29.296875
8530,-29.296875
8531,-29.296875
8532,-29.296875
8533,-29.296875
8534,-29.296875
8535,-29.296875
8536,-27.343750
8537,-27.343750
8538,-27.343750
8539,-27.343750
8540,-25.390625
8541,-25.390625
8542,-25.390625
8543,-25.390625
8544,-25.390625
8545,-23.437500
8546,-23.437500
8547,-23.437500
8548,-23.437500
8549,-23.437500
8550,-23.437500
8551,-23.437500
8552,-21.484375
8553,-21.484375
8554,-21.484375
8555,-19.531250
8556,-19.531250
8557,-17.578125
8558,-19.531250
8559,-19.531250
8560,-17.578125
8561,-17.578125
8562,-17.578125
8563,-17.578125
8564,-17.578125
8565,-15.625000
8566,-15.625000
8567,-13.671875
8568,-15.625000
8569,-15.625000
8570,-13.671875
8571,-13.671875
8572,-13.671875
8573,-11.718750
8574,-11.718750
8575,-11.718750
8576,-11.718750
8577,-11.718750
8578,-9.765625
8579,-9.765625
8580,-9.765625
8581,-9.765625
8582,-7.812500
8583,-7.812500
8584,-7.812500
8585,-5.859375
8586,-5.859375
8587,-5.859375
8588,-5.859375
8589,-5.859375
8590,-3.906250
8591,-3.906250
8592,-3.906250
8593,-3.906250
8594,-1.953125
8595,-1.953125
8596,-1.953125
8597,-1.953125
8598,0.000000
8599,0.000000
8600,0.000000
8601,0.000000
8602,0.000000
8603,1.953125
8604,1.953125
8605,1.953125
8606,1.953125
8607,3.906250
8608,3.906250
8609,3.906250
8610,3.906250
8611,3.906250
8612,5.859375
8613,5.859375
8614,5.859375
8615,5.859375
8616,7.812500
8617,7.812500
8618,7.812500
8619,9.765625
8620,7.812500
8621,9.765625
8622,9.765625
8623,9.765625
8624,11.718750
8625,11.718750
8626,11.718750
8627,11.718750
8628,11.718750
8629,13.671875
8630,13.671875
8631,13.671875
8632,15.625000
8633,13.671875
8634,15.625000
8635,15.625000
8636,15.625000
8637,15.625000
8638,15.625000
8639,17.578125
8640,17.578125
8641,17.578125
8642,17.578125
8643,19.531250
8644,19.531250
8645,19.531250
8646,21.484375
8647,21.484375
8648,21.484375
8649,21.484375
8650,23.437500
8651,23.437500
8652,23.437500
8653,23.437500
8654,23.437500
8655,23.437500
8656,25.390625
8657,25.390625
8658,25.390625
8659,25.390625
8660,25.390625
8661,27.343750
8662,27.343750
8663,27.343750
8664,29.296875
8665,29.296875
8666,29.296875
8667,27.343750
8668,29.296875
8669,29.296875
8670,29.296875
8671,31.250000
8672,31.250000
8673,31.250000
8674,31.250000
8675,31.250000
8676,33.203125
8677,33.203125
8678,33.203125
8679,33.203125
8680,33.203125
8681,35.156250
8682,35.156250
8683,35.156250
8684,35.156250
8685,35.156250
8686,37.109375
8687,37.109375
8688,37.109375
8689,37.109375
8690,37.109375
8691,39.062500
8692,39.062500
8693,39.062500
8694,39.062500
8695,39.062500
8696,41.015625
8697,41.015625
8698,41.015625
8699,41.015625
8700,41.015625
8701,41.015625
8702,42.968750
8703,42.968750
8704,42.968750
8705,42.968750
8706,42.968750
8707,44.921875
8708,42.968750
8709,44.921875
8710,44.921875
8711,44.921875
8712,44.921875
8713,46.875000
8714,46.875000
8715,46.875000
8716,46.875000
8717,46.875000
8718,46.875000
8719,48.828125
8720,48.828125
8721,48.828125
8722,48.828125
8723,48.828125
8724,48.828125
8725,48.828125
8726,48.828125
8727,50.781250
8728,50.781250
8729,50.781250
8730,50.781250
8731,48.828125
8732,50.781250
8733,52.734375
8734,52.734375
8735,50.781250
8736,52.734375
8737,52.734375
8738,52.734375
8739,52.734375
8740,52.734375
8741,54.687500
8742,52.734375
8743,54.687500
8744,54.687500
8745,54.687500
8746,54.687500
8747,54.687500
8748,54.687500
8749,54.687500
8750,54.687500
8751,54.687500
8752,56.640625
8753,56.640625
8754,56.640625
8755,54.687500
8756,56.640625
8757,56.640625
8758,56.640625
8759,56.640625
8760,56.640625
8761,56.640625
8762,56.640625
8763,58.593750
8764,58.593750
8765,58.593750
8766,58.593750
8767,58.593750
8768,58.593750
8769,58.593750
8770,58.593750
8771,58.593750
8772,58.593750
8773,60.546875
8774,60.546875
8775,60.546875
8776,60.546875
8777,60.546875
8778,60.546875
8779,60.546875
8780,60.546875
8781,60.546875
8782,60.546875
8783,60.546875
8784,60.546875
8785,60.546875
8786,60.546875
8787,58.593750
8788,60.546875
8789,62.500000
8790,62.500000
8791,62.500000
8792,62.500000
8793,62.500000
8794,62.500000
8795,62.500000
8796,62.500000
8797,62.500000
8798,62.500000
8799,62.500000
8800,62.500000
8801,62.500000
8802,62.500000
8803,62.500000
8804,62.500000
8805,62.500000
8806,62.500000
8807,62.500000
8808,62.500000
8809,62.500000
8810,62.500000
8811,62.500000
8812,62.500000
8813,62.500000
8814,62.500000
8815,62.500000
8816,62.500000
8817,62.500000
8818,62.500000
8819,62.500000
8820,62.500000
8821,62.500000
8822,62.500000
8823,62.500000
8824,62.500000
8825,62.500000
8826,62.500000
8827,62.500000
8828,62.500000
8829,62.500000
8830,62.500000
8831,62.500000
8832,62.500000
8833,62.500000
8834,62.500000
8835,62.500000
8836,62.500000
8837,62.500000
8838,60.546875
8839,62.500000
8840,62.500000
8841,62.500000
8842,62.500000
8843,62.500000
8844,60.546875
8845,62.500000
8846,62.500000
8847,60.546875
8848,60.546875
8849,60.546875
8850,60.546875
8851,60.546875
8852,60.546875
8853,60.546875
8854,60.546875
8855,60.546875
8856,60.546875
8857,60.546875
8858,60.546875
8859,60.546875
8860,60.546875
8861,58.593750
8862,58.593750
8863,58.593750
8864,58.593750
8865,58.593750
8866,58.593750
8867,58.593750
8868,58.593750
8869,56.640625
8870,56.640625
8871,56.640625
8872,56.640625
8873,56.640625
8874,56.640625
8875,58.593750
8876,56.640625
8877,56.640625
8878,56.640625
8879,54.687500
8880,58.593750
8881,54.687500
8882,54.687500
8883,54.687500
8884,54.687500
8885,54.687500
8886,54.687500
8887,54.687500
8888,54.687500
8889,52.734375
8890,52.734375
8891,52.734375
8892,52.734375
8893,52.734375
8894,52.734375
8895,52.734375
8896,52.734375
8897,52.734375
8898,50.781250
8899,50.781250
8900,50.781250
8901,50.781250
8902,50.781250
8903,50.781250
8904,50.781250
8905,48.828125
8906,48.828125
8907,48.828125
8908,48.828125
8909,48.828125
8910,48.828125
8911,46.875000
8912,46.875000
8913,46.875000
8914,46.875000
8915,46.875000
8916,46.875000
8917,46.875000
8918,44.921875
8919,44.921875
8920,44.921875
8921,44.921875
8922,44.921875
8923,44.921875
8924,42.968750
8925,42.968750
8926,42.968750
8927,42.968750
8928,42.968750
8929,42.968750
8930,42.968750
8931,41.015625
8932,41.015625
8933,41.015625
8934,41.015625
8935,39.062500
8936,39.062500
8937,39.062500
8938,39.062500
8939,39.062500
8940,39.062500
8941,39.062500
8942,37.109375
8943,37.109375
8944,37.109375
8945,35.156250
8946,35.156250
8947,35.156250
8948,35.156250
8949,33.203125
8950,35.156250
8951,33.203125
8952,33.203125
8953,33.203125
8954,33.203125
8955,33.203125
8956,31.250000
8957,31.250000
8958,31.250000
8959,31.250000
8960,31.250000
8961,29.296875
8962,29.296875
8963,29.296875
8964,29.296875
8965,29.296875
8966,27.343750
8967,27.343750
8968,27.343750
8969,27.343750
8970,25.390625
8971,25.390625
8972,25.390625
8973,25.390625
8974,25.390625
8975,25.390625
8976,23.437500
8977,25.390625
8978,23.437500
8979,23.437500
8980,21.484375
8981,21.484375
8982,21.484375
8983,21.484375
8984,19.531250
8985,19.531250
8986,19.531250
8987,19.531250
8988,19.531250
8989,17.578125
8990,17.578125
8991,17.578125
8992,17.578125
8993,15.625000
8994,15.625000
8995,13.671875
8996,15.625000
8997,13.671875
8998,13.671875
8999,13.671875
9000,11.718750
9001,11.718750
9002,11.718750
9003,11.718750
9004,11.718750
9005,9.765625
9006,9.765625
9007,9.765625
9008,7.812500
9009,9.765625
9010,7.812500
9011,7.812500
9012,7.812500
9013,5.859375
9014,5.859375
9015,5.859375
9016,5.859375
9017,5.859375
9018,3.906250
9019,3.906250
9020,3.906250
9021,3.906250
9022,1.953125
9023,1.953125
9024,1.953125
9025,1.953125
9026,0.000000
9027,0.000000
9028,0.000000
9029,0.000000
9030,0.000000
9031,0.000000
9032,-1.953125
9033,-1.953125
9034,-1.953125
9035,-3.906250
9036,-3.906250
9037,-3.906250
9038,-3.906250
9039,-3.906250
9040,-5.859375
9041,-3.906250
9042,-5.859375
9043,-7.812500
9044,-7.812500
9045,-7.812500
9046,-7.812500
9047,-7.812500
9048,-9.765625
9049,-9.765625
9050,-9.765625
9051,-9.765625
9052,-11.718750
9053,-11.718750
9054,-11.718750
9055,-11.718750
9056,-13.671875
9057,-13.671875
9058,-13.671875
9059,-13.671875
9060,-15.625000
9061,-15.625000
9062,-15.625000
9063,-15.625000
9064,-15.625000
9065,-17.578125
9066,-17.578125
9067,-17.578125
9068,-17.578125
9069,-17.578125
9070,-19.531250
9071,-19.531250
9072,-19.531250
9073,-19.531250
9074,-21.484375
9075,-21.484375
9076,-21.484375
9077,-21.484375
9078,-21.484375
9079,-23.437500
9080,-23.437500
9081,-23.437500
9082,-23.437500
9083,-25.390625
9084,-25.390625
9085,-25.390625
9086,-25.390625
9087,-25.390625
9088,-27.343750
9089,-25.390625
9090,-27.343750
9091,-27.343750
9092,-29.296875
9093,-29.296875
9094,-29.296875
9095,-29.296875
9096,-29.296875
9097,-31.250000
9098,-29.296875
9099,-31.250000
9100,-31.250000
9101,-31.250000
9102,-31.250000
9103,-31.250000
9104,-33.203125
9105,-33.203125
9106,-33.203125
9107,-33.203125
9108,-33.203125
9109,-35.156250
9110,-35.156250
9111,-35.156250
9112,-35.156250
9113,-35.156250
9114,-37.109375
9115,-37.109375
9116,-37.109375
9117,-37.109375
9118,-39.062500
9119,-37.109375
9120,-39.062500
9121,-39.062500
9122,-39.062500
9123,-39.062500
9124,-39.062500
9125,-39.062500
9126,-41.015625
9127,-41.015625
9128,-41.015625
9129,-41.015625
9130,-41.015625
9131,-41.015625
9132,-44.921875
9133,-42.968750
9134,-42.968750
9135,-42.968750
9136,-42.968750
9137,-42.968750
9138,-42.968750
9139,-44.921875
9140,-44.921875
9141,-44.921875
9142,-44.921875
9143,-44.921875
9144,-46.875000
9145,-46.875000
9146,-46.875000
9147,-46.875000
9148,-44.921875
9149,-46.875000
9150,-46.875000
9151,-46.875000
9152,-46.875000
9153,-48.828125
9154,-46.875000
9155,-46.875000
9156,-48.828125
9157,-48.828125
9158,-48.828125
9159,-46.875000
9160,-48.828125
9161,-48.828125
9162,-48.828125
9163,-50.781250
9164,-48.828125
9165,-48.828125
9166,-50.781250
9167,-50.781250
9168,-50.781250
9169,-50.781250
9170,-50.781250
9171,-50.781250
9172,-50.781250
9173,-50.781250
9174,-50.781250
9175,-50.781250
9176,-52.734375
9177,-52.734375
9178,-52.734375
9179,-52.734375
9180,-52.734375
9181,-52.734375
9182,-52.734375
9183,-52.734375
9184,-52.734375
9185,-52.734375
9186,-52.734375
9187,-52.734375
9188,-52.734375
9189,-52.734375
9190,-52.734375
9191,-54.687500
9192,-52.734375
9193,-52.734375
9194,-54.687500
9195,-54.687500
9196,-54.687500
9197,-54.687500
9198,-54.687500
9199,-54.687500
9200,-54.687500
9201,-54.687500
9202,-54.687500
9203,-54.687500
9204,-54.687500
9205,-54.687500
9206,-54.687500
9207,-54.687500
9208,-54.687500
9209,-54.687500
9210,-54.687500
9211,-54.687500
9212,-56.640625
9213,-54.687500
9214,-54.687500
9215,-54.687500
9216,-54.687500
9217,-54.687500
9218,-54.687500
9219,-54.687500
9220,-54.687500
9221,-56.640625
9222,-54.687500
9223,-54.687500
9224,-54.687500
9225,-54.687500
9226,-54.687500
9227,-54.687500
9228,-54.687500
9229,-54.687500
9230,-54.687500
9231,-54.687500
9232,-54.687500
9233,-54.687500
9234,-54.687500
9235,-54.687500
9236,-54.687500
9237,-54.687500
9238,-54.687500
9239,-54.687500
9240,-54.687500
9241,-54.687500
9242,-54.687500
9243,-52.734375
9244,-54.687500
9245,-52.734375
9246,-52.734375
9247,-52.734375
9248,-52.734375
9249,-52.734375
9250,-52.734375
9251,-52.734375
9252,-52.734375
9253,-52.734375
9254,-52.734375
9255,-52.734375
9256,-50.781250
9257,-50.781250
9258,-50.781250
9259,-52.734375
9260,-50.781250
9261,-50.781250
9262,-50.781250
9263,-50.781250
9264,-48.828125
9265,-50.781250
9266,-50.781250
9267,-50.781250
9268,-50.781250
9269,-50.781250
9270,-50.781250
9271,-48.828125
9272,-48.828125
9273,-46.875000
9274,-48.828125
9275,-48.828125
9276,-48.828125
9277,-48.828125
9278,-48.828125
9279,-48.828125
9280,-46.875000
9281,-46.875000
9282,-48.828125
9283,-46.875000
9284,-46.875000
9285,-46.875000
9286,-46.875000
9287,-46.875000
9288,-44.921875
9289,-44.921875
9290,-44.921875
9291,-44.921875
9292,-44.921875
9293,-42.968750
9294,-44.921875
9295,-42.968750
9296,-42.968750
9297,-42.968750
9298,-42.968750
9299,-42.968750
9300,-42.968750
9301,-42.968750
9302,-42.968750
9303,-42.968750
9304,-41.015625
9305,-41.015625
9306,-41.015625
9307,-41.015625
9308,-39.062500
9309,-39.062500
9310,-39.062500
9311,-39.062500
9312,-39.062500
9313,-39.062500
9314,-39.062500
9315,-39.062500
9316,-37.109375
9317,-37.109375
9318,-37.109375
9319,-37.109375
9320,-37.109375
9321,-37.109375
9322,-35.156250
9323,-35.156250
9324,-35.156250
9325,-33.203125
9326,-33.203125
9327,-35.156250
9328,-33.203125
9329,-33.203125
9330,-33.203125
9331,-33.203125
9332,-31.250000
9333,-31.250000
9334,-31.250000
9335,-31.250000
9336,-31.250000
9337,-29.296875
9338,-29.296875
9339,-29.296875
9340,-29.296875
9341,-29.296875
9342,-29.296875
9343,-27.343750
9344,-27.343750
9345,-27.343750
9346,-25.390625
9347,-25.390625
9348,-25.390625
9349,-25.390625
9350,-25.390625
9351,-25.390625
9352,-23.437500
9353,-23.437500
9354,-23.437500
9355,-21.484375
9356,-23.437500
9357,-21.484375
9358,-21.484375
9359,-21.484375
9360,-19.531250
9361,-21.484375
9362,-19.531250
9363,-19.531250
9364,-19.531250
9365,-19.531250
9366,-17.578125
9367,-17.578125
9368,-17.578125
9369,-17.578125
9370,-15.625000
9371,-13.671875
9372,-15.625000
9373,-15.625000
9374,-15.625000
9375,-13.671875
9376,-15.625000
9377,-11.718750
9378,-13.671875
9379,-11.718750
9380,-11.718750
9381,-11.718750
9382,-11.718750
9383,-9.765625
9384,-9.765625
9385,-9.765625
9386,-9.765625
9387,-9.765625
9388,-7.812500
9389,-7.812500
9390,-7.812500
9391,-7.812500
9392,-7.812500
9393,-5.859375
9394,-5.859375
9395,-5.859375
9396,-5.859375
9397,-3.906250
9398,-3.906250
9399,-3.906250
9400,-3.906250
9401,-3.906250
9402,-3.906250
9403,-1.953125
9404,-1.953125
9405,-1.953125
9406,0.000000
9407,0.000000
9408,0.000000
9409,0.000000
9410,0.000000
9411,1.953125
9412,1.953125
9413,1.953125
9414,1.953125
9415,1.953125
9416,3.906250
9417,3.906250
9418,5.859375
9419,5.859375
9420,5.859375
9421,5.859375
9422,5.859375
9423,7.812500
9424,7.812500
9425,7.812500
9426,7.812500
9427,9.765625
9428,9.765625
9429,9.765625
9430,9.765625
9431,11.718750
9432,11.718750
9433,11.718750
9434,11.718750
9435,13.671875
9436,13.671875
9437,13.671875
9438,13.671875
9439,13.671875
9440,15.625000
9441,15.625000
9442,15.625000
9443,15.625000
9444,17.578125
9445,15.625000
9446,17.578125
9447,17.578125
9448,19.531250
9449,19.531250
9450,17.578125
9451,19.531250
9452,19.531250
9453,19.531250
9454,21.484375
9455,21.484375
9456,21.484375
9457,21.484375
9458,21.484375
9459,21.484375
9460,23.437500
9461,23.437500
9462,23.437500
9463,23.437500
9464,25.390625
9465,25.390625
9466,25.390625
9467,27.343750
9468,27.343750
9469,27.343750
9470,27.343750
9471,27.343750
9472,27.343750
9473,29.296875
9474,29.296875
9475,29.296875
9476,29.296875
9477,31.250000
9478,31.250000
9479,27.343750
9480,31.250000
9481,31.250000
9482,33.203125
9483,33.203125
9484,33.203125
9485,33.203125
9486,35.156250
9487,33.203125
9488,35.156250
9489,35.156250
9490,37.109375
9491,37.109375
9492,37.109375
9493,35.156250
9494,37.109375
9495,37.109375
9496,39.062500
9497,37.109375
9498,39.062500
9499,39.062500
9500,39.062500
9501,39.062500
9502,39.062500
9503,41.015625
9504,41.015625
9505,41.015625
9506,41.015625
9507,41.015625
9508,42.968750
9509,41.015625
9510,42.968750
9511,42.968750
9512,42.968750
9513,42.968750
9514,42.968750
9515,44.921875
9516,44.921875
9517,44.921875
9518,44.921875
9519,44.921875
9520,44.921875
9521,46.875000
9522,46.875000
9523,46.875000
9524,46.875000
9525,46.875000
9526,46.875000
9527,48.828125
9528,48.828125
9529,48.828125
9530,48.828125
9531,48.828125
9532,48.828125
9533,48.828125
9534,50.781250
9535,50.781250
9536,50.781250
9537,50.781250
9538,50.781250
9539,50.781250
9540,50.781250
9541,50.781250
9542,52.734375
9543,52.734375
9544,52.734375
9545,52.734375
9546,52.734375
9547,52.734375
9548,52.734375
9549,54.687500
9550,54.687500
9551,54.687500
9552,54.687500
9553,54.687500
9554,54.687500
9555,54.687500
9556,56.640625
9557,54.687500
9558,56.640625
9559,56.640625
9560,56.640625
9561,56.640625
9562,56.640625
9563,56.640625
9564,58.593750
9565,56.640625
9566,56.640625
9567,58.593750
9568,58.593750
9569,58.593750
9570,58.593750
9571,58.593750
9572,60.546875
9573,58.593750
9574,58.593750
9575,58.593750
9576,58.593750
9577,58.593750
9578,58.593750
9579,60.546875
9580,60.546875
9581,58.593750
9582,60.546875
9583,60.546875
9584,60.546875
9585,60.546875
9586,60.546875
9587,60.546875
9588,60.546875
9589,60.546875
9590,60.546875
9591,60.546875
9592,60.546875
9593,60.546875
9594,62.500000
9595,60.546875
9596,60.546875
9597,60.546875
9598,62.500000
9599,60.546875
9600,60.546875
9601,60.546875
9602,62.500000
9603,62.500000
9604,62.500000
9605,62.500000
9606,62.500000
9607,62.500000
9608,62.500000
9609,62.500000
9610,60.546875
9611,62.500000
9612,62.500000
9613,62.500000
9614,62.500000
9615,62.500000
9616,62.500000
9617,64.453125
9618,62.500000
9619,62.500000
9620,62.500000
9621,62.500000
9622,62.500000
9623,62.500000
9624,62.500000
9625,62.500000
9626,62.500000
9627,62.500000
9628,64.453125
9629,62.500000
9630,62.500000
9631,62.500000
9632,62.500000
9633,62.500000
9634,62.500000
9635,62.500000
9636,62.500000
9637,62.500000
9638,62.500000
9639,62.500000
9640,62.500000
9641,62.500000
9642,62.500000
9643,62.500000
9644,62.500000
9645,60.546875
9646,62.500000
9647,62.500000
9648,60.546875
9649,60.546875
9650,60.546875
9651,58.593750
9652,60.546875
9653,60.546875
9654,60.546875
9655,60.546875
9656,60.546875
9657,60.546875
9658,60.546875
9659,60.546875
9660,60.546875
9661,60.546875
9662,60.546875
9663,58.593750
9664,60.546875
9665,58.593750
9666,58.593750
9667,58.593750
9668,58.593750
9669,58.593750
9670,58.593750
9671,58.593750
9672,58.593750
9673,58.593750
9674,58.593750
9675,58.593750
9676,58.593750
9677,58.593750
9678,58.593750
9679,58.593750
9680,56.640625
9681,56.640625
9682,56.640625
9683,56.640625
9684,56.640625
9685,56.640625
9686,56.640625
9687,56.640625
9688,56.640625
9689,56.640625
9690,54.687500
9691,54.687500
9692,54.687500
9693,54.687500
9694,54.687500
9695,54.687500
9696,54.687500
9697,52.734375
9698,52.734375
9699,52.734375
9700,52.734375
9701,52.734375
9702,52.734375
9703,52.734375
9704,52.734375
9705,50.781250
9706,50.781250
9707,50.781250
9708,50.781250
9709,50.781250
9710,50.781250
9711,50.781250
9712,48.828125
9713,48.828125
9714,48.828125
9715,48.828125
9716,48.828125
9717,46.875000
9718,46.875000
9719,46.875000
9720,46.875000
9721,46.875000
9722,46.875000
9723,46.875000
9724,44.921875
9725,46.875000
9726,44.921875
9727,44.921875
9728,44.921875
9729,44.921875
9730,44.921875
9731,42.968750
9732,42.968750
9733,42.968750
9734,42.968750
9735,42.968750
9736,41.015625
9737,41.015625
9738,41.015625
9739,41.015625
9740,41.015625
9741,41.015625
9742,41.015625
9743,41.015625
9744,39.062500
9745,39.062500
9746,39.062500
9747,39.062500
9748,39.062500
9749,37.109375
9750,37.109375
9751,37.109375
9752,37.109375
9753,35.156250
9754,35.156250
9755,35.156250
9756,35.156250
9757,35.156250
9758,35.156250
9759,33.203125
9760,33.203125
9761,33.203125
9762,33.203125
9763,33.203125
9764,31.250000
9765,31.250000
9766,31.250000
9767,31.250000
9768,31.250000
9769,31.250000
9770,29.296875
9771,29.296875
9772,29.296875
9773,27.343750
9774,27.343750
9775,27.343750
9776,27.343750
9777,25.390625
9778,25.390625
9779,25.390625
9780,25.390625
9781,25.390625
9782,23.437500
9783,23.437500
9784,23.437500
9785,23.437500
9786,21.484375
9787,21.484375
9788,21.484375
9789,21.484375
9790,21.484375
9791,21.484375
9792,19.531250
9793,19.531250
9794,19.531250
9795,19.531250
9796,17.578125
9797,17.578125
9798,17.578125
9799,17.578125
9800,13.671875
9801,15.625000
9802,15.625000
9803,15.625000
9804,15.625000
9805,13.671875
9806,13.671875
9807,13.671875
9808,13.671875
9809,11.718750
9810,11.718750
9811,11.718750
9812,11.718750
9813,9.765625
9814,9.765625
9815,9.765625
9816,9.765625
9817,7.812500
9818,7.812500
9819,7.812500
9820,7.812500
9821,7.812500
9822,5.859375
9823,5.859375
9824,5.859375
9825,3.906250
9826,3.906250
9827,3.906250
9828,3.906250
9829,3.906250
9830,1.953125
9831,1.953125
9832,1.953125
9833,0.000000
9834,-1.953125
9835,0.000000
9836,0.000000
9837,0.000000
9838,-1.953125
9839,-1.953125
9840,-1.953125
9841,-1.953125
9842,-3.906250
9843,-5.859375
9844,-3.906250
9845,-3.906250
9846,-5.859375
9847,-5.859375
9848,-5.859375
9849,-5.859375
9850,-5.859375
9851,-7.812500
9852,-7.812500
9853,-7.812500
9854,-9.765625
9855,-9.765625
9856,-9.765625
9857,-9.765625
9858,-11.718750
9859,-11.718750
9860,-9.765625
9861,-11.718750
9862,-11.718750
9863,-11.718750
9864,-13.671875
9865,-17.578125
9866,-13.671875
9867,-15.625000
9868,-15.625000
9869,-15.625000
9870,-15.625000
9871,-15.625000
9872,-15.625000
9873,-17.578125
9874,-17.578125
9875,-17.578125
9876,-17.578125
9877,-19.531250
9878,-19.531250
9879,-19.531250
9880,-21.484375
9881,-21.484375
9882,-21.484375
9883,-21.484375
9884,-21.484375
9885,-21.484375
9886,-23.437500
9887,-23.437500
9888,-23.437500
9889,-23.437500
9890,-25.390625
9891,-25.390625
9892,-25.390625
9893,-25.390625
9894,-25.390625
9895,-27.343750
9896,-27.343750
9897,-27.343750
9898,-27.343750
9899,-27.343750
9900,-29.296875
9901,-29.296875
9902,-29.296875
9903,-31.250000
9904,-29.296875
9905,-31.250000
9906,-29.296875
9907,-31.250000
9908,-31.250000
9909,-31.250000
9910,-33.203125
9911,-33.203125
9912,-33.203125
9913,-33.203125
9914,-33.203125
9915,-35.156250
9916,-35.156250
9917,-35.156250
9918,-35.156250
9919,-35.156250
9920,-37.109375
9921,-37.109375
9922,-37.109375
9923,-37.109375
9924,-37.109375
9925,-37.109375
9926,-37.109375
9927,-39.062500
9928,-39.062500
9929,-39.062500
9930,-39.062500
9931,-39.062500
9932,-39.062500
9933,-41.015625
9934,-41.015625
9935,-41.015625
9936,-41.015625
9937,-41.015625
9938,-41.015625
9939,-41.015625
9940,-42.968750
9941,-42.968750
9942,-42.968750
9943,-42.968750
9944,-42.968750
9945,-42.968750
9946,-44.921875
9947,-44.921875
9948,-44.921875
9949,-44.921875
9950,-44.921875
9951,-44.921875
9952,-44.921875
9953,-44.921875
9954,-44.921875
9955,-46.875000
9956,-46.875000
9957,-46.875000
9958,-46.875000
9959,-46.875000
9960,-46.875000
9961,-46.875000
9962,-48.828125
9963,-48.828125
9964,-48.828125
9965,-48.828125
9966,-48.828125
9967,-48.828125
9968,-48.828125
9969,-48.828125
9970,-50.781250
9971,-50.781250
9972,-50.781250
9973,-50.781250
9974,-50.781250
9975,-50.781250
9976,-50.781250
9977,-52.734375
9978,-50.781250
9979,-50.781250
9980,-52.734375
9981,-50.781250
9982,-52.734375
9983,-52.734375
9984,-52.734375
9985,-52.734375
9986,-52.734375
9987,-52.734375
9988,-52.734375
9989,-52.734375
9990,-52.734375
9991,-52.734375
9992,-52.734375
9993,-52.734375
9994,-52.734375
9995,-52.734375
9996,-52.734375
9997,-52.734375
9998,-54.687500
9999,-54.687500
10000,-54.687500
