Channel              :,CH1
Frequency            :,1.012kHz
Period               :,0.989ms
PK-PK                :,136.7mV
Probe attenuation    :,1X
Voltage per ADC value:,0.244141mV
Time interval        :,1.00000us

index,CH1_Voltage(mV)
1,-42.968750
2,-42.968750
3,-42.968750
4,-42.968750
5,-42.968750
6,-42.968750
7,-42.968750
8,-42.968750
9,-39.062500
10,-39.062500
11,-39.062500
12,-39.062500
13,-39.062500
14,-39.062500
15,-39.062500
16,-39.062500
17,-39.062500
18,-39.062500
19,-35.156250
20,-35.156250
21,-35.156250
22,-35.156250
23,-35.156250
24,-35.156250
25,-35.156250
26,-35.156250
27,-35.156250
28,-31.250000
29,-31.250000
30,-31.250000
31,-31.250000
32,-31.250000
33,-31.250000
34,-31.250000
35,-31.250000
36,-31.250000
37,-27.343750
38,-27.343750
39,-27.343750
40,-27.343750
41,-27.343750
42,-27.343750
43,-27.343750
44,-27.343750
45,-27.343750
46,-27.343750
47,-23.437500
48,-23.437500
49,-23.437500
50,-23.437500
51,-23.437500
52,-23.437500
53,-23.437500
54,-19.531250
55,-19.531250
56,-19.531250
57,-19.531250
58,-19.531250
59,-19.531250
60,-19.531250
61,-19.531250
62,-19.531250
63,-19.531250
64,-19.531250
65,-19.531250
66,-15.625000
67,-15.625000
68,-15.625000
69,-15.625000
70,-15.625000
71,-15.625000
72,-15.625000
73,-15.625000
74,-15.625000
75,-11.718750
76,-11.718750
77,-11.718750
78,-11.718750
79,-11.718750
80,-11.718750
81,-11.718750
82,-11.718750
83,-11.718750
84,-7.812500
85,-11.718750
86,-7.812500
87,-7.812500
88,-7.812500
89,-7.812500
90,-7.812500
91,-7.812500
92,-7.812500
93,-7.812500
94,-7.812500
95,-3.906250
96,-3.906250
97,-3.906250
98,-3.906250
99,-3.906250
100,-3.906250
101,-3.906250
102,-3.906250
103,-3.906250
104,0.000000
105,0.000000
106,0.000000
107,0.000000
108,0.000000
109,0.000000
110,0.000000
111,0.000000
112,3.906250
113,3.906250
114,3.906250
115,3.906250
116,3.906250
117,3.906250
118,3.906250
119,3.906250
120,3.906250
121,3.906250
122,3.906250
123,3.906250
124,7.812500
125,7.812500
126,7.812500
127,7.812500
128,7.812500
129,7.812500
130,7.812500
131,7.812500
132,11.718750
133,11.718750
134,11.718750
135,11.718750
136,11.718750
137,11.718750
138,11.718750
139,11.718750
140,11.718750
141,11.718750
142,15.625000
143,15.625000
144,15.625000
145,15.625000
146,15.625000
147,15.625000
148,15.625000
149,15.625000
150,15.625000
151,15.625000
152,15.625000
153,15.625000
154,15.625000
155,19.531250
156,19.531250
157,19.531250
158,19.531250
159,19.531250
160,19.531250
161,19.531250
162,19.531250
163,23.437500
164,23.437500
165,19.531250
166,23.437500
167,23.437500
168,23.437500
169,23.437500
170,23.437500
171,23.437500
172,23.437500
173,23.437500
174,23.437500
175,23.437500
176,27.343750
177,27.343750
178,27.343750
179,27.343750
180,27.343750
181,27.343750
182,27.343750
183,27.343750
184,27.343750
185,27.343750
186,27.343750
187,27.343750
188,27.343750
189,31.250000
190,31.250000
191,31.250000
192,31.250000
193,31.250000
194,31.250000
195,31.250000
196,31.250000
197,31.250000
198,31.250000
199,31.250000
200,31.250000
201,35.156250
202,35.156250
203,35.156250
204,35.156250
205,35.156250
206,35.156250
207,35.156250
208,35.156250
209,35.156250
210,35.156250
211,39.062500
212,35.156250
213,35.156250
214,35.156250
215,35.156250
216,39.062500
217,39.062500
218,39.062500
219,39.062500
220,39.062500
221,39.062500
222,39.062500
223,39.062500
224,39.062500
225,39.062500
226,39.062500
227,39.062500
228,39.062500
229,39.062500
230,39.062500
231,39.062500
232,39.062500
233,39.062500
234,42.968750
235,42.968750
236,42.968750
237,42.968750
238,42.968750
239,42.968750
240,42.968750
241,42.968750
242,42.968750
243,42.968750
244,42.968750
245,42.968750
246,42.968750
247,42.968750
248,42.968750
249,46.875000
250,46.875000
251,46.875000
252,46.875000
253,46.875000
254,46.875000
255,46.875000
256,46.875000
257,46.875000
258,46.875000
259,46.875000
260,46.875000
261,46.875000
262,46.875000
263,46.875000
264,46.875000
265,46.875000
266,46.875000
267,46.875000
268,46.875000
269,46.875000
270,46.875000
271,46.875000
272,46.875000
273,46.875000
274,46.875000
275,50.781250
276,50.781250
277,50.781250
278,50.781250
279,50.781250
280,50.781250
281,50.781250
282,50.781250
283,50.781250
284,50.781250
285,50.781250
286,50.781250
287,50.781250
288,50.781250
289,50.781250
290,50.781250
291,50.781250
292,50.781250
293,50.781250
294,50.781250
295,50.781250
296,50.781250
297,50.781250
298,50.781250
299,50.781250
300,50.781250
301,50.781250
302,50.781250
303,50.781250
304,50.781250
305,50.781250
306,50.781250
307,50.781250
308,50.781250
309,50.781250
310,50.781250
311,50.781250
312,50.781250
313,50.781250
314,50.781250
315,50.781250
316,50.781250
317,50.781250
318,50.781250
319,50.781250
320,50.781250
321,54.687500
322,50.781250
323,54.687500
324,50.781250
325,50.781250
326,54.687500
327,54.687500
328,50.781250
329,50.781250
330,50.781250
331,54.687500
332,50.781250
333,54.687500
334,50.781250
335,54.687500
336,50.781250
337,50.781250
338,50.781250
339,54.687500
340,50.781250
341,50.781250
342,54.687500
343,50.781250
344,50.781250
345,50.781250
346,50.781250
347,54.687500
348,54.687500
349,50.781250
350,50.781250
351,50.781250
352,50.781250
353,50.781250
354,50.781250
355,54.687500
356,50.781250
357,50.781250
358,50.781250
359,50.781250
360,50.781250
361,50.781250
362,50.781250
363,50.781250
364,50.781250
365,50.781250
366,50.781250
367,50.781250
368,50.781250
369,50.781250
370,50.781250
371,50.781250
372,50.781250
373,50.781250
374,50.781250
375,50.781250
376,50.781250
377,50.781250
378,50.781250
379,50.781250
380,50.781250
381,50.781250
382,50.781250
383,50.781250
384,50.781250
385,50.781250
386,50.781250
387,50.781250
388,50.781250
389,46.875000
390,50.781250
391,50.781250
392,46.875000
393,46.875000
394,46.875000
395,46.875000
396,46.875000
397,46.875000
398,46.875000
399,46.875000
400,46.875000
401,46.875000
402,46.875000
403,46.875000
404,46.875000
405,46.875000
406,46.875000
407,46.875000
408,46.875000
409,46.875000
410,46.875000
411,46.875000
412,46.875000
413,46.875000
414,46.875000
415,46.875000
416,46.875000
417,42.968750
418,42.968750
419,42.968750
420,42.968750
421,42.968750
422,42.968750
423,42.968750
424,42.968750
425,42.968750
426,42.968750
427,42.968750
428,39.062500
429,42.968750
430,42.968750
431,42.968750
432,42.968750
433,39.062500
434,39.062500
435,39.062500
436,39.062500
437,39.062500
438,39.062500
439,39.062500
440,39.062500
441,39.062500
442,39.062500
443,39.062500
444,39.062500
445,39.062500
446,39.062500
447,39.062500
448,35.156250
449,39.062500
450,35.156250
451,35.156250
452,35.156250
453,35.156250
454,35.156250
455,35.156250
456,35.156250
457,35.156250
458,35.156250
459,35.156250
460,35.156250
461,35.156250
462,31.250000
463,31.250000
464,31.250000
465,31.250000
466,31.250000
467,31.250000
468,31.250000
469,31.250000
470,31.250000
471,31.250000
472,31.250000
473,31.250000
474,31.250000
475,27.343750
476,27.343750
477,27.343750
478,27.343750
479,27.343750
480,27.343750
481,27.343750
482,27.343750
483,27.343750
484,27.343750
485,27.343750
486,27.343750
487,23.437500
488,23.437500
489,23.437500
490,23.437500
491,23.437500
492,23.437500
493,23.437500
494,23.437500
495,19.531250
496,23.437500
497,23.437500
498,23.437500
499,23.437500
500,19.531250
501,19.531250
502,19.531250
503,19.531250
504,19.531250
505,19.531250
506,19.531250
507,19.531250
508,19.531250
509,19.531250
510,15.625000
511,15.625000
512,15.625000
513,15.625000
514,15.625000
515,15.625000
516,15.625000
517,15.625000
518,15.625000
519,15.625000
520,15.625000
521,11.718750
522,11.718750
523,11.718750
524,11.718750
525,11.718750
526,11.718750
527,11.718750
528,11.718750
529,11.718750
530,7.812500
531,7.812500
532,7.812500
533,7.812500
534,7.812500
535,7.812500
536,7.812500
537,7.812500
538,7.812500
539,7.812500
540,7.812500
541,3.906250
542,3.906250
543,3.906250
544,3.906250
545,3.906250
546,3.906250
547,3.906250
548,3.906250
549,3.906250
550,3.906250
551,0.000000
552,0.000000
553,0.000000
554,0.000000
555,0.000000
556,0.000000
557,0.000000
558,0.000000
559,0.000000
560,-3.906250
561,-3.906250
562,-3.906250
563,-3.906250
564,-3.906250
565,-3.906250
566,-3.906250
567,-3.906250
568,-7.812500
569,-7.812500
570,-7.812500
571,-7.812500
572,-7.812500
573,-7.812500
574,-7.812500
575,-7.812500
576,-7.812500
577,-7.812500
578,-11.718750
579,-11.718750
580,-11.718750
581,-11.718750
582,-11.718750
583,-11.718750
584,-11.718750
585,-11.718750
586,-15.625000
587,-11.718750
588,-15.625000
589,-15.625000
590,-15.625000
591,-15.625000
592,-15.625000
593,-15.625000
594,-15.625000
595,-15.625000
596,-19.531250
597,-19.531250
598,-19.531250
599,-19.531250
600,-19.531250
601,-19.531250
602,-19.531250
603,-19.531250
604,-23.437500
605,-19.531250
606,-23.437500
607,-23.437500
608,-23.437500
609,-23.437500
610,-23.437500
611,-23.437500
612,-23.437500
613,-27.343750
614,-27.343750
615,-27.343750
616,-27.343750
617,-27.343750
618,-27.343750
619,-27.343750
620,-27.343750
621,-27.343750
622,-27.343750
623,-31.250000
624,-31.250000
625,-31.250000
626,-31.250000
627,-31.250000
628,-31.250000
629,-31.250000
630,-31.250000
631,-31.250000
632,-31.250000
633,-35.156250
634,-35.156250
635,-35.156250
636,-35.156250
637,-35.156250
638,-35.156250
639,-35.156250
640,-35.156250
641,-35.156250
642,-35.156250
643,-39.062500
644,-39.062500
645,-39.062500
646,-39.062500
647,-39.062500
648,-39.062500
649,-39.062500
650,-39.062500
651,-39.062500
652,-39.062500
653,-42.968750
654,-42.968750
655,-42.968750
656,-42.968750
657,-42.968750
658,-42.968750
659,-42.968750
660,-42.968750
661,-42.968750
662,-46.875000
663,-46.875000
664,-46.875000
665,-46.875000
666,-46.875000
667,-46.875000
668,-46.875000
669,-46.875000
670,-46.875000
671,-46.875000
672,-46.875000
673,-50.781250
674,-50.781250
675,-50.781250
676,-50.781250
677,-50.781250
678,-50.781250
679,-50.781250
680,-50.781250
681,-50.781250
682,-50.781250
683,-50.781250
684,-54.687500
685,-54.687500
686,-54.687500
687,-54.687500
688,-54.687500
689,-54.687500
690,-54.687500
691,-54.687500
692,-54.687500
693,-54.687500
694,-54.687500
695,-54.687500
696,-58.593750
697,-58.593750
698,-58.593750
699,-58.593750
700,-58.593750
701,-58.593750
702,-58.593750
703,-58.593750
704,-58.593750
705,-58.593750
706,-62.500000
707,-58.593750
708,-62.500000
709,-62.500000
710,-62.500000
711,-62.500000
712,-62.500000
713,-62.500000
714,-62.500000
715,-62.500000
716,-62.500000
717,-62.500000
718,-62.500000
719,-66.406250
720,-66.406250
721,-66.406250
722,-66.406250
723,-66.406250
724,-66.406250
725,-66.406250
726,-66.406250
727,-66.406250
728,-66.406250
729,-66.406250
730,-66.406250
731,-66.406250
732,-66.406250
733,-70.312500
734,-70.312500
735,-66.406250
736,-70.312500
737,-66.406250
738,-70.312500
739,-70.312500
740,-70.312500
741,-70.312500
742,-70.312500
743,-70.312500
744,-70.312500
745,-70.312500
746,-70.312500
747,-70.312500
748,-70.312500
749,-70.312500
750,-70.312500
751,-70.312500
752,-70.312500
753,-74.218750
754,-74.218750
755,-74.218750
756,-74.218750
757,-74.218750
758,-74.218750
759,-74.218750
760,-74.218750
761,-74.218750
762,-74.218750
763,-74.218750
764,-74.218750
765,-74.218750
766,-74.218750
767,-74.218750
768,-74.218750
769,-74.218750
770,-74.218750
771,-74.218750
772,-74.218750
773,-74.218750
774,-78.125000
775,-74.218750
776,-78.125000
777,-78.125000
778,-74.218750
779,-78.125000
780,-78.125000
781,-78.125000
782,-78.125000
783,-78.125000
784,-78.125000
785,-78.125000
786,-78.125000
787,-78.125000
788,-78.125000
789,-78.125000
790,-78.125000
791,-78.125000
792,-78.125000
793,-78.125000
794,-78.125000
795,-78.125000
796,-78.125000
797,-78.125000
798,-78.125000
799,-78.125000
800,-78.125000
801,-78.125000
802,-78.125000
803,-78.125000
804,-78.125000
805,-78.125000
806,-78.125000
807,-78.125000
808,-78.125000
809,-78.125000
810,-78.125000
811,-78.125000
812,-78.125000
813,-78.125000
814,-78.125000
815,-78.125000
816,-78.125000
817,-78.125000
818,-78.125000
819,-78.125000
820,-78.125000
821,-78.125000
822,-78.125000
823,-78.125000
824,-78.125000
825,-78.125000
826,-82.031250
827,-78.125000
828,-78.125000
829,-78.125000
830,-78.125000
831,-78.125000
832,-78.125000
833,-78.125000
834,-78.125000
835,-78.125000
836,-78.125000
837,-78.125000
838,-78.125000
839,-82.031250
840,-78.125000
841,-78.125000
842,-78.125000
843,-78.125000
844,-78.125000
845,-78.125000
846,-78.125000
847,-78.125000
848,-78.125000
849,-78.125000
850,-78.125000
851,-78.125000
852,-78.125000
853,-78.125000
854,-78.125000
855,-78.125000
856,-78.125000
857,-78.125000
858,-78.125000
859,-78.125000
860,-78.125000
861,-78.125000
862,-78.125000
863,-78.125000
864,-78.125000
865,-78.125000
866,-78.125000
867,-78.125000
868,-74.218750
869,-78.125000
870,-78.125000
871,-78.125000
872,-78.125000
873,-78.125000
874,-78.125000
875,-74.218750
876,-74.218750
877,-74.218750
878,-74.218750
879,-78.125000
880,-74.218750
881,-74.218750
882,-74.218750
883,-74.218750
884,-74.218750
885,-74.218750
886,-74.218750
887,-74.218750
888,-74.218750
889,-74.218750
890,-74.218750
891,-74.218750
892,-74.218750
893,-74.218750
894,-70.312500
895,-70.312500
896,-74.218750
897,-70.312500
898,-74.218750
899,-70.312500
900,-70.312500
901,-70.312500
902,-70.312500
903,-70.312500
904,-70.312500
905,-70.312500
906,-70.312500
907,-70.312500
908,-70.312500
909,-70.312500
910,-70.312500
911,-70.312500
912,-70.312500
913,-70.312500
914,-66.406250
915,-66.406250
916,-66.406250
917,-66.406250
918,-66.406250
919,-66.406250
920,-66.406250
921,-66.406250
922,-66.406250
923,-66.406250
924,-66.406250
925,-66.406250
926,-66.406250
927,-66.406250
928,-66.406250
929,-62.500000
930,-62.500000
931,-62.500000
932,-62.500000
933,-62.500000
934,-62.500000
935,-62.500000
936,-62.500000
937,-62.500000
938,-62.500000
939,-62.500000
940,-62.500000
941,-62.500000
942,-62.500000
943,-58.593750
944,-58.593750
945,-58.593750
946,-58.593750
947,-58.593750
948,-58.593750
949,-58.593750
950,-58.593750
951,-58.593750
952,-58.593750
953,-58.593750
954,-54.687500
955,-54.687500
956,-54.687500
957,-54.687500
958,-54.687500
959,-54.687500
960,-54.687500
961,-54.687500
962,-54.687500
963,-54.687500
964,-54.687500
965,-54.687500
966,-50.781250
967,-50.781250
968,-50.781250
969,-50.781250
970,-50.781250
971,-50.781250
972,-50.781250
973,-50.781250
974,-50.781250
975,-50.781250
976,-50.781250
977,-50.781250
978,-50.781250
979,-46.875000
980,-46.875000
981,-46.875000
982,-46.875000
983,-46.875000
984,-46.875000
985,-46.875000
986,-46.875000
987,-46.875000
988,-42.968750
989,-42.968750
990,-42.968750
991,-42.968750
992,-42.968750
993,-42.968750
994,-42.968750
995,-42.968750
996,-42.968750
997,-42.968750
998,-42.968750
999,-39.062500
1000,-39.062500
1001,-39.062500
1002,-39.062500
1003,-39.062500
1004,-39.062500
1005,-39.062500
1006,-39.062500
1007,-39.062500
1008,-39.062500
1009,-39.062500
1010,-35.156250
1011,-35.156250
1012,-35.156250
1013,-35.156250
1014,-35.156250
1015,-35.156250
1016,-35.156250
1017,-35.156250
1018,-35.156250
1019,-31.250000
1020,-31.250000
1021,-31.250000
1022,-31.250000
1023,-31.250000
1024,-31.250000
1025,-31.250000
1026,-31.250000
1027,-31.250000
1028,-27.343750
1029,-27.343750
1030,-27.343750
1031,-27.343750
1032,-27.343750
1033,-27.343750
1034,-27.343750
1035,-27.343750
1036,-27.343750
1037,-23.437500
1038,-23.437500
1039,-23.437500
1040,-23.437500
1041,-23.437500
1042,-23.437500
1043,-23.437500
1044,-23.437500
1045,-19.531250
1046,-19.531250
1047,-19.531250
1048,-19.531250
1049,-19.531250
1050,-19.531250
1051,-19.531250
1052,-19.531250
1053,-15.625000
1054,-15.625000
1055,-15.625000
1056,-15.625000
1057,-15.625000
1058,-15.625000
1059,-15.625000
1060,-15.625000
1061,-15.625000
1062,-15.625000
1063,-11.718750
1064,-11.718750
1065,-15.625000
1066,-11.718750
1067,-11.718750
1068,-11.718750
1069,-11.718750
1070,-11.718750
1071,-11.718750
1072,-11.718750
1073,-7.812500
1074,-7.812500
1075,-7.812500
1076,-7.812500
1077,-7.812500
1078,-7.812500
1079,-7.812500
1080,-7.812500
1081,-7.812500
1082,-7.812500
1083,-3.906250
1084,-3.906250
1085,-3.906250
1086,-3.906250
1087,-3.906250
1088,-3.906250
1089,-3.906250
1090,-3.906250
1091,-3.906250
1092,0.000000
1093,0.000000
1094,0.000000
1095,0.000000
1096,0.000000
1097,0.000000
1098,0.000000
1099,0.000000
1100,0.000000
1101,3.906250
1102,3.906250
1103,3.906250
1104,3.906250
1105,3.906250
1106,3.906250
1107,3.906250
1108,3.906250
1109,3.906250
1110,3.906250
1111,3.906250
1112,7.812500
1113,7.812500
1114,7.812500
1115,7.812500
1116,7.812500
1117,7.812500
1118,7.812500
1119,7.812500
1120,7.812500
1121,7.812500
1122,11.718750
1123,11.718750
1124,11.718750
1125,11.718750
1126,11.718750
1127,11.718750
1128,11.718750
1129,11.718750
1130,11.718750
1131,11.718750
1132,15.625000
1133,15.625000
1134,15.625000
1135,15.625000
1136,15.625000
1137,15.625000
1138,15.625000
1139,15.625000
1140,15.625000
1141,15.625000
1142,19.531250
1143,19.531250
1144,19.531250
1145,19.531250
1146,19.531250
1147,19.531250
1148,19.531250
1149,19.531250
1150,19.531250
1151,19.531250
1152,19.531250
1153,19.531250
1154,19.531250
1155,23.437500
1156,23.437500
1157,23.437500
1158,23.437500
1159,23.437500
1160,23.437500
1161,23.437500
1162,23.437500
1163,23.437500
1164,23.437500
1165,23.437500
1166,27.343750
1167,27.343750
1168,27.343750
1169,27.343750
1170,27.343750
1171,27.343750
1172,27.343750
1173,27.343750
1174,27.343750
1175,27.343750
1176,27.343750
1177,31.250000
1178,31.250000
1179,31.250000
1180,31.250000
1181,31.250000
1182,31.250000
1183,31.250000
1184,31.250000
1185,31.250000
1186,31.250000
1187,31.250000
1188,31.250000
1189,35.156250
1190,35.156250
1191,31.250000
1192,35.156250
1193,35.156250
1194,35.156250
1195,35.156250
1196,35.156250
1197,35.156250
1198,35.156250
1199,35.156250
1200,35.156250
1201,35.156250
1202,35.156250
1203,35.156250
1204,35.156250
1205,39.062500
1206,39.062500
1207,39.062500
1208,39.062500
1209,39.062500
1210,39.062500
1211,39.062500
1212,39.062500
1213,39.062500
1214,39.062500
1215,39.062500
1216,39.062500
1217,39.062500
1218,39.062500
1219,39.062500
1220,39.062500
1221,42.968750
1222,42.968750
1223,42.968750
1224,42.968750
1225,42.968750
1226,42.968750
1227,42.968750
1228,42.968750
1229,42.968750
1230,42.968750
1231,42.968750
1232,42.968750
1233,42.968750
1234,42.968750
1235,42.968750
1236,42.968750
1237,42.968750
1238,42.968750
1239,42.968750
1240,42.968750
1241,46.875000
1242,46.875000
1243,46.875000
1244,46.875000
1245,46.875000
1246,46.875000
1247,46.875000
1248,46.875000
1249,46.875000
1250,46.875000
1251,46.875000
1252,46.875000
1253,46.875000
1254,46.875000
1255,46.875000
1256,46.875000
1257,46.875000
1258,46.875000
1259,50.781250
1260,46.875000
1261,50.781250
1262,46.875000
1263,46.875000
1264,46.875000
1265,50.781250
1266,50.781250
1267,50.781250
1268,50.781250
1269,50.781250
1270,50.781250
1271,50.781250
1272,50.781250
1273,46.875000
1274,50.781250
1275,50.781250
1276,50.781250
1277,50.781250
1278,50.781250
1279,50.781250
1280,50.781250
1281,50.781250
1282,50.781250
1283,50.781250
1284,50.781250
1285,50.781250
1286,50.781250
1287,50.781250
1288,50.781250
1289,50.781250
1290,50.781250
1291,50.781250
1292,50.781250
1293,50.781250
1294,50.781250
1295,50.781250
1296,50.781250
1297,50.781250
1298,50.781250
1299,50.781250
1300,50.781250
1301,54.687500
1302,50.781250
1303,54.687500
1304,54.687500
1305,54.687500
1306,54.687500
1307,54.687500
1308,50.781250
1309,54.687500
1310,50.781250
1311,54.687500
1312,54.687500
1313,50.781250
1314,54.687500
1315,54.687500
1316,50.781250
1317,54.687500
1318,54.687500
1319,54.687500
1320,54.687500
1321,54.687500
1322,50.781250
1323,54.687500
1324,54.687500
1325,54.687500
1326,54.687500
1327,54.687500
1328,54.687500
1329,54.687500
1330,54.687500
1331,54.687500
1332,54.687500
1333,54.687500
1334,54.687500
1335,50.781250
1336,54.687500
1337,50.781250
1338,50.781250
1339,50.781250
1340,50.781250
1341,50.781250
1342,54.687500
1343,54.687500
1344,50.781250
1345,50.781250
1346,50.781250
1347,50.781250
1348,50.781250
1349,50.781250
1350,50.781250
1351,50.781250
1352,50.781250
1353,50.781250
1354,50.781250
1355,50.781250
1356,50.781250
1357,50.781250
1358,50.781250
1359,50.781250
1360,50.781250
1361,50.781250
1362,50.781250
1363,50.781250
1364,50.781250
1365,50.781250
1366,50.781250
1367,50.781250
1368,50.781250
1369,50.781250
1370,50.781250
1371,50.781250
1372,50.781250
1373,50.781250
1374,50.781250
1375,50.781250
1376,50.781250
1377,50.781250
1378,46.875000
1379,46.875000
1380,50.781250
1381,50.781250
1382,46.875000
1383,46.875000
1384,46.875000
1385,46.875000
1386,46.875000
1387,46.875000
1388,46.875000
1389,46.875000
1390,46.875000
1391,46.875000
1392,46.875000
1393,46.875000
1394,46.875000
1395,46.875000
1396,46.875000
1397,46.875000
1398,46.875000
1399,46.875000
1400,46.875000
1401,46.875000
1402,46.875000
1403,42.968750
1404,42.968750
1405,42.968750
1406,42.968750
1407,42.968750
1408,42.968750
1409,42.968750
1410,42.968750
1411,42.968750
1412,42.968750
1413,42.968750
1414,42.968750
1415,42.968750
1416,42.968750
1417,42.968750
1418,42.968750
1419,42.968750
1420,42.968750
1421,39.062500
1422,39.062500
1423,39.062500
1424,39.062500
1425,39.062500
1426,39.062500
1427,39.062500
1428,39.062500
1429,39.062500
1430,39.062500
1431,39.062500
1432,39.062500
1433,39.062500
1434,39.062500
1435,39.062500
1436,39.062500
1437,39.062500
1438,35.156250
1439,39.062500
1440,35.156250
1441,35.156250
1442,35.156250
1443,35.156250
1444,35.156250
1445,35.156250
1446,35.156250
1447,35.156250
1448,35.156250
1449,35.156250
1450,35.156250
1451,35.156250
1452,35.156250
1453,35.156250
1454,31.250000
1455,31.250000
1456,31.250000
1457,31.250000
1458,31.250000
1459,31.250000
1460,31.250000
1461,31.250000
1462,31.250000
1463,31.250000
1464,31.250000
1465,31.250000
1466,27.343750
1467,27.343750
1468,27.343750
1469,27.343750
1470,27.343750
1471,27.343750
1472,27.343750
1473,27.343750
1474,27.343750
1475,27.343750
1476,27.343750
1477,27.343750
1478,23.437500
1479,23.437500
1480,23.437500
1481,23.437500
1482,23.437500
1483,23.437500
1484,23.437500
1485,23.437500
1486,23.437500
1487,23.437500
1488,19.531250
1489,23.437500
1490,19.531250
1491,19.531250
1492,19.531250
1493,19.531250
1494,19.531250
1495,19.531250
1496,19.531250
1497,19.531250
1498,19.531250
1499,15.625000
1500,15.625000
1501,15.625000
1502,15.625000
1503,15.625000
1504,15.625000
1505,15.625000
1506,15.625000
1507,15.625000
1508,15.625000
1509,15.625000
1510,11.718750
1511,11.718750
1512,11.718750
1513,11.718750
1514,11.718750
1515,11.718750
1516,11.718750
1517,11.718750
1518,11.718750
1519,11.718750
1520,7.812500
1521,7.812500
1522,7.812500
1523,7.812500
1524,7.812500
1525,7.812500
1526,7.812500
1527,7.812500
1528,7.812500
1529,7.812500
1530,7.812500
1531,3.906250
1532,3.906250
1533,3.906250
1534,3.906250
1535,3.906250
1536,3.906250
1537,3.906250
1538,3.906250
1539,3.906250
1540,0.000000
1541,0.000000
1542,0.000000
1543,0.000000
1544,0.000000
1545,0.000000
1546,0.000000
1547,0.000000
1548,0.000000
1549,-3.906250
1550,-3.906250
1551,-3.906250
1552,-3.906250
1553,-3.906250
1554,-3.906250
1555,-3.906250
1556,-3.906250
1557,-3.906250
1558,-3.906250
1559,-3.906250
1560,-7.812500
1561,-7.812500
1562,-7.812500
1563,-7.812500
1564,-7.812500
1565,-7.812500
1566,-7.812500
1567,-7.812500
1568,-7.812500
1569,-11.718750
1570,-11.718750
1571,-11.718750
1572,-11.718750
1573,-11.718750
1574,-11.718750
1575,-11.718750
1576,-11.718750
1577,-11.718750
1578,-15.625000
1579,-15.625000
1580,-15.625000
1581,-15.625000
1582,-15.625000
1583,-15.625000
1584,-15.625000
1585,-15.625000
1586,-15.625000
1587,-15.625000
1588,-19.531250
1589,-19.531250
1590,-19.531250
1591,-19.531250
1592,-19.531250
1593,-19.531250
1594,-19.531250
1595,-23.437500
1596,-23.437500
1597,-23.437500
1598,-23.437500
1599,-23.437500
1600,-23.437500
1601,-23.437500
1602,-23.437500
1603,-23.437500
1604,-23.437500
1605,-23.437500
1606,-27.343750
1607,-27.343750
1608,-27.343750
1609,-27.343750
1610,-27.343750
1611,-27.343750
1612,-27.343750
1613,-27.343750
1614,-31.250000
1615,-31.250000
1616,-31.250000
1617,-31.250000
1618,-31.250000
1619,-31.250000
1620,-31.250000
1621,-31.250000
1622,-31.250000
1623,-35.156250
1624,-35.156250
1625,-35.156250
1626,-35.156250
1627,-35.156250
1628,-35.156250
1629,-35.156250
1630,-35.156250
1631,-35.156250
1632,-35.156250
1633,-35.156250
1634,-39.062500
1635,-39.062500
1636,-39.062500
1637,-39.062500
1638,-39.062500
1639,-39.062500
1640,-39.062500
1641,-39.062500
1642,-42.968750
1643,-39.062500
1644,-42.968750
1645,-42.968750
1646,-42.968750
1647,-42.968750
1648,-42.968750
1649,-42.968750
1650,-42.968750
1651,-42.968750
1652,-42.968750
1653,-42.968750
1654,-46.875000
1655,-46.875000
1656,-46.875000
1657,-46.875000
1658,-46.875000
1659,-46.875000
1660,-46.875000
1661,-46.875000
1662,-46.875000
1663,-46.875000
1664,-50.781250
1665,-50.781250
1666,-50.781250
1667,-50.781250
1668,-50.781250
1669,-50.781250
1670,-50.781250
1671,-50.781250
1672,-50.781250
1673,-50.781250
1674,-50.781250
1675,-54.687500
1676,-54.687500
1677,-54.687500
1678,-54.687500
1679,-54.687500
1680,-54.687500
1681,-54.687500
1682,-54.687500
1683,-54.687500
1684,-54.687500
1685,-54.687500
1686,-58.593750
1687,-58.593750
1688,-58.593750
1689,-58.593750
1690,-58.593750
1691,-58.593750
1692,-58.593750
1693,-58.593750
1694,-58.593750
1695,-58.593750
1696,-58.593750
1697,-58.593750
1698,-58.593750
1699,-58.593750
1700,-62.500000
1701,-62.500000
1702,-62.500000
1703,-62.500000
1704,-62.500000
1705,-62.500000
1706,-62.500000
1707,-62.500000
1708,-62.500000
1709,-62.500000
1710,-62.500000
1711,-62.500000
1712,-66.406250
1713,-62.500000
1714,-66.406250
1715,-66.406250
1716,-66.406250
1717,-66.406250
1718,-66.406250
1719,-66.406250
1720,-66.406250
1721,-66.406250
1722,-66.406250
1723,-66.406250
1724,-66.406250
1725,-66.406250
1726,-66.406250
1727,-70.312500
1728,-70.312500
1729,-70.312500
1730,-70.312500
1731,-70.312500
1732,-70.312500
1733,-70.312500
1734,-70.312500
1735,-70.312500
1736,-70.312500
1737,-70.312500
1738,-70.312500
1739,-74.218750
1740,-70.312500
1741,-74.218750
1742,-74.218750
1743,-74.218750
1744,-74.218750
1745,-74.218750
1746,-74.218750
1747,-74.218750
1748,-74.218750
1749,-74.218750
1750,-74.218750
1751,-74.218750
1752,-74.218750
1753,-74.218750
1754,-74.218750
1755,-74.218750
1756,-74.218750
1757,-74.218750
1758,-74.218750
1759,-74.218750
1760,-78.125000
1761,-78.125000
1762,-78.125000
1763,-78.125000
1764,-74.218750
1765,-78.125000
1766,-78.125000
1767,-78.125000
1768,-78.125000
1769,-78.125000
1770,-78.125000
1771,-78.125000
1772,-78.125000
1773,-78.125000
1774,-78.125000
1775,-78.125000
1776,-78.125000
1777,-78.125000
1778,-78.125000
1779,-78.125000
1780,-78.125000
1781,-78.125000
1782,-78.125000
1783,-78.125000
1784,-78.125000
1785,-78.125000
1786,-78.125000
1787,-78.125000
1788,-78.125000
1789,-78.125000
1790,-78.125000
1791,-78.125000
1792,-78.125000
1793,-78.125000
1794,-78.125000
1795,-78.125000
1796,-78.125000
1797,-78.125000
1798,-82.031250
1799,-78.125000
1800,-78.125000
1801,-78.125000
1802,-78.125000
1803,-78.125000
1804,-78.125000
1805,-78.125000
1806,-78.125000
1807,-78.125000
1808,-78.125000
1809,-82.031250
1810,-82.031250
1811,-78.125000
1812,-78.125000
1813,-78.125000
1814,-78.125000
1815,-78.125000
1816,-78.125000
1817,-82.031250
1818,-78.125000
1819,-78.125000
1820,-78.125000
1821,-78.125000
1822,-78.125000
1823,-78.125000
1824,-78.125000
1825,-78.125000
1826,-78.125000
1827,-78.125000
1828,-78.125000
1829,-78.125000
1830,-78.125000
1831,-78.125000
1832,-78.125000
1833,-78.125000
1834,-78.125000
1835,-78.125000
1836,-78.125000
1837,-78.125000
1838,-78.125000
1839,-78.125000
1840,-78.125000
1841,-78.125000
1842,-78.125000
1843,-78.125000
1844,-78.125000
1845,-78.125000
1846,-78.125000
1847,-78.125000
1848,-78.125000
1849,-78.125000
1850,-78.125000
1851,-78.125000
1852,-78.125000
1853,-78.125000
1854,-78.125000
1855,-78.125000
1856,-78.125000
1857,-78.125000
1858,-78.125000
1859,-78.125000
1860,-78.125000
1861,-78.125000
1862,-78.125000
1863,-78.125000
1864,-78.125000
1865,-74.218750
1866,-78.125000
1867,-74.218750
1868,-74.218750
1869,-74.218750
1870,-74.218750
1871,-74.218750
1872,-74.218750
1873,-74.218750
1874,-74.218750
1875,-74.218750
1876,-74.218750
1877,-74.218750
1878,-74.218750
1879,-74.218750
1880,-74.218750
1881,-74.218750
1882,-74.218750
1883,-74.218750
1884,-74.218750
1885,-74.218750
1886,-74.218750
1887,-70.312500
1888,-74.218750
1889,-70.312500
1890,-70.312500
1891,-70.312500
1892,-70.312500
1893,-70.312500
1894,-70.312500
1895,-70.312500
1896,-70.312500
1897,-70.312500
1898,-70.312500
1899,-70.312500
1900,-70.312500
1901,-70.312500
1902,-70.312500
1903,-70.312500
1904,-70.312500
1905,-70.312500
1906,-70.312500
1907,-66.406250
1908,-66.406250
1909,-66.406250
1910,-66.406250
1911,-66.406250
1912,-66.406250
1913,-66.406250
1914,-66.406250
1915,-66.406250
1916,-66.406250
1917,-66.406250
1918,-62.500000
1919,-66.406250
1920,-66.406250
1921,-62.500000
1922,-62.500000
1923,-62.500000
1924,-62.500000
1925,-62.500000
1926,-62.500000
1927,-62.500000
1928,-62.500000
1929,-62.500000
1930,-62.500000
1931,-58.593750
1932,-62.500000
1933,-58.593750
1934,-62.500000
1935,-58.593750
1936,-58.593750
1937,-58.593750
1938,-58.593750
1939,-58.593750
1940,-58.593750
1941,-58.593750
1942,-58.593750
1943,-58.593750
1944,-58.593750
1945,-54.687500
1946,-54.687500
1947,-54.687500
1948,-54.687500
1949,-54.687500
1950,-54.687500
1951,-54.687500
1952,-54.687500
1953,-54.687500
1954,-54.687500
1955,-54.687500
1956,-50.781250
1957,-50.781250
1958,-50.781250
1959,-50.781250
1960,-50.781250
1961,-50.781250
1962,-50.781250
1963,-50.781250
1964,-50.781250
1965,-50.781250
1966,-50.781250
1967,-46.875000
1968,-46.875000
1969,-46.875000
1970,-46.875000
1971,-46.875000
1972,-46.875000
1973,-46.875000
1974,-46.875000
1975,-46.875000
1976,-46.875000
1977,-42.968750
1978,-42.968750
1979,-42.968750
1980,-42.968750
1981,-42.968750
1982,-42.968750
1983,-42.968750
1984,-42.968750
1985,-42.968750
1986,-42.968750
1987,-42.968750
1988,-39.062500
1989,-39.062500
1990,-39.062500
1991,-39.062500
1992,-39.062500
1993,-39.062500
1994,-39.062500
1995,-39.062500
1996,-39.062500
1997,-39.062500
1998,-39.062500
1999,-35.156250
2000,-35.156250
2001,-35.156250
2002,-35.156250
2003,-35.156250
2004,-35.156250
2005,-35.156250
2006,-35.156250
2007,-35.156250
2008,-35.156250
2009,-31.250000
2010,-31.250000
2011,-31.250000
2012,-31.250000
2013,-31.250000
2014,-31.250000
2015,-31.250000
2016,-31.250000
2017,-31.250000
2018,-27.343750
2019,-27.343750
2020,-27.343750
2021,-27.343750
2022,-27.343750
2023,-27.343750
2024,-27.343750
2025,-27.343750
2026,-27.343750
2027,-23.437500
2028,-23.437500
2029,-23.437500
2030,-23.437500
2031,-23.437500
2032,-23.437500
2033,-23.437500
2034,-23.437500
2035,-23.437500
2036,-19.531250
2037,-19.531250
2038,-19.531250
2039,-19.531250
2040,-19.531250
2041,-19.531250
2042,-19.531250
2043,-19.531250
2044,-19.531250
2045,-19.531250
2046,-15.625000
2047,-15.625000
2048,-15.625000
2049,-15.625000
2050,-15.625000
2051,-15.625000
2052,-15.625000
2053,-15.625000
2054,-11.718750
2055,-11.718750
2056,-11.718750
2057,-11.718750
2058,-11.718750
2059,-11.718750
2060,-11.718750
2061,-11.718750
2062,-11.718750
2063,-7.812500
2064,-7.812500
2065,-7.812500
2066,-7.812500
2067,-7.812500
2068,-7.812500
2069,-7.812500
2070,-7.812500
2071,-7.812500
2072,-3.906250
2073,-3.906250
2074,-3.906250
2075,-3.906250
2076,-3.906250
2077,-3.906250
2078,-3.906250
2079,-3.906250
2080,-3.906250
2081,-3.906250
2082,0.000000
2083,0.000000
2084,0.000000
2085,0.000000
2086,0.000000
2087,0.000000
2088,0.000000
2089,0.000000
2090,0.000000
2091,3.906250
2092,3.906250
2093,3.906250
2094,3.906250
2095,3.906250
2096,3.906250
2097,3.906250
2098,3.906250
2099,3.906250
2100,3.906250
2101,3.906250
2102,7.812500
2103,7.812500
2104,7.812500
2105,7.812500
2106,7.812500
2107,7.812500
2108,7.812500
2109,7.812500
2110,7.812500
2111,11.718750
2112,11.718750
2113,11.718750
2114,11.718750
2115,11.718750
2116,11.718750
2117,11.718750
2118,11.718750
2119,11.718750
2120,11.718750
2121,15.625000
2122,15.625000
2123,15.625000
2124,15.625000
2125,15.625000
2126,15.625000
2127,15.625000
2128,15.625000
2129,15.625000
2130,15.625000
2131,15.625000
2132,19.531250
2133,19.531250
2134,15.625000
2135,19.531250
2136,19.531250
2137,19.531250
2138,19.531250
2139,19.531250
2140,19.531250
2141,19.531250
2142,19.531250
2143,19.531250
2144,23.437500
2145,23.437500
2146,23.437500
2147,23.437500
2148,23.437500
2149,23.437500
2150,23.437500
2151,23.437500
2152,23.437500
2153,23.437500
2154,23.437500
2155,23.437500
2156,27.343750
2157,27.343750
2158,27.343750
2159,27.343750
2160,27.343750
2161,27.343750
2162,27.343750
2163,27.343750
2164,27.343750
2165,27.343750
2166,27.343750
2167,27.343750
2168,31.250000
2169,31.250000
2170,31.250000
2171,31.250000
2172,31.250000
2173,31.250000
2174,31.250000
2175,31.250000
2176,31.250000
2177,31.250000
2178,31.250000
2179,31.250000
2180,35.156250
2181,35.156250
2182,35.156250
2183,35.156250
2184,35.156250
2185,35.156250
2186,35.156250
2187,35.156250
2188,35.156250
2189,35.156250
2190,35.156250
2191,39.062500
2192,35.156250
2193,39.062500
2194,35.156250
2195,35.156250
2196,39.062500
2197,39.062500
2198,39.062500
2199,39.062500
2200,39.062500
2201,39.062500
2202,39.062500
2203,39.062500
2204,39.062500
2205,39.062500
2206,39.062500
2207,39.062500
2208,39.062500
2209,42.968750
2210,42.968750
2211,42.968750
2212,42.968750
2213,42.968750
2214,42.968750
2215,42.968750
2216,42.968750
2217,42.968750
2218,42.968750
2219,42.968750
2220,42.968750
2221,42.968750
2222,42.968750
2223,42.968750
2224,42.968750
2225,42.968750
2226,42.968750
2227,42.968750
2228,42.968750
2229,46.875000
2230,42.968750
2231,46.875000
2232,46.875000
2233,46.875000
2234,46.875000
2235,46.875000
2236,46.875000
2237,46.875000
2238,46.875000
2239,46.875000
2240,46.875000
2241,46.875000
2242,46.875000
2243,46.875000
2244,50.781250
2245,46.875000
2246,46.875000
2247,46.875000
2248,46.875000
2249,46.875000
2250,46.875000
2251,46.875000
2252,46.875000
2253,46.875000
2254,46.875000
2255,50.781250
2256,50.781250
2257,50.781250
2258,50.781250
2259,50.781250
2260,50.781250
2261,50.781250
2262,50.781250
2263,50.781250
2264,50.781250
2265,50.781250
2266,50.781250
2267,50.781250
2268,50.781250
2269,50.781250
2270,50.781250
2271,50.781250
2272,50.781250
2273,50.781250
2274,50.781250
2275,50.781250
2276,50.781250
2277,50.781250
2278,50.781250
2279,50.781250
2280,50.781250
2281,50.781250
2282,50.781250
2283,50.781250
2284,50.781250
2285,50.781250
2286,50.781250
2287,54.687500
2288,54.687500
2289,50.781250
2290,50.781250
2291,50.781250
2292,50.781250
2293,50.781250
2294,50.781250
2295,50.781250
2296,50.781250
2297,50.781250
2298,54.687500
2299,54.687500
2300,54.687500
2301,54.687500
2302,54.687500
2303,54.687500
2304,54.687500
2305,54.687500
2306,54.687500
2307,54.687500
2308,54.687500
2309,50.781250
2310,50.781250
2311,50.781250
2312,50.781250
2313,54.687500
2314,50.781250
2315,54.687500
2316,54.687500
2317,54.687500
2318,54.687500
2319,54.687500
2320,54.687500
2321,54.687500
2322,54.687500
2323,54.687500
2324,54.687500
2325,50.781250
2326,50.781250
2327,50.781250
2328,54.687500
2329,54.687500
2330,50.781250
2331,50.781250
2332,50.781250
2333,54.687500
2334,54.687500
2335,50.781250
2336,50.781250
2337,50.781250
2338,50.781250
2339,50.781250
2340,50.781250
2341,50.781250
2342,50.781250
2343,50.781250
2344,50.781250
2345,50.781250
2346,50.781250
2347,50.781250
2348,50.781250
2349,50.781250
2350,50.781250
2351,50.781250
2352,50.781250
2353,50.781250
2354,50.781250
2355,50.781250
2356,50.781250
2357,50.781250
2358,50.781250
2359,50.781250
2360,50.781250
2361,50.781250
2362,50.781250
2363,50.781250
2364,50.781250
2365,50.781250
2366,50.781250
2367,50.781250
2368,50.781250
2369,46.875000
2370,50.781250
2371,50.781250
2372,46.875000
2373,46.875000
2374,46.875000
2375,46.875000
2376,46.875000
2377,46.875000
2378,46.875000
2379,46.875000
2380,46.875000
2381,46.875000
2382,46.875000
2383,46.875000
2384,46.875000
2385,46.875000
2386,46.875000
2387,46.875000
2388,46.875000
2389,46.875000
2390,46.875000
2391,46.875000
2392,46.875000
2393,42.968750
2394,42.968750
2395,42.968750
2396,42.968750
2397,42.968750
2398,42.968750
2399,42.968750
2400,42.968750
2401,42.968750
2402,42.968750
2403,42.968750
2404,42.968750
2405,42.968750
2406,42.968750
2407,42.968750
2408,42.968750
2409,42.968750
2410,39.062500
2411,42.968750
2412,39.062500
2413,39.062500
2414,39.062500
2415,39.062500
2416,39.062500
2417,39.062500
2418,39.062500
2419,39.062500
2420,39.062500
2421,39.062500
2422,39.062500
2423,39.062500
2424,39.062500
2425,39.062500
2426,39.062500
2427,39.062500
2428,35.156250
2429,35.156250
2430,39.062500
2431,39.062500
2432,35.156250
2433,35.156250
2434,35.156250
2435,35.156250
2436,35.156250
2437,35.156250
2438,35.156250
2439,35.156250
2440,35.156250
2441,35.156250
2442,31.250000
2443,31.250000
2444,31.250000
2445,31.250000
2446,31.250000
2447,31.250000
2448,31.250000
2449,31.250000
2450,31.250000
2451,31.250000
2452,31.250000
2453,31.250000
2454,31.250000
2455,27.343750
2456,27.343750
2457,27.343750
2458,27.343750
2459,27.343750
2460,27.343750
2461,27.343750
2462,27.343750
2463,27.343750
2464,27.343750
2465,27.343750
2466,27.343750
2467,27.343750
2468,23.437500
2469,23.437500
2470,23.437500
2471,23.437500
2472,23.437500
2473,23.437500
2474,23.437500
2475,23.437500
2476,23.437500
2477,23.437500
2478,23.437500
2479,19.531250
2480,19.531250
2481,19.531250
2482,19.531250
2483,19.531250
2484,19.531250
2485,19.531250
2486,19.531250
2487,19.531250
2488,19.531250
2489,19.531250
2490,19.531250
2491,15.625000
2492,15.625000
2493,15.625000
2494,15.625000
2495,15.625000
2496,15.625000
2497,15.625000
2498,15.625000
2499,15.625000
2500,11.718750
2501,11.718750
2502,11.718750
2503,11.718750
2504,11.718750
2505,11.718750
2506,11.718750
2507,11.718750
2508,11.718750
2509,7.812500
2510,7.812500
2511,7.812500
2512,7.812500
2513,7.812500
2514,7.812500
2515,7.812500
2516,11.718750
2517,3.906250
2518,7.812500
2519,7.812500
2520,3.906250
2521,3.906250
2522,3.906250
2523,3.906250
2524,3.906250
2525,3.906250
2526,3.906250
2527,3.906250
2528,3.906250
2529,3.906250
2530,0.000000
2531,0.000000
2532,0.000000
2533,0.000000
2534,0.000000
2535,0.000000
2536,0.000000
2537,0.000000
2538,-3.906250
2539,-3.906250
2540,-3.906250
2541,-3.906250
2542,-3.906250
2543,-3.906250
2544,-3.906250
2545,-3.906250
2546,-3.906250
2547,-3.906250
2548,-7.812500
2549,-7.812500
2550,-7.812500
2551,-7.812500
2552,-7.812500
2553,-7.812500
2554,-7.812500
2555,-7.812500
2556,-7.812500
2557,-7.812500
2558,-11.718750
2559,-11.718750
2560,-11.718750
2561,-11.718750
2562,-11.718750
2563,-11.718750
2564,-11.718750
2565,-11.718750
2566,-15.625000
2567,-15.625000
2568,-15.625000
2569,-15.625000
2570,-15.625000
2571,-15.625000
2572,-15.625000
2573,-15.625000
2574,-19.531250
2575,-15.625000
2576,-19.531250
2577,-19.531250
2578,-19.531250
2579,-19.531250
2580,-19.531250
2581,-19.531250
2582,-19.531250
2583,-19.531250
2584,-19.531250
2585,-23.437500
2586,-23.437500
2587,-23.437500
2588,-23.437500
2589,-23.437500
2590,-23.437500
2591,-23.437500
2592,-23.437500
2593,-23.437500
2594,-27.343750
2595,-27.343750
2596,-27.343750
2597,-27.343750
2598,-27.343750
2599,-27.343750
2600,-27.343750
2601,-27.343750
2602,-31.250000
2603,-27.343750
2604,-31.250000
2605,-31.250000
2606,-31.250000
2607,-31.250000
2608,-31.250000
2609,-31.250000
2610,-31.250000
2611,-31.250000
2612,-31.250000
2613,-31.250000
2614,-35.156250
2615,-35.156250
2616,-35.156250
2617,-35.156250
2618,-35.156250
2619,-35.156250
2620,-39.062500
2621,-39.062500
2622,-39.062500
2623,-39.062500
2624,-39.062500
2625,-39.062500
2626,-39.062500
2627,-39.062500
2628,-39.062500
2629,-39.062500
2630,-39.062500
2631,-39.062500
2632,-42.968750
2633,-42.968750
2634,-42.968750
2635,-42.968750
2636,-42.968750
2637,-42.968750
2638,-42.968750
2639,-42.968750
2640,-42.968750
2641,-42.968750
2642,-46.875000
2643,-46.875000
2644,-46.875000
2645,-46.875000
2646,-46.875000
2647,-46.875000
2648,-46.875000
2649,-46.875000
2650,-46.875000
2651,-50.781250
2652,-50.781250
2653,-50.781250
2654,-50.781250
2655,-50.781250
2656,-50.781250
2657,-50.781250
2658,-50.781250
2659,-50.781250
2660,-50.781250
2661,-50.781250
2662,-50.781250
2663,-54.687500
2664,-54.687500
2665,-54.687500
2666,-54.687500
2667,-54.687500
2668,-54.687500
2669,-54.687500
2670,-54.687500
2671,-54.687500
2672,-54.687500
2673,-58.593750
2674,-58.593750
2675,-58.593750
2676,-58.593750
2677,-58.593750
2678,-58.593750
2679,-58.593750
2680,-58.593750
2681,-58.593750
2682,-58.593750
2683,-58.593750
2684,-62.500000
2685,-62.500000
2686,-62.500000
2687,-62.500000
2688,-62.500000
2689,-62.500000
2690,-62.500000
2691,-62.500000
2692,-62.500000
2693,-62.500000
2694,-62.500000
2695,-62.500000
2696,-66.406250
2697,-66.406250
2698,-62.500000
2699,-62.500000
2700,-66.406250
2701,-66.406250
2702,-66.406250
2703,-66.406250
2704,-66.406250
2705,-66.406250
2706,-66.406250
2707,-66.406250
2708,-66.406250
2709,-66.406250
2710,-66.406250
2711,-66.406250
2712,-66.406250
2713,-66.406250
2714,-66.406250
2715,-70.312500
2716,-70.312500
2717,-70.312500
2718,-70.312500
2719,-70.312500
2720,-70.312500
2721,-70.312500
2722,-70.312500
2723,-70.312500
2724,-70.312500
2725,-70.312500
2726,-70.312500
2727,-70.312500
2728,-70.312500
2729,-70.312500
2730,-70.312500
2731,-74.218750
2732,-74.218750
2733,-74.218750
2734,-74.218750
2735,-74.218750
2736,-74.218750
2737,-74.218750
2738,-74.218750
2739,-74.218750
2740,-74.218750
2741,-74.218750
2742,-74.218750
2743,-74.218750
2744,-74.218750
2745,-74.218750
2746,-74.218750
2747,-74.218750
2748,-74.218750
2749,-74.218750
2750,-74.218750
2751,-74.218750
2752,-74.218750
2753,-78.125000
2754,-78.125000
2755,-78.125000
2756,-78.125000
2757,-78.125000
2758,-78.125000
2759,-78.125000
2760,-78.125000
2761,-78.125000
2762,-78.125000
2763,-78.125000
2764,-78.125000
2765,-78.125000
2766,-78.125000
2767,-78.125000
2768,-78.125000
2769,-78.125000
2770,-78.125000
2771,-78.125000
2772,-78.125000
2773,-78.125000
2774,-78.125000
2775,-78.125000
2776,-78.125000
2777,-78.125000
2778,-78.125000
2779,-78.125000
2780,-78.125000
2781,-78.125000
2782,-78.125000
2783,-78.125000
2784,-78.125000
2785,-78.125000
2786,-78.125000
2787,-82.031250
2788,-78.125000
2789,-78.125000
2790,-78.125000
2791,-78.125000
2792,-78.125000
2793,-78.125000
2794,-78.125000
2795,-78.125000
2796,-82.031250
2797,-82.031250
2798,-78.125000
2799,-78.125000
2800,-78.125000
2801,-78.125000
2802,-78.125000
2803,-78.125000
2804,-82.031250
2805,-82.031250
2806,-82.031250
2807,-82.031250
2808,-82.031250
2809,-82.031250
2810,-78.125000
2811,-78.125000
2812,-78.125000
2813,-78.125000
2814,-78.125000
2815,-78.125000
2816,-78.125000
2817,-78.125000
2818,-78.125000
2819,-78.125000
2820,-78.125000
2821,-78.125000
2822,-78.125000
2823,-78.125000
2824,-78.125000
2825,-78.125000
2826,-78.125000
2827,-78.125000
2828,-78.125000
2829,-78.125000
2830,-78.125000
2831,-78.125000
2832,-78.125000
2833,-78.125000
2834,-78.125000
2835,-78.125000
2836,-82.031250
2837,-78.125000
2838,-82.031250
2839,-78.125000
2840,-78.125000
2841,-78.125000
2842,-78.125000
2843,-78.125000
2844,-78.125000
2845,-78.125000
2846,-78.125000
2847,-78.125000
2848,-78.125000
2849,-78.125000
2850,-78.125000
2851,-78.125000
2852,-78.125000
2853,-78.125000
2854,-78.125000
2855,-74.218750
2856,-74.218750
2857,-74.218750
2858,-74.218750
2859,-74.218750
2860,-74.218750
2861,-74.218750
2862,-74.218750
2863,-74.218750
2864,-74.218750
2865,-74.218750
2866,-74.218750
2867,-74.218750
2868,-74.218750
2869,-74.218750
2870,-70.312500
2871,-74.218750
2872,-74.218750
2873,-74.218750
2874,-74.218750
2875,-74.218750
2876,-70.312500
2877,-70.312500
2878,-70.312500
2879,-70.312500
2880,-70.312500
2881,-70.312500
2882,-70.312500
2883,-70.312500
2884,-70.312500
2885,-70.312500
2886,-70.312500
2887,-70.312500
2888,-70.312500
2889,-70.312500
2890,-70.312500
2891,-70.312500
2892,-70.312500
2893,-66.406250
2894,-66.406250
2895,-66.406250
2896,-66.406250
2897,-66.406250
2898,-66.406250
2899,-66.406250
2900,-66.406250
2901,-66.406250
2902,-66.406250
2903,-66.406250
2904,-66.406250
2905,-66.406250
2906,-66.406250
2907,-66.406250
2908,-62.500000
2909,-62.500000
2910,-62.500000
2911,-62.500000
2912,-62.500000
2913,-62.500000
2914,-62.500000
2915,-62.500000
2916,-62.500000
2917,-62.500000
2918,-62.500000
2919,-62.500000
2920,-62.500000
2921,-58.593750
2922,-58.593750
2923,-58.593750
2924,-58.593750
2925,-58.593750
2926,-58.593750
2927,-58.593750
2928,-58.593750
2929,-58.593750
2930,-58.593750
2931,-58.593750
2932,-58.593750
2933,-58.593750
2934,-58.593750
2935,-54.687500
2936,-54.687500
2937,-58.593750
2938,-54.687500
2939,-54.687500
2940,-54.687500
2941,-54.687500
2942,-54.687500
2943,-54.687500
2944,-54.687500
2945,-54.687500
2946,-50.781250
2947,-50.781250
2948,-50.781250
2949,-50.781250
2950,-50.781250
2951,-50.781250
2952,-50.781250
2953,-50.781250
2954,-50.781250
2955,-50.781250
2956,-50.781250
2957,-46.875000
2958,-46.875000
2959,-46.875000
2960,-46.875000
2961,-46.875000
2962,-46.875000
2963,-46.875000
2964,-46.875000
2965,-46.875000
2966,-46.875000
2967,-42.968750
2968,-42.968750
2969,-42.968750
2970,-42.968750
2971,-42.968750
2972,-42.968750
2973,-42.968750
2974,-42.968750
2975,-42.968750
2976,-42.968750
2977,-39.062500
2978,-39.062500
2979,-39.062500
2980,-39.062500
2981,-39.062500
2982,-39.062500
2983,-39.062500
2984,-39.062500
2985,-39.062500
2986,-35.156250
2987,-35.156250
2988,-35.156250
2989,-35.156250
2990,-35.156250
2991,-35.156250
2992,-35.156250
2993,-35.156250
2994,-35.156250
2995,-35.156250
2996,-31.250000
2997,-31.250000
2998,-31.250000
2999,-31.250000
3000,-31.250000
3001,-31.250000
3002,-31.250000
3003,-31.250000
3004,-31.250000
3005,-31.250000
3006,-27.343750
3007,-27.343750
3008,-27.343750
3009,-27.343750
3010,-27.343750
3011,-27.343750
3012,-27.343750
3013,-27.343750
3014,-27.343750
3015,-23.437500
3016,-23.437500
3017,-23.437500
3018,-23.437500
3019,-23.437500
3020,-23.437500
3021,-23.437500
3022,-23.437500
3023,-23.437500
3024,-19.531250
3025,-19.531250
3026,-19.531250
3027,-19.531250
3028,-19.531250
3029,-19.531250
3030,-19.531250
3031,-19.531250
3032,-19.531250
3033,-15.625000
3034,-19.531250
3035,-15.625000
3036,-15.625000
3037,-15.625000
3038,-15.625000
3039,-15.625000
3040,-15.625000
3041,-15.625000
3042,-15.625000
3043,-15.625000
3044,-15.625000
3045,-11.718750
3046,-11.718750
3047,-11.718750
3048,-11.718750
3049,-11.718750
3050,-11.718750
3051,-11.718750
3052,-11.718750
3053,-7.812500
3054,-11.718750
3055,-7.812500
3056,-7.812500
3057,-7.812500
3058,-7.812500
3059,-7.812500
3060,-7.812500
3061,-7.812500
3062,-7.812500
3063,-3.906250
3064,-7.812500
3065,-3.906250
3066,-3.906250
3067,-3.906250
3068,-3.906250
3069,-3.906250
3070,-3.906250
3071,0.000000
3072,0.000000
3073,-3.906250
3074,0.000000
3075,0.000000
3076,0.000000
3077,0.000000
3078,0.000000
3079,0.000000
3080,0.000000
3081,0.000000
3082,3.906250
3083,3.906250
3084,3.906250
3085,3.906250
3086,3.906250
3087,3.906250
3088,3.906250
3089,3.906250
3090,3.906250
3091,3.906250
3092,7.812500
3093,7.812500
3094,7.812500
3095,7.812500
3096,7.812500
3097,7.812500
3098,7.812500
3099,7.812500
3100,7.812500
3101,11.718750
3102,11.718750
3103,11.718750
3104,11.718750
3105,11.718750
3106,11.718750
3107,11.718750
3108,11.718750
3109,11.718750
3110,15.625000
3111,15.625000
3112,15.625000
3113,15.625000
3114,15.625000
3115,15.625000
3116,15.625000
3117,15.625000
3118,15.625000
3119,15.625000
3120,15.625000
3121,19.531250
3122,19.531250
3123,19.531250
3124,19.531250
3125,19.531250
3126,19.531250
3127,19.531250
3128,19.531250
3129,19.531250
3130,19.531250
3131,19.531250
3132,23.437500
3133,23.437500
3134,23.437500
3135,23.437500
3136,23.437500
3137,23.437500
3138,23.437500
3139,23.437500
3140,23.437500
3141,23.437500
3142,23.437500
3143,23.437500
3144,23.437500
3145,27.343750
3146,27.343750
3147,27.343750
3148,27.343750
3149,27.343750
3150,27.343750
3151,27.343750
3152,27.343750
3153,27.343750
3154,27.343750
3155,27.343750
3156,27.343750
3157,31.250000
3158,31.250000
3159,31.250000
3160,31.250000
3161,31.250000
3162,31.250000
3163,31.250000
3164,31.250000
3165,31.250000
3166,31.250000
3167,31.250000
3168,31.250000
3169,31.250000
3170,31.250000
3171,35.156250
3172,35.156250
3173,35.156250
3174,35.156250
3175,35.156250
3176,35.156250
3177,35.156250
3178,35.156250
3179,35.156250
3180,35.156250
3181,35.156250
3182,35.156250
3183,39.062500
3184,35.156250
3185,35.156250
3186,35.156250
3187,39.062500
3188,39.062500
3189,39.062500
3190,39.062500
3191,39.062500
3192,39.062500
3193,39.062500
3194,39.062500
3195,39.062500
3196,39.062500
3197,39.062500
3198,39.062500
3199,39.062500
3200,39.062500
3201,39.062500
3202,42.968750
3203,42.968750
3204,42.968750
3205,42.968750
3206,42.968750
3207,42.968750
3208,42.968750
3209,42.968750
3210,42.968750
3211,42.968750
3212,42.968750
3213,42.968750
3214,42.968750
3215,42.968750
3216,42.968750
3217,42.968750
3218,42.968750
3219,42.968750
3220,46.875000
3221,46.875000
3222,46.875000
3223,46.875000
3224,46.875000
3225,46.875000
3226,46.875000
3227,46.875000
3228,46.875000
3229,46.875000
3230,46.875000
3231,46.875000
3232,46.875000
3233,46.875000
3234,46.875000
3235,46.875000
3236,46.875000
3237,46.875000
3238,46.875000
3239,46.875000
3240,46.875000
3241,46.875000
3242,46.875000
3243,50.781250
3244,46.875000
3245,46.875000
3246,50.781250
3247,50.781250
3248,50.781250
3249,50.781250
3250,50.781250
3251,50.781250
3252,50.781250
3253,50.781250
3254,50.781250
3255,50.781250
3256,50.781250
3257,50.781250
3258,50.781250
3259,50.781250
3260,50.781250
3261,50.781250
3262,50.781250
3263,50.781250
3264,50.781250
3265,50.781250
3266,50.781250
3267,50.781250
3268,50.781250
3269,50.781250
3270,50.781250
3271,50.781250
3272,50.781250
3273,50.781250
3274,50.781250
3275,50.781250
3276,50.781250
3277,50.781250
3278,50.781250
3279,54.687500
3280,50.781250
3281,50.781250
3282,50.781250
3283,50.781250
3284,50.781250
3285,50.781250
3286,50.781250
3287,54.687500
3288,54.687500
3289,50.781250
3290,54.687500
3291,50.781250
3292,50.781250
3293,50.781250
3294,50.781250
3295,50.781250
3296,50.781250
3297,50.781250
3298,50.781250
3299,50.781250
3300,50.781250
3301,50.781250
3302,50.781250
3303,50.781250
3304,50.781250
3305,50.781250
3306,50.781250
3307,50.781250
3308,50.781250
3309,50.781250
3310,50.781250
3311,50.781250
3312,50.781250
3313,50.781250
3314,50.781250
3315,50.781250
3316,50.781250
3317,50.781250
3318,50.781250
3319,50.781250
3320,50.781250
3321,50.781250
3322,50.781250
3323,50.781250
3324,50.781250
3325,50.781250
3326,50.781250
3327,50.781250
3328,50.781250
3329,50.781250
3330,50.781250
3331,50.781250
3332,50.781250
3333,50.781250
3334,50.781250
3335,50.781250
3336,50.781250
3337,50.781250
3338,50.781250
3339,50.781250
3340,50.781250
3341,50.781250
3342,50.781250
3343,50.781250
3344,50.781250
3345,50.781250
3346,50.781250
3347,50.781250
3348,50.781250
3349,50.781250
3350,50.781250
3351,50.781250
3352,50.781250
3353,50.781250
3354,46.875000
3355,46.875000
3356,50.781250
3357,46.875000
3358,50.781250
3359,50.781250
3360,46.875000
3361,46.875000
3362,46.875000
3363,46.875000
3364,46.875000
3365,46.875000
3366,46.875000
3367,46.875000
3368,46.875000
3369,46.875000
3370,46.875000
3371,46.875000
3372,46.875000
3373,46.875000
3374,46.875000
3375,46.875000
3376,46.875000
3377,46.875000
3378,46.875000
3379,46.875000
3380,46.875000
3381,42.968750
3382,46.875000
3383,42.968750
3384,42.968750
3385,42.968750
3386,46.875000
3387,42.968750
3388,42.968750
3389,42.968750
3390,42.968750
3391,42.968750
3392,42.968750
3393,42.968750
3394,42.968750
3395,42.968750
3396,42.968750
3397,42.968750
3398,42.968750
3399,42.968750
3400,42.968750
3401,42.968750
3402,39.062500
3403,39.062500
3404,39.062500
3405,39.062500
3406,39.062500
3407,39.062500
3408,39.062500
3409,39.062500
3410,39.062500
3411,39.062500
3412,39.062500
3413,39.062500
3414,39.062500
3415,39.062500
3416,35.156250
3417,35.156250
3418,35.156250
3419,35.156250
3420,35.156250
3421,35.156250
3422,35.156250
3423,35.156250
3424,35.156250
3425,35.156250
3426,35.156250
3427,35.156250
3428,35.156250
3429,35.156250
3430,35.156250
3431,31.250000
3432,31.250000
3433,31.250000
3434,31.250000
3435,31.250000
3436,31.250000
3437,31.250000
3438,31.250000
3439,31.250000
3440,31.250000
3441,27.343750
3442,27.343750
3443,27.343750
3444,27.343750
3445,31.250000
3446,27.343750
3447,27.343750
3448,27.343750
3449,27.343750
3450,27.343750
3451,27.343750
3452,27.343750
3453,27.343750
3454,23.437500
3455,23.437500
3456,23.437500
3457,23.437500
3458,23.437500
3459,23.437500
3460,23.437500
3461,23.437500
3462,23.437500
3463,23.437500
3464,23.437500
3465,23.437500
3466,23.437500
3467,19.531250
3468,23.437500
3469,19.531250
3470,19.531250
3471,19.531250
3472,19.531250
3473,19.531250
3474,19.531250
3475,19.531250
3476,19.531250
3477,19.531250
3478,15.625000
3479,15.625000
3480,15.625000
3481,15.625000
3482,15.625000
3483,15.625000
3484,15.625000
3485,15.625000
3486,15.625000
3487,11.718750
3488,11.718750
3489,15.625000
3490,11.718750
3491,11.718750
3492,11.718750
3493,11.718750
3494,11.718750
3495,11.718750
3496,11.718750
3497,11.718750
3498,7.812500
3499,7.812500
3500,7.812500
3501,7.812500
3502,7.812500
3503,7.812500
3504,7.812500
3505,7.812500
3506,7.812500
3507,7.812500
3508,7.812500
3509,3.906250
3510,7.812500
3511,3.906250
3512,3.906250
3513,3.906250
3514,3.906250
3515,3.906250
3516,3.906250
3517,3.906250
3518,3.906250
3519,0.000000
3520,0.000000
3521,0.000000
3522,0.000000
3523,0.000000
3524,0.000000
3525,0.000000
3526,0.000000
3527,0.000000
3528,0.000000
3529,-3.906250
3530,-3.906250
3531,-3.906250
3532,-3.906250
3533,-3.906250
3534,-3.906250
3535,-3.906250
3536,-3.906250
3537,-3.906250
3538,-7.812500
3539,-7.812500
3540,-7.812500
3541,-7.812500
3542,-7.812500
3543,-7.812500
3544,-7.812500
3545,-7.812500
3546,-7.812500
3547,-11.718750
3548,-11.718750
3549,-11.718750
3550,-11.718750
3551,-11.718750
3552,-11.718750
3553,-11.718750
3554,-11.718750
3555,-15.625000
3556,-15.625000
3557,-15.625000
3558,-15.625000
3559,-15.625000
3560,-15.625000
3561,-15.625000
3562,-15.625000
3563,-15.625000
3564,-19.531250
3565,-19.531250
3566,-19.531250
3567,-19.531250
3568,-19.531250
3569,-19.531250
3570,-19.531250
3571,-19.531250
3572,-19.531250
3573,-19.531250
3574,-23.437500
3575,-23.437500
3576,-23.437500
3577,-23.437500
3578,-23.437500
3579,-23.437500
3580,-23.437500
3581,-23.437500
3582,-27.343750
3583,-27.343750
3584,-27.343750
3585,-27.343750
3586,-27.343750
3587,-27.343750
3588,-27.343750
3589,-27.343750
3590,-27.343750
3591,-31.250000
3592,-27.343750
3593,-31.250000
3594,-31.250000
3595,-31.250000
3596,-31.250000
3597,-31.250000
3598,-31.250000
3599,-31.250000
3600,-31.250000
3601,-31.250000
3602,-35.156250
3603,-35.156250
3604,-35.156250
3605,-35.156250
3606,-35.156250
3607,-35.156250
3608,-35.156250
3609,-35.156250
3610,-39.062500
3611,-35.156250
3612,-35.156250
3613,-39.062500
3614,-39.062500
3615,-39.062500
3616,-39.062500
3617,-39.062500
3618,-39.062500
3619,-39.062500
3620,-39.062500
3621,-39.062500
3622,-39.062500
3623,-42.968750
3624,-42.968750
3625,-42.968750
3626,-42.968750
3627,-42.968750
3628,-42.968750
3629,-42.968750
3630,-42.968750
3631,-42.968750
3632,-46.875000
3633,-46.875000
3634,-46.875000
3635,-46.875000
3636,-46.875000
3637,-46.875000
3638,-46.875000
3639,-46.875000
3640,-46.875000
3641,-50.781250
3642,-50.781250
3643,-46.875000
3644,-50.781250
3645,-50.781250
3646,-50.781250
3647,-50.781250
3648,-50.781250
3649,-50.781250
3650,-50.781250
3651,-50.781250
3652,-50.781250
3653,-54.687500
3654,-54.687500
3655,-54.687500
3656,-54.687500
3657,-54.687500
3658,-54.687500
3659,-54.687500
3660,-54.687500
3661,-54.687500
3662,-58.593750
3663,-54.687500
3664,-58.593750
3665,-54.687500
3666,-58.593750
3667,-58.593750
3668,-58.593750
3669,-58.593750
3670,-58.593750
3671,-58.593750
3672,-58.593750
3673,-58.593750
3674,-58.593750
3675,-58.593750
3676,-58.593750
3677,-62.500000
3678,-62.500000
3679,-62.500000
3680,-62.500000
3681,-62.500000
3682,-62.500000
3683,-62.500000
3684,-62.500000
3685,-62.500000
3686,-62.500000
3687,-62.500000
3688,-66.406250
3689,-62.500000
3690,-66.406250
3691,-66.406250
3692,-66.406250
3693,-66.406250
3694,-66.406250
3695,-66.406250
3696,-66.406250
3697,-66.406250
3698,-66.406250
3699,-66.406250
3700,-66.406250
3701,-66.406250
3702,-70.312500
3703,-66.406250
3704,-70.312500
3705,-70.312500
3706,-70.312500
3707,-70.312500
3708,-70.312500
3709,-70.312500
3710,-70.312500
3711,-70.312500
3712,-70.312500
3713,-70.312500
3714,-70.312500
3715,-70.312500
3716,-70.312500
3717,-70.312500
3718,-70.312500
3719,-74.218750
3720,-74.218750
3721,-74.218750
3722,-74.218750
3723,-74.218750
3724,-74.218750
3725,-74.218750
3726,-74.218750
3727,-74.218750
3728,-74.218750
3729,-74.218750
3730,-74.218750
3731,-74.218750
3732,-74.218750
3733,-74.218750
3734,-74.218750
3735,-74.218750
3736,-74.218750
3737,-74.218750
3738,-74.218750
3739,-74.218750
3740,-74.218750
3741,-74.218750
3742,-74.218750
3743,-74.218750
3744,-74.218750
3745,-74.218750
3746,-78.125000
3747,-78.125000
3748,-78.125000
3749,-78.125000
3750,-78.125000
3751,-78.125000
3752,-78.125000
3753,-78.125000
3754,-78.125000
3755,-78.125000
3756,-78.125000
3757,-78.125000
3758,-78.125000
3759,-78.125000
3760,-78.125000
3761,-78.125000
3762,-78.125000
3763,-78.125000
3764,-78.125000
3765,-78.125000
3766,-78.125000
3767,-78.125000
3768,-78.125000
3769,-78.125000
3770,-78.125000
3771,-78.125000
3772,-78.125000
3773,-78.125000
3774,-78.125000
3775,-78.125000
3776,-78.125000
3777,-78.125000
3778,-78.125000
3779,-78.125000
3780,-78.125000
3781,-78.125000
3782,-78.125000
3783,-78.125000
3784,-82.031250
3785,-78.125000
3786,-78.125000
3787,-78.125000
3788,-78.125000
3789,-78.125000
3790,-78.125000
3791,-82.031250
3792,-82.031250
3793,-78.125000
3794,-78.125000
3795,-78.125000
3796,-78.125000
3797,-78.125000
3798,-78.125000
3799,-78.125000
3800,-78.125000
3801,-78.125000
3802,-82.031250
3803,-78.125000
3804,-78.125000
3805,-78.125000
3806,-78.125000
3807,-78.125000
3808,-82.031250
3809,-78.125000
3810,-78.125000
3811,-78.125000
3812,-78.125000
3813,-78.125000
3814,-78.125000
3815,-78.125000
3816,-82.031250
3817,-78.125000
3818,-78.125000
3819,-78.125000
3820,-78.125000
3821,-78.125000
3822,-78.125000
3823,-78.125000
3824,-78.125000
3825,-78.125000
3826,-78.125000
3827,-78.125000
3828,-78.125000
3829,-78.125000
3830,-78.125000
3831,-78.125000
3832,-78.125000
3833,-78.125000
3834,-78.125000
3835,-78.125000
3836,-78.125000
3837,-78.125000
3838,-78.125000
3839,-78.125000
3840,-78.125000
3841,-78.125000
3842,-78.125000
3843,-78.125000
3844,-78.125000
3845,-78.125000
3846,-78.125000
3847,-78.125000
3848,-78.125000
3849,-74.218750
3850,-74.218750
3851,-74.218750
3852,-74.218750
3853,-74.218750
3854,-74.218750
3855,-74.218750
3856,-74.218750
3857,-74.218750
3858,-74.218750
3859,-74.218750
3860,-74.218750
3861,-74.218750
3862,-74.218750
3863,-74.218750
3864,-74.218750
3865,-74.218750
3866,-70.312500
3867,-70.312500
3868,-70.312500
3869,-70.312500
3870,-70.312500
3871,-74.218750
3872,-70.312500
3873,-70.312500
3874,-70.312500
3875,-70.312500
3876,-70.312500
3877,-70.312500
3878,-70.312500
3879,-70.312500
3880,-70.312500
3881,-70.312500
3882,-70.312500
3883,-66.406250
3884,-66.406250
3885,-66.406250
3886,-66.406250
3887,-66.406250
3888,-66.406250
3889,-66.406250
3890,-66.406250
3891,-66.406250
3892,-66.406250
3893,-66.406250
3894,-66.406250
3895,-62.500000
3896,-66.406250
3897,-66.406250
3898,-66.406250
3899,-62.500000
3900,-62.500000
3901,-62.500000
3902,-62.500000
3903,-62.500000
3904,-62.500000
3905,-62.500000
3906,-62.500000
3907,-62.500000
3908,-62.500000
3909,-62.500000
3910,-62.500000
3911,-58.593750
3912,-58.593750
3913,-58.593750
3914,-58.593750
3915,-58.593750
3916,-58.593750
3917,-58.593750
3918,-58.593750
3919,-58.593750
3920,-58.593750
3921,-58.593750
3922,-58.593750
3923,-58.593750
3924,-58.593750
3925,-54.687500
3926,-54.687500
3927,-54.687500
3928,-54.687500
3929,-54.687500
3930,-54.687500
3931,-54.687500
3932,-54.687500
3933,-54.687500
3934,-54.687500
3935,-54.687500
3936,-54.687500
3937,-50.781250
3938,-50.781250
3939,-50.781250
3940,-50.781250
3941,-50.781250
3942,-50.781250
3943,-50.781250
3944,-50.781250
3945,-50.781250
3946,-50.781250
3947,-50.781250
3948,-46.875000
3949,-46.875000
3950,-46.875000
3951,-46.875000
3952,-46.875000
3953,-46.875000
3954,-46.875000
3955,-46.875000
3956,-46.875000
3957,-42.968750
3958,-42.968750
3959,-42.968750
3960,-42.968750
3961,-42.968750
3962,-42.968750
3963,-42.968750
3964,-42.968750
3965,-42.968750
3966,-42.968750
3967,-39.062500
3968,-42.968750
3969,-39.062500
3970,-39.062500
3971,-39.062500
3972,-39.062500
3973,-39.062500
3974,-39.062500
3975,-39.062500
3976,-39.062500
3977,-39.062500
3978,-39.062500
3979,-35.156250
3980,-35.156250
3981,-35.156250
3982,-35.156250
3983,-35.156250
3984,-35.156250
3985,-35.156250
3986,-35.156250
3987,-31.250000
3988,-35.156250
3989,-31.250000
3990,-31.250000
3991,-31.250000
3992,-31.250000
3993,-31.250000
3994,-31.250000
3995,-31.250000
3996,-27.343750
3997,-31.250000
3998,-31.250000
3999,-27.343750
4000,-27.343750
4001,-27.343750
4002,-27.343750
4003,-27.343750
4004,-27.343750
4005,-27.343750
4006,-23.437500
4007,-23.437500
4008,-23.437500
4009,-23.437500
4010,-23.437500
4011,-23.437500
4012,-23.437500
4013,-23.437500
4014,-23.437500
4015,-23.437500
4016,-23.437500
4017,-19.531250
4018,-19.531250
4019,-19.531250
4020,-19.531250
4021,-19.531250
4022,-19.531250
4023,-19.531250
4024,-15.625000
4025,-15.625000
4026,-15.625000
4027,-15.625000
4028,-15.625000
4029,-19.531250
4030,-15.625000
4031,-15.625000
4032,-15.625000
4033,-15.625000
4034,-11.718750
4035,-11.718750
4036,-11.718750
4037,-11.718750
4038,-11.718750
4039,-11.718750
4040,-11.718750
4041,-11.718750
4042,-11.718750
4043,-7.812500
4044,-11.718750
4045,-7.812500
4046,-7.812500
4047,-7.812500
4048,-7.812500
4049,-7.812500
4050,-7.812500
4051,-7.812500
4052,-7.812500
4053,-3.906250
4054,-3.906250
4055,-3.906250
4056,-3.906250
4057,-3.906250
4058,-3.906250
4059,-3.906250
4060,-3.906250
4061,0.000000
4062,0.000000
4063,0.000000
4064,0.000000
4065,0.000000
4066,0.000000
4067,0.000000
4068,0.000000
4069,0.000000
4070,0.000000
4071,3.906250
4072,3.906250
4073,3.906250
4074,3.906250
4075,3.906250
4076,3.906250
4077,3.906250
4078,3.906250
4079,3.906250
4080,3.906250
4081,7.812500
4082,3.906250
4083,7.812500
4084,7.812500
4085,3.906250
4086,7.812500
4087,7.812500
4088,7.812500
4089,7.812500
4090,11.718750
4091,7.812500
4092,11.718750
4093,11.718750
4094,11.718750
4095,11.718750
4096,11.718750
4097,11.718750
4098,11.718750
4099,11.718750
4100,15.625000
4101,15.625000
4102,11.718750
4103,15.625000
4104,15.625000
4105,15.625000
4106,15.625000
4107,15.625000
4108,15.625000
4109,15.625000
4110,15.625000
4111,15.625000
4112,15.625000
4113,15.625000
4114,15.625000
4115,19.531250
4116,19.531250
4117,19.531250
4118,19.531250
4119,19.531250
4120,19.531250
4121,19.531250
4122,19.531250
4123,19.531250
4124,19.531250
4125,19.531250
4126,23.437500
4127,23.437500
4128,23.437500
4129,23.437500
4130,23.437500
4131,23.437500
4132,23.437500
4133,23.437500
4134,23.437500
4135,23.437500
4136,27.343750
4137,27.343750
4138,27.343750
4139,27.343750
4140,27.343750
4141,27.343750
4142,27.343750
4143,27.343750
4144,27.343750
4145,27.343750
4146,27.343750
4147,27.343750
4148,31.250000
4149,31.250000
4150,31.250000
4151,31.250000
4152,31.250000
4153,31.250000
4154,31.250000
4155,31.250000
4156,31.250000
4157,31.250000
4158,31.250000
4159,31.250000
4160,31.250000
4161,35.156250
4162,35.156250
4163,35.156250
4164,35.156250
4165,35.156250
4166,35.156250
4167,35.156250
4168,35.156250
4169,35.156250
4170,35.156250
4171,35.156250
4172,35.156250
4173,35.156250
4174,35.156250
4175,39.062500
4176,39.062500
4177,39.062500
4178,39.062500
4179,39.062500
4180,39.062500
4181,39.062500
4182,39.062500
4183,39.062500
4184,39.062500
4185,39.062500
4186,39.062500
4187,39.062500
4188,39.062500
4189,39.062500
4190,39.062500
4191,42.968750
4192,42.968750
4193,39.062500
4194,42.968750
4195,42.968750
4196,42.968750
4197,42.968750
4198,42.968750
4199,42.968750
4200,42.968750
4201,42.968750
4202,42.968750
4203,42.968750
4204,42.968750
4205,42.968750
4206,42.968750
4207,42.968750
4208,42.968750
4209,42.968750
4210,42.968750
4211,46.875000
4212,46.875000
4213,46.875000
4214,46.875000
4215,46.875000
4216,46.875000
4217,46.875000
4218,46.875000
4219,46.875000
4220,46.875000
4221,46.875000
4222,46.875000
4223,46.875000
4224,46.875000
4225,46.875000
4226,46.875000
4227,46.875000
4228,46.875000
4229,46.875000
4230,46.875000
4231,46.875000
4232,46.875000
4233,46.875000
4234,50.781250
4235,50.781250
4236,50.781250
4237,50.781250
4238,50.781250
4239,50.781250
4240,50.781250
4241,50.781250
4242,50.781250
4243,50.781250
4244,50.781250
4245,50.781250
4246,50.781250
4247,50.781250
4248,50.781250
4249,50.781250
4250,50.781250
4251,50.781250
4252,50.781250
4253,50.781250
4254,50.781250
4255,50.781250
4256,50.781250
4257,50.781250
4258,50.781250
4259,50.781250
4260,50.781250
4261,50.781250
4262,50.781250
4263,50.781250
4264,50.781250
4265,50.781250
4266,50.781250
4267,50.781250
4268,50.781250
4269,50.781250
4270,54.687500
4271,50.781250
4272,50.781250
4273,50.781250
4274,50.781250
4275,50.781250
4276,50.781250
4277,54.687500
4278,50.781250
4279,54.687500
4280,54.687500
4281,54.687500
4282,54.687500
4283,54.687500
4284,50.781250
4285,54.687500
4286,54.687500
4287,54.687500
4288,54.687500
4289,54.687500
4290,54.687500
4291,54.687500
4292,50.781250
4293,50.781250
4294,54.687500
4295,54.687500
4296,54.687500
4297,54.687500
4298,54.687500
4299,54.687500
4300,54.687500
4301,50.781250
4302,50.781250
4303,50.781250
4304,54.687500
4305,50.781250
4306,50.781250
4307,50.781250
4308,54.687500
4309,54.687500
4310,50.781250
4311,54.687500
4312,50.781250
4313,50.781250
4314,50.781250
4315,50.781250
4316,50.781250
4317,50.781250
4318,50.781250
4319,50.781250
4320,50.781250
4321,50.781250
4322,50.781250
4323,50.781250
4324,50.781250
4325,50.781250
4326,50.781250
4327,50.781250
4328,50.781250
4329,50.781250
4330,50.781250
4331,50.781250
4332,50.781250
4333,50.781250
4334,50.781250
4335,50.781250
4336,50.781250
4337,50.781250
4338,50.781250
4339,50.781250
4340,50.781250
4341,50.781250
4342,50.781250
4343,50.781250
4344,50.781250
4345,50.781250
4346,50.781250
4347,50.781250
4348,46.875000
4349,46.875000
4350,50.781250
4351,46.875000
4352,46.875000
4353,46.875000
4354,46.875000
4355,46.875000
4356,46.875000
4357,46.875000
4358,46.875000
4359,50.781250
4360,46.875000
4361,46.875000
4362,46.875000
4363,46.875000
4364,42.968750
4365,46.875000
4366,42.968750
4367,46.875000
4368,46.875000
4369,46.875000
4370,46.875000
4371,46.875000
4372,42.968750
4373,42.968750
4374,42.968750
4375,42.968750
4376,42.968750
4377,42.968750
4378,42.968750
4379,42.968750
4380,42.968750
4381,42.968750
4382,42.968750
4383,42.968750
4384,42.968750
4385,42.968750
4386,42.968750
4387,42.968750
4388,42.968750
4389,42.968750
4390,39.062500
4391,39.062500
4392,39.062500
4393,39.062500
4394,39.062500
4395,39.062500
4396,39.062500
4397,39.062500
4398,39.062500
4399,39.062500
4400,39.062500
4401,39.062500
4402,39.062500
4403,35.156250
4404,39.062500
4405,39.062500
4406,35.156250
4407,35.156250
4408,35.156250
4409,35.156250
4410,35.156250
4411,35.156250
4412,35.156250
4413,35.156250
4414,35.156250
4415,35.156250
4416,35.156250
4417,35.156250
4418,35.156250
4419,35.156250
4420,35.156250
4421,35.156250
4422,31.250000
4423,31.250000
4424,31.250000
4425,31.250000
4426,31.250000
4427,31.250000
4428,31.250000
4429,31.250000
4430,31.250000
4431,31.250000
4432,31.250000
4433,31.250000
4434,31.250000
4435,31.250000
4436,27.343750
4437,27.343750
4438,27.343750
4439,27.343750
4440,27.343750
4441,27.343750
4442,27.343750
4443,27.343750
4444,27.343750
4445,23.437500
4446,23.437500
4447,23.437500
4448,23.437500
4449,23.437500
4450,23.437500
4451,23.437500
4452,23.437500
4453,23.437500
4454,27.343750
4455,23.437500
4456,19.531250
4457,19.531250
4458,19.531250
4459,19.531250
4460,23.437500
4461,19.531250
4462,19.531250
4463,19.531250
4464,19.531250
4465,15.625000
4466,19.531250
4467,19.531250
4468,15.625000
4469,15.625000
4470,11.718750
4471,15.625000
4472,15.625000
4473,15.625000
4474,15.625000
4475,15.625000
4476,15.625000
4477,11.718750
4478,11.718750
4479,11.718750
4480,11.718750
4481,11.718750
4482,11.718750
4483,11.718750
4484,11.718750
4485,11.718750
4486,11.718750
4487,11.718750
4488,7.812500
4489,7.812500
4490,7.812500
4491,7.812500
4492,7.812500
4493,7.812500
4494,7.812500
4495,7.812500
4496,7.812500
4497,7.812500
4498,3.906250
4499,3.906250
4500,3.906250
4501,3.906250
4502,3.906250
4503,3.906250
4504,3.906250
4505,3.906250
4506,3.906250
4507,0.000000
4508,0.000000
4509,0.000000
4510,0.000000
4511,0.000000
4512,0.000000
4513,0.000000
4514,0.000000
4515,0.000000
4516,0.000000
4517,-3.906250
4518,-3.906250
4519,-3.906250
4520,-3.906250
4521,-3.906250
4522,-3.906250
4523,-3.906250
4524,-3.906250
4525,-3.906250
4526,-7.812500
4527,-7.812500
4528,-7.812500
4529,-7.812500
4530,-7.812500
4531,-7.812500
4532,-7.812500
4533,-7.812500
4534,-7.812500
4535,-7.812500
4536,-11.718750
4537,-11.718750
4538,-11.718750
4539,-11.718750
4540,-11.718750
4541,-11.718750
4542,-11.718750
4543,-11.718750
4544,-11.718750
4545,-11.718750
4546,-11.718750
4547,-15.625000
4548,-15.625000
4549,-15.625000
4550,-15.625000
4551,-15.625000
4552,-15.625000
4553,-15.625000
4554,-15.625000
4555,-19.531250
4556,-19.531250
4557,-19.531250
4558,-19.531250
4559,-19.531250
4560,-19.531250
4561,-19.531250
4562,-19.531250
4563,-19.531250
4564,-23.437500
4565,-23.437500
4566,-23.437500
4567,-23.437500
4568,-23.437500
4569,-23.437500
4570,-23.437500
4571,-27.343750
4572,-27.343750
4573,-27.343750
4574,-27.343750
4575,-27.343750
4576,-27.343750
4577,-27.343750
4578,-27.343750
4579,-27.343750
4580,-27.343750
4581,-27.343750
4582,-31.250000
4583,-31.250000
4584,-31.250000
4585,-31.250000
4586,-31.250000
4587,-31.250000
4588,-31.250000
4589,-31.250000
4590,-35.156250
4591,-35.156250
4592,-35.156250
4593,-35.156250
4594,-35.156250
4595,-35.156250
4596,-35.156250
4597,-35.156250
4598,-35.156250
4599,-35.156250
4600,-39.062500
4601,-39.062500
4602,-39.062500
4603,-39.062500
4604,-39.062500
4605,-39.062500
4606,-39.062500
4607,-39.062500
4608,-39.062500
4609,-39.062500
4610,-42.968750
4611,-42.968750
4612,-42.968750
4613,-42.968750
4614,-42.968750
4615,-42.968750
4616,-42.968750
4617,-42.968750
4618,-42.968750
4619,-46.875000
4620,-46.875000
4621,-46.875000
4622,-46.875000
4623,-46.875000
4624,-46.875000
4625,-46.875000
4626,-46.875000
4627,-46.875000
4628,-46.875000
4629,-46.875000
4630,-50.781250
4631,-50.781250
4632,-50.781250
4633,-50.781250
4634,-50.781250
4635,-50.781250
4636,-50.781250
4637,-50.781250
4638,-50.781250
4639,-50.781250
4640,-54.687500
4641,-54.687500
4642,-50.781250
4643,-54.687500
4644,-54.687500
4645,-54.687500
4646,-54.687500
4647,-54.687500
4648,-54.687500
4649,-54.687500
4650,-54.687500
4651,-54.687500
4652,-58.593750
4653,-58.593750
4654,-58.593750
4655,-58.593750
4656,-58.593750
4657,-58.593750
4658,-58.593750
4659,-58.593750
4660,-58.593750
4661,-58.593750
4662,-58.593750
4663,-58.593750
4664,-58.593750
4665,-62.500000
4666,-62.500000
4667,-62.500000
4668,-62.500000
4669,-62.500000
4670,-62.500000
4671,-62.500000
4672,-62.500000
4673,-62.500000
4674,-62.500000
4675,-62.500000
4676,-62.500000
4677,-62.500000
4678,-66.406250
4679,-66.406250
4680,-66.406250
4681,-66.406250
4682,-66.406250
4683,-62.500000
4684,-66.406250
4685,-66.406250
4686,-66.406250
4687,-66.406250
4688,-66.406250
4689,-66.406250
4690,-66.406250
4691,-66.406250
4692,-66.406250
4693,-66.406250
4694,-70.312500
4695,-70.312500
4696,-66.406250
4697,-70.312500
4698,-70.312500
4699,-70.312500
4700,-70.312500
4701,-70.312500
4702,-70.312500
4703,-70.312500
4704,-70.312500
4705,-70.312500
4706,-70.312500
4707,-70.312500
4708,-70.312500
4709,-70.312500
4710,-70.312500
4711,-74.218750
4712,-74.218750
4713,-74.218750
4714,-74.218750
4715,-74.218750
4716,-74.218750
4717,-74.218750
4718,-74.218750
4719,-74.218750
4720,-74.218750
4721,-74.218750
4722,-74.218750
4723,-74.218750
4724,-74.218750
4725,-74.218750
4726,-74.218750
4727,-74.218750
4728,-74.218750
4729,-74.218750
4730,-78.125000
4731,-74.218750
4732,-74.218750
4733,-78.125000
4734,-78.125000
4735,-78.125000
4736,-78.125000
4737,-74.218750
4738,-78.125000
4739,-78.125000
4740,-78.125000
4741,-78.125000
4742,-78.125000
4743,-78.125000
4744,-78.125000
4745,-78.125000
4746,-78.125000
4747,-78.125000
4748,-78.125000
4749,-78.125000
4750,-82.031250
4751,-78.125000
4752,-78.125000
4753,-78.125000
4754,-78.125000
4755,-78.125000
4756,-78.125000
4757,-78.125000
4758,-78.125000
4759,-78.125000
4760,-78.125000
4761,-78.125000
4762,-78.125000
4763,-78.125000
4764,-82.031250
4765,-78.125000
4766,-78.125000
4767,-78.125000
4768,-78.125000
4769,-78.125000
4770,-78.125000
4771,-78.125000
4772,-78.125000
4773,-82.031250
4774,-82.031250
4775,-78.125000
4776,-78.125000
4777,-78.125000
4778,-82.031250
4779,-82.031250
4780,-82.031250
4781,-82.031250
4782,-82.031250
4783,-78.125000
4784,-78.125000
4785,-78.125000
4786,-78.125000
4787,-78.125000
4788,-82.031250
4789,-78.125000
4790,-78.125000
4791,-78.125000
4792,-78.125000
4793,-78.125000
4794,-82.031250
4795,-78.125000
4796,-78.125000
4797,-78.125000
4798,-78.125000
4799,-82.031250
4800,-78.125000
4801,-78.125000
4802,-78.125000
4803,-78.125000
4804,-78.125000
4805,-78.125000
4806,-78.125000
4807,-78.125000
4808,-78.125000
4809,-78.125000
4810,-78.125000
4811,-78.125000
4812,-78.125000
4813,-78.125000
4814,-78.125000
4815,-78.125000
4816,-78.125000
4817,-78.125000
4818,-78.125000
4819,-78.125000
4820,-78.125000
4821,-78.125000
4822,-78.125000
4823,-78.125000
4824,-78.125000
4825,-78.125000
4826,-78.125000
4827,-78.125000
4828,-78.125000
4829,-78.125000
4830,-78.125000
4831,-78.125000
4832,-78.125000
4833,-74.218750
4834,-74.218750
4835,-74.218750
4836,-78.125000
4837,-74.218750
4838,-74.218750
4839,-74.218750
4840,-78.125000
4841,-78.125000
4842,-74.218750
4843,-74.218750
4844,-74.218750
4845,-74.218750
4846,-74.218750
4847,-74.218750
4848,-74.218750
4849,-74.218750
4850,-74.218750
4851,-74.218750
4852,-74.218750
4853,-74.218750
4854,-74.218750
4855,-74.218750
4856,-70.312500
4857,-70.312500
4858,-70.312500
4859,-74.218750
4860,-70.312500
4861,-70.312500
4862,-70.312500
4863,-70.312500
4864,-70.312500
4865,-70.312500
4866,-70.312500
4867,-70.312500
4868,-70.312500
4869,-70.312500
4870,-70.312500
4871,-70.312500
4872,-70.312500
4873,-70.312500
4874,-66.406250
4875,-70.312500
4876,-66.406250
4877,-66.406250
4878,-66.406250
4879,-66.406250
4880,-66.406250
4881,-66.406250
4882,-66.406250
4883,-66.406250
4884,-66.406250
4885,-66.406250
4886,-66.406250
4887,-66.406250
4888,-66.406250
4889,-66.406250
4890,-66.406250
4891,-66.406250
4892,-62.500000
4893,-62.500000
4894,-62.500000
4895,-62.500000
4896,-62.500000
4897,-62.500000
4898,-62.500000
4899,-62.500000
4900,-62.500000
4901,-62.500000
4902,-58.593750
4903,-58.593750
4904,-58.593750
4905,-58.593750
4906,-58.593750
4907,-58.593750
4908,-58.593750
4909,-58.593750
4910,-58.593750
4911,-58.593750
4912,-58.593750
4913,-54.687500
4914,-54.687500
4915,-54.687500
4916,-54.687500
4917,-54.687500
4918,-54.687500
4919,-54.687500
4920,-54.687500
4921,-54.687500
4922,-54.687500
4923,-54.687500
4924,-50.781250
4925,-50.781250
4926,-50.781250
4927,-50.781250
4928,-50.781250
4929,-50.781250
4930,-50.781250
4931,-50.781250
4932,-50.781250
4933,-50.781250
4934,-50.781250
4935,-46.875000
4936,-46.875000
4937,-46.875000
4938,-46.875000
4939,-46.875000
4940,-46.875000
4941,-46.875000
4942,-46.875000
4943,-46.875000
4944,-46.875000
4945,-42.968750
4946,-42.968750
4947,-42.968750
4948,-42.968750
4949,-42.968750
4950,-42.968750
4951,-42.968750
4952,-42.968750
4953,-42.968750
4954,-42.968750
4955,-42.968750
4956,-39.062500
4957,-39.062500
4958,-39.062500
4959,-39.062500
4960,-39.062500
4961,-39.062500
4962,-39.062500
4963,-39.062500
4964,-39.062500
4965,-35.156250
4966,-39.062500
4967,-35.156250
4968,-35.156250
4969,-35.156250
4970,-35.156250
4971,-35.156250
4972,-35.156250
4973,-35.156250
4974,-35.156250
4975,-31.250000
4976,-31.250000
4977,-31.250000
4978,-31.250000
4979,-31.250000
4980,-31.250000
4981,-31.250000
4982,-31.250000
4983,-31.250000
4984,-31.250000
4985,-27.343750
4986,-27.343750
4987,-27.343750
4988,-27.343750
4989,-27.343750
4990,-27.343750
4991,-27.343750
4992,-27.343750
4993,-27.343750
4994,-27.343750
4995,-23.437500
4996,-23.437500
4997,-23.437500
4998,-23.437500
4999,-23.437500
5000,-23.437500
5001,-23.437500
5002,-23.437500
5003,-23.437500
5004,-19.531250
5005,-19.531250
5006,-19.531250
5007,-19.531250
5008,-19.531250
5009,-19.531250
5010,-19.531250
5011,-19.531250
5012,-19.531250
5013,-19.531250
5014,-15.625000
5015,-15.625000
5016,-15.625000
5017,-15.625000
5018,-15.625000
5019,-15.625000
5020,-15.625000
5021,-15.625000
5022,-15.625000
5023,-15.625000
5024,-11.718750
5025,-11.718750
5026,-11.718750
5027,-11.718750
5028,-11.718750
5029,-11.718750
5030,-11.718750
5031,-11.718750
5032,-7.812500
5033,-7.812500
5034,-7.812500
5035,-7.812500
5036,-7.812500
5037,-7.812500
5038,-7.812500
5039,-7.812500
5040,-7.812500
5041,-7.812500
5042,-3.906250
5043,-3.906250
5044,-3.906250
5045,-3.906250
5046,-3.906250
5047,-3.906250
5048,-3.906250
5049,-3.906250
5050,0.000000
5051,0.000000
5052,0.000000
5053,0.000000
5054,0.000000
5055,0.000000
5056,0.000000
5057,0.000000
5058,0.000000
5059,0.000000
5060,3.906250
5061,3.906250
5062,3.906250
5063,3.906250
5064,3.906250
5065,3.906250
5066,3.906250
5067,3.906250
5068,3.906250
5069,3.906250
5070,7.812500
5071,7.812500
5072,7.812500
5073,7.812500
5074,7.812500
5075,7.812500
5076,7.812500
5077,7.812500
5078,7.812500
5079,11.718750
5080,11.718750
5081,11.718750
5082,7.812500
5083,11.718750
5084,11.718750
5085,11.718750
5086,11.718750
5087,11.718750
5088,11.718750
5089,11.718750
5090,11.718750
5091,15.625000
5092,15.625000
5093,15.625000
5094,15.625000
5095,15.625000
5096,15.625000
5097,15.625000
5098,15.625000
5099,15.625000
5100,15.625000
5101,19.531250
5102,19.531250
5103,19.531250
5104,19.531250
5105,19.531250
5106,19.531250
5107,19.531250
5108,19.531250
5109,19.531250
5110,19.531250
5111,19.531250
5112,19.531250
5113,23.437500
5114,23.437500
5115,23.437500
5116,23.437500
5117,23.437500
5118,23.437500
5119,23.437500
5120,23.437500
5121,23.437500
5122,23.437500
5123,23.437500
5124,23.437500
5125,23.437500
5126,27.343750
5127,27.343750
5128,27.343750
5129,27.343750
5130,27.343750
5131,27.343750
5132,27.343750
5133,27.343750
5134,27.343750
5135,27.343750
5136,27.343750
5137,27.343750
5138,27.343750
5139,31.250000
5140,31.250000
5141,31.250000
5142,31.250000
5143,31.250000
5144,31.250000
5145,31.250000
5146,31.250000
5147,31.250000
5148,31.250000
5149,31.250000
5150,31.250000
5151,35.156250
5152,35.156250
5153,35.156250
5154,35.156250
5155,35.156250
5156,35.156250
5157,35.156250
5158,35.156250
5159,35.156250
5160,35.156250
5161,35.156250
5162,35.156250
5163,39.062500
5164,35.156250
5165,39.062500
5166,39.062500
5167,39.062500
5168,39.062500
5169,39.062500
5170,39.062500
5171,39.062500
5172,39.062500
5173,39.062500
5174,39.062500
5175,39.062500
5176,39.062500
5177,39.062500
5178,39.062500
5179,39.062500
5180,39.062500
5181,39.062500
5182,42.968750
5183,42.968750
5184,42.968750
5185,42.968750
5186,42.968750
5187,42.968750
5188,42.968750
5189,42.968750
5190,42.968750
5191,42.968750
5192,42.968750
5193,42.968750
5194,42.968750
5195,42.968750
5196,42.968750
5197,42.968750
5198,42.968750
5199,46.875000
5200,42.968750
5201,46.875000
5202,42.968750
5203,46.875000
5204,46.875000
5205,46.875000
5206,46.875000
5207,46.875000
5208,46.875000
5209,46.875000
5210,46.875000
5211,46.875000
5212,46.875000
5213,46.875000
5214,46.875000
5215,46.875000
5216,46.875000
5217,46.875000
5218,46.875000
5219,46.875000
5220,46.875000
5221,46.875000
5222,50.781250
5223,50.781250
5224,50.781250
5225,50.781250
5226,50.781250
5227,50.781250
5228,50.781250
5229,50.781250
5230,50.781250
5231,50.781250
5232,50.781250
5233,50.781250
5234,50.781250
5235,50.781250
5236,50.781250
5237,50.781250
5238,50.781250
5239,50.781250
5240,50.781250
5241,50.781250
5242,54.687500
5243,50.781250
5244,50.781250
5245,50.781250
5246,50.781250
5247,50.781250
5248,50.781250
5249,50.781250
5250,50.781250
5251,50.781250
5252,50.781250
5253,50.781250
5254,50.781250
5255,50.781250
5256,50.781250
5257,50.781250
5258,50.781250
5259,50.781250
5260,50.781250
5261,50.781250
5262,50.781250
5263,50.781250
5264,50.781250
5265,54.687500
5266,50.781250
5267,50.781250
5268,50.781250
5269,54.687500
5270,54.687500
5271,50.781250
5272,50.781250
5273,50.781250
5274,54.687500
5275,50.781250
5276,54.687500
5277,50.781250
5278,50.781250
5279,50.781250
5280,54.687500
5281,50.781250
5282,50.781250
5283,50.781250
5284,54.687500
5285,50.781250
5286,50.781250
5287,50.781250
5288,50.781250
5289,54.687500
5290,50.781250
5291,50.781250
5292,50.781250
5293,50.781250
5294,50.781250
5295,50.781250
5296,50.781250
5297,50.781250
5298,50.781250
5299,54.687500
5300,54.687500
5301,50.781250
5302,50.781250
5303,50.781250
5304,50.781250
5305,50.781250
5306,50.781250
5307,50.781250
5308,50.781250
5309,50.781250
5310,50.781250
5311,50.781250
5312,50.781250
5313,50.781250
5314,50.781250
5315,50.781250
5316,50.781250
5317,50.781250
5318,50.781250
5319,50.781250
5320,50.781250
5321,50.781250
5322,50.781250
5323,50.781250
5324,50.781250
5325,50.781250
5326,50.781250
5327,50.781250
5328,50.781250
5329,50.781250
5330,50.781250
5331,50.781250
5332,50.781250
5333,50.781250
5334,50.781250
5335,46.875000
5336,50.781250
5337,46.875000
5338,50.781250
5339,50.781250
5340,46.875000
5341,46.875000
5342,46.875000
5343,46.875000
5344,46.875000
5345,46.875000
5346,46.875000
5347,46.875000
5348,46.875000
5349,46.875000
5350,46.875000
5351,46.875000
5352,46.875000
5353,46.875000
5354,46.875000
5355,46.875000
5356,46.875000
5357,46.875000
5358,46.875000
5359,42.968750
5360,42.968750
5361,46.875000
5362,46.875000
5363,46.875000
5364,42.968750
5365,42.968750
5366,42.968750
5367,42.968750
5368,42.968750
5369,42.968750
5370,42.968750
5371,42.968750
5372,42.968750
5373,42.968750
5374,42.968750
5375,42.968750
5376,42.968750
5377,42.968750
5378,42.968750
5379,39.062500
5380,39.062500
5381,39.062500
5382,39.062500
5383,39.062500
5384,39.062500
5385,39.062500
5386,39.062500
5387,39.062500
5388,39.062500
5389,39.062500
5390,39.062500
5391,39.062500
5392,39.062500
5393,35.156250
5394,39.062500
5395,35.156250
5396,35.156250
5397,35.156250
5398,35.156250
5399,35.156250
5400,35.156250
5401,35.156250
5402,35.156250
5403,35.156250
5404,35.156250
5405,35.156250
5406,35.156250
5407,35.156250
5408,35.156250
5409,31.250000
5410,31.250000
5411,31.250000
5412,31.250000
5413,31.250000
5414,31.250000
5415,31.250000
5416,31.250000
5417,31.250000
5418,31.250000
5419,31.250000
5420,31.250000
5421,27.343750
5422,27.343750
5423,31.250000
5424,27.343750
5425,27.343750
5426,27.343750
5427,27.343750
5428,27.343750
5429,27.343750
5430,27.343750
5431,27.343750
5432,27.343750
5433,27.343750
5434,27.343750
5435,27.343750
5436,23.437500
5437,23.437500
5438,23.437500
5439,23.437500
5440,23.437500
5441,23.437500
5442,23.437500
5443,23.437500
5444,23.437500
5445,23.437500
5446,23.437500
5447,23.437500
5448,23.437500
5449,19.531250
5450,19.531250
5451,19.531250
5452,19.531250
5453,19.531250
5454,19.531250
5455,19.531250
5456,15.625000
5457,15.625000
5458,15.625000
5459,15.625000
5460,15.625000
5461,15.625000
5462,15.625000
5463,15.625000
5464,15.625000
5465,15.625000
5466,15.625000
5467,15.625000
5468,11.718750
5469,15.625000
5470,11.718750
5471,11.718750
5472,11.718750
5473,11.718750
5474,11.718750
5475,11.718750
5476,7.812500
5477,7.812500
5478,11.718750
5479,7.812500
5480,7.812500
5481,7.812500
5482,7.812500
5483,7.812500
5484,7.812500
5485,7.812500
5486,7.812500
5487,7.812500
5488,7.812500
5489,3.906250
5490,3.906250
5491,3.906250
5492,3.906250
5493,3.906250
5494,3.906250
5495,3.906250
5496,3.906250
5497,3.906250
5498,0.000000
5499,0.000000
5500,0.000000
5501,0.000000
5502,0.000000
5503,0.000000
5504,0.000000
5505,0.000000
5506,0.000000
5507,0.000000
5508,-3.906250
5509,-3.906250
5510,-3.906250
5511,-3.906250
5512,-3.906250
5513,-3.906250
5514,-3.906250
5515,-3.906250
5516,-7.812500
5517,-3.906250
5518,-7.812500
5519,-7.812500
5520,-7.812500
5521,-7.812500
5522,-7.812500
5523,-7.812500
5524,-7.812500
5525,-11.718750
5526,-11.718750
5527,-11.718750
5528,-11.718750
5529,-11.718750
5530,-11.718750
5531,-11.718750
5532,-11.718750
5533,-11.718750
5534,-11.718750
5535,-11.718750
5536,-15.625000
5537,-15.625000
5538,-15.625000
5539,-15.625000
5540,-15.625000
5541,-15.625000
5542,-19.531250
5543,-15.625000
5544,-19.531250
5545,-15.625000
5546,-19.531250
5547,-19.531250
5548,-19.531250
5549,-19.531250
5550,-19.531250
5551,-19.531250
5552,-23.437500
5553,-23.437500
5554,-23.437500
5555,-23.437500
5556,-23.437500
5557,-23.437500
5558,-23.437500
5559,-23.437500
5560,-23.437500
5561,-23.437500
5562,-23.437500
5563,-23.437500
5564,-27.343750
5565,-27.343750
5566,-27.343750
5567,-27.343750
5568,-27.343750
5569,-27.343750
5570,-27.343750
5571,-27.343750
5572,-31.250000
5573,-31.250000
5574,-31.250000
5575,-31.250000
5576,-31.250000
5577,-31.250000
5578,-31.250000
5579,-31.250000
5580,-31.250000
5581,-35.156250
5582,-35.156250
5583,-35.156250
5584,-35.156250
5585,-35.156250
5586,-35.156250
5587,-35.156250
5588,-35.156250
5589,-35.156250
5590,-35.156250
5591,-35.156250
5592,-35.156250
5593,-39.062500
5594,-39.062500
5595,-39.062500
5596,-39.062500
5597,-39.062500
5598,-39.062500
5599,-39.062500
5600,-39.062500
5601,-39.062500
5602,-42.968750
5603,-42.968750
5604,-42.968750
5605,-42.968750
5606,-42.968750
5607,-42.968750
5608,-42.968750
5609,-42.968750
5610,-42.968750
5611,-46.875000
5612,-46.875000
5613,-46.875000
5614,-46.875000
5615,-46.875000
5616,-46.875000
5617,-46.875000
5618,-46.875000
5619,-46.875000
5620,-46.875000
5621,-50.781250
5622,-50.781250
5623,-50.781250
5624,-50.781250
5625,-50.781250
5626,-50.781250
5627,-50.781250
5628,-50.781250
5629,-50.781250
5630,-50.781250
5631,-50.781250
5632,-50.781250
5633,-50.781250
5634,-54.687500
5635,-54.687500
5636,-54.687500
5637,-54.687500
5638,-54.687500
5639,-54.687500
5640,-54.687500
5641,-54.687500
5642,-54.687500
5643,-58.593750
5644,-58.593750
5645,-62.500000
5646,-58.593750
5647,-58.593750
5648,-58.593750
5649,-58.593750
5650,-58.593750
5651,-58.593750
5652,-58.593750
5653,-58.593750
5654,-62.500000
5655,-62.500000
5656,-62.500000
5657,-62.500000
5658,-62.500000
5659,-62.500000
5660,-62.500000
5661,-62.500000
5662,-62.500000
5663,-62.500000
5664,-62.500000
5665,-62.500000
5666,-62.500000
5667,-66.406250
5668,-66.406250
5669,-66.406250
5670,-66.406250
5671,-66.406250
5672,-66.406250
5673,-66.406250
5674,-66.406250
5675,-66.406250
5676,-66.406250
5677,-66.406250
5678,-66.406250
5679,-66.406250
5680,-66.406250
5681,-66.406250
5682,-70.312500
5683,-66.406250
5684,-70.312500
5685,-70.312500
5686,-70.312500
5687,-70.312500
5688,-70.312500
5689,-70.312500
5690,-70.312500
5691,-70.312500
5692,-70.312500
5693,-70.312500
5694,-70.312500
5695,-70.312500
5696,-70.312500
5697,-70.312500
5698,-70.312500
5699,-70.312500
5700,-70.312500
5701,-70.312500
5702,-74.218750
5703,-74.218750
5704,-74.218750
5705,-74.218750
5706,-74.218750
5707,-74.218750
5708,-74.218750
5709,-74.218750
5710,-74.218750
5711,-74.218750
5712,-74.218750
5713,-74.218750
5714,-74.218750
5715,-74.218750
5716,-74.218750
5717,-74.218750
5718,-74.218750
5719,-74.218750
5720,-74.218750
5721,-74.218750
5722,-74.218750
5723,-78.125000
5724,-78.125000
5725,-74.218750
5726,-78.125000
5727,-78.125000
5728,-78.125000
5729,-78.125000
5730,-78.125000
5731,-78.125000
5732,-78.125000
5733,-78.125000
5734,-78.125000
5735,-78.125000
5736,-78.125000
5737,-78.125000
5738,-78.125000
5739,-78.125000
5740,-78.125000
5741,-78.125000
5742,-78.125000
5743,-78.125000
5744,-78.125000
5745,-78.125000
5746,-78.125000
5747,-78.125000
5748,-78.125000
5749,-78.125000
5750,-78.125000
5751,-78.125000
5752,-78.125000
5753,-78.125000
5754,-78.125000
5755,-78.125000
5756,-78.125000
5757,-78.125000
5758,-78.125000
5759,-78.125000
5760,-78.125000
5761,-78.125000
5762,-78.125000
5763,-78.125000
5764,-78.125000
5765,-78.125000
5766,-78.125000
5767,-78.125000
5768,-78.125000
5769,-78.125000
5770,-78.125000
5771,-78.125000
5772,-78.125000
5773,-82.031250
5774,-82.031250
5775,-78.125000
5776,-78.125000
5777,-78.125000
5778,-82.031250
5779,-78.125000
5780,-78.125000
5781,-78.125000
5782,-78.125000
5783,-78.125000
5784,-78.125000
5785,-78.125000
5786,-78.125000
5787,-78.125000
5788,-82.031250
5789,-82.031250
5790,-78.125000
5791,-78.125000
5792,-82.031250
5793,-78.125000
5794,-78.125000
5795,-78.125000
5796,-78.125000
5797,-78.125000
5798,-78.125000
5799,-78.125000
5800,-78.125000
5801,-78.125000
5802,-78.125000
5803,-78.125000
5804,-78.125000
5805,-78.125000
5806,-78.125000
5807,-78.125000
5808,-78.125000
5809,-78.125000
5810,-78.125000
5811,-78.125000
5812,-78.125000
5813,-78.125000
5814,-78.125000
5815,-74.218750
5816,-78.125000
5817,-78.125000
5818,-78.125000
5819,-78.125000
5820,-74.218750
5821,-78.125000
5822,-78.125000
5823,-78.125000
5824,-74.218750
5825,-74.218750
5826,-74.218750
5827,-74.218750
5828,-74.218750
5829,-74.218750
5830,-74.218750
5831,-74.218750
5832,-74.218750
5833,-74.218750
5834,-74.218750
5835,-74.218750
5836,-74.218750
5837,-74.218750
5838,-74.218750
5839,-74.218750
5840,-74.218750
5841,-74.218750
5842,-74.218750
5843,-74.218750
5844,-74.218750
5845,-74.218750
5846,-70.312500
5847,-70.312500
5848,-70.312500
5849,-70.312500
5850,-70.312500
5851,-70.312500
5852,-70.312500
5853,-70.312500
5854,-70.312500
5855,-70.312500
5856,-70.312500
5857,-70.312500
5858,-70.312500
5859,-70.312500
5860,-70.312500
5861,-70.312500
5862,-70.312500
5863,-66.406250
5864,-70.312500
5865,-66.406250
5866,-66.406250
5867,-66.406250
5868,-66.406250
5869,-66.406250
5870,-66.406250
5871,-66.406250
5872,-66.406250
5873,-66.406250
5874,-66.406250
5875,-66.406250
5876,-66.406250
5877,-62.500000
5878,-62.500000
5879,-62.500000
5880,-62.500000
5881,-62.500000
5882,-62.500000
5883,-62.500000
5884,-62.500000
5885,-62.500000
5886,-62.500000
5887,-62.500000
5888,-62.500000
5889,-62.500000
5890,-62.500000
5891,-62.500000
5892,-58.593750
5893,-58.593750
5894,-58.593750
5895,-58.593750
5896,-58.593750
5897,-58.593750
5898,-58.593750
5899,-58.593750
5900,-58.593750
5901,-58.593750
5902,-58.593750
5903,-58.593750
5904,-54.687500
5905,-58.593750
5906,-54.687500
5907,-54.687500
5908,-54.687500
5909,-54.687500
5910,-54.687500
5911,-54.687500
5912,-54.687500
5913,-54.687500
5914,-50.781250
5915,-50.781250
5916,-54.687500
5917,-50.781250
5918,-50.781250
5919,-50.781250
5920,-50.781250
5921,-50.781250
5922,-50.781250
5923,-50.781250
5924,-50.781250
5925,-50.781250
5926,-46.875000
5927,-46.875000
5928,-46.875000
5929,-46.875000
5930,-46.875000
5931,-50.781250
5932,-46.875000
5933,-46.875000
5934,-46.875000
5935,-46.875000
5936,-46.875000
5937,-46.875000
5938,-42.968750
5939,-42.968750
5940,-46.875000
5941,-42.968750
5942,-42.968750
5943,-42.968750
5944,-42.968750
5945,-42.968750
5946,-39.062500
5947,-35.156250
5948,-39.062500
5949,-39.062500
5950,-39.062500
5951,-39.062500
5952,-39.062500
5953,-39.062500
5954,-39.062500
5955,-39.062500
5956,-35.156250
5957,-35.156250
5958,-35.156250
5959,-35.156250
5960,-35.156250
5961,-35.156250
5962,-35.156250
5963,-35.156250
5964,-35.156250
5965,-35.156250
5966,-35.156250
5967,-31.250000
5968,-31.250000
5969,-31.250000
5970,-31.250000
5971,-31.250000
5972,-31.250000
5973,-31.250000
5974,-31.250000
5975,-31.250000
5976,-27.343750
5977,-27.343750
5978,-27.343750
5979,-27.343750
5980,-27.343750
5981,-27.343750
5982,-27.343750
5983,-23.437500
5984,-23.437500
5985,-23.437500
5986,-23.437500
5987,-23.437500
5988,-23.437500
5989,-23.437500
5990,-23.437500
5991,-23.437500
5992,-23.437500
5993,-19.531250
5994,-19.531250
5995,-19.531250
5996,-19.531250
5997,-19.531250
5998,-19.531250
5999,-19.531250
6000,-19.531250
6001,-19.531250
6002,-15.625000
6003,-15.625000
6004,-15.625000
6005,-15.625000
6006,-15.625000
6007,-15.625000
6008,-15.625000
6009,-15.625000
6010,-15.625000
6011,-15.625000
6012,-15.625000
6013,-11.718750
6014,-11.718750
6015,-11.718750
6016,-11.718750
6017,-11.718750
6018,-11.718750
6019,-11.718750
6020,-11.718750
6021,-11.718750
6022,-11.718750
6023,-7.812500
6024,-7.812500
6025,-7.812500
6026,-7.812500
6027,-7.812500
6028,-7.812500
6029,-7.812500
6030,-7.812500
6031,-3.906250
6032,-7.812500
6033,-3.906250
6034,-3.906250
6035,-3.906250
6036,-3.906250
6037,-3.906250
6038,-3.906250
6039,-3.906250
6040,-3.906250
6041,-3.906250
6042,-3.906250
6043,0.000000
6044,0.000000
6045,0.000000
6046,0.000000
6047,0.000000
6048,0.000000
6049,3.906250
6050,0.000000
6051,3.906250
6052,3.906250
6053,3.906250
6054,3.906250
6055,3.906250
6056,3.906250
6057,3.906250
6058,3.906250
6059,3.906250
6060,3.906250
6061,3.906250
6062,7.812500
6063,7.812500
6064,7.812500
6065,7.812500
6066,7.812500
6067,7.812500
6068,7.812500
6069,11.718750
6070,11.718750
6071,7.812500
6072,11.718750
6073,11.718750
6074,11.718750
6075,11.718750
6076,11.718750
6077,11.718750
6078,11.718750
6079,15.625000
6080,15.625000
6081,15.625000
6082,15.625000
6083,15.625000
6084,15.625000
6085,15.625000
6086,15.625000
6087,15.625000
6088,15.625000
6089,15.625000
6090,15.625000
6091,15.625000
6092,19.531250
6093,19.531250
6094,19.531250
6095,19.531250
6096,19.531250
6097,19.531250
6098,19.531250
6099,19.531250
6100,19.531250
6101,23.437500
6102,19.531250
6103,19.531250
6104,23.437500
6105,23.437500
6106,23.437500
6107,23.437500
6108,23.437500
6109,23.437500
6110,23.437500
6111,23.437500
6112,23.437500
6113,23.437500
6114,27.343750
6115,27.343750
6116,27.343750
6117,27.343750
6118,27.343750
6119,27.343750
6120,27.343750
6121,27.343750
6122,27.343750
6123,27.343750
6124,27.343750
6125,31.250000
6126,31.250000
6127,31.250000
6128,31.250000
6129,31.250000
6130,31.250000
6131,31.250000
6132,31.250000
6133,31.250000
6134,31.250000
6135,31.250000
6136,31.250000
6137,31.250000
6138,35.156250
6139,35.156250
6140,35.156250
6141,35.156250
6142,35.156250
6143,35.156250
6144,35.156250
6145,35.156250
6146,35.156250
6147,35.156250
6148,35.156250
6149,35.156250
6150,35.156250
6151,35.156250
6152,35.156250
6153,35.156250
6154,39.062500
6155,35.156250
6156,39.062500
6157,39.062500
6158,39.062500
6159,39.062500
6160,39.062500
6161,39.062500
6162,39.062500
6163,39.062500
6164,39.062500
6165,39.062500
6166,39.062500
6167,39.062500
6168,39.062500
6169,42.968750
6170,42.968750
6171,42.968750
6172,42.968750
6173,42.968750
6174,42.968750
6175,42.968750
6176,42.968750
6177,42.968750
6178,42.968750
6179,42.968750
6180,42.968750
6181,42.968750
6182,42.968750
6183,42.968750
6184,46.875000
6185,46.875000
6186,42.968750
6187,46.875000
6188,46.875000
6189,46.875000
6190,46.875000
6191,46.875000
6192,46.875000
6193,46.875000
6194,46.875000
6195,46.875000
6196,46.875000
6197,46.875000
6198,46.875000
6199,46.875000
6200,46.875000
6201,46.875000
6202,46.875000
6203,46.875000
6204,46.875000
6205,46.875000
6206,46.875000
6207,50.781250
6208,46.875000
6209,46.875000
6210,50.781250
6211,46.875000
6212,46.875000
6213,50.781250
6214,50.781250
6215,50.781250
6216,50.781250
6217,50.781250
6218,50.781250
6219,50.781250
6220,50.781250
6221,50.781250
6222,50.781250
6223,50.781250
6224,50.781250
6225,50.781250
6226,50.781250
6227,50.781250
6228,50.781250
6229,50.781250
6230,50.781250
6231,50.781250
6232,50.781250
6233,50.781250
6234,50.781250
6235,50.781250
6236,50.781250
6237,50.781250
6238,50.781250
6239,50.781250
6240,50.781250
6241,50.781250
6242,50.781250
6243,50.781250
6244,50.781250
6245,50.781250
6246,50.781250
6247,54.687500
6248,50.781250
6249,50.781250
6250,50.781250
6251,54.687500
6252,54.687500
6253,54.687500
6254,54.687500
6255,54.687500
6256,54.687500
6257,54.687500
6258,54.687500
6259,54.687500
6260,50.781250
6261,54.687500
6262,54.687500
6263,54.687500
6264,54.687500
6265,50.781250
6266,50.781250
6267,54.687500
6268,50.781250
6269,54.687500
6270,50.781250
6271,54.687500
6272,54.687500
6273,50.781250
6274,50.781250
6275,50.781250
6276,50.781250
6277,50.781250
6278,54.687500
6279,50.781250
6280,54.687500
6281,54.687500
6282,50.781250
6283,50.781250
6284,50.781250
6285,54.687500
6286,50.781250
6287,50.781250
6288,50.781250
6289,50.781250
6290,54.687500
6291,54.687500
6292,50.781250
6293,50.781250
6294,50.781250
6295,50.781250
6296,50.781250
6297,50.781250
6298,50.781250
6299,50.781250
6300,50.781250
6301,50.781250
6302,50.781250
6303,50.781250
6304,50.781250
6305,50.781250
6306,50.781250
6307,50.781250
6308,50.781250
6309,50.781250
6310,50.781250
6311,50.781250
6312,50.781250
6313,50.781250
6314,46.875000
6315,50.781250
6316,50.781250
6317,50.781250
6318,50.781250
6319,50.781250
6320,50.781250
6321,50.781250
6322,50.781250
6323,50.781250
6324,50.781250
6325,46.875000
6326,50.781250
6327,46.875000
6328,46.875000
6329,46.875000
6330,46.875000
6331,50.781250
6332,46.875000
6333,46.875000
6334,46.875000
6335,46.875000
6336,46.875000
6337,46.875000
6338,46.875000
6339,46.875000
6340,46.875000
6341,46.875000
6342,46.875000
6343,46.875000
6344,46.875000
6345,46.875000
6346,46.875000
6347,46.875000
6348,46.875000
6349,46.875000
6350,46.875000
6351,46.875000
6352,42.968750
6353,42.968750
6354,46.875000
6355,46.875000
6356,42.968750
6357,42.968750
6358,42.968750
6359,42.968750
6360,42.968750
6361,42.968750
6362,42.968750
6363,42.968750
6364,42.968750
6365,42.968750
6366,42.968750
6367,42.968750
6368,39.062500
6369,42.968750
6370,42.968750
6371,42.968750
6372,39.062500
6373,39.062500
6374,39.062500
6375,39.062500
6376,39.062500
6377,39.062500
6378,39.062500
6379,39.062500
6380,39.062500
6381,39.062500
6382,39.062500
6383,39.062500
6384,39.062500
6385,39.062500
6386,39.062500
6387,39.062500
6388,35.156250
6389,35.156250
6390,35.156250
6391,35.156250
6392,35.156250
6393,35.156250
6394,35.156250
6395,35.156250
6396,35.156250
6397,35.156250
6398,35.156250
6399,35.156250
6400,31.250000
6401,31.250000
6402,31.250000
6403,31.250000
6404,31.250000
6405,31.250000
6406,31.250000
6407,31.250000
6408,31.250000
6409,31.250000
6410,31.250000
6411,31.250000
6412,31.250000
6413,27.343750
6414,27.343750
6415,27.343750
6416,27.343750
6417,27.343750
6418,27.343750
6419,27.343750
6420,27.343750
6421,27.343750
6422,27.343750
6423,27.343750
6424,27.343750
6425,23.437500
6426,23.437500
6427,23.437500
6428,23.437500
6429,23.437500
6430,23.437500
6431,23.437500
6432,23.437500
6433,23.437500
6434,23.437500
6435,23.437500
6436,23.437500
6437,19.531250
6438,19.531250
6439,19.531250
6440,19.531250
6441,19.531250
6442,19.531250
6443,19.531250
6444,19.531250
6445,19.531250
6446,19.531250
6447,19.531250
6448,15.625000
6449,15.625000
6450,15.625000
6451,15.625000
6452,15.625000
6453,15.625000
6454,15.625000
6455,15.625000
6456,15.625000
6457,11.718750
6458,15.625000
6459,15.625000
6460,15.625000
6461,11.718750
6462,11.718750
6463,11.718750
6464,11.718750
6465,11.718750
6466,11.718750
6467,11.718750
6468,11.718750
6469,7.812500
6470,7.812500
6471,7.812500
6472,7.812500
6473,7.812500
6474,7.812500
6475,7.812500
6476,7.812500
6477,7.812500
6478,3.906250
6479,3.906250
6480,3.906250
6481,3.906250
6482,3.906250
6483,3.906250
6484,3.906250
6485,3.906250
6486,3.906250
6487,0.000000
6488,0.000000
6489,0.000000
6490,0.000000
6491,0.000000
6492,0.000000
6493,0.000000
6494,0.000000
6495,0.000000
6496,0.000000
6497,0.000000
6498,-3.906250
6499,-3.906250
6500,-3.906250
6501,-3.906250
6502,-3.906250
6503,-3.906250
6504,-3.906250
6505,-3.906250
6506,-3.906250
6507,-7.812500
6508,-7.812500
6509,-7.812500
6510,-7.812500
6511,-7.812500
6512,-7.812500
6513,-7.812500
6514,-7.812500
6515,-7.812500
6516,-11.718750
6517,-11.718750
6518,-11.718750
6519,-11.718750
6520,-11.718750
6521,-11.718750
6522,-11.718750
6523,-11.718750
6524,-11.718750
6525,-15.625000
6526,-15.625000
6527,-15.625000
6528,-15.625000
6529,-15.625000
6530,-15.625000
6531,-15.625000
6532,-15.625000
6533,-15.625000
6534,-19.531250
6535,-19.531250
6536,-19.531250
6537,-19.531250
6538,-19.531250
6539,-19.531250
6540,-19.531250
6541,-19.531250
6542,-19.531250
6543,-23.437500
6544,-23.437500
6545,-23.437500
6546,-23.437500
6547,-23.437500
6548,-23.437500
6549,-23.437500
6550,-23.437500
6551,-23.437500
6552,-27.343750
6553,-27.343750
6554,-27.343750
6555,-27.343750
6556,-27.343750
6557,-27.343750
6558,-27.343750
6559,-27.343750
6560,-31.250000
6561,-31.250000
6562,-31.250000
6563,-31.250000
6564,-31.250000
6565,-31.250000
6566,-31.250000
6567,-31.250000
6568,-31.250000
6569,-31.250000
6570,-31.250000
6571,-35.156250
6572,-35.156250
6573,-35.156250
6574,-35.156250
6575,-35.156250
6576,-35.156250
6577,-35.156250
6578,-35.156250
6579,-35.156250
6580,-39.062500
6581,-39.062500
6582,-39.062500
6583,-39.062500
6584,-39.062500
6585,-39.062500
6586,-39.062500
6587,-39.062500
6588,-39.062500
6589,-42.968750
6590,-42.968750
6591,-42.968750
6592,-42.968750
6593,-42.968750
6594,-42.968750
6595,-42.968750
6596,-42.968750
6597,-42.968750
6598,-42.968750
6599,-42.968750
6600,-42.968750
6601,-46.875000
6602,-46.875000
6603,-46.875000
6604,-46.875000
6605,-46.875000
6606,-46.875000
6607,-46.875000
6608,-46.875000
6609,-46.875000
6610,-50.781250
6611,-50.781250
6612,-50.781250
6613,-50.781250
6614,-50.781250
6615,-50.781250
6616,-50.781250
6617,-50.781250
6618,-50.781250
6619,-50.781250
6620,-50.781250
6621,-54.687500
6622,-54.687500
6623,-54.687500
6624,-54.687500
6625,-54.687500
6626,-54.687500
6627,-54.687500
6628,-54.687500
6629,-54.687500
6630,-54.687500
6631,-54.687500
6632,-54.687500
6633,-54.687500
6634,-58.593750
6635,-58.593750
6636,-58.593750
6637,-58.593750
6638,-58.593750
6639,-58.593750
6640,-58.593750
6641,-58.593750
6642,-58.593750
6643,-58.593750
6644,-58.593750
6645,-58.593750
6646,-62.500000
6647,-62.500000
6648,-62.500000
6649,-62.500000
6650,-62.500000
6651,-62.500000
6652,-62.500000
6653,-62.500000
6654,-62.500000
6655,-62.500000
6656,-66.406250
6657,-66.406250
6658,-66.406250
6659,-66.406250
6660,-66.406250
6661,-66.406250
6662,-66.406250
6663,-66.406250
6664,-66.406250
6665,-66.406250
6666,-66.406250
6667,-66.406250
6668,-66.406250
6669,-66.406250
6670,-70.312500
6671,-70.312500
6672,-70.312500
6673,-70.312500
6674,-70.312500
6675,-70.312500
6676,-70.312500
6677,-70.312500
6678,-70.312500
6679,-70.312500
6680,-70.312500
6681,-70.312500
6682,-70.312500
6683,-70.312500
6684,-70.312500
6685,-70.312500
6686,-70.312500
6687,-70.312500
6688,-70.312500
6689,-74.218750
6690,-74.218750
6691,-74.218750
6692,-74.218750
6693,-74.218750
6694,-74.218750
6695,-74.218750
6696,-74.218750
6697,-74.218750
6698,-74.218750
6699,-74.218750
6700,-74.218750
6701,-74.218750
6702,-74.218750
6703,-74.218750
6704,-74.218750
6705,-74.218750
6706,-74.218750
6707,-74.218750
6708,-74.218750
6709,-74.218750
6710,-74.218750
6711,-74.218750
6712,-78.125000
6713,-78.125000
6714,-78.125000
6715,-78.125000
6716,-78.125000
6717,-78.125000
6718,-78.125000
6719,-78.125000
6720,-78.125000
6721,-78.125000
6722,-78.125000
6723,-78.125000
6724,-78.125000
6725,-78.125000
6726,-78.125000
6727,-78.125000
6728,-78.125000
6729,-78.125000
6730,-78.125000
6731,-78.125000
6732,-78.125000
6733,-78.125000
6734,-78.125000
6735,-78.125000
6736,-78.125000
6737,-78.125000
6738,-78.125000
6739,-78.125000
6740,-78.125000
6741,-78.125000
6742,-78.125000
6743,-78.125000
6744,-78.125000
6745,-78.125000
6746,-78.125000
6747,-78.125000
6748,-78.125000
6749,-78.125000
6750,-78.125000
6751,-78.125000
6752,-78.125000
6753,-78.125000
6754,-78.125000
6755,-78.125000
6756,-78.125000
6757,-78.125000
6758,-78.125000
6759,-78.125000
6760,-78.125000
6761,-78.125000
6762,-78.125000
6763,-78.125000
6764,-78.125000
6765,-78.125000
6766,-78.125000
6767,-78.125000
6768,-82.031250
6769,-78.125000
6770,-78.125000
6771,-78.125000
6772,-78.125000
6773,-78.125000
6774,-78.125000
6775,-78.125000
6776,-78.125000
6777,-78.125000
6778,-78.125000
6779,-78.125000
6780,-78.125000
6781,-78.125000
6782,-78.125000
6783,-78.125000
6784,-78.125000
6785,-78.125000
6786,-78.125000
6787,-78.125000
6788,-78.125000
6789,-78.125000
6790,-78.125000
6791,-78.125000
6792,-78.125000
6793,-78.125000
6794,-78.125000
6795,-78.125000
6796,-78.125000
6797,-78.125000
6798,-78.125000
6799,-78.125000
6800,-78.125000
6801,-78.125000
6802,-78.125000
6803,-78.125000
6804,-78.125000
6805,-78.125000
6806,-78.125000
6807,-78.125000
6808,-78.125000
6809,-78.125000
6810,-78.125000
6811,-74.218750
6812,-78.125000
6813,-78.125000
6814,-74.218750
6815,-74.218750
6816,-78.125000
6817,-74.218750
6818,-74.218750
6819,-74.218750
6820,-74.218750
6821,-74.218750
6822,-74.218750
6823,-74.218750
6824,-74.218750
6825,-74.218750
6826,-74.218750
6827,-74.218750
6828,-74.218750
6829,-74.218750
6830,-74.218750
6831,-74.218750
6832,-74.218750
6833,-74.218750
6834,-74.218750
6835,-74.218750
6836,-74.218750
6837,-70.312500
6838,-74.218750
6839,-70.312500
6840,-70.312500
6841,-70.312500
6842,-70.312500
6843,-70.312500
6844,-70.312500
6845,-70.312500
6846,-70.312500
6847,-70.312500
6848,-70.312500
6849,-70.312500
6850,-70.312500
6851,-70.312500
6852,-70.312500
6853,-66.406250
6854,-66.406250
6855,-66.406250
6856,-66.406250
6857,-66.406250
6858,-66.406250
6859,-66.406250
6860,-66.406250
6861,-66.406250
6862,-66.406250
6863,-66.406250
6864,-66.406250
6865,-66.406250
6866,-66.406250
6867,-66.406250
6868,-62.500000
6869,-62.500000
6870,-62.500000
6871,-62.500000
6872,-62.500000
6873,-62.500000
6874,-62.500000
6875,-62.500000
6876,-62.500000
6877,-62.500000
6878,-62.500000
6879,-58.593750
6880,-62.500000
6881,-58.593750
6882,-58.593750
6883,-58.593750
6884,-58.593750
6885,-58.593750
6886,-58.593750
6887,-58.593750
6888,-58.593750
6889,-58.593750
6890,-58.593750
6891,-58.593750
6892,-58.593750
6893,-54.687500
6894,-54.687500
6895,-54.687500
6896,-54.687500
6897,-54.687500
6898,-54.687500
6899,-54.687500
6900,-54.687500
6901,-54.687500
6902,-54.687500
6903,-54.687500
6904,-54.687500
6905,-50.781250
6906,-50.781250
6907,-50.781250
6908,-50.781250
6909,-50.781250
6910,-50.781250
6911,-50.781250
6912,-50.781250
6913,-50.781250
6914,-50.781250
6915,-46.875000
6916,-50.781250
6917,-46.875000
6918,-46.875000
6919,-46.875000
6920,-46.875000
6921,-46.875000
6922,-46.875000
6923,-46.875000
6924,-46.875000
6925,-46.875000
6926,-42.968750
6927,-42.968750
6928,-42.968750
6929,-42.968750
6930,-42.968750
6931,-42.968750
6932,-42.968750
6933,-42.968750
6934,-42.968750
6935,-42.968750
6936,-39.062500
6937,-39.062500
6938,-39.062500
6939,-39.062500
6940,-39.062500
6941,-39.062500
6942,-39.062500
6943,-39.062500
6944,-39.062500
6945,-39.062500
6946,-39.062500
6947,-35.156250
6948,-35.156250
6949,-35.156250
6950,-35.156250
6951,-35.156250
6952,-35.156250
6953,-35.156250
6954,-35.156250
6955,-35.156250
6956,-31.250000
6957,-31.250000
6958,-31.250000
6959,-31.250000
6960,-31.250000
6961,-31.250000
6962,-31.250000
6963,-31.250000
6964,-31.250000
6965,-27.343750
6966,-27.343750
6967,-27.343750
6968,-27.343750
6969,-27.343750
6970,-27.343750
6971,-27.343750
6972,-27.343750
6973,-23.437500
6974,-23.437500
6975,-23.437500
6976,-23.437500
6977,-23.437500
6978,-23.437500
6979,-23.437500
6980,-23.437500
6981,-23.437500
6982,-23.437500
6983,-19.531250
6984,-19.531250
6985,-19.531250
6986,-19.531250
6987,-19.531250
6988,-19.531250
6989,-19.531250
6990,-19.531250
6991,-19.531250
6992,-19.531250
6993,-19.531250
6994,-15.625000
6995,-15.625000
6996,-15.625000
6997,-15.625000
6998,-15.625000
6999,-15.625000
7000,-15.625000
7001,-11.718750
7002,-11.718750
7003,-11.718750
7004,-11.718750
7005,-11.718750
7006,-11.718750
7007,-11.718750
7008,-11.718750
7009,-11.718750
7010,-11.718750
7011,-11.718750
7012,-7.812500
7013,-7.812500
7014,-7.812500
7015,-7.812500
7016,-7.812500
7017,-7.812500
7018,-3.906250
7019,-3.906250
7020,-7.812500
7021,-3.906250
7022,-3.906250
7023,-3.906250
7024,-3.906250
7025,-3.906250
7026,-3.906250
7027,-3.906250
7028,-3.906250
7029,0.000000
7030,-3.906250
7031,0.000000
7032,0.000000
7033,0.000000
7034,0.000000
7035,0.000000
7036,0.000000
7037,0.000000
7038,0.000000
7039,0.000000
7040,0.000000
7041,3.906250
7042,0.000000
7043,3.906250
7044,3.906250
7045,3.906250
7046,3.906250
7047,3.906250
7048,3.906250
7049,3.906250
7050,7.812500
7051,7.812500
7052,7.812500
7053,7.812500
7054,7.812500
7055,7.812500
7056,7.812500
7057,7.812500
7058,7.812500
7059,7.812500
7060,7.812500
7061,11.718750
7062,11.718750
7063,11.718750
7064,11.718750
7065,11.718750
7066,11.718750
7067,11.718750
7068,11.718750
7069,11.718750
7070,15.625000
7071,15.625000
7072,15.625000
7073,15.625000
7074,15.625000
7075,15.625000
7076,15.625000
7077,15.625000
7078,15.625000
7079,15.625000
7080,19.531250
7081,19.531250
7082,15.625000
7083,19.531250
7084,19.531250
7085,19.531250
7086,19.531250
7087,19.531250
7088,19.531250
7089,23.437500
7090,19.531250
7091,19.531250
7092,19.531250
7093,23.437500
7094,23.437500
7095,23.437500
7096,23.437500
7097,23.437500
7098,23.437500
7099,23.437500
7100,23.437500
7101,23.437500
7102,23.437500
7103,23.437500
7104,27.343750
7105,23.437500
7106,27.343750
7107,27.343750
7108,27.343750
7109,27.343750
7110,27.343750
7111,27.343750
7112,27.343750
7113,27.343750
7114,27.343750
7115,31.250000
7116,31.250000
7117,31.250000
7118,31.250000
7119,31.250000
7120,31.250000
7121,31.250000
7122,31.250000
7123,31.250000
7124,31.250000
7125,31.250000
7126,35.156250
7127,35.156250
7128,35.156250
7129,35.156250
7130,35.156250
7131,35.156250
7132,35.156250
7133,35.156250
7134,35.156250
7135,35.156250
7136,35.156250
7137,35.156250
7138,35.156250
7139,39.062500
7140,35.156250
7141,35.156250
7142,39.062500
7143,35.156250
7144,39.062500
7145,39.062500
7146,39.062500
7147,39.062500
7148,39.062500
7149,39.062500
7150,39.062500
7151,39.062500
7152,39.062500
7153,39.062500
7154,39.062500
7155,39.062500
7156,39.062500
7157,39.062500
7158,42.968750
7159,42.968750
7160,39.062500
7161,42.968750
7162,42.968750
7163,42.968750
7164,42.968750
7165,42.968750
7166,42.968750
7167,42.968750
7168,42.968750
7169,42.968750
7170,42.968750
7171,42.968750
7172,42.968750
7173,42.968750
7174,42.968750
7175,42.968750
7176,42.968750
7177,42.968750
7178,42.968750
7179,42.968750
7180,46.875000
7181,46.875000
7182,42.968750
7183,46.875000
7184,46.875000
7185,46.875000
7186,46.875000
7187,46.875000
7188,42.968750
7189,46.875000
7190,46.875000
7191,46.875000
7192,46.875000
7193,46.875000
7194,46.875000
7195,46.875000
7196,46.875000
7197,46.875000
7198,46.875000
7199,46.875000
7200,46.875000
7201,46.875000
7202,46.875000
7203,46.875000
7204,50.781250
7205,50.781250
7206,46.875000
7207,50.781250
7208,50.781250
7209,50.781250
7210,50.781250
7211,50.781250
7212,50.781250
7213,50.781250
7214,50.781250
7215,50.781250
7216,50.781250
7217,50.781250
7218,50.781250
7219,50.781250
7220,50.781250
7221,50.781250
7222,50.781250
7223,50.781250
7224,50.781250
7225,50.781250
7226,50.781250
7227,50.781250
7228,50.781250
7229,50.781250
7230,50.781250
7231,50.781250
7232,50.781250
7233,50.781250
7234,50.781250
7235,54.687500
7236,50.781250
7237,50.781250
7238,50.781250
7239,50.781250
7240,50.781250
7241,50.781250
7242,50.781250
7243,50.781250
7244,50.781250
7245,54.687500
7246,50.781250
7247,50.781250
7248,50.781250
7249,50.781250
7250,50.781250
7251,54.687500
7252,54.687500
7253,54.687500
7254,54.687500
7255,54.687500
7256,50.781250
7257,50.781250
7258,50.781250
7259,50.781250
7260,50.781250
7261,50.781250
7262,54.687500
7263,54.687500
7264,50.781250
7265,50.781250
7266,50.781250
7267,50.781250
7268,50.781250
7269,54.687500
7270,50.781250
7271,54.687500
7272,54.687500
7273,50.781250
7274,50.781250
7275,50.781250
7276,50.781250
7277,50.781250
7278,50.781250
7279,50.781250
7280,50.781250
7281,50.781250
7282,50.781250
7283,50.781250
7284,50.781250
7285,50.781250
7286,50.781250
7287,50.781250
7288,50.781250
7289,50.781250
7290,50.781250
7291,50.781250
7292,50.781250
7293,50.781250
7294,50.781250
7295,50.781250
7296,50.781250
7297,50.781250
7298,50.781250
7299,50.781250
7300,50.781250
7301,50.781250
7302,50.781250
7303,50.781250
7304,50.781250
7305,50.781250
7306,50.781250
7307,50.781250
7308,50.781250
7309,50.781250
7310,50.781250
7311,50.781250
7312,46.875000
7313,50.781250
7314,46.875000
7315,46.875000
7316,46.875000
7317,46.875000
7318,46.875000
7319,46.875000
7320,46.875000
7321,46.875000
7322,46.875000
7323,46.875000
7324,46.875000
7325,46.875000
7326,46.875000
7327,46.875000
7328,46.875000
7329,46.875000
7330,46.875000
7331,46.875000
7332,46.875000
7333,46.875000
7334,46.875000
7335,46.875000
7336,46.875000
7337,46.875000
7338,42.968750
7339,42.968750
7340,42.968750
7341,42.968750
7342,42.968750
7343,42.968750
7344,42.968750
7345,42.968750
7346,42.968750
7347,42.968750
7348,42.968750
7349,42.968750
7350,42.968750
7351,42.968750
7352,42.968750
7353,42.968750
7354,42.968750
7355,42.968750
7356,42.968750
7357,42.968750
7358,42.968750
7359,39.062500
7360,39.062500
7361,39.062500
7362,39.062500
7363,39.062500
7364,39.062500
7365,39.062500
7366,39.062500
7367,39.062500
7368,39.062500
7369,39.062500
7370,39.062500
7371,39.062500
7372,39.062500
7373,39.062500
7374,39.062500
7375,35.156250
7376,35.156250
7377,39.062500
7378,35.156250
7379,35.156250
7380,35.156250
7381,35.156250
7382,35.156250
7383,35.156250
7384,35.156250
7385,35.156250
7386,35.156250
7387,35.156250
7388,35.156250
7389,35.156250
7390,31.250000
7391,31.250000
7392,31.250000
7393,31.250000
7394,31.250000
7395,31.250000
7396,31.250000
7397,31.250000
7398,31.250000
7399,31.250000
7400,31.250000
7401,31.250000
7402,31.250000
7403,27.343750
7404,27.343750
7405,27.343750
7406,27.343750
7407,27.343750
7408,27.343750
7409,27.343750
7410,27.343750
7411,27.343750
7412,27.343750
7413,27.343750
7414,27.343750
7415,23.437500
7416,23.437500
7417,23.437500
7418,23.437500
7419,23.437500
7420,23.437500
7421,23.437500
7422,23.437500
7423,23.437500
7424,23.437500
7425,19.531250
7426,19.531250
7427,19.531250
7428,19.531250
7429,19.531250
7430,19.531250
7431,19.531250
7432,19.531250
7433,19.531250
7434,19.531250
7435,19.531250
7436,15.625000
7437,15.625000
7438,15.625000
7439,15.625000
7440,15.625000
7441,15.625000
7442,15.625000
7443,15.625000
7444,15.625000
7445,11.718750
7446,15.625000
7447,11.718750
7448,11.718750
7449,11.718750
7450,11.718750
7451,11.718750
7452,11.718750
7453,11.718750
7454,11.718750
7455,7.812500
7456,7.812500
7457,7.812500
7458,7.812500
7459,7.812500
7460,7.812500
7461,7.812500
7462,7.812500
7463,7.812500
7464,7.812500
7465,7.812500
7466,7.812500
7467,7.812500
7468,3.906250
7469,3.906250
7470,3.906250
7471,3.906250
7472,3.906250
7473,3.906250
7474,3.906250
7475,3.906250
7476,3.906250
7477,3.906250
7478,0.000000
7479,0.000000
7480,0.000000
7481,0.000000
7482,0.000000
7483,0.000000
7484,-3.906250
7485,0.000000
7486,-3.906250
7487,-3.906250
7488,-3.906250
7489,-3.906250
7490,-3.906250
7491,-3.906250
7492,-3.906250
7493,-3.906250
7494,-3.906250
7495,-3.906250
7496,-7.812500
7497,-7.812500
7498,-7.812500
7499,-7.812500
7500,-7.812500
7501,-7.812500
7502,-7.812500
7503,-7.812500
7504,-7.812500
7505,-7.812500
7506,-11.718750
7507,-11.718750
7508,-11.718750
7509,-11.718750
7510,-11.718750
7511,-11.718750
7512,-15.625000
7513,-11.718750
7514,-11.718750
7515,-15.625000
7516,-15.625000
7517,-15.625000
7518,-15.625000
7519,-15.625000
7520,-15.625000
7521,-15.625000
7522,-15.625000
7523,-15.625000
7524,-19.531250
7525,-19.531250
7526,-19.531250
7527,-19.531250
7528,-19.531250
7529,-19.531250
7530,-19.531250
7531,-19.531250
7532,-19.531250
7533,-23.437500
7534,-23.437500
7535,-23.437500
7536,-23.437500
7537,-23.437500
7538,-23.437500
7539,-23.437500
7540,-23.437500
7541,-23.437500
7542,-27.343750
7543,-27.343750
7544,-27.343750
7545,-27.343750
7546,-27.343750
7547,-27.343750
7548,-27.343750
7549,-27.343750
7550,-31.250000
7551,-27.343750
7552,-31.250000
7553,-31.250000
7554,-31.250000
7555,-31.250000
7556,-31.250000
7557,-35.156250
7558,-31.250000
7559,-31.250000
7560,-35.156250
7561,-35.156250
7562,-35.156250
7563,-35.156250
7564,-35.156250
7565,-35.156250
7566,-35.156250
7567,-35.156250
7568,-35.156250
7569,-39.062500
7570,-39.062500
7571,-39.062500
7572,-39.062500
7573,-39.062500
7574,-39.062500
7575,-39.062500
7576,-39.062500
7577,-39.062500
7578,-39.062500
7579,-39.062500
7580,-42.968750
7581,-42.968750
7582,-42.968750
7583,-42.968750
7584,-42.968750
7585,-42.968750
7586,-42.968750
7587,-42.968750
7588,-42.968750
7589,-46.875000
7590,-46.875000
7591,-46.875000
7592,-46.875000
7593,-46.875000
7594,-46.875000
7595,-46.875000
7596,-46.875000
7597,-46.875000
7598,-50.781250
7599,-46.875000
7600,-50.781250
7601,-50.781250
7602,-50.781250
7603,-50.781250
7604,-50.781250
7605,-50.781250
7606,-50.781250
7607,-50.781250
7608,-50.781250
7609,-50.781250
7610,-50.781250
7611,-54.687500
7612,-54.687500
7613,-54.687500
7614,-54.687500
7615,-54.687500
7616,-54.687500
7617,-54.687500
7618,-54.687500
7619,-58.593750
7620,-54.687500
7621,-58.593750
7622,-58.593750
7623,-58.593750
7624,-54.687500
7625,-58.593750
7626,-58.593750
7627,-58.593750
7628,-58.593750
7629,-58.593750
7630,-58.593750
7631,-58.593750
7632,-58.593750
7633,-58.593750
7634,-58.593750
7635,-58.593750
7636,-62.500000
7637,-62.500000
7638,-62.500000
7639,-62.500000
7640,-62.500000
7641,-62.500000
7642,-62.500000
7643,-62.500000
7644,-62.500000
7645,-62.500000
7646,-62.500000
7647,-66.406250
7648,-66.406250
7649,-62.500000
7650,-66.406250
7651,-66.406250
7652,-66.406250
7653,-66.406250
7654,-66.406250
7655,-66.406250
7656,-66.406250
7657,-66.406250
7658,-66.406250
7659,-66.406250
7660,-66.406250
7661,-66.406250
7662,-66.406250
7663,-70.312500
7664,-70.312500
7665,-70.312500
7666,-70.312500
7667,-70.312500
7668,-70.312500
7669,-70.312500
7670,-70.312500
7671,-70.312500
7672,-70.312500
7673,-70.312500
7674,-70.312500
7675,-70.312500
7676,-70.312500
7677,-70.312500
7678,-70.312500
7679,-74.218750
7680,-74.218750
7681,-70.312500
7682,-74.218750
7683,-74.218750
7684,-74.218750
7685,-74.218750
7686,-74.218750
7687,-74.218750
7688,-74.218750
7689,-74.218750
7690,-74.218750
7691,-74.218750
7692,-74.218750
7693,-74.218750
7694,-74.218750
7695,-74.218750
7696,-74.218750
7697,-74.218750
7698,-74.218750
7699,-78.125000
7700,-78.125000
7701,-74.218750
7702,-74.218750
7703,-78.125000
7704,-78.125000
7705,-78.125000
7706,-78.125000
7707,-78.125000
7708,-78.125000
7709,-78.125000
7710,-78.125000
7711,-78.125000
7712,-78.125000
7713,-78.125000
7714,-78.125000
7715,-78.125000
7716,-78.125000
7717,-78.125000
7718,-78.125000
7719,-78.125000
7720,-78.125000
7721,-78.125000
7722,-78.125000
7723,-78.125000
7724,-78.125000
7725,-78.125000
7726,-78.125000
7727,-78.125000
7728,-78.125000
7729,-78.125000
7730,-78.125000
7731,-78.125000
7732,-78.125000
7733,-78.125000
7734,-78.125000
7735,-82.031250
7736,-78.125000
7737,-78.125000
7738,-78.125000
7739,-78.125000
7740,-78.125000
7741,-78.125000
7742,-82.031250
7743,-78.125000
7744,-78.125000
7745,-78.125000
7746,-78.125000
7747,-78.125000
7748,-82.031250
7749,-78.125000
7750,-78.125000
7751,-78.125000
7752,-82.031250
7753,-78.125000
7754,-78.125000
7755,-78.125000
7756,-78.125000
7757,-78.125000
7758,-78.125000
7759,-78.125000
7760,-78.125000
7761,-78.125000
7762,-78.125000
7763,-78.125000
7764,-78.125000
7765,-78.125000
7766,-78.125000
7767,-78.125000
7768,-78.125000
7769,-78.125000
7770,-78.125000
7771,-78.125000
7772,-78.125000
7773,-78.125000
7774,-78.125000
7775,-78.125000
7776,-78.125000
7777,-78.125000
7778,-78.125000
7779,-78.125000
7780,-78.125000
7781,-78.125000
7782,-78.125000
7783,-78.125000
7784,-78.125000
7785,-78.125000
7786,-78.125000
7787,-78.125000
7788,-78.125000
7789,-78.125000
7790,-78.125000
7791,-78.125000
7792,-78.125000
7793,-78.125000
7794,-78.125000
7795,-78.125000
7796,-78.125000
7797,-78.125000
7798,-78.125000
7799,-78.125000
7800,-78.125000
7801,-78.125000
7802,-78.125000
7803,-74.218750
7804,-74.218750
7805,-74.218750
7806,-74.218750
7807,-74.218750
7808,-74.218750
7809,-74.218750
7810,-74.218750
7811,-74.218750
7812,-74.218750
7813,-74.218750
7814,-70.312500
7815,-74.218750
7816,-74.218750
7817,-74.218750
7818,-74.218750
7819,-74.218750
7820,-74.218750
7821,-74.218750
7822,-74.218750
7823,-70.312500
7824,-74.218750
7825,-74.218750
7826,-74.218750
7827,-70.312500
7828,-70.312500
7829,-70.312500
7830,-70.312500
7831,-70.312500
7832,-70.312500
7833,-70.312500
7834,-70.312500
7835,-70.312500
7836,-70.312500
7837,-70.312500
7838,-70.312500
7839,-70.312500
7840,-70.312500
7841,-70.312500
7842,-70.312500
7843,-66.406250
7844,-70.312500
7845,-66.406250
7846,-66.406250
7847,-66.406250
7848,-66.406250
7849,-66.406250
7850,-66.406250
7851,-66.406250
7852,-66.406250
7853,-66.406250
7854,-66.406250
7855,-62.500000
7856,-66.406250
7857,-66.406250
7858,-62.500000
7859,-62.500000
7860,-62.500000
7861,-62.500000
7862,-62.500000
7863,-62.500000
7864,-62.500000
7865,-62.500000
7866,-62.500000
7867,-58.593750
7868,-62.500000
7869,-62.500000
7870,-62.500000
7871,-62.500000
7872,-58.593750
7873,-58.593750
7874,-58.593750
7875,-58.593750
7876,-58.593750
7877,-58.593750
7878,-58.593750
7879,-58.593750
7880,-58.593750
7881,-58.593750
7882,-58.593750
7883,-54.687500
7884,-54.687500
7885,-54.687500
7886,-54.687500
7887,-54.687500
7888,-54.687500
7889,-54.687500
7890,-54.687500
7891,-54.687500
7892,-54.687500
7893,-50.781250
7894,-50.781250
7895,-50.781250
7896,-50.781250
7897,-50.781250
7898,-50.781250
7899,-50.781250
7900,-50.781250
7901,-50.781250
7902,-50.781250
7903,-50.781250
7904,-50.781250
7905,-50.781250
7906,-46.875000
7907,-46.875000
7908,-46.875000
7909,-46.875000
7910,-46.875000
7911,-46.875000
7912,-46.875000
7913,-46.875000
7914,-46.875000
7915,-42.968750
7916,-42.968750
7917,-42.968750
7918,-42.968750
7919,-42.968750
7920,-42.968750
7921,-42.968750
7922,-42.968750
7923,-42.968750
7924,-42.968750
7925,-42.968750
7926,-39.062500
7927,-42.968750
7928,-39.062500
7929,-39.062500
7930,-39.062500
7931,-39.062500
7932,-39.062500
7933,-39.062500
7934,-39.062500
7935,-39.062500
7936,-39.062500
7937,-35.156250
7938,-35.156250
7939,-35.156250
7940,-35.156250
7941,-35.156250
7942,-35.156250
7943,-35.156250
7944,-35.156250
7945,-31.250000
7946,-35.156250
7947,-31.250000
7948,-31.250000
7949,-31.250000
7950,-31.250000
7951,-31.250000
7952,-31.250000
7953,-31.250000
7954,-31.250000
7955,-27.343750
7956,-23.437500
7957,-27.343750
7958,-27.343750
7959,-27.343750
7960,-27.343750
7961,-27.343750
7962,-27.343750
7963,-27.343750
7964,-27.343750
7965,-27.343750
7966,-23.437500
7967,-23.437500
7968,-23.437500
7969,-23.437500
7970,-23.437500
7971,-23.437500
7972,-23.437500
7973,-23.437500
7974,-23.437500
7975,-19.531250
7976,-19.531250
7977,-19.531250
7978,-19.531250
7979,-19.531250
7980,-19.531250
7981,-19.531250
7982,-19.531250
7983,-15.625000
7984,-15.625000
7985,-15.625000
7986,-15.625000
7987,-15.625000
7988,-15.625000
7989,-15.625000
7990,-15.625000
7991,-15.625000
7992,-11.718750
7993,-11.718750
7994,-11.718750
7995,-11.718750
7996,-11.718750
7997,-11.718750
7998,-11.718750
7999,-11.718750
8000,-11.718750
8001,-11.718750
8002,-7.812500
8003,-7.812500
8004,-7.812500
8005,-7.812500
8006,-7.812500
8007,-7.812500
8008,-7.812500
8009,-7.812500
8010,-7.812500
8011,-3.906250
8012,-3.906250
8013,-3.906250
8014,-3.906250
8015,-3.906250
8016,-3.906250
8017,-3.906250
8018,-3.906250
8019,-3.906250
8020,-3.906250
8021,0.000000
8022,0.000000
8023,0.000000
8024,0.000000
8025,0.000000
8026,0.000000
8027,0.000000
8028,0.000000
8029,0.000000
8030,3.906250
8031,0.000000
8032,3.906250
8033,3.906250
8034,3.906250
8035,3.906250
8036,3.906250
8037,3.906250
8038,3.906250
8039,3.906250
8040,7.812500
8041,7.812500
8042,7.812500
8043,7.812500
8044,7.812500
8045,7.812500
8046,7.812500
8047,7.812500
8048,7.812500
8049,7.812500
8050,11.718750
8051,11.718750
8052,11.718750
8053,11.718750
8054,11.718750
8055,11.718750
8056,11.718750
8057,11.718750
8058,11.718750
8059,11.718750
8060,15.625000
8061,15.625000
8062,15.625000
8063,15.625000
8064,15.625000
8065,15.625000
8066,15.625000
8067,15.625000
8068,15.625000
8069,15.625000
8070,15.625000
8071,19.531250
8072,19.531250
8073,19.531250
8074,19.531250
8075,19.531250
8076,19.531250
8077,19.531250
8078,19.531250
8079,19.531250
8080,19.531250
8081,19.531250
8082,19.531250
8083,23.437500
8084,23.437500
8085,23.437500
8086,23.437500
8087,23.437500
8088,23.437500
8089,23.437500
8090,23.437500
8091,23.437500
8092,23.437500
8093,23.437500
8094,27.343750
8095,27.343750
8096,27.343750
8097,27.343750
8098,27.343750
8099,27.343750
8100,27.343750
8101,27.343750
8102,27.343750
8103,27.343750
8104,27.343750
8105,27.343750
8106,31.250000
8107,31.250000
8108,31.250000
8109,31.250000
8110,31.250000
8111,31.250000
8112,31.250000
8113,31.250000
8114,31.250000
8115,31.250000
8116,31.250000
8117,31.250000
8118,31.250000
8119,35.156250
8120,31.250000
8121,35.156250
8122,35.156250
8123,35.156250
8124,35.156250
8125,35.156250
8126,35.156250
8127,35.156250
8128,35.156250
8129,35.156250
8130,35.156250
8131,35.156250
8132,35.156250
8133,39.062500
8134,39.062500
8135,39.062500
8136,39.062500
8137,39.062500
8138,39.062500
8139,39.062500
8140,39.062500
8141,39.062500
8142,39.062500
8143,39.062500
8144,39.062500
8145,39.062500
8146,39.062500
8147,39.062500
8148,39.062500
8149,42.968750
8150,39.062500
8151,42.968750
8152,42.968750
8153,42.968750
8154,42.968750
8155,42.968750
8156,42.968750
8157,42.968750
8158,42.968750
8159,42.968750
8160,42.968750
8161,42.968750
8162,42.968750
8163,42.968750
8164,42.968750
8165,46.875000
8166,42.968750
8167,46.875000
8168,46.875000
8169,46.875000
8170,46.875000
8171,46.875000
8172,46.875000
8173,46.875000
8174,46.875000
8175,46.875000
8176,46.875000
8177,46.875000
8178,46.875000
8179,46.875000
8180,46.875000
8181,46.875000
8182,46.875000
8183,46.875000
8184,46.875000
8185,46.875000
8186,46.875000
8187,46.875000
8188,46.875000
8189,46.875000
8190,46.875000
8191,46.875000
8192,46.875000
8193,50.781250
8194,50.781250
8195,50.781250
8196,50.781250
8197,50.781250
8198,50.781250
8199,50.781250
8200,50.781250
8201,50.781250
8202,50.781250
8203,50.781250
8204,50.781250
8205,50.781250
8206,50.781250
8207,50.781250
8208,50.781250
8209,50.781250
8210,50.781250
8211,50.781250
8212,50.781250
8213,50.781250
8214,50.781250
8215,50.781250
8216,50.781250
8217,50.781250
8218,50.781250
8219,50.781250
8220,50.781250
8221,50.781250
8222,50.781250
8223,50.781250
8224,50.781250
8225,50.781250
8226,50.781250
8227,50.781250
8228,50.781250
8229,50.781250
8230,50.781250
8231,50.781250
8232,50.781250
8233,50.781250
8234,50.781250
8235,50.781250
8236,50.781250
8237,54.687500
8238,50.781250
8239,50.781250
8240,50.781250
8241,50.781250
8242,54.687500
8243,54.687500
8244,50.781250
8245,50.781250
8246,50.781250
8247,50.781250
8248,50.781250
8249,54.687500
8250,54.687500
8251,54.687500
8252,50.781250
8253,50.781250
8254,50.781250
8255,50.781250
8256,50.781250
8257,54.687500
8258,50.781250
8259,50.781250
8260,50.781250
8261,50.781250
8262,50.781250
8263,54.687500
8264,50.781250
8265,50.781250
8266,50.781250
8267,50.781250
8268,50.781250
8269,50.781250
8270,54.687500
8271,54.687500
8272,50.781250
8273,50.781250
8274,50.781250
8275,50.781250
8276,50.781250
8277,50.781250
8278,50.781250
8279,50.781250
8280,50.781250
8281,50.781250
8282,50.781250
8283,50.781250
8284,50.781250
8285,50.781250
8286,50.781250
8287,50.781250
8288,50.781250
8289,50.781250
8290,50.781250
8291,50.781250
8292,50.781250
8293,50.781250
8294,50.781250
8295,50.781250
8296,50.781250
8297,50.781250
8298,50.781250
8299,50.781250
8300,50.781250
8301,50.781250
8302,46.875000
8303,50.781250
8304,50.781250
8305,50.781250
8306,46.875000
8307,50.781250
8308,46.875000
8309,46.875000
8310,46.875000
8311,46.875000
8312,46.875000
8313,46.875000
8314,46.875000
8315,46.875000
8316,46.875000
8317,46.875000
8318,46.875000
8319,46.875000
8320,46.875000
8321,46.875000
8322,46.875000
8323,46.875000
8324,46.875000
8325,46.875000
8326,46.875000
8327,46.875000
8328,46.875000
8329,46.875000
8330,42.968750
8331,46.875000
8332,42.968750
8333,42.968750
8334,42.968750
8335,42.968750
8336,42.968750
8337,42.968750
8338,42.968750
8339,42.968750
8340,42.968750
8341,42.968750
8342,42.968750
8343,42.968750
8344,42.968750
8345,42.968750
8346,42.968750
8347,39.062500
8348,39.062500
8349,39.062500
8350,39.062500
8351,39.062500
8352,39.062500
8353,39.062500
8354,39.062500
8355,39.062500
8356,39.062500
8357,39.062500
8358,39.062500
8359,39.062500
8360,39.062500
8361,39.062500
8362,35.156250
8363,35.156250
8364,39.062500
8365,39.062500
8366,35.156250
8367,35.156250
8368,35.156250
8369,35.156250
8370,35.156250
8371,35.156250
8372,35.156250
8373,35.156250
8374,35.156250
8375,35.156250
8376,35.156250
8377,31.250000
8378,35.156250
8379,35.156250
8380,31.250000
8381,31.250000
8382,31.250000
8383,31.250000
8384,31.250000
8385,31.250000
8386,31.250000
8387,31.250000
8388,31.250000
8389,31.250000
8390,27.343750
8391,27.343750
8392,31.250000
8393,27.343750
8394,27.343750
8395,27.343750
8396,27.343750
8397,27.343750
8398,27.343750
8399,27.343750
8400,27.343750
8401,27.343750
8402,27.343750
8403,27.343750
8404,27.343750
8405,23.437500
8406,23.437500
8407,23.437500
8408,23.437500
8409,23.437500
8410,23.437500
8411,23.437500
8412,23.437500
8413,23.437500
8414,23.437500
8415,19.531250
8416,19.531250
8417,19.531250
8418,19.531250
8419,19.531250
8420,19.531250
8421,19.531250
8422,19.531250
8423,19.531250
8424,19.531250
8425,19.531250
8426,19.531250
8427,15.625000
8428,15.625000
8429,15.625000
8430,15.625000
8431,15.625000
8432,15.625000
8433,15.625000
8434,15.625000
8435,15.625000
8436,15.625000
8437,11.718750
8438,11.718750
8439,11.718750
8440,11.718750
8441,11.718750
8442,11.718750
8443,11.718750
8444,11.718750
8445,11.718750
8446,7.812500
8447,7.812500
8448,7.812500
8449,7.812500
8450,7.812500
8451,7.812500
8452,7.812500
8453,7.812500
8454,7.812500
8455,7.812500
8456,7.812500
8457,7.812500
8458,3.906250
8459,3.906250
8460,3.906250
8461,3.906250
8462,3.906250
8463,3.906250
8464,3.906250
8465,3.906250
8466,0.000000
8467,0.000000
8468,0.000000
8469,0.000000
8470,0.000000
8471,0.000000
8472,0.000000
8473,0.000000
8474,0.000000
8475,-3.906250
8476,-3.906250
8477,-3.906250
8478,-3.906250
8479,-3.906250
8480,-3.906250
8481,-3.906250
8482,-3.906250
8483,-3.906250
8484,-7.812500
8485,-7.812500
8486,-7.812500
8487,-7.812500
8488,-7.812500
8489,-7.812500
8490,-7.812500
8491,-7.812500
8492,-7.812500
8493,-7.812500
8494,-7.812500
8495,-11.718750
8496,-11.718750
8497,-11.718750
8498,-11.718750
8499,-11.718750
8500,-11.718750
8501,-11.718750
8502,-11.718750
8503,-15.625000
8504,-15.625000
8505,-15.625000
8506,-15.625000
8507,-15.625000
8508,-15.625000
8509,-15.625000
8510,-15.625000
8511,-19.531250
8512,-15.625000
8513,-19.531250
8514,-19.531250
8515,-19.531250
8516,-19.531250
8517,-19.531250
8518,-19.531250
8519,-19.531250
8520,-19.531250
8521,-19.531250
8522,-23.437500
8523,-23.437500
8524,-23.437500
8525,-23.437500
8526,-23.437500
8527,-23.437500
8528,-23.437500
8529,-23.437500
8530,-23.437500
8531,-23.437500
8532,-27.343750
8533,-27.343750
8534,-27.343750
8535,-27.343750
8536,-27.343750
8537,-27.343750
8538,-27.343750
8539,-27.343750
8540,-27.343750
8541,-31.250000
8542,-31.250000
8543,-31.250000
8544,-31.250000
8545,-31.250000
8546,-31.250000
8547,-31.250000
8548,-31.250000
8549,-31.250000
8550,-31.250000
8551,-31.250000
8552,-35.156250
8553,-35.156250
8554,-35.156250
8555,-35.156250
8556,-35.156250
8557,-35.156250
8558,-35.156250
8559,-35.156250
8560,-39.062500
8561,-39.062500
8562,-39.062500
8563,-39.062500
8564,-39.062500
8565,-39.062500
8566,-39.062500
8567,-39.062500
8568,-39.062500
8569,-42.968750
8570,-39.062500
8571,-42.968750
8572,-42.968750
8573,-42.968750
8574,-42.968750
8575,-42.968750
8576,-42.968750
8577,-42.968750
8578,-42.968750
8579,-42.968750
8580,-46.875000
8581,-46.875000
8582,-46.875000
8583,-46.875000
8584,-46.875000
8585,-46.875000
8586,-46.875000
8587,-46.875000
8588,-46.875000
8589,-46.875000
8590,-46.875000
8591,-50.781250
8592,-50.781250
8593,-50.781250
8594,-50.781250
8595,-50.781250
8596,-50.781250
8597,-50.781250
8598,-50.781250
8599,-50.781250
8600,-54.687500
8601,-54.687500
8602,-54.687500
8603,-54.687500
8604,-54.687500
8605,-54.687500
8606,-54.687500
8607,-54.687500
8608,-54.687500
8609,-54.687500
8610,-54.687500
8611,-58.593750
8612,-58.593750
8613,-54.687500
8614,-58.593750
8615,-58.593750
8616,-58.593750
8617,-58.593750
8618,-58.593750
8619,-58.593750
8620,-58.593750
8621,-58.593750
8622,-62.500000
8623,-62.500000
8624,-62.500000
8625,-62.500000
8626,-62.500000
8627,-62.500000
8628,-62.500000
8629,-62.500000
8630,-62.500000
8631,-62.500000
8632,-62.500000
8633,-62.500000
8634,-62.500000
8635,-66.406250
8636,-66.406250
8637,-62.500000
8638,-66.406250
8639,-66.406250
8640,-66.406250
8641,-66.406250
8642,-66.406250
8643,-66.406250
8644,-66.406250
8645,-66.406250
8646,-66.406250
8647,-66.406250
8648,-66.406250
8649,-66.406250
8650,-70.312500
8651,-70.312500
8652,-70.312500
8653,-70.312500
8654,-70.312500
8655,-70.312500
8656,-70.312500
8657,-70.312500
8658,-70.312500
8659,-70.312500
8660,-70.312500
8661,-70.312500
8662,-70.312500
8663,-70.312500
8664,-70.312500
8665,-70.312500
8666,-70.312500
8667,-70.312500
8668,-74.218750
8669,-74.218750
8670,-74.218750
8671,-74.218750
8672,-74.218750
8673,-70.312500
8674,-74.218750
8675,-74.218750
8676,-74.218750
8677,-74.218750
8678,-74.218750
8679,-74.218750
8680,-74.218750
8681,-74.218750
8682,-74.218750
8683,-74.218750
8684,-74.218750
8685,-74.218750
8686,-74.218750
8687,-74.218750
8688,-74.218750
8689,-78.125000
8690,-78.125000
8691,-78.125000
8692,-78.125000
8693,-78.125000
8694,-78.125000
8695,-78.125000
8696,-78.125000
8697,-78.125000
8698,-78.125000
8699,-78.125000
8700,-78.125000
8701,-78.125000
8702,-78.125000
8703,-78.125000
8704,-78.125000
8705,-78.125000
8706,-78.125000
8707,-78.125000
8708,-78.125000
8709,-78.125000
8710,-78.125000
8711,-78.125000
8712,-78.125000
8713,-78.125000
8714,-78.125000
8715,-78.125000
8716,-78.125000
8717,-78.125000
8718,-78.125000
8719,-78.125000
8720,-78.125000
8721,-78.125000
8722,-78.125000
8723,-78.125000
8724,-78.125000
8725,-78.125000
8726,-78.125000
8727,-78.125000
8728,-78.125000
8729,-78.125000
8730,-78.125000
8731,-78.125000
8732,-82.031250
8733,-82.031250
8734,-82.031250
8735,-78.125000
8736,-78.125000
8737,-78.125000
8738,-82.031250
8739,-82.031250
8740,-78.125000
8741,-78.125000
8742,-82.031250
8743,-78.125000
8744,-82.031250
8745,-82.031250
8746,-82.031250
8747,-78.125000
8748,-78.125000
8749,-78.125000
8750,-78.125000
8751,-82.031250
8752,-82.031250
8753,-78.125000
8754,-82.031250
8755,-78.125000
8756,-82.031250
8757,-82.031250
8758,-78.125000
8759,-82.031250
8760,-82.031250
8761,-78.125000
8762,-78.125000
8763,-82.031250
8764,-82.031250
8765,-78.125000
8766,-82.031250
8767,-78.125000
8768,-78.125000
8769,-78.125000
8770,-78.125000
8771,-78.125000
8772,-78.125000
8773,-78.125000
8774,-78.125000
8775,-78.125000
8776,-78.125000
8777,-78.125000
8778,-78.125000
8779,-78.125000
8780,-78.125000
8781,-78.125000
8782,-78.125000
8783,-78.125000
8784,-78.125000
8785,-78.125000
8786,-78.125000
8787,-78.125000
8788,-78.125000
8789,-78.125000
8790,-74.218750
8791,-74.218750
8792,-74.218750
8793,-74.218750
8794,-74.218750
8795,-74.218750
8796,-74.218750
8797,-74.218750
8798,-74.218750
8799,-74.218750
8800,-74.218750
8801,-74.218750
8802,-74.218750
8803,-74.218750
8804,-74.218750
8805,-74.218750
8806,-74.218750
8807,-74.218750
8808,-74.218750
8809,-74.218750
8810,-74.218750
8811,-74.218750
8812,-74.218750
8813,-70.312500
8814,-70.312500
8815,-70.312500
8816,-70.312500
8817,-70.312500
8818,-70.312500
8819,-70.312500
8820,-70.312500
8821,-70.312500
8822,-70.312500
8823,-70.312500
8824,-70.312500
8825,-70.312500
8826,-70.312500
8827,-70.312500
8828,-70.312500
8829,-70.312500
8830,-70.312500
8831,-70.312500
8832,-70.312500
8833,-66.406250
8834,-66.406250
8835,-66.406250
8836,-66.406250
8837,-66.406250
8838,-66.406250
8839,-66.406250
8840,-66.406250
8841,-66.406250
8842,-66.406250
8843,-66.406250
8844,-66.406250
8845,-66.406250
8846,-66.406250
8847,-62.500000
8848,-62.500000
8849,-62.500000
8850,-62.500000
8851,-62.500000
8852,-62.500000
8853,-62.500000
8854,-62.500000
8855,-62.500000
8856,-62.500000
8857,-62.500000
8858,-62.500000
8859,-58.593750
8860,-62.500000
8861,-62.500000
8862,-58.593750
8863,-58.593750
8864,-58.593750
8865,-58.593750
8866,-58.593750
8867,-58.593750
8868,-58.593750
8869,-58.593750
8870,-58.593750
8871,-58.593750
8872,-54.687500
8873,-54.687500
8874,-54.687500
8875,-54.687500
8876,-54.687500
8877,-54.687500
8878,-54.687500
8879,-54.687500
8880,-54.687500
8881,-54.687500
8882,-54.687500
8883,-54.687500
8884,-54.687500
8885,-50.781250
8886,-50.781250
8887,-50.781250
8888,-50.781250
8889,-50.781250
8890,-50.781250
8891,-50.781250
8892,-50.781250
8893,-50.781250
8894,-50.781250
8895,-46.875000
8896,-46.875000
8897,-46.875000
8898,-46.875000
8899,-46.875000
8900,-46.875000
8901,-46.875000
8902,-46.875000
8903,-46.875000
8904,-46.875000
8905,-42.968750
8906,-42.968750
8907,-46.875000
8908,-42.968750
8909,-42.968750
8910,-42.968750
8911,-42.968750
8912,-42.968750
8913,-42.968750
8914,-39.062500
8915,-39.062500
8916,-39.062500
8917,-39.062500
8918,-39.062500
8919,-39.062500
8920,-39.062500
8921,-39.062500
8922,-39.062500
8923,-39.062500
8924,-39.062500
8925,-35.156250
8926,-35.156250
8927,-35.156250
8928,-35.156250
8929,-35.156250
8930,-35.156250
8931,-35.156250
8932,-35.156250
8933,-35.156250
8934,-31.250000
8935,-31.250000
8936,-31.250000
8937,-31.250000
8938,-31.250000
8939,-31.250000
8940,-31.250000
8941,-31.250000
8942,-31.250000
8943,-27.343750
8944,-27.343750
8945,-27.343750
8946,-27.343750
8947,-27.343750
8948,-27.343750
8949,-27.343750
8950,-27.343750
8951,-27.343750
8952,-27.343750
8953,-23.437500
8954,-23.437500
8955,-23.437500
8956,-23.437500
8957,-23.437500
8958,-23.437500
8959,-23.437500
8960,-23.437500
8961,-23.437500
8962,-19.531250
8963,-19.531250
8964,-19.531250
8965,-19.531250
8966,-19.531250
8967,-19.531250
8968,-19.531250
8969,-19.531250
8970,-19.531250
8971,-19.531250
8972,-15.625000
8973,-15.625000
8974,-15.625000
8975,-15.625000
8976,-15.625000
8977,-15.625000
8978,-15.625000
8979,-15.625000
8980,-11.718750
8981,-15.625000
8982,-11.718750
8983,-11.718750
8984,-11.718750
8985,-11.718750
8986,-11.718750
8987,-11.718750
8988,-11.718750
8989,-11.718750
8990,-11.718750
8991,-11.718750
8992,-7.812500
8993,-7.812500
8994,-7.812500
8995,-7.812500
8996,-7.812500
8997,-7.812500
8998,-7.812500
8999,-7.812500
9000,-7.812500
9001,-3.906250
9002,-3.906250
9003,-3.906250
9004,-3.906250
9005,-3.906250
9006,-3.906250
9007,-3.906250
9008,-3.906250
9009,-3.906250
9010,0.000000
9011,0.000000
9012,0.000000
9013,0.000000
9014,0.000000
9015,0.000000
9016,0.000000
9017,0.000000
9018,0.000000
9019,0.000000
9020,3.906250
9021,0.000000
9022,3.906250
9023,3.906250
9024,3.906250
9025,3.906250
9026,3.906250
9027,3.906250
9028,3.906250
9029,7.812500
9030,7.812500
9031,7.812500
9032,7.812500
9033,7.812500
9034,7.812500
9035,7.812500
9036,7.812500
9037,7.812500
9038,7.812500
9039,11.718750
9040,11.718750
9041,11.718750
9042,11.718750
9043,11.718750
9044,11.718750
9045,11.718750
9046,11.718750
9047,11.718750
9048,11.718750
9049,15.625000
9050,15.625000
9051,15.625000
9052,15.625000
9053,15.625000
9054,15.625000
9055,15.625000
9056,15.625000
9057,15.625000
9058,15.625000
9059,15.625000
9060,19.531250
9061,19.531250
9062,19.531250
9063,19.531250
9064,19.531250
9065,19.531250
9066,19.531250
9067,19.531250
9068,19.531250
9069,19.531250
9070,19.531250
9071,23.437500
9072,23.437500
9073,23.437500
9074,23.437500
9075,23.437500
9076,23.437500
9077,23.437500
9078,23.437500
9079,23.437500
9080,23.437500
9081,23.437500
9082,23.437500
9083,23.437500
9084,27.343750
9085,27.343750
9086,27.343750
9087,27.343750
9088,27.343750
9089,27.343750
9090,27.343750
9091,27.343750
9092,27.343750
9093,31.250000
9094,31.250000
9095,31.250000
9096,31.250000
9097,27.343750
9098,31.250000
9099,31.250000
9100,31.250000
9101,31.250000
9102,35.156250
9103,31.250000
9104,31.250000
9105,31.250000
9106,31.250000
9107,35.156250
9108,31.250000
9109,35.156250
9110,35.156250
9111,35.156250
9112,35.156250
9113,35.156250
9114,35.156250
9115,35.156250
9116,35.156250
9117,35.156250
9118,35.156250
9119,35.156250
9120,35.156250
9121,35.156250
9122,35.156250
9123,35.156250
9124,39.062500
9125,35.156250
9126,39.062500
9127,39.062500
9128,39.062500
9129,39.062500
9130,39.062500
9131,39.062500
9132,39.062500
9133,39.062500
9134,39.062500
9135,39.062500
9136,39.062500
9137,39.062500
9138,39.062500
9139,39.062500
9140,42.968750
9141,42.968750
9142,42.968750
9143,42.968750
9144,42.968750
9145,42.968750
9146,42.968750
9147,42.968750
9148,42.968750
9149,42.968750
9150,42.968750
9151,42.968750
9152,42.968750
9153,42.968750
9154,42.968750
9155,42.968750
9156,42.968750
9157,42.968750
9158,42.968750
9159,42.968750
9160,46.875000
9161,46.875000
9162,46.875000
9163,46.875000
9164,46.875000
9165,46.875000
9166,46.875000
9167,46.875000
9168,46.875000
9169,46.875000
9170,46.875000
9171,46.875000
9172,46.875000
9173,46.875000
9174,46.875000
9175,46.875000
9176,46.875000
9177,46.875000
9178,46.875000
9179,46.875000
9180,50.781250
9181,50.781250
9182,50.781250
9183,50.781250
9184,50.781250
9185,50.781250
9186,50.781250
9187,50.781250
9188,50.781250
9189,50.781250
9190,50.781250
9191,50.781250
9192,50.781250
9193,50.781250
9194,50.781250
9195,50.781250
9196,50.781250
9197,50.781250
9198,50.781250
9199,50.781250
9200,50.781250
9201,50.781250
9202,50.781250
9203,50.781250
9204,50.781250
9205,50.781250
9206,50.781250
9207,50.781250
9208,50.781250
9209,50.781250
9210,50.781250
9211,50.781250
9212,50.781250
9213,50.781250
9214,50.781250
9215,50.781250
9216,50.781250
9217,54.687500
9218,50.781250
9219,50.781250
9220,50.781250
9221,54.687500
9222,50.781250
9223,50.781250
9224,54.687500
9225,50.781250
9226,54.687500
9227,54.687500
9228,54.687500
9229,54.687500
9230,50.781250
9231,50.781250
9232,50.781250
9233,50.781250
9234,54.687500
9235,54.687500
9236,54.687500
9237,54.687500
9238,50.781250
9239,54.687500
9240,50.781250
9241,50.781250
9242,50.781250
9243,54.687500
9244,50.781250
9245,50.781250
9246,54.687500
9247,50.781250
9248,54.687500
9249,50.781250
9250,50.781250
9251,50.781250
9252,50.781250
9253,50.781250
9254,50.781250
9255,50.781250
9256,54.687500
9257,54.687500
9258,50.781250
9259,50.781250
9260,50.781250
9261,50.781250
9262,50.781250
9263,50.781250
9264,50.781250
9265,50.781250
9266,50.781250
9267,50.781250
9268,50.781250
9269,50.781250
9270,50.781250
9271,50.781250
9272,50.781250
9273,50.781250
9274,50.781250
9275,50.781250
9276,50.781250
9277,50.781250
9278,50.781250
9279,50.781250
9280,50.781250
9281,50.781250
9282,50.781250
9283,50.781250
9284,50.781250
9285,50.781250
9286,50.781250
9287,50.781250
9288,50.781250
9289,50.781250
9290,50.781250
9291,50.781250
9292,50.781250
9293,46.875000
9294,46.875000
9295,50.781250
9296,50.781250
9297,46.875000
9298,50.781250
9299,46.875000
9300,46.875000
9301,46.875000
9302,46.875000
9303,46.875000
9304,46.875000
9305,46.875000
9306,46.875000
9307,46.875000
9308,46.875000
9309,46.875000
9310,46.875000
9311,46.875000
9312,46.875000
9313,46.875000
9314,46.875000
9315,46.875000
9316,42.968750
9317,46.875000
9318,42.968750
9319,46.875000
9320,46.875000
9321,46.875000
9322,46.875000
9323,42.968750
9324,42.968750
9325,42.968750
9326,42.968750
9327,42.968750
9328,42.968750
9329,42.968750
9330,42.968750
9331,42.968750
9332,42.968750
9333,42.968750
9334,42.968750
9335,42.968750
9336,42.968750
9337,39.062500
9338,39.062500
9339,39.062500
9340,39.062500
9341,39.062500
9342,39.062500
9343,39.062500
9344,39.062500
9345,39.062500
9346,39.062500
9347,39.062500
9348,39.062500
9349,39.062500
9350,39.062500
9351,39.062500
9352,39.062500
9353,39.062500
9354,39.062500
9355,39.062500
9356,35.156250
9357,35.156250
9358,35.156250
9359,35.156250
9360,35.156250
9361,35.156250
9362,35.156250
9363,35.156250
9364,35.156250
9365,35.156250
9366,35.156250
9367,35.156250
9368,35.156250
9369,31.250000
9370,31.250000
9371,31.250000
9372,31.250000
9373,31.250000
9374,31.250000
9375,31.250000
9376,31.250000
9377,31.250000
9378,31.250000
9379,31.250000
9380,27.343750
9381,27.343750
9382,27.343750
9383,27.343750
9384,27.343750
9385,27.343750
9386,27.343750
9387,27.343750
9388,27.343750
9389,27.343750
9390,27.343750
9391,27.343750
9392,23.437500
9393,23.437500
9394,23.437500
9395,23.437500
9396,23.437500
9397,23.437500
9398,23.437500
9399,23.437500
9400,23.437500
9401,23.437500
9402,23.437500
9403,23.437500
9404,19.531250
9405,19.531250
9406,19.531250
9407,19.531250
9408,19.531250
9409,19.531250
9410,19.531250
9411,19.531250
9412,19.531250
9413,19.531250
9414,19.531250
9415,15.625000
9416,15.625000
9417,15.625000
9418,15.625000
9419,15.625000
9420,15.625000
9421,15.625000
9422,15.625000
9423,15.625000
9424,15.625000
9425,15.625000
9426,15.625000
9427,15.625000
9428,11.718750
9429,11.718750
9430,11.718750
9431,11.718750
9432,11.718750
9433,11.718750
9434,11.718750
9435,11.718750
9436,15.625000
9437,7.812500
9438,7.812500
9439,7.812500
9440,7.812500
9441,7.812500
9442,7.812500
9443,7.812500
9444,7.812500
9445,7.812500
9446,7.812500
9447,3.906250
9448,3.906250
9449,3.906250
9450,3.906250
9451,3.906250
9452,3.906250
9453,3.906250
9454,3.906250
9455,3.906250
9456,3.906250
9457,0.000000
9458,0.000000
9459,0.000000
9460,0.000000
9461,0.000000
9462,0.000000
9463,0.000000
9464,0.000000
9465,0.000000
9466,0.000000
9467,-3.906250
9468,-3.906250
9469,-3.906250
9470,-3.906250
9471,-3.906250
9472,-3.906250
9473,-3.906250
9474,-7.812500
9475,-7.812500
9476,-7.812500
9477,-7.812500
9478,-7.812500
9479,-7.812500
9480,-7.812500
9481,-7.812500
9482,-7.812500
9483,-7.812500
9484,-11.718750
9485,-11.718750
9486,-11.718750
9487,-11.718750
9488,-11.718750
9489,-11.718750
9490,-11.718750
9491,-11.718750
9492,-15.625000
9493,-15.625000
9494,-15.625000
9495,-15.625000
9496,-15.625000
9497,-15.625000
9498,-15.625000
9499,-15.625000
9500,-15.625000
9501,-15.625000
9502,-15.625000
9503,-19.531250
9504,-19.531250
9505,-19.531250
9506,-19.531250
9507,-19.531250
9508,-19.531250
9509,-19.531250
9510,-19.531250
9511,-23.437500
9512,-23.437500
9513,-23.437500
9514,-23.437500
9515,-23.437500
9516,-23.437500
9517,-23.437500
9518,-23.437500
9519,-23.437500
9520,-23.437500
9521,-27.343750
9522,-27.343750
9523,-27.343750
9524,-27.343750
9525,-27.343750
9526,-27.343750
9527,-27.343750
9528,-27.343750
9529,-27.343750
9530,-31.250000
9531,-31.250000
9532,-31.250000
9533,-31.250000
9534,-31.250000
9535,-31.250000
9536,-35.156250
9537,-31.250000
9538,-31.250000
9539,-31.250000
9540,-35.156250
9541,-35.156250
9542,-35.156250
9543,-35.156250
9544,-35.156250
9545,-35.156250
9546,-35.156250
9547,-39.062500
9548,-35.156250
9549,-39.062500
9550,-39.062500
9551,-39.062500
9552,-39.062500
9553,-39.062500
9554,-39.062500
9555,-39.062500
9556,-39.062500
9557,-39.062500
9558,-39.062500
9559,-39.062500
9560,-42.968750
9561,-42.968750
9562,-42.968750
9563,-42.968750
9564,-42.968750
9565,-42.968750
9566,-42.968750
9567,-42.968750
9568,-42.968750
9569,-42.968750
9570,-46.875000
9571,-46.875000
9572,-46.875000
9573,-46.875000
9574,-46.875000
9575,-46.875000
9576,-46.875000
9577,-46.875000
9578,-46.875000
9579,-46.875000
9580,-46.875000
9581,-50.781250
9582,-50.781250
9583,-50.781250
9584,-50.781250
9585,-50.781250
9586,-50.781250
9587,-50.781250
9588,-50.781250
9589,-50.781250
9590,-50.781250
9591,-50.781250
9592,-54.687500
9593,-54.687500
9594,-54.687500
9595,-54.687500
9596,-54.687500
9597,-54.687500
9598,-54.687500
9599,-54.687500
9600,-54.687500
9601,-54.687500
9602,-54.687500
9603,-58.593750
9604,-58.593750
9605,-58.593750
9606,-58.593750
9607,-58.593750
9608,-58.593750
9609,-58.593750
9610,-58.593750
9611,-58.593750
9612,-62.500000
9613,-62.500000
9614,-58.593750
9615,-62.500000
9616,-62.500000
9617,-62.500000
9618,-62.500000
9619,-62.500000
9620,-62.500000
9621,-62.500000
9622,-62.500000
9623,-62.500000
9624,-62.500000
9625,-62.500000
9626,-62.500000
9627,-62.500000
9628,-66.406250
9629,-62.500000
9630,-66.406250
9631,-66.406250
9632,-66.406250
9633,-66.406250
9634,-66.406250
9635,-66.406250
9636,-66.406250
9637,-66.406250
9638,-66.406250
9639,-66.406250
9640,-66.406250
9641,-70.312500
9642,-70.312500
9643,-70.312500
9644,-70.312500
9645,-70.312500
9646,-70.312500
9647,-70.312500
9648,-70.312500
9649,-70.312500
9650,-70.312500
9651,-70.312500
9652,-70.312500
9653,-70.312500
9654,-70.312500
9655,-70.312500
9656,-70.312500
9657,-74.218750
9658,-74.218750
9659,-74.218750
9660,-70.312500
9661,-74.218750
9662,-70.312500
9663,-74.218750
9664,-74.218750
9665,-74.218750
9666,-74.218750
9667,-74.218750
9668,-74.218750
9669,-74.218750
9670,-74.218750
9671,-74.218750
9672,-74.218750
9673,-74.218750
9674,-74.218750
9675,-74.218750
9676,-74.218750
9677,-74.218750
9678,-74.218750
9679,-74.218750
9680,-74.218750
9681,-74.218750
9682,-78.125000
9683,-74.218750
9684,-78.125000
9685,-78.125000
9686,-78.125000
9687,-74.218750
9688,-78.125000
9689,-78.125000
9690,-78.125000
9691,-78.125000
9692,-78.125000
9693,-78.125000
9694,-78.125000
9695,-78.125000
9696,-78.125000
9697,-78.125000
9698,-78.125000
9699,-78.125000
9700,-78.125000
9701,-78.125000
9702,-78.125000
9703,-78.125000
9704,-78.125000
9705,-78.125000
9706,-78.125000
9707,-78.125000
9708,-78.125000
9709,-78.125000
9710,-78.125000
9711,-78.125000
9712,-78.125000
9713,-78.125000
9714,-78.125000
9715,-78.125000
9716,-78.125000
9717,-78.125000
9718,-78.125000
9719,-78.125000
9720,-78.125000
9721,-78.125000
9722,-78.125000
9723,-78.125000
9724,-78.125000
9725,-78.125000
9726,-78.125000
9727,-78.125000
9728,-78.125000
9729,-82.031250
9730,-78.125000
9731,-78.125000
9732,-78.125000
9733,-78.125000
9734,-78.125000
9735,-78.125000
9736,-78.125000
9737,-78.125000
9738,-82.031250
9739,-78.125000
9740,-78.125000
9741,-78.125000
9742,-78.125000
9743,-78.125000
9744,-78.125000
9745,-78.125000
9746,-78.125000
9747,-78.125000
9748,-78.125000
9749,-78.125000
9750,-78.125000
9751,-78.125000
9752,-78.125000
9753,-78.125000
9754,-78.125000
9755,-78.125000
9756,-78.125000
9757,-78.125000
9758,-78.125000
9759,-78.125000
9760,-78.125000
9761,-78.125000
9762,-78.125000
9763,-78.125000
9764,-78.125000
9765,-78.125000
9766,-78.125000
9767,-78.125000
9768,-78.125000
9769,-78.125000
9770,-78.125000
9771,-78.125000
9772,-78.125000
9773,-78.125000
9774,-78.125000
9775,-78.125000
9776,-78.125000
9777,-78.125000
9778,-78.125000
9779,-78.125000
9780,-78.125000
9781,-78.125000
9782,-74.218750
9783,-74.218750
9784,-74.218750
9785,-74.218750
9786,-74.218750
9787,-74.218750
9788,-74.218750
9789,-74.218750
9790,-74.218750
9791,-74.218750
9792,-74.218750
9793,-74.218750
9794,-74.218750
9795,-74.218750
9796,-74.218750
9797,-74.218750
9798,-74.218750
9799,-74.218750
9800,-74.218750
9801,-74.218750
9802,-74.218750
9803,-70.312500
9804,-70.312500
9805,-70.312500
9806,-70.312500
9807,-74.218750
9808,-70.312500
9809,-70.312500
9810,-70.312500
9811,-70.312500
9812,-70.312500
9813,-70.312500
9814,-70.312500
9815,-70.312500
9816,-70.312500
9817,-70.312500
9818,-70.312500
9819,-70.312500
9820,-70.312500
9821,-66.406250
9822,-66.406250
9823,-66.406250
9824,-66.406250
9825,-66.406250
9826,-66.406250
9827,-66.406250
9828,-66.406250
9829,-66.406250
9830,-66.406250
9831,-66.406250
9832,-66.406250
9833,-66.406250
9834,-66.406250
9835,-66.406250
9836,-62.500000
9837,-62.500000
9838,-62.500000
9839,-62.500000
9840,-62.500000
9841,-62.500000
9842,-62.500000
9843,-62.500000
9844,-62.500000
9845,-62.500000
9846,-62.500000
9847,-62.500000
9848,-58.593750
9849,-58.593750
9850,-62.500000
9851,-58.593750
9852,-58.593750
9853,-58.593750
9854,-58.593750
9855,-58.593750
9856,-58.593750
9857,-58.593750
9858,-58.593750
9859,-58.593750
9860,-58.593750
9861,-58.593750
9862,-54.687500
9863,-54.687500
9864,-54.687500
9865,-54.687500
9866,-54.687500
9867,-54.687500
9868,-54.687500
9869,-54.687500
9870,-54.687500
9871,-54.687500
9872,-50.781250
9873,-50.781250
9874,-50.781250
9875,-50.781250
9876,-50.781250
9877,-50.781250
9878,-50.781250
9879,-50.781250
9880,-50.781250
9881,-50.781250
9882,-50.781250
9883,-50.781250
9884,-46.875000
9885,-46.875000
9886,-46.875000
9887,-46.875000
9888,-46.875000
9889,-46.875000
9890,-46.875000
9891,-46.875000
9892,-46.875000
9893,-46.875000
9894,-42.968750
9895,-42.968750
9896,-42.968750
9897,-42.968750
9898,-42.968750
9899,-42.968750
9900,-42.968750
9901,-42.968750
9902,-42.968750
9903,-42.968750
9904,-42.968750
9905,-39.062500
9906,-39.062500
9907,-39.062500
9908,-39.062500
9909,-39.062500
9910,-39.062500
9911,-39.062500
9912,-39.062500
9913,-39.062500
9914,-39.062500
9915,-35.156250
9916,-35.156250
9917,-35.156250
9918,-35.156250
9919,-35.156250
9920,-35.156250
9921,-35.156250
9922,-35.156250
9923,-35.156250
9924,-31.250000
9925,-31.250000
9926,-31.250000
9927,-31.250000
9928,-31.250000
9929,-31.250000
9930,-31.250000
9931,-31.250000
9932,-31.250000
9933,-31.250000
9934,-31.250000
9935,-27.343750
9936,-27.343750
9937,-27.343750
9938,-27.343750
9939,-27.343750
9940,-27.343750
9941,-27.343750
9942,-27.343750
9943,-27.343750
9944,-23.437500
9945,-23.437500
9946,-23.437500
9947,-23.437500
9948,-23.437500
9949,-23.437500
9950,-23.437500
9951,-23.437500
9952,-23.437500
9953,-19.531250
9954,-19.531250
9955,-19.531250
9956,-19.531250
9957,-19.531250
9958,-19.531250
9959,-19.531250
9960,-19.531250
9961,-15.625000
9962,-15.625000
9963,-15.625000
9964,-15.625000
9965,-15.625000
9966,-15.625000
9967,-15.625000
9968,-15.625000
9969,-11.718750
9970,-15.625000
9971,-11.718750
9972,-11.718750
9973,-11.718750
9974,-11.718750
9975,-11.718750
9976,-11.718750
9977,-11.718750
9978,-11.718750
9979,-11.718750
9980,-11.718750
9981,-7.812500
9982,-7.812500
9983,-7.812500
9984,-7.812500
9985,-7.812500
9986,-7.812500
9987,-7.812500
9988,-7.812500
9989,-3.906250
9990,-3.906250
9991,-3.906250
9992,-3.906250
9993,-3.906250
9994,-3.906250
9995,-3.906250
9996,-3.906250
9997,-3.906250
9998,-3.906250
9999,-3.906250
10000,0.000000
