Channel              :,CH1
Frequency            :,1.010kHz
Period               :,0.990ms
PK-PK                :,171.9mV
Probe attenuation    :,1X
Voltage per ADC value:,0.244141mV
Time interval        :,1.00000us

index,CH1_Voltage(mV)
1,-50.781250
2,-50.781250
3,-50.781250
4,-46.875000
5,-46.875000
6,-46.875000
7,-46.875000
8,-46.875000
9,-42.968750
10,-42.968750
11,-42.968750
12,-42.968750
13,-42.968750
14,-42.968750
15,-42.968750
16,-42.968750
17,-42.968750
18,-39.062500
19,-39.062500
20,-39.062500
21,-39.062500
22,-39.062500
23,-39.062500
24,-39.062500
25,-35.156250
26,-35.156250
27,-35.156250
28,-35.156250
29,-35.156250
30,-35.156250
31,-35.156250
32,-35.156250
33,-31.250000
34,-31.250000
35,-31.250000
36,-31.250000
37,-31.250000
38,-31.250000
39,-31.250000
40,-31.250000
41,-27.343750
42,-27.343750
43,-27.343750
44,-27.343750
45,-27.343750
46,-27.343750
47,-27.343750
48,-27.343750
49,-23.437500
50,-23.437500
51,-23.437500
52,-23.437500
53,-23.437500
54,-23.437500
55,-23.437500
56,-19.531250
57,-19.531250
58,-19.531250
59,-19.531250
60,-19.531250
61,-15.625000
62,-15.625000
63,-15.625000
64,-15.625000
65,-15.625000
66,-15.625000
67,-15.625000
68,-15.625000
69,-15.625000
70,-15.625000
71,-11.718750
72,-11.718750
73,-11.718750
74,-11.718750
75,-11.718750
76,-11.718750
77,-11.718750
78,-7.812500
79,-7.812500
80,-7.812500
81,-7.812500
82,-7.812500
83,-7.812500
84,-7.812500
85,-3.906250
86,-3.906250
87,-3.906250
88,-3.906250
89,-3.906250
90,-3.906250
91,-3.906250
92,0.000000
93,0.000000
94,0.000000
95,0.000000
96,0.000000
97,0.000000
98,0.000000
99,3.906250
100,3.906250
101,3.906250
102,3.906250
103,3.906250
104,3.906250
105,3.906250
106,7.812500
107,7.812500
108,7.812500
109,7.812500
110,7.812500
111,7.812500
112,7.812500
113,11.718750
114,11.718750
115,11.718750
116,11.718750
117,11.718750
118,11.718750
119,11.718750
120,11.718750
121,11.718750
122,15.625000
123,15.625000
124,15.625000
125,15.625000
126,15.625000
127,15.625000
128,15.625000
129,15.625000
130,19.531250
131,19.531250
132,19.531250
133,19.531250
134,19.531250
135,19.531250
136,19.531250
137,19.531250
138,19.531250
139,23.437500
140,23.437500
141,23.437500
142,23.437500
143,23.437500
144,23.437500
145,23.437500
146,27.343750
147,27.343750
148,27.343750
149,27.343750
150,27.343750
151,27.343750
152,27.343750
153,27.343750
154,27.343750
155,31.250000
156,31.250000
157,31.250000
158,31.250000
159,31.250000
160,31.250000
161,31.250000
162,31.250000
163,31.250000
164,35.156250
165,35.156250
166,35.156250
167,35.156250
168,35.156250
169,35.156250
170,35.156250
171,39.062500
172,35.156250
173,35.156250
174,39.062500
175,39.062500
176,39.062500
177,39.062500
178,39.062500
179,39.062500
180,39.062500
181,39.062500
182,39.062500
183,39.062500
184,42.968750
185,42.968750
186,42.968750
187,42.968750
188,42.968750
189,42.968750
190,42.968750
191,46.875000
192,42.968750
193,42.968750
194,46.875000
195,46.875000
196,46.875000
197,46.875000
198,46.875000
199,46.875000
200,46.875000
201,46.875000
202,46.875000
203,46.875000
204,46.875000
205,46.875000
206,50.781250
207,50.781250
208,50.781250
209,50.781250
210,50.781250
211,50.781250
212,50.781250
213,50.781250
214,50.781250
215,50.781250
216,50.781250
217,50.781250
218,50.781250
219,54.687500
220,54.687500
221,54.687500
222,54.687500
223,54.687500
224,54.687500
225,54.687500
226,54.687500
227,54.687500
228,54.687500
229,54.687500
230,54.687500
231,54.687500
232,58.593750
233,54.687500
234,58.593750
235,58.593750
236,58.593750
237,58.593750
238,58.593750
239,58.593750
240,58.593750
241,58.593750
242,58.593750
243,58.593750
244,58.593750
245,58.593750
246,58.593750
247,62.500000
248,62.500000
249,62.500000
250,62.500000
251,62.500000
252,62.500000
253,62.500000
254,62.500000
255,62.500000
256,62.500000
257,62.500000
258,62.500000
259,62.500000
260,62.500000
261,62.500000
262,62.500000
263,62.500000
264,62.500000
265,66.406250
266,66.406250
267,66.406250
268,62.500000
269,66.406250
270,62.500000
271,66.406250
272,66.406250
273,66.406250
274,66.406250
275,66.406250
276,66.406250
277,66.406250
278,66.406250
279,66.406250
280,66.406250
281,66.406250
282,66.406250
283,66.406250
284,66.406250
285,66.406250
286,66.406250
287,70.312500
288,66.406250
289,66.406250
290,66.406250
291,66.406250
292,66.406250
293,66.406250
294,66.406250
295,70.312500
296,70.312500
297,70.312500
298,66.406250
299,70.312500
300,70.312500
301,70.312500
302,70.312500
303,66.406250
304,66.406250
305,70.312500
306,70.312500
307,70.312500
308,70.312500
309,70.312500
310,70.312500
311,70.312500
312,70.312500
313,70.312500
314,70.312500
315,70.312500
316,66.406250
317,70.312500
318,70.312500
319,70.312500
320,70.312500
321,70.312500
322,70.312500
323,70.312500
324,70.312500
325,70.312500
326,70.312500
327,70.312500
328,70.312500
329,70.312500
330,66.406250
331,70.312500
332,70.312500
333,70.312500
334,70.312500
335,70.312500
336,70.312500
337,70.312500
338,70.312500
339,70.312500
340,70.312500
341,66.406250
342,66.406250
343,70.312500
344,66.406250
345,66.406250
346,66.406250
347,66.406250
348,66.406250
349,70.312500
350,66.406250
351,66.406250
352,66.406250
353,66.406250
354,70.312500
355,70.312500
356,66.406250
357,66.406250
358,66.406250
359,66.406250
360,66.406250
361,66.406250
362,66.406250
363,66.406250
364,66.406250
365,66.406250
366,66.406250
367,66.406250
368,66.406250
369,66.406250
370,66.406250
371,66.406250
372,66.406250
373,66.406250
374,66.406250
375,66.406250
376,66.406250
377,66.406250
378,66.406250
379,66.406250
380,66.406250
381,62.500000
382,62.500000
383,66.406250
384,66.406250
385,62.500000
386,62.500000
387,62.500000
388,62.500000
389,62.500000
390,62.500000
391,62.500000
392,62.500000
393,62.500000
394,62.500000
395,62.500000
396,62.500000
397,62.500000
398,62.500000
399,62.500000
400,62.500000
401,62.500000
402,62.500000
403,62.500000
404,58.593750
405,58.593750
406,58.593750
407,58.593750
408,58.593750
409,62.500000
410,58.593750
411,58.593750
412,58.593750
413,58.593750
414,58.593750
415,58.593750
416,58.593750
417,58.593750
418,58.593750
419,58.593750
420,58.593750
421,54.687500
422,54.687500
423,54.687500
424,54.687500
425,54.687500
426,54.687500
427,54.687500
428,54.687500
429,54.687500
430,54.687500
431,54.687500
432,50.781250
433,50.781250
434,50.781250
435,50.781250
436,50.781250
437,50.781250
438,50.781250
439,50.781250
440,50.781250
441,50.781250
442,50.781250
443,46.875000
444,50.781250
445,50.781250
446,50.781250
447,46.875000
448,46.875000
449,46.875000
450,46.875000
451,46.875000
452,46.875000
453,46.875000
454,46.875000
455,46.875000
456,46.875000
457,42.968750
458,42.968750
459,42.968750
460,42.968750
461,42.968750
462,42.968750
463,42.968750
464,42.968750
465,42.968750
466,42.968750
467,39.062500
468,39.062500
469,39.062500
470,39.062500
471,39.062500
472,39.062500
473,39.062500
474,39.062500
475,39.062500
476,39.062500
477,35.156250
478,35.156250
479,35.156250
480,35.156250
481,35.156250
482,35.156250
483,35.156250
484,35.156250
485,35.156250
486,31.250000
487,31.250000
488,31.250000
489,31.250000
490,31.250000
491,31.250000
492,31.250000
493,31.250000
494,27.343750
495,31.250000
496,31.250000
497,27.343750
498,27.343750
499,27.343750
500,27.343750
501,27.343750
502,27.343750
503,27.343750
504,23.437500
505,23.437500
506,23.437500
507,23.437500
508,23.437500
509,23.437500
510,23.437500
511,23.437500
512,23.437500
513,19.531250
514,19.531250
515,19.531250
516,19.531250
517,19.531250
518,19.531250
519,19.531250
520,19.531250
521,15.625000
522,15.625000
523,15.625000
524,15.625000
525,15.625000
526,15.625000
527,15.625000
528,15.625000
529,15.625000
530,11.718750
531,11.718750
532,11.718750
533,11.718750
534,11.718750
535,11.718750
536,11.718750
537,7.812500
538,7.812500
539,7.812500
540,7.812500
541,7.812500
542,7.812500
543,7.812500
544,7.812500
545,3.906250
546,3.906250
547,3.906250
548,3.906250
549,3.906250
550,3.906250
551,3.906250
552,0.000000
553,0.000000
554,0.000000
555,0.000000
556,0.000000
557,0.000000
558,0.000000
559,-3.906250
560,-3.906250
561,-3.906250
562,-3.906250
563,-3.906250
564,-3.906250
565,-3.906250
566,-7.812500
567,-3.906250
568,-7.812500
569,-7.812500
570,-7.812500
571,-7.812500
572,-7.812500
573,-7.812500
574,-7.812500
575,-11.718750
576,-11.718750
577,-11.718750
578,-11.718750
579,-11.718750
580,-11.718750
581,-15.625000
582,-15.625000
583,-15.625000
584,-15.625000
585,-15.625000
586,-15.625000
587,-15.625000
588,-19.531250
589,-19.531250
590,-19.531250
591,-19.531250
592,-19.531250
593,-19.531250
594,-19.531250
595,-19.531250
596,-23.437500
597,-23.437500
598,-23.437500
599,-23.437500
600,-23.437500
601,-23.437500
602,-27.343750
603,-27.343750
604,-27.343750
605,-27.343750
606,-27.343750
607,-27.343750
608,-27.343750
609,-27.343750
610,-27.343750
611,-31.250000
612,-31.250000
613,-31.250000
614,-31.250000
615,-31.250000
616,-31.250000
617,-35.156250
618,-35.156250
619,-35.156250
620,-35.156250
621,-35.156250
622,-35.156250
623,-35.156250
624,-35.156250
625,-39.062500
626,-39.062500
627,-39.062500
628,-39.062500
629,-39.062500
630,-39.062500
631,-39.062500
632,-39.062500
633,-42.968750
634,-42.968750
635,-42.968750
636,-42.968750
637,-42.968750
638,-42.968750
639,-42.968750
640,-46.875000
641,-46.875000
642,-46.875000
643,-46.875000
644,-46.875000
645,-46.875000
646,-46.875000
647,-50.781250
648,-50.781250
649,-50.781250
650,-50.781250
651,-50.781250
652,-50.781250
653,-50.781250
654,-50.781250
655,-50.781250
656,-54.687500
657,-54.687500
658,-54.687500
659,-54.687500
660,-54.687500
661,-54.687500
662,-54.687500
663,-54.687500
664,-54.687500
665,-58.593750
666,-58.593750
667,-58.593750
668,-58.593750
669,-58.593750
670,-58.593750
671,-58.593750
672,-58.593750
673,-62.500000
674,-62.500000
675,-62.500000
676,-62.500000
677,-62.500000
678,-62.500000
679,-62.500000
680,-62.500000
681,-62.500000
682,-66.406250
683,-66.406250
684,-66.406250
685,-66.406250
686,-66.406250
687,-66.406250
688,-66.406250
689,-70.312500
690,-70.312500
691,-70.312500
692,-70.312500
693,-70.312500
694,-70.312500
695,-70.312500
696,-70.312500
697,-70.312500
698,-70.312500
699,-70.312500
700,-74.218750
701,-74.218750
702,-74.218750
703,-70.312500
704,-74.218750
705,-74.218750
706,-74.218750
707,-74.218750
708,-78.125000
709,-78.125000
710,-78.125000
711,-78.125000
712,-78.125000
713,-78.125000
714,-78.125000
715,-78.125000
716,-78.125000
717,-82.031250
718,-82.031250
719,-78.125000
720,-82.031250
721,-78.125000
722,-82.031250
723,-82.031250
724,-82.031250
725,-82.031250
726,-82.031250
727,-82.031250
728,-82.031250
729,-82.031250
730,-82.031250
731,-85.937500
732,-85.937500
733,-85.937500
734,-85.937500
735,-85.937500
736,-85.937500
737,-85.937500
738,-85.937500
739,-85.937500
740,-85.937500
741,-85.937500
742,-89.843750
743,-89.843750
744,-89.843750
745,-89.843750
746,-89.843750
747,-89.843750
748,-89.843750
749,-89.843750
750,-89.843750
751,-89.843750
752,-89.843750
753,-89.843750
754,-89.843750
755,-89.843750
756,-93.750000
757,-93.750000
758,-89.843750
759,-93.750000
760,-93.750000
761,-93.750000
762,-93.750000
763,-93.750000
764,-93.750000
765,-93.750000
766,-93.750000
767,-93.750000
768,-93.750000
769,-93.750000
770,-93.750000
771,-93.750000
772,-93.750000
773,-93.750000
774,-97.656250
775,-93.750000
776,-93.750000
777,-93.750000
778,-93.750000
779,-97.656250
780,-97.656250
781,-97.656250
782,-97.656250
783,-97.656250
784,-97.656250
785,-97.656250
786,-97.656250
787,-97.656250
788,-97.656250
789,-97.656250
790,-97.656250
791,-97.656250
792,-97.656250
793,-97.656250
794,-97.656250
795,-97.656250
796,-97.656250
797,-97.656250
798,-97.656250
799,-97.656250
800,-97.656250
801,-97.656250
802,-97.656250
803,-97.656250
804,-97.656250
805,-97.656250
806,-97.656250
807,-97.656250
808,-97.656250
809,-97.656250
810,-97.656250
811,-97.656250
812,-97.656250
813,-97.656250
814,-97.656250
815,-97.656250
816,-97.656250
817,-97.656250
818,-97.656250
819,-97.656250
820,-97.656250
821,-97.656250
822,-97.656250
823,-97.656250
824,-97.656250
825,-97.656250
826,-97.656250
827,-97.656250
828,-97.656250
829,-97.656250
830,-97.656250
831,-97.656250
832,-97.656250
833,-97.656250
834,-97.656250
835,-97.656250
836,-97.656250
837,-97.656250
838,-97.656250
839,-97.656250
840,-97.656250
841,-97.656250
842,-97.656250
843,-97.656250
844,-97.656250
845,-97.656250
846,-97.656250
847,-97.656250
848,-97.656250
849,-97.656250
850,-97.656250
851,-97.656250
852,-97.656250
853,-97.656250
854,-97.656250
855,-97.656250
856,-97.656250
857,-97.656250
858,-93.750000
859,-97.656250
860,-97.656250
861,-97.656250
862,-93.750000
863,-93.750000
864,-93.750000
865,-93.750000
866,-93.750000
867,-93.750000
868,-97.656250
869,-93.750000
870,-93.750000
871,-93.750000
872,-93.750000
873,-93.750000
874,-93.750000
875,-93.750000
876,-93.750000
877,-93.750000
878,-93.750000
879,-89.843750
880,-93.750000
881,-89.843750
882,-93.750000
883,-89.843750
884,-89.843750
885,-89.843750
886,-93.750000
887,-89.843750
888,-89.843750
889,-89.843750
890,-89.843750
891,-89.843750
892,-89.843750
893,-89.843750
894,-89.843750
895,-89.843750
896,-89.843750
897,-85.937500
898,-85.937500
899,-85.937500
900,-85.937500
901,-85.937500
902,-85.937500
903,-85.937500
904,-85.937500
905,-85.937500
906,-85.937500
907,-85.937500
908,-85.937500
909,-85.937500
910,-82.031250
911,-82.031250
912,-82.031250
913,-82.031250
914,-82.031250
915,-82.031250
916,-82.031250
917,-82.031250
918,-82.031250
919,-82.031250
920,-82.031250
921,-82.031250
922,-78.125000
923,-78.125000
924,-78.125000
925,-78.125000
926,-78.125000
927,-78.125000
928,-78.125000
929,-78.125000
930,-78.125000
931,-74.218750
932,-78.125000
933,-74.218750
934,-74.218750
935,-74.218750
936,-74.218750
937,-74.218750
938,-74.218750
939,-74.218750
940,-74.218750
941,-74.218750
942,-70.312500
943,-70.312500
944,-74.218750
945,-70.312500
946,-70.312500
947,-70.312500
948,-70.312500
949,-70.312500
950,-70.312500
951,-66.406250
952,-70.312500
953,-66.406250
954,-66.406250
955,-66.406250
956,-66.406250
957,-66.406250
958,-66.406250
959,-66.406250
960,-66.406250
961,-66.406250
962,-66.406250
963,-62.500000
964,-62.500000
965,-62.500000
966,-62.500000
967,-62.500000
968,-62.500000
969,-58.593750
970,-58.593750
971,-58.593750
972,-58.593750
973,-58.593750
974,-58.593750
975,-58.593750
976,-58.593750
977,-58.593750
978,-58.593750
979,-54.687500
980,-54.687500
981,-54.687500
982,-54.687500
983,-54.687500
984,-54.687500
985,-54.687500
986,-54.687500
987,-50.781250
988,-50.781250
989,-50.781250
990,-50.781250
991,-50.781250
992,-50.781250
993,-50.781250
994,-46.875000
995,-46.875000
996,-46.875000
997,-46.875000
998,-46.875000
999,-46.875000
1000,-46.875000
1001,-46.875000
1002,-42.968750
1003,-42.968750
1004,-42.968750
1005,-42.968750
1006,-42.968750
1007,-42.968750
1008,-42.968750
1009,-42.968750
1010,-39.062500
1011,-39.062500
1012,-39.062500
1013,-39.062500
1014,-39.062500
1015,-39.062500
1016,-39.062500
1017,-35.156250
1018,-35.156250
1019,-35.156250
1020,-35.156250
1021,-35.156250
1022,-31.250000
1023,-35.156250
1024,-31.250000
1025,-31.250000
1026,-31.250000
1027,-31.250000
1028,-31.250000
1029,-31.250000
1030,-31.250000
1031,-31.250000
1032,-27.343750
1033,-27.343750
1034,-27.343750
1035,-27.343750
1036,-27.343750
1037,-27.343750
1038,-27.343750
1039,-23.437500
1040,-23.437500
1041,-23.437500
1042,-23.437500
1043,-23.437500
1044,-23.437500
1045,-19.531250
1046,-19.531250
1047,-19.531250
1048,-19.531250
1049,-19.531250
1050,-19.531250
1051,-19.531250
1052,-19.531250
1053,-15.625000
1054,-15.625000
1055,-15.625000
1056,-15.625000
1057,-15.625000
1058,-15.625000
1059,-15.625000
1060,-15.625000
1061,-11.718750
1062,-11.718750
1063,-11.718750
1064,-11.718750
1065,-11.718750
1066,-11.718750
1067,-7.812500
1068,-7.812500
1069,-7.812500
1070,-7.812500
1071,-7.812500
1072,-7.812500
1073,-7.812500
1074,-7.812500
1075,-3.906250
1076,-3.906250
1077,-3.906250
1078,-3.906250
1079,-3.906250
1080,-3.906250
1081,-3.906250
1082,0.000000
1083,0.000000
1084,0.000000
1085,0.000000
1086,0.000000
1087,0.000000
1088,0.000000
1089,3.906250
1090,3.906250
1091,3.906250
1092,3.906250
1093,3.906250
1094,3.906250
1095,3.906250
1096,3.906250
1097,7.812500
1098,7.812500
1099,7.812500
1100,7.812500
1101,7.812500
1102,7.812500
1103,7.812500
1104,7.812500
1105,7.812500
1106,11.718750
1107,11.718750
1108,11.718750
1109,11.718750
1110,11.718750
1111,15.625000
1112,11.718750
1113,15.625000
1114,15.625000
1115,15.625000
1116,15.625000
1117,15.625000
1118,15.625000
1119,15.625000
1120,15.625000
1121,19.531250
1122,19.531250
1123,19.531250
1124,19.531250
1125,19.531250
1126,19.531250
1127,19.531250
1128,19.531250
1129,19.531250
1130,23.437500
1131,23.437500
1132,23.437500
1133,23.437500
1134,23.437500
1135,23.437500
1136,23.437500
1137,23.437500
1138,23.437500
1139,27.343750
1140,27.343750
1141,27.343750
1142,27.343750
1143,27.343750
1144,27.343750
1145,27.343750
1146,31.250000
1147,31.250000
1148,31.250000
1149,31.250000
1150,31.250000
1151,31.250000
1152,31.250000
1153,31.250000
1154,31.250000
1155,31.250000
1156,35.156250
1157,35.156250
1158,35.156250
1159,35.156250
1160,35.156250
1161,35.156250
1162,35.156250
1163,35.156250
1164,35.156250
1165,35.156250
1166,35.156250
1167,39.062500
1168,39.062500
1169,39.062500
1170,39.062500
1171,39.062500
1172,42.968750
1173,39.062500
1174,39.062500
1175,42.968750
1176,42.968750
1177,42.968750
1178,42.968750
1179,42.968750
1180,42.968750
1181,42.968750
1182,42.968750
1183,42.968750
1184,42.968750
1185,46.875000
1186,46.875000
1187,46.875000
1188,46.875000
1189,46.875000
1190,46.875000
1191,46.875000
1192,46.875000
1193,46.875000
1194,46.875000
1195,50.781250
1196,46.875000
1197,50.781250
1198,50.781250
1199,50.781250
1200,50.781250
1201,50.781250
1202,50.781250
1203,50.781250
1204,50.781250
1205,50.781250
1206,50.781250
1207,50.781250
1208,54.687500
1209,54.687500
1210,54.687500
1211,54.687500
1212,54.687500
1213,54.687500
1214,54.687500
1215,54.687500
1216,54.687500
1217,54.687500
1218,54.687500
1219,54.687500
1220,54.687500
1221,54.687500
1222,54.687500
1223,54.687500
1224,58.593750
1225,58.593750
1226,58.593750
1227,58.593750
1228,58.593750
1229,58.593750
1230,58.593750
1231,58.593750
1232,58.593750
1233,58.593750
1234,58.593750
1235,58.593750
1236,58.593750
1237,62.500000
1238,58.593750
1239,62.500000
1240,62.500000
1241,62.500000
1242,62.500000
1243,62.500000
1244,62.500000
1245,62.500000
1246,62.500000
1247,62.500000
1248,62.500000
1249,62.500000
1250,62.500000
1251,62.500000
1252,62.500000
1253,62.500000
1254,62.500000
1255,66.406250
1256,66.406250
1257,66.406250
1258,62.500000
1259,62.500000
1260,62.500000
1261,62.500000
1262,62.500000
1263,66.406250
1264,66.406250
1265,66.406250
1266,66.406250
1267,66.406250
1268,66.406250
1269,66.406250
1270,66.406250
1271,66.406250
1272,66.406250
1273,66.406250
1274,66.406250
1275,66.406250
1276,66.406250
1277,66.406250
1278,66.406250
1279,66.406250
1280,66.406250
1281,66.406250
1282,66.406250
1283,70.312500
1284,66.406250
1285,70.312500
1286,66.406250
1287,66.406250
1288,66.406250
1289,66.406250
1290,70.312500
1291,70.312500
1292,70.312500
1293,70.312500
1294,70.312500
1295,70.312500
1296,70.312500
1297,70.312500
1298,66.406250
1299,70.312500
1300,70.312500
1301,70.312500
1302,70.312500
1303,70.312500
1304,70.312500
1305,70.312500
1306,70.312500
1307,70.312500
1308,70.312500
1309,70.312500
1310,70.312500
1311,70.312500
1312,70.312500
1313,70.312500
1314,70.312500
1315,70.312500
1316,70.312500
1317,70.312500
1318,70.312500
1319,70.312500
1320,70.312500
1321,70.312500
1322,70.312500
1323,70.312500
1324,70.312500
1325,70.312500
1326,70.312500
1327,70.312500
1328,70.312500
1329,70.312500
1330,70.312500
1331,70.312500
1332,70.312500
1333,70.312500
1334,70.312500
1335,70.312500
1336,70.312500
1337,66.406250
1338,70.312500
1339,66.406250
1340,70.312500
1341,70.312500
1342,70.312500
1343,70.312500
1344,70.312500
1345,70.312500
1346,70.312500
1347,66.406250
1348,66.406250
1349,66.406250
1350,66.406250
1351,66.406250
1352,66.406250
1353,66.406250
1354,66.406250
1355,66.406250
1356,66.406250
1357,66.406250
1358,66.406250
1359,66.406250
1360,66.406250
1361,66.406250
1362,66.406250
1363,66.406250
1364,66.406250
1365,66.406250
1366,66.406250
1367,66.406250
1368,66.406250
1369,66.406250
1370,66.406250
1371,66.406250
1372,62.500000
1373,62.500000
1374,62.500000
1375,62.500000
1376,62.500000
1377,62.500000
1378,62.500000
1379,62.500000
1380,62.500000
1381,62.500000
1382,62.500000
1383,62.500000
1384,62.500000
1385,62.500000
1386,62.500000
1387,62.500000
1388,62.500000
1389,62.500000
1390,62.500000
1391,62.500000
1392,62.500000
1393,58.593750
1394,58.593750
1395,58.593750
1396,58.593750
1397,58.593750
1398,58.593750
1399,58.593750
1400,58.593750
1401,58.593750
1402,58.593750
1403,58.593750
1404,58.593750
1405,58.593750
1406,58.593750
1407,58.593750
1408,58.593750
1409,58.593750
1410,54.687500
1411,54.687500
1412,54.687500
1413,54.687500
1414,54.687500
1415,54.687500
1416,54.687500
1417,54.687500
1418,54.687500
1419,54.687500
1420,54.687500
1421,54.687500
1422,54.687500
1423,54.687500
1424,54.687500
1425,50.781250
1426,50.781250
1427,50.781250
1428,50.781250
1429,50.781250
1430,50.781250
1431,50.781250
1432,50.781250
1433,50.781250
1434,50.781250
1435,50.781250
1436,50.781250
1437,50.781250
1438,46.875000
1439,46.875000
1440,46.875000
1441,46.875000
1442,46.875000
1443,46.875000
1444,46.875000
1445,46.875000
1446,46.875000
1447,46.875000
1448,46.875000
1449,46.875000
1450,42.968750
1451,42.968750
1452,42.968750
1453,42.968750
1454,42.968750
1455,42.968750
1456,42.968750
1457,42.968750
1458,42.968750
1459,42.968750
1460,42.968750
1461,39.062500
1462,39.062500
1463,39.062500
1464,39.062500
1465,39.062500
1466,39.062500
1467,39.062500
1468,39.062500
1469,39.062500
1470,35.156250
1471,35.156250
1472,35.156250
1473,35.156250
1474,35.156250
1475,35.156250
1476,35.156250
1477,31.250000
1478,31.250000
1479,31.250000
1480,31.250000
1481,31.250000
1482,31.250000
1483,31.250000
1484,31.250000
1485,27.343750
1486,27.343750
1487,27.343750
1488,27.343750
1489,27.343750
1490,27.343750
1491,27.343750
1492,27.343750
1493,27.343750
1494,27.343750
1495,23.437500
1496,23.437500
1497,23.437500
1498,23.437500
1499,23.437500
1500,23.437500
1501,23.437500
1502,23.437500
1503,23.437500
1504,19.531250
1505,19.531250
1506,19.531250
1507,19.531250
1508,19.531250
1509,19.531250
1510,19.531250
1511,15.625000
1512,15.625000
1513,15.625000
1514,15.625000
1515,15.625000
1516,15.625000
1517,15.625000
1518,11.718750
1519,11.718750
1520,11.718750
1521,11.718750
1522,11.718750
1523,11.718750
1524,11.718750
1525,11.718750
1526,11.718750
1527,7.812500
1528,7.812500
1529,7.812500
1530,7.812500
1531,7.812500
1532,7.812500
1533,7.812500
1534,7.812500
1535,3.906250
1536,3.906250
1537,3.906250
1538,3.906250
1539,3.906250
1540,3.906250
1541,3.906250
1542,3.906250
1543,0.000000
1544,0.000000
1545,0.000000
1546,0.000000
1547,0.000000
1548,0.000000
1549,0.000000
1550,-3.906250
1551,-3.906250
1552,-3.906250
1553,-3.906250
1554,-3.906250
1555,-3.906250
1556,-3.906250
1557,-3.906250
1558,-7.812500
1559,-7.812500
1560,-7.812500
1561,-7.812500
1562,-7.812500
1563,-7.812500
1564,-7.812500
1565,-7.812500
1566,-11.718750
1567,-11.718750
1568,-11.718750
1569,-11.718750
1570,-11.718750
1571,-11.718750
1572,-11.718750
1573,-15.625000
1574,-15.625000
1575,-15.625000
1576,-15.625000
1577,-15.625000
1578,-15.625000
1579,-15.625000
1580,-19.531250
1581,-19.531250
1582,-19.531250
1583,-19.531250
1584,-19.531250
1585,-23.437500
1586,-23.437500
1587,-19.531250
1588,-23.437500
1589,-23.437500
1590,-23.437500
1591,-23.437500
1592,-23.437500
1593,-23.437500
1594,-23.437500
1595,-27.343750
1596,-27.343750
1597,-27.343750
1598,-27.343750
1599,-27.343750
1600,-27.343750
1601,-27.343750
1602,-31.250000
1603,-31.250000
1604,-31.250000
1605,-31.250000
1606,-31.250000
1607,-31.250000
1608,-35.156250
1609,-35.156250
1610,-35.156250
1611,-35.156250
1612,-35.156250
1613,-35.156250
1614,-35.156250
1615,-35.156250
1616,-35.156250
1617,-39.062500
1618,-39.062500
1619,-39.062500
1620,-39.062500
1621,-39.062500
1622,-39.062500
1623,-39.062500
1624,-42.968750
1625,-42.968750
1626,-42.968750
1627,-42.968750
1628,-42.968750
1629,-42.968750
1630,-42.968750
1631,-46.875000
1632,-46.875000
1633,-46.875000
1634,-46.875000
1635,-46.875000
1636,-46.875000
1637,-46.875000
1638,-50.781250
1639,-50.781250
1640,-50.781250
1641,-50.781250
1642,-50.781250
1643,-50.781250
1644,-50.781250
1645,-50.781250
1646,-54.687500
1647,-54.687500
1648,-54.687500
1649,-54.687500
1650,-54.687500
1651,-54.687500
1652,-54.687500
1653,-54.687500
1654,-58.593750
1655,-58.593750
1656,-58.593750
1657,-58.593750
1658,-58.593750
1659,-58.593750
1660,-58.593750
1661,-58.593750
1662,-58.593750
1663,-58.593750
1664,-62.500000
1665,-62.500000
1666,-62.500000
1667,-62.500000
1668,-62.500000
1669,-62.500000
1670,-62.500000
1671,-66.406250
1672,-66.406250
1673,-66.406250
1674,-66.406250
1675,-66.406250
1676,-66.406250
1677,-66.406250
1678,-66.406250
1679,-66.406250
1680,-66.406250
1681,-70.312500
1682,-70.312500
1683,-70.312500
1684,-70.312500
1685,-70.312500
1686,-70.312500
1687,-70.312500
1688,-70.312500
1689,-70.312500
1690,-74.218750
1691,-74.218750
1692,-74.218750
1693,-74.218750
1694,-74.218750
1695,-74.218750
1696,-74.218750
1697,-74.218750
1698,-74.218750
1699,-74.218750
1700,-78.125000
1701,-74.218750
1702,-78.125000
1703,-78.125000
1704,-78.125000
1705,-78.125000
1706,-78.125000
1707,-78.125000
1708,-78.125000
1709,-78.125000
1710,-78.125000
1711,-82.031250
1712,-82.031250
1713,-82.031250
1714,-82.031250
1715,-82.031250
1716,-82.031250
1717,-82.031250
1718,-82.031250
1719,-82.031250
1720,-82.031250
1721,-82.031250
1722,-85.937500
1723,-82.031250
1724,-85.937500
1725,-85.937500
1726,-85.937500
1727,-85.937500
1728,-85.937500
1729,-85.937500
1730,-85.937500
1731,-85.937500
1732,-85.937500
1733,-85.937500
1734,-85.937500
1735,-85.937500
1736,-85.937500
1737,-85.937500
1738,-89.843750
1739,-89.843750
1740,-89.843750
1741,-89.843750
1742,-89.843750
1743,-89.843750
1744,-89.843750
1745,-89.843750
1746,-89.843750
1747,-89.843750
1748,-89.843750
1749,-89.843750
1750,-89.843750
1751,-89.843750
1752,-89.843750
1753,-89.843750
1754,-89.843750
1755,-93.750000
1756,-93.750000
1757,-93.750000
1758,-93.750000
1759,-93.750000
1760,-93.750000
1761,-93.750000
1762,-93.750000
1763,-93.750000
1764,-93.750000
1765,-93.750000
1766,-93.750000
1767,-93.750000
1768,-97.656250
1769,-93.750000
1770,-93.750000
1771,-93.750000
1772,-93.750000
1773,-93.750000
1774,-93.750000
1775,-97.656250
1776,-97.656250
1777,-97.656250
1778,-97.656250
1779,-97.656250
1780,-97.656250
1781,-97.656250
1782,-93.750000
1783,-97.656250
1784,-97.656250
1785,-97.656250
1786,-97.656250
1787,-97.656250
1788,-97.656250
1789,-97.656250
1790,-97.656250
1791,-97.656250
1792,-97.656250
1793,-97.656250
1794,-93.750000
1795,-97.656250
1796,-97.656250
1797,-97.656250
1798,-97.656250
1799,-97.656250
1800,-97.656250
1801,-97.656250
1802,-97.656250
1803,-97.656250
1804,-97.656250
1805,-97.656250
1806,-97.656250
1807,-97.656250
1808,-97.656250
1809,-97.656250
1810,-97.656250
1811,-97.656250
1812,-97.656250
1813,-97.656250
1814,-97.656250
1815,-97.656250
1816,-97.656250
1817,-97.656250
1818,-97.656250
1819,-97.656250
1820,-97.656250
1821,-97.656250
1822,-97.656250
1823,-97.656250
1824,-97.656250
1825,-97.656250
1826,-97.656250
1827,-97.656250
1828,-97.656250
1829,-97.656250
1830,-97.656250
1831,-97.656250
1832,-97.656250
1833,-97.656250
1834,-97.656250
1835,-97.656250
1836,-97.656250
1837,-97.656250
1838,-97.656250
1839,-97.656250
1840,-97.656250
1841,-97.656250
1842,-97.656250
1843,-97.656250
1844,-97.656250
1845,-97.656250
1846,-93.750000
1847,-93.750000
1848,-93.750000
1849,-93.750000
1850,-93.750000
1851,-93.750000
1852,-93.750000
1853,-93.750000
1854,-93.750000
1855,-93.750000
1856,-93.750000
1857,-93.750000
1858,-93.750000
1859,-93.750000
1860,-93.750000
1861,-93.750000
1862,-93.750000
1863,-93.750000
1864,-93.750000
1865,-93.750000
1866,-93.750000
1867,-89.843750
1868,-93.750000
1869,-89.843750
1870,-89.843750
1871,-93.750000
1872,-93.750000
1873,-89.843750
1874,-93.750000
1875,-89.843750
1876,-89.843750
1877,-89.843750
1878,-89.843750
1879,-89.843750
1880,-89.843750
1881,-89.843750
1882,-89.843750
1883,-89.843750
1884,-89.843750
1885,-89.843750
1886,-89.843750
1887,-85.937500
1888,-85.937500
1889,-85.937500
1890,-85.937500
1891,-85.937500
1892,-85.937500
1893,-85.937500
1894,-85.937500
1895,-85.937500
1896,-85.937500
1897,-85.937500
1898,-85.937500
1899,-85.937500
1900,-82.031250
1901,-82.031250
1902,-82.031250
1903,-82.031250
1904,-82.031250
1905,-82.031250
1906,-82.031250
1907,-82.031250
1908,-82.031250
1909,-82.031250
1910,-82.031250
1911,-78.125000
1912,-78.125000
1913,-78.125000
1914,-78.125000
1915,-78.125000
1916,-78.125000
1917,-78.125000
1918,-78.125000
1919,-78.125000
1920,-78.125000
1921,-78.125000
1922,-74.218750
1923,-74.218750
1924,-74.218750
1925,-74.218750
1926,-74.218750
1927,-74.218750
1928,-74.218750
1929,-74.218750
1930,-74.218750
1931,-74.218750
1932,-74.218750
1933,-74.218750
1934,-70.312500
1935,-70.312500
1936,-70.312500
1937,-70.312500
1938,-70.312500
1939,-70.312500
1940,-70.312500
1941,-66.406250
1942,-66.406250
1943,-66.406250
1944,-66.406250
1945,-66.406250
1946,-66.406250
1947,-66.406250
1948,-66.406250
1949,-66.406250
1950,-62.500000
1951,-62.500000
1952,-62.500000
1953,-62.500000
1954,-62.500000
1955,-62.500000
1956,-62.500000
1957,-62.500000
1958,-62.500000
1959,-58.593750
1960,-58.593750
1961,-58.593750
1962,-58.593750
1963,-58.593750
1964,-58.593750
1965,-58.593750
1966,-58.593750
1967,-54.687500
1968,-54.687500
1969,-54.687500
1970,-54.687500
1971,-54.687500
1972,-54.687500
1973,-54.687500
1974,-54.687500
1975,-54.687500
1976,-50.781250
1977,-50.781250
1978,-50.781250
1979,-50.781250
1980,-50.781250
1981,-50.781250
1982,-50.781250
1983,-46.875000
1984,-46.875000
1985,-46.875000
1986,-46.875000
1987,-46.875000
1988,-46.875000
1989,-42.968750
1990,-42.968750
1991,-42.968750
1992,-42.968750
1993,-42.968750
1994,-42.968750
1995,-42.968750
1996,-42.968750
1997,-42.968750
1998,-39.062500
1999,-39.062500
2000,-39.062500
2001,-39.062500
2002,-39.062500
2003,-39.062500
2004,-39.062500
2005,-39.062500
2006,-39.062500
2007,-35.156250
2008,-35.156250
2009,-35.156250
2010,-35.156250
2011,-35.156250
2012,-35.156250
2013,-31.250000
2014,-31.250000
2015,-31.250000
2016,-31.250000
2017,-31.250000
2018,-31.250000
2019,-31.250000
2020,-27.343750
2021,-27.343750
2022,-27.343750
2023,-27.343750
2024,-27.343750
2025,-27.343750
2026,-27.343750
2027,-27.343750
2028,-27.343750
2029,-27.343750
2030,-23.437500
2031,-23.437500
2032,-23.437500
2033,-23.437500
2034,-23.437500
2035,-19.531250
2036,-19.531250
2037,-19.531250
2038,-19.531250
2039,-19.531250
2040,-19.531250
2041,-19.531250
2042,-15.625000
2043,-15.625000
2044,-15.625000
2045,-15.625000
2046,-15.625000
2047,-15.625000
2048,-15.625000
2049,-11.718750
2050,-11.718750
2051,-11.718750
2052,-11.718750
2053,-11.718750
2054,-11.718750
2055,-11.718750
2056,-7.812500
2057,-7.812500
2058,-7.812500
2059,-7.812500
2060,-7.812500
2061,-7.812500
2062,-7.812500
2063,-3.906250
2064,-3.906250
2065,-3.906250
2066,-3.906250
2067,-3.906250
2068,-3.906250
2069,-3.906250
2070,-3.906250
2071,0.000000
2072,0.000000
2073,0.000000
2074,0.000000
2075,0.000000
2076,0.000000
2077,0.000000
2078,3.906250
2079,3.906250
2080,3.906250
2081,3.906250
2082,3.906250
2083,3.906250
2084,3.906250
2085,3.906250
2086,7.812500
2087,7.812500
2088,7.812500
2089,7.812500
2090,7.812500
2091,7.812500
2092,7.812500
2093,11.718750
2094,11.718750
2095,11.718750
2096,11.718750
2097,11.718750
2098,11.718750
2099,11.718750
2100,11.718750
2101,15.625000
2102,15.625000
2103,15.625000
2104,15.625000
2105,15.625000
2106,15.625000
2107,15.625000
2108,15.625000
2109,19.531250
2110,19.531250
2111,19.531250
2112,19.531250
2113,19.531250
2114,19.531250
2115,19.531250
2116,19.531250
2117,23.437500
2118,23.437500
2119,23.437500
2120,23.437500
2121,23.437500
2122,23.437500
2123,23.437500
2124,23.437500
2125,27.343750
2126,27.343750
2127,27.343750
2128,27.343750
2129,27.343750
2130,27.343750
2131,27.343750
2132,27.343750
2133,31.250000
2134,27.343750
2135,31.250000
2136,31.250000
2137,31.250000
2138,31.250000
2139,31.250000
2140,31.250000
2141,31.250000
2142,31.250000
2143,31.250000
2144,31.250000
2145,35.156250
2146,35.156250
2147,35.156250
2148,35.156250
2149,35.156250
2150,35.156250
2151,35.156250
2152,39.062500
2153,39.062500
2154,39.062500
2155,39.062500
2156,39.062500
2157,39.062500
2158,39.062500
2159,39.062500
2160,39.062500
2161,39.062500
2162,39.062500
2163,42.968750
2164,42.968750
2165,42.968750
2166,42.968750
2167,42.968750
2168,42.968750
2169,42.968750
2170,42.968750
2171,42.968750
2172,42.968750
2173,42.968750
2174,42.968750
2175,46.875000
2176,46.875000
2177,46.875000
2178,46.875000
2179,46.875000
2180,46.875000
2181,46.875000
2182,46.875000
2183,50.781250
2184,50.781250
2185,50.781250
2186,50.781250
2187,50.781250
2188,50.781250
2189,50.781250
2190,50.781250
2191,50.781250
2192,50.781250
2193,50.781250
2194,50.781250
2195,54.687500
2196,50.781250
2197,50.781250
2198,50.781250
2199,54.687500
2200,54.687500
2201,54.687500
2202,54.687500
2203,54.687500
2204,54.687500
2205,54.687500
2206,54.687500
2207,54.687500
2208,54.687500
2209,54.687500
2210,58.593750
2211,58.593750
2212,58.593750
2213,58.593750
2214,58.593750
2215,58.593750
2216,58.593750
2217,58.593750
2218,58.593750
2219,58.593750
2220,58.593750
2221,58.593750
2222,58.593750
2223,58.593750
2224,58.593750
2225,62.500000
2226,62.500000
2227,62.500000
2228,62.500000
2229,62.500000
2230,62.500000
2231,62.500000
2232,62.500000
2233,62.500000
2234,62.500000
2235,62.500000
2236,62.500000
2237,62.500000
2238,62.500000
2239,62.500000
2240,62.500000
2241,62.500000
2242,62.500000
2243,62.500000
2244,62.500000
2245,66.406250
2246,66.406250
2247,66.406250
2248,66.406250
2249,66.406250
2250,66.406250
2251,66.406250
2252,66.406250
2253,66.406250
2254,66.406250
2255,66.406250
2256,66.406250
2257,66.406250
2258,66.406250
2259,66.406250
2260,66.406250
2261,66.406250
2262,66.406250
2263,66.406250
2264,66.406250
2265,66.406250
2266,66.406250
2267,66.406250
2268,66.406250
2269,66.406250
2270,70.312500
2271,66.406250
2272,66.406250
2273,66.406250
2274,66.406250
2275,66.406250
2276,70.312500
2277,70.312500
2278,66.406250
2279,70.312500
2280,70.312500
2281,70.312500
2282,66.406250
2283,70.312500
2284,70.312500
2285,70.312500
2286,70.312500
2287,70.312500
2288,70.312500
2289,70.312500
2290,70.312500
2291,70.312500
2292,70.312500
2293,70.312500
2294,70.312500
2295,70.312500
2296,70.312500
2297,70.312500
2298,70.312500
2299,70.312500
2300,70.312500
2301,70.312500
2302,70.312500
2303,70.312500
2304,70.312500
2305,70.312500
2306,70.312500
2307,70.312500
2308,70.312500
2309,70.312500
2310,70.312500
2311,70.312500
2312,70.312500
2313,70.312500
2314,70.312500
2315,70.312500
2316,70.312500
2317,70.312500
2318,70.312500
2319,70.312500
2320,70.312500
2321,70.312500
2322,70.312500
2323,70.312500
2324,70.312500
2325,70.312500
2326,70.312500
2327,70.312500
2328,70.312500
2329,70.312500
2330,70.312500
2331,70.312500
2332,70.312500
2333,70.312500
2334,70.312500
2335,66.406250
2336,66.406250
2337,66.406250
2338,66.406250
2339,70.312500
2340,66.406250
2341,66.406250
2342,66.406250
2343,66.406250
2344,66.406250
2345,66.406250
2346,66.406250
2347,66.406250
2348,66.406250
2349,66.406250
2350,66.406250
2351,66.406250
2352,66.406250
2353,66.406250
2354,66.406250
2355,66.406250
2356,66.406250
2357,66.406250
2358,66.406250
2359,66.406250
2360,66.406250
2361,66.406250
2362,66.406250
2363,62.500000
2364,62.500000
2365,66.406250
2366,62.500000
2367,66.406250
2368,62.500000
2369,66.406250
2370,62.500000
2371,62.500000
2372,62.500000
2373,62.500000
2374,62.500000
2375,62.500000
2376,62.500000
2377,62.500000
2378,62.500000
2379,62.500000
2380,58.593750
2381,62.500000
2382,58.593750
2383,58.593750
2384,58.593750
2385,62.500000
2386,62.500000
2387,58.593750
2388,58.593750
2389,58.593750
2390,58.593750
2391,58.593750
2392,58.593750
2393,58.593750
2394,58.593750
2395,58.593750
2396,58.593750
2397,58.593750
2398,58.593750
2399,58.593750
2400,54.687500
2401,54.687500
2402,54.687500
2403,54.687500
2404,54.687500
2405,54.687500
2406,54.687500
2407,54.687500
2408,54.687500
2409,54.687500
2410,54.687500
2411,54.687500
2412,54.687500
2413,50.781250
2414,50.781250
2415,50.781250
2416,50.781250
2417,50.781250
2418,50.781250
2419,50.781250
2420,50.781250
2421,50.781250
2422,50.781250
2423,50.781250
2424,50.781250
2425,50.781250
2426,46.875000
2427,46.875000
2428,46.875000
2429,46.875000
2430,46.875000
2431,46.875000
2432,46.875000
2433,46.875000
2434,46.875000
2435,46.875000
2436,46.875000
2437,46.875000
2438,42.968750
2439,42.968750
2440,42.968750
2441,42.968750
2442,42.968750
2443,42.968750
2444,42.968750
2445,42.968750
2446,39.062500
2447,42.968750
2448,42.968750
2449,39.062500
2450,39.062500
2451,39.062500
2452,39.062500
2453,39.062500
2454,39.062500
2455,39.062500
2456,39.062500
2457,35.156250
2458,35.156250
2459,35.156250
2460,35.156250
2461,35.156250
2462,35.156250
2463,35.156250
2464,35.156250
2465,35.156250
2466,31.250000
2467,31.250000
2468,31.250000
2469,31.250000
2470,31.250000
2471,31.250000
2472,31.250000
2473,31.250000
2474,31.250000
2475,31.250000
2476,27.343750
2477,27.343750
2478,27.343750
2479,27.343750
2480,27.343750
2481,27.343750
2482,27.343750
2483,27.343750
2484,23.437500
2485,27.343750
2486,23.437500
2487,23.437500
2488,23.437500
2489,23.437500
2490,23.437500
2491,23.437500
2492,23.437500
2493,23.437500
2494,19.531250
2495,19.531250
2496,19.531250
2497,19.531250
2498,19.531250
2499,19.531250
2500,19.531250
2501,19.531250
2502,15.625000
2503,15.625000
2504,15.625000
2505,15.625000
2506,15.625000
2507,15.625000
2508,15.625000
2509,11.718750
2510,11.718750
2511,11.718750
2512,11.718750
2513,11.718750
2514,11.718750
2515,11.718750
2516,11.718750
2517,11.718750
2518,7.812500
2519,7.812500
2520,7.812500
2521,7.812500
2522,7.812500
2523,7.812500
2524,7.812500
2525,3.906250
2526,3.906250
2527,3.906250
2528,3.906250
2529,3.906250
2530,3.906250
2531,3.906250
2532,3.906250
2533,0.000000
2534,0.000000
2535,0.000000
2536,0.000000
2537,-3.906250
2538,0.000000
2539,0.000000
2540,-3.906250
2541,-3.906250
2542,-3.906250
2543,-3.906250
2544,-3.906250
2545,-3.906250
2546,-3.906250
2547,-3.906250
2548,-7.812500
2549,-7.812500
2550,-7.812500
2551,-7.812500
2552,-7.812500
2553,-11.718750
2554,-11.718750
2555,-11.718750
2556,-11.718750
2557,-11.718750
2558,-11.718750
2559,-11.718750
2560,-15.625000
2561,-15.625000
2562,-15.625000
2563,-15.625000
2564,-15.625000
2565,-15.625000
2566,-15.625000
2567,-15.625000
2568,-19.531250
2569,-19.531250
2570,-19.531250
2571,-19.531250
2572,-19.531250
2573,-19.531250
2574,-19.531250
2575,-19.531250
2576,-23.437500
2577,-23.437500
2578,-23.437500
2579,-23.437500
2580,-23.437500
2581,-23.437500
2582,-27.343750
2583,-27.343750
2584,-27.343750
2585,-27.343750
2586,-27.343750
2587,-27.343750
2588,-27.343750
2589,-31.250000
2590,-31.250000
2591,-27.343750
2592,-31.250000
2593,-31.250000
2594,-31.250000
2595,-31.250000
2596,-31.250000
2597,-35.156250
2598,-35.156250
2599,-35.156250
2600,-35.156250
2601,-35.156250
2602,-35.156250
2603,-35.156250
2604,-35.156250
2605,-35.156250
2606,-39.062500
2607,-39.062500
2608,-39.062500
2609,-39.062500
2610,-39.062500
2611,-39.062500
2612,-39.062500
2613,-42.968750
2614,-42.968750
2615,-42.968750
2616,-42.968750
2617,-42.968750
2618,-42.968750
2619,-42.968750
2620,-46.875000
2621,-46.875000
2622,-46.875000
2623,-46.875000
2624,-46.875000
2625,-46.875000
2626,-46.875000
2627,-50.781250
2628,-50.781250
2629,-50.781250
2630,-50.781250
2631,-50.781250
2632,-50.781250
2633,-50.781250
2634,-50.781250
2635,-50.781250
2636,-50.781250
2637,-54.687500
2638,-54.687500
2639,-54.687500
2640,-54.687500
2641,-54.687500
2642,-54.687500
2643,-54.687500
2644,-54.687500
2645,-54.687500
2646,-58.593750
2647,-58.593750
2648,-58.593750
2649,-58.593750
2650,-58.593750
2651,-58.593750
2652,-58.593750
2653,-62.500000
2654,-62.500000
2655,-62.500000
2656,-62.500000
2657,-62.500000
2658,-62.500000
2659,-62.500000
2660,-66.406250
2661,-66.406250
2662,-66.406250
2663,-66.406250
2664,-66.406250
2665,-66.406250
2666,-66.406250
2667,-66.406250
2668,-66.406250
2669,-66.406250
2670,-70.312500
2671,-74.218750
2672,-74.218750
2673,-70.312500
2674,-70.312500
2675,-70.312500
2676,-70.312500
2677,-70.312500
2678,-74.218750
2679,-74.218750
2680,-74.218750
2681,-74.218750
2682,-74.218750
2683,-74.218750
2684,-74.218750
2685,-74.218750
2686,-74.218750
2687,-74.218750
2688,-78.125000
2689,-78.125000
2690,-78.125000
2691,-78.125000
2692,-78.125000
2693,-78.125000
2694,-78.125000
2695,-78.125000
2696,-78.125000
2697,-82.031250
2698,-78.125000
2699,-78.125000
2700,-78.125000
2701,-82.031250
2702,-82.031250
2703,-82.031250
2704,-82.031250
2705,-82.031250
2706,-82.031250
2707,-82.031250
2708,-82.031250
2709,-82.031250
2710,-85.937500
2711,-85.937500
2712,-85.937500
2713,-85.937500
2714,-85.937500
2715,-85.937500
2716,-85.937500
2717,-85.937500
2718,-85.937500
2719,-85.937500
2720,-85.937500
2721,-85.937500
2722,-85.937500
2723,-85.937500
2724,-85.937500
2725,-85.937500
2726,-89.843750
2727,-89.843750
2728,-89.843750
2729,-89.843750
2730,-89.843750
2731,-89.843750
2732,-89.843750
2733,-89.843750
2734,-89.843750
2735,-89.843750
2736,-89.843750
2737,-89.843750
2738,-89.843750
2739,-89.843750
2740,-89.843750
2741,-89.843750
2742,-93.750000
2743,-93.750000
2744,-93.750000
2745,-93.750000
2746,-93.750000
2747,-93.750000
2748,-93.750000
2749,-93.750000
2750,-93.750000
2751,-93.750000
2752,-93.750000
2753,-93.750000
2754,-93.750000
2755,-93.750000
2756,-93.750000
2757,-93.750000
2758,-93.750000
2759,-93.750000
2760,-93.750000
2761,-97.656250
2762,-97.656250
2763,-93.750000
2764,-97.656250
2765,-97.656250
2766,-97.656250
2767,-97.656250
2768,-97.656250
2769,-93.750000
2770,-93.750000
2771,-97.656250
2772,-93.750000
2773,-97.656250
2774,-97.656250
2775,-97.656250
2776,-97.656250
2777,-97.656250
2778,-97.656250
2779,-97.656250
2780,-97.656250
2781,-97.656250
2782,-97.656250
2783,-97.656250
2784,-97.656250
2785,-97.656250
2786,-97.656250
2787,-97.656250
2788,-97.656250
2789,-97.656250
2790,-97.656250
2791,-97.656250
2792,-97.656250
2793,-97.656250
2794,-97.656250
2795,-97.656250
2796,-97.656250
2797,-97.656250
2798,-97.656250
2799,-97.656250
2800,-97.656250
2801,-97.656250
2802,-97.656250
2803,-97.656250
2804,-97.656250
2805,-97.656250
2806,-97.656250
2807,-97.656250
2808,-97.656250
2809,-97.656250
2810,-97.656250
2811,-97.656250
2812,-97.656250
2813,-97.656250
2814,-97.656250
2815,-97.656250
2816,-97.656250
2817,-97.656250
2818,-97.656250
2819,-97.656250
2820,-97.656250
2821,-97.656250
2822,-97.656250
2823,-97.656250
2824,-97.656250
2825,-97.656250
2826,-97.656250
2827,-97.656250
2828,-97.656250
2829,-97.656250
2830,-97.656250
2831,-97.656250
2832,-97.656250
2833,-97.656250
2834,-97.656250
2835,-97.656250
2836,-93.750000
2837,-93.750000
2838,-93.750000
2839,-93.750000
2840,-93.750000
2841,-93.750000
2842,-93.750000
2843,-93.750000
2844,-93.750000
2845,-93.750000
2846,-93.750000
2847,-93.750000
2848,-93.750000
2849,-93.750000
2850,-93.750000
2851,-93.750000
2852,-93.750000
2853,-93.750000
2854,-93.750000
2855,-89.843750
2856,-89.843750
2857,-89.843750
2858,-89.843750
2859,-93.750000
2860,-89.843750
2861,-89.843750
2862,-89.843750
2863,-89.843750
2864,-89.843750
2865,-89.843750
2866,-89.843750
2867,-89.843750
2868,-89.843750
2869,-89.843750
2870,-89.843750
2871,-89.843750
2872,-89.843750
2873,-89.843750
2874,-85.937500
2875,-85.937500
2876,-85.937500
2877,-85.937500
2878,-85.937500
2879,-85.937500
2880,-85.937500
2881,-85.937500
2882,-85.937500
2883,-85.937500
2884,-85.937500
2885,-85.937500
2886,-82.031250
2887,-82.031250
2888,-85.937500
2889,-82.031250
2890,-82.031250
2891,-82.031250
2892,-82.031250
2893,-82.031250
2894,-82.031250
2895,-82.031250
2896,-82.031250
2897,-82.031250
2898,-82.031250
2899,-82.031250
2900,-82.031250
2901,-78.125000
2902,-82.031250
2903,-78.125000
2904,-78.125000
2905,-78.125000
2906,-78.125000
2907,-78.125000
2908,-74.218750
2909,-78.125000
2910,-74.218750
2911,-78.125000
2912,-74.218750
2913,-74.218750
2914,-74.218750
2915,-74.218750
2916,-74.218750
2917,-74.218750
2918,-74.218750
2919,-74.218750
2920,-74.218750
2921,-74.218750
2922,-70.312500
2923,-70.312500
2924,-70.312500
2925,-70.312500
2926,-70.312500
2927,-70.312500
2928,-70.312500
2929,-70.312500
2930,-66.406250
2931,-70.312500
2932,-66.406250
2933,-66.406250
2934,-66.406250
2935,-66.406250
2936,-66.406250
2937,-66.406250
2938,-66.406250
2939,-66.406250
2940,-62.500000
2941,-62.500000
2942,-62.500000
2943,-62.500000
2944,-62.500000
2945,-62.500000
2946,-62.500000
2947,-62.500000
2948,-62.500000
2949,-62.500000
2950,-58.593750
2951,-58.593750
2952,-58.593750
2953,-58.593750
2954,-58.593750
2955,-58.593750
2956,-54.687500
2957,-58.593750
2958,-54.687500
2959,-54.687500
2960,-54.687500
2961,-54.687500
2962,-54.687500
2963,-54.687500
2964,-54.687500
2965,-54.687500
2966,-50.781250
2967,-50.781250
2968,-50.781250
2969,-50.781250
2970,-50.781250
2971,-50.781250
2972,-50.781250
2973,-46.875000
2974,-46.875000
2975,-46.875000
2976,-46.875000
2977,-46.875000
2978,-46.875000
2979,-46.875000
2980,-42.968750
2981,-42.968750
2982,-42.968750
2983,-42.968750
2984,-42.968750
2985,-42.968750
2986,-42.968750
2987,-39.062500
2988,-42.968750
2989,-39.062500
2990,-39.062500
2991,-39.062500
2992,-39.062500
2993,-39.062500
2994,-39.062500
2995,-39.062500
2996,-35.156250
2997,-35.156250
2998,-35.156250
2999,-35.156250
3000,-35.156250
3001,-35.156250
3002,-31.250000
3003,-31.250000
3004,-31.250000
3005,-31.250000
3006,-31.250000
3007,-31.250000
3008,-31.250000
3009,-31.250000
3010,-27.343750
3011,-27.343750
3012,-27.343750
3013,-27.343750
3014,-27.343750
3015,-27.343750
3016,-27.343750
3017,-23.437500
3018,-23.437500
3019,-23.437500
3020,-23.437500
3021,-23.437500
3022,-23.437500
3023,-19.531250
3024,-19.531250
3025,-19.531250
3026,-19.531250
3027,-19.531250
3028,-19.531250
3029,-19.531250
3030,-19.531250
3031,-15.625000
3032,-15.625000
3033,-15.625000
3034,-15.625000
3035,-15.625000
3036,-15.625000
3037,-15.625000
3038,-15.625000
3039,-15.625000
3040,-11.718750
3041,-11.718750
3042,-11.718750
3043,-11.718750
3044,-11.718750
3045,-7.812500
3046,-7.812500
3047,-7.812500
3048,-7.812500
3049,-7.812500
3050,-7.812500
3051,-7.812500
3052,-7.812500
3053,-7.812500
3054,-3.906250
3055,-3.906250
3056,-3.906250
3057,-3.906250
3058,-3.906250
3059,-3.906250
3060,-3.906250
3061,-3.906250
3062,0.000000
3063,0.000000
3064,0.000000
3065,0.000000
3066,0.000000
3067,0.000000
3068,0.000000
3069,3.906250
3070,3.906250
3071,3.906250
3072,3.906250
3073,3.906250
3074,3.906250
3075,3.906250
3076,3.906250
3077,7.812500
3078,7.812500
3079,7.812500
3080,7.812500
3081,7.812500
3082,7.812500
3083,11.718750
3084,11.718750
3085,11.718750
3086,11.718750
3087,11.718750
3088,11.718750
3089,11.718750
3090,11.718750
3091,11.718750
3092,15.625000
3093,15.625000
3094,15.625000
3095,15.625000
3096,15.625000
3097,15.625000
3098,15.625000
3099,15.625000
3100,19.531250
3101,19.531250
3102,19.531250
3103,19.531250
3104,19.531250
3105,19.531250
3106,19.531250
3107,19.531250
3108,23.437500
3109,23.437500
3110,23.437500
3111,23.437500
3112,23.437500
3113,23.437500
3114,23.437500
3115,27.343750
3116,27.343750
3117,27.343750
3118,27.343750
3119,27.343750
3120,27.343750
3121,27.343750
3122,27.343750
3123,27.343750
3124,27.343750
3125,31.250000
3126,31.250000
3127,31.250000
3128,31.250000
3129,31.250000
3130,31.250000
3131,31.250000
3132,31.250000
3133,35.156250
3134,35.156250
3135,35.156250
3136,35.156250
3137,35.156250
3138,35.156250
3139,35.156250
3140,35.156250
3141,35.156250
3142,35.156250
3143,39.062500
3144,39.062500
3145,39.062500
3146,39.062500
3147,39.062500
3148,39.062500
3149,39.062500
3150,39.062500
3151,39.062500
3152,39.062500
3153,42.968750
3154,42.968750
3155,42.968750
3156,42.968750
3157,42.968750
3158,42.968750
3159,42.968750
3160,42.968750
3161,42.968750
3162,42.968750
3163,42.968750
3164,46.875000
3165,46.875000
3166,46.875000
3167,46.875000
3168,46.875000
3169,46.875000
3170,46.875000
3171,46.875000
3172,46.875000
3173,46.875000
3174,46.875000
3175,46.875000
3176,50.781250
3177,50.781250
3178,50.781250
3179,50.781250
3180,50.781250
3181,50.781250
3182,50.781250
3183,50.781250
3184,50.781250
3185,50.781250
3186,50.781250
3187,54.687500
3188,50.781250
3189,50.781250
3190,54.687500
3191,54.687500
3192,54.687500
3193,54.687500
3194,54.687500
3195,54.687500
3196,54.687500
3197,54.687500
3198,54.687500
3199,54.687500
3200,54.687500
3201,58.593750
3202,58.593750
3203,58.593750
3204,58.593750
3205,58.593750
3206,58.593750
3207,58.593750
3208,58.593750
3209,58.593750
3210,58.593750
3211,58.593750
3212,58.593750
3213,58.593750
3214,58.593750
3215,62.500000
3216,58.593750
3217,58.593750
3218,58.593750
3219,62.500000
3220,62.500000
3221,62.500000
3222,62.500000
3223,62.500000
3224,62.500000
3225,62.500000
3226,62.500000
3227,62.500000
3228,62.500000
3229,62.500000
3230,62.500000
3231,62.500000
3232,62.500000
3233,62.500000
3234,62.500000
3235,62.500000
3236,62.500000
3237,62.500000
3238,66.406250
3239,66.406250
3240,66.406250
3241,66.406250
3242,66.406250
3243,66.406250
3244,66.406250
3245,66.406250
3246,66.406250
3247,66.406250
3248,66.406250
3249,66.406250
3250,66.406250
3251,66.406250
3252,66.406250
3253,66.406250
3254,66.406250
3255,66.406250
3256,66.406250
3257,66.406250
3258,66.406250
3259,66.406250
3260,66.406250
3261,66.406250
3262,66.406250
3263,66.406250
3264,66.406250
3265,70.312500
3266,70.312500
3267,70.312500
3268,70.312500
3269,66.406250
3270,66.406250
3271,70.312500
3272,70.312500
3273,70.312500
3274,70.312500
3275,70.312500
3276,70.312500
3277,70.312500
3278,70.312500
3279,70.312500
3280,70.312500
3281,70.312500
3282,70.312500
3283,66.406250
3284,70.312500
3285,70.312500
3286,70.312500
3287,70.312500
3288,70.312500
3289,70.312500
3290,70.312500
3291,66.406250
3292,70.312500
3293,70.312500
3294,70.312500
3295,70.312500
3296,70.312500
3297,70.312500
3298,70.312500
3299,70.312500
3300,70.312500
3301,70.312500
3302,70.312500
3303,70.312500
3304,70.312500
3305,70.312500
3306,70.312500
3307,66.406250
3308,66.406250
3309,70.312500
3310,70.312500
3311,70.312500
3312,70.312500
3313,70.312500
3314,66.406250
3315,66.406250
3316,66.406250
3317,66.406250
3318,66.406250
3319,66.406250
3320,70.312500
3321,66.406250
3322,66.406250
3323,66.406250
3324,66.406250
3325,66.406250
3326,66.406250
3327,66.406250
3328,66.406250
3329,66.406250
3330,66.406250
3331,66.406250
3332,66.406250
3333,66.406250
3334,66.406250
3335,66.406250
3336,66.406250
3337,66.406250
3338,66.406250
3339,66.406250
3340,66.406250
3341,66.406250
3342,66.406250
3343,66.406250
3344,66.406250
3345,66.406250
3346,66.406250
3347,66.406250
3348,66.406250
3349,66.406250
3350,66.406250
3351,62.500000
3352,62.500000
3353,62.500000
3354,62.500000
3355,62.500000
3356,62.500000
3357,62.500000
3358,62.500000
3359,62.500000
3360,62.500000
3361,62.500000
3362,62.500000
3363,62.500000
3364,62.500000
3365,62.500000
3366,62.500000
3367,62.500000
3368,62.500000
3369,62.500000
3370,62.500000
3371,58.593750
3372,58.593750
3373,62.500000
3374,62.500000
3375,58.593750
3376,58.593750
3377,58.593750
3378,58.593750
3379,58.593750
3380,58.593750
3381,58.593750
3382,58.593750
3383,58.593750
3384,58.593750
3385,58.593750
3386,58.593750
3387,58.593750
3388,58.593750
3389,58.593750
3390,54.687500
3391,54.687500
3392,54.687500
3393,54.687500
3394,54.687500
3395,54.687500
3396,54.687500
3397,54.687500
3398,54.687500
3399,54.687500
3400,54.687500
3401,54.687500
3402,54.687500
3403,54.687500
3404,50.781250
3405,50.781250
3406,50.781250
3407,50.781250
3408,50.781250
3409,50.781250
3410,50.781250
3411,50.781250
3412,50.781250
3413,50.781250
3414,46.875000
3415,50.781250
3416,46.875000
3417,46.875000
3418,46.875000
3419,46.875000
3420,46.875000
3421,46.875000
3422,46.875000
3423,46.875000
3424,46.875000
3425,46.875000
3426,42.968750
3427,42.968750
3428,42.968750
3429,42.968750
3430,42.968750
3431,42.968750
3432,42.968750
3433,42.968750
3434,42.968750
3435,42.968750
3436,39.062500
3437,39.062500
3438,39.062500
3439,39.062500
3440,39.062500
3441,39.062500
3442,39.062500
3443,39.062500
3444,39.062500
3445,39.062500
3446,35.156250
3447,39.062500
3448,35.156250
3449,35.156250
3450,35.156250
3451,35.156250
3452,35.156250
3453,35.156250
3454,35.156250
3455,35.156250
3456,31.250000
3457,31.250000
3458,31.250000
3459,31.250000
3460,31.250000
3461,31.250000
3462,31.250000
3463,31.250000
3464,31.250000
3465,27.343750
3466,27.343750
3467,27.343750
3468,27.343750
3469,27.343750
3470,27.343750
3471,27.343750
3472,27.343750
3473,27.343750
3474,23.437500
3475,23.437500
3476,23.437500
3477,23.437500
3478,23.437500
3479,23.437500
3480,23.437500
3481,19.531250
3482,19.531250
3483,19.531250
3484,19.531250
3485,19.531250
3486,19.531250
3487,19.531250
3488,19.531250
3489,19.531250
3490,19.531250
3491,15.625000
3492,19.531250
3493,15.625000
3494,15.625000
3495,15.625000
3496,15.625000
3497,15.625000
3498,15.625000
3499,11.718750
3500,11.718750
3501,11.718750
3502,11.718750
3503,11.718750
3504,11.718750
3505,11.718750
3506,11.718750
3507,11.718750
3508,7.812500
3509,7.812500
3510,7.812500
3511,7.812500
3512,7.812500
3513,7.812500
3514,7.812500
3515,7.812500
3516,3.906250
3517,3.906250
3518,3.906250
3519,3.906250
3520,3.906250
3521,3.906250
3522,3.906250
3523,0.000000
3524,0.000000
3525,0.000000
3526,0.000000
3527,0.000000
3528,0.000000
3529,0.000000
3530,-3.906250
3531,-3.906250
3532,-3.906250
3533,-3.906250
3534,-3.906250
3535,-3.906250
3536,-3.906250
3537,-7.812500
3538,-7.812500
3539,-7.812500
3540,-7.812500
3541,-7.812500
3542,-7.812500
3543,-7.812500
3544,-11.718750
3545,-11.718750
3546,-11.718750
3547,-11.718750
3548,-11.718750
3549,-11.718750
3550,-11.718750
3551,-11.718750
3552,-15.625000
3553,-15.625000
3554,-15.625000
3555,-15.625000
3556,-15.625000
3557,-15.625000
3558,-19.531250
3559,-19.531250
3560,-19.531250
3561,-19.531250
3562,-19.531250
3563,-19.531250
3564,-19.531250
3565,-19.531250
3566,-19.531250
3567,-23.437500
3568,-23.437500
3569,-23.437500
3570,-23.437500
3571,-23.437500
3572,-27.343750
3573,-27.343750
3574,-27.343750
3575,-27.343750
3576,-27.343750
3577,-27.343750
3578,-27.343750
3579,-27.343750
3580,-27.343750
3581,-31.250000
3582,-31.250000
3583,-31.250000
3584,-31.250000
3585,-31.250000
3586,-31.250000
3587,-31.250000
3588,-35.156250
3589,-35.156250
3590,-35.156250
3591,-35.156250
3592,-35.156250
3593,-39.062500
3594,-39.062500
3595,-39.062500
3596,-39.062500
3597,-39.062500
3598,-39.062500
3599,-39.062500
3600,-39.062500
3601,-39.062500
3602,-39.062500
3603,-42.968750
3604,-42.968750
3605,-42.968750
3606,-42.968750
3607,-42.968750
3608,-42.968750
3609,-42.968750
3610,-46.875000
3611,-46.875000
3612,-46.875000
3613,-46.875000
3614,-46.875000
3615,-46.875000
3616,-46.875000
3617,-46.875000
3618,-50.781250
3619,-50.781250
3620,-50.781250
3621,-50.781250
3622,-50.781250
3623,-50.781250
3624,-50.781250
3625,-54.687500
3626,-54.687500
3627,-54.687500
3628,-54.687500
3629,-54.687500
3630,-54.687500
3631,-54.687500
3632,-54.687500
3633,-54.687500
3634,-54.687500
3635,-54.687500
3636,-58.593750
3637,-58.593750
3638,-58.593750
3639,-58.593750
3640,-58.593750
3641,-58.593750
3642,-58.593750
3643,-58.593750
3644,-62.500000
3645,-62.500000
3646,-62.500000
3647,-62.500000
3648,-62.500000
3649,-62.500000
3650,-62.500000
3651,-62.500000
3652,-66.406250
3653,-66.406250
3654,-66.406250
3655,-66.406250
3656,-66.406250
3657,-66.406250
3658,-66.406250
3659,-66.406250
3660,-66.406250
3661,-66.406250
3662,-70.312500
3663,-70.312500
3664,-70.312500
3665,-70.312500
3666,-70.312500
3667,-70.312500
3668,-70.312500
3669,-70.312500
3670,-74.218750
3671,-74.218750
3672,-74.218750
3673,-74.218750
3674,-74.218750
3675,-74.218750
3676,-74.218750
3677,-74.218750
3678,-78.125000
3679,-74.218750
3680,-78.125000
3681,-78.125000
3682,-78.125000
3683,-78.125000
3684,-78.125000
3685,-78.125000
3686,-78.125000
3687,-78.125000
3688,-78.125000
3689,-78.125000
3690,-78.125000
3691,-78.125000
3692,-82.031250
3693,-82.031250
3694,-82.031250
3695,-82.031250
3696,-82.031250
3697,-82.031250
3698,-82.031250
3699,-82.031250
3700,-85.937500
3701,-82.031250
3702,-85.937500
3703,-85.937500
3704,-85.937500
3705,-85.937500
3706,-85.937500
3707,-85.937500
3708,-85.937500
3709,-85.937500
3710,-85.937500
3711,-85.937500
3712,-89.843750
3713,-85.937500
3714,-85.937500
3715,-89.843750
3716,-89.843750
3717,-89.843750
3718,-89.843750
3719,-89.843750
3720,-89.843750
3721,-89.843750
3722,-89.843750
3723,-89.843750
3724,-93.750000
3725,-89.843750
3726,-89.843750
3727,-89.843750
3728,-89.843750
3729,-89.843750
3730,-89.843750
3731,-89.843750
3732,-93.750000
3733,-93.750000
3734,-93.750000
3735,-93.750000
3736,-93.750000
3737,-93.750000
3738,-93.750000
3739,-93.750000
3740,-93.750000
3741,-93.750000
3742,-93.750000
3743,-93.750000
3744,-93.750000
3745,-93.750000
3746,-93.750000
3747,-93.750000
3748,-93.750000
3749,-93.750000
3750,-93.750000
3751,-93.750000
3752,-93.750000
3753,-93.750000
3754,-93.750000
3755,-93.750000
3756,-93.750000
3757,-93.750000
3758,-93.750000
3759,-93.750000
3760,-93.750000
3761,-97.656250
3762,-97.656250
3763,-97.656250
3764,-97.656250
3765,-97.656250
3766,-97.656250
3767,-97.656250
3768,-97.656250
3769,-97.656250
3770,-97.656250
3771,-97.656250
3772,-97.656250
3773,-97.656250
3774,-97.656250
3775,-97.656250
3776,-97.656250
3777,-97.656250
3778,-97.656250
3779,-97.656250
3780,-97.656250
3781,-97.656250
3782,-97.656250
3783,-97.656250
3784,-97.656250
3785,-97.656250
3786,-97.656250
3787,-97.656250
3788,-97.656250
3789,-97.656250
3790,-97.656250
3791,-97.656250
3792,-97.656250
3793,-97.656250
3794,-97.656250
3795,-97.656250
3796,-97.656250
3797,-97.656250
3798,-97.656250
3799,-97.656250
3800,-97.656250
3801,-97.656250
3802,-97.656250
3803,-97.656250
3804,-97.656250
3805,-97.656250
3806,-97.656250
3807,-97.656250
3808,-97.656250
3809,-97.656250
3810,-97.656250
3811,-97.656250
3812,-97.656250
3813,-97.656250
3814,-97.656250
3815,-97.656250
3816,-97.656250
3817,-97.656250
3818,-97.656250
3819,-93.750000
3820,-97.656250
3821,-97.656250
3822,-97.656250
3823,-97.656250
3824,-97.656250
3825,-97.656250
3826,-97.656250
3827,-97.656250
3828,-97.656250
3829,-93.750000
3830,-93.750000
3831,-93.750000
3832,-93.750000
3833,-93.750000
3834,-93.750000
3835,-93.750000
3836,-93.750000
3837,-93.750000
3838,-93.750000
3839,-93.750000
3840,-93.750000
3841,-93.750000
3842,-93.750000
3843,-93.750000
3844,-93.750000
3845,-93.750000
3846,-93.750000
3847,-93.750000
3848,-89.843750
3849,-89.843750
3850,-93.750000
3851,-89.843750
3852,-89.843750
3853,-89.843750
3854,-89.843750
3855,-89.843750
3856,-89.843750
3857,-89.843750
3858,-89.843750
3859,-89.843750
3860,-89.843750
3861,-89.843750
3862,-89.843750
3863,-89.843750
3864,-89.843750
3865,-89.843750
3866,-85.937500
3867,-85.937500
3868,-85.937500
3869,-85.937500
3870,-85.937500
3871,-85.937500
3872,-85.937500
3873,-85.937500
3874,-85.937500
3875,-85.937500
3876,-85.937500
3877,-85.937500
3878,-85.937500
3879,-82.031250
3880,-82.031250
3881,-82.031250
3882,-82.031250
3883,-82.031250
3884,-82.031250
3885,-82.031250
3886,-82.031250
3887,-82.031250
3888,-82.031250
3889,-82.031250
3890,-82.031250
3891,-78.125000
3892,-78.125000
3893,-78.125000
3894,-78.125000
3895,-78.125000
3896,-78.125000
3897,-78.125000
3898,-78.125000
3899,-78.125000
3900,-78.125000
3901,-78.125000
3902,-74.218750
3903,-74.218750
3904,-74.218750
3905,-74.218750
3906,-74.218750
3907,-74.218750
3908,-74.218750
3909,-74.218750
3910,-70.312500
3911,-70.312500
3912,-70.312500
3913,-70.312500
3914,-70.312500
3915,-70.312500
3916,-70.312500
3917,-70.312500
3918,-70.312500
3919,-70.312500
3920,-66.406250
3921,-66.406250
3922,-66.406250
3923,-66.406250
3924,-66.406250
3925,-66.406250
3926,-66.406250
3927,-66.406250
3928,-66.406250
3929,-66.406250
3930,-62.500000
3931,-62.500000
3932,-62.500000
3933,-62.500000
3934,-62.500000
3935,-62.500000
3936,-62.500000
3937,-58.593750
3938,-62.500000
3939,-58.593750
3940,-58.593750
3941,-58.593750
3942,-58.593750
3943,-58.593750
3944,-58.593750
3945,-54.687500
3946,-54.687500
3947,-54.687500
3948,-54.687500
3949,-54.687500
3950,-54.687500
3951,-54.687500
3952,-54.687500
3953,-54.687500
3954,-50.781250
3955,-50.781250
3956,-50.781250
3957,-50.781250
3958,-50.781250
3959,-50.781250
3960,-50.781250
3961,-50.781250
3962,-46.875000
3963,-46.875000
3964,-46.875000
3965,-46.875000
3966,-46.875000
3967,-46.875000
3968,-46.875000
3969,-46.875000
3970,-42.968750
3971,-42.968750
3972,-42.968750
3973,-42.968750
3974,-42.968750
3975,-42.968750
3976,-42.968750
3977,-42.968750
3978,-39.062500
3979,-39.062500
3980,-39.062500
3981,-39.062500
3982,-39.062500
3983,-39.062500
3984,-39.062500
3985,-35.156250
3986,-35.156250
3987,-35.156250
3988,-35.156250
3989,-35.156250
3990,-35.156250
3991,-35.156250
3992,-31.250000
3993,-31.250000
3994,-31.250000
3995,-31.250000
3996,-31.250000
3997,-31.250000
3998,-31.250000
3999,-27.343750
4000,-27.343750
4001,-27.343750
4002,-27.343750
4003,-27.343750
4004,-27.343750
4005,-27.343750
4006,-27.343750
4007,-23.437500
4008,-23.437500
4009,-23.437500
4010,-23.437500
4011,-23.437500
4012,-23.437500
4013,-19.531250
4014,-19.531250
4015,-19.531250
4016,-19.531250
4017,-19.531250
4018,-19.531250
4019,-19.531250
4020,-19.531250
4021,-15.625000
4022,-15.625000
4023,-15.625000
4024,-15.625000
4025,-15.625000
4026,-15.625000
4027,-15.625000
4028,-15.625000
4029,-11.718750
4030,-11.718750
4031,-11.718750
4032,-11.718750
4033,-7.812500
4034,-11.718750
4035,-7.812500
4036,-7.812500
4037,-7.812500
4038,-7.812500
4039,-7.812500
4040,-7.812500
4041,-7.812500
4042,-7.812500
4043,-3.906250
4044,-3.906250
4045,-3.906250
4046,-3.906250
4047,-3.906250
4048,-3.906250
4049,-3.906250
4050,0.000000
4051,0.000000
4052,0.000000
4053,0.000000
4054,0.000000
4055,3.906250
4056,0.000000
4057,3.906250
4058,3.906250
4059,3.906250
4060,3.906250
4061,7.812500
4062,3.906250
4063,3.906250
4064,3.906250
4065,7.812500
4066,7.812500
4067,7.812500
4068,7.812500
4069,7.812500
4070,7.812500
4071,7.812500
4072,7.812500
4073,11.718750
4074,11.718750
4075,11.718750
4076,11.718750
4077,11.718750
4078,11.718750
4079,15.625000
4080,15.625000
4081,15.625000
4082,15.625000
4083,15.625000
4084,15.625000
4085,15.625000
4086,15.625000
4087,19.531250
4088,15.625000
4089,19.531250
4090,19.531250
4091,19.531250
4092,19.531250
4093,19.531250
4094,19.531250
4095,19.531250
4096,19.531250
4097,23.437500
4098,23.437500
4099,23.437500
4100,23.437500
4101,23.437500
4102,23.437500
4103,23.437500
4104,23.437500
4105,27.343750
4106,27.343750
4107,27.343750
4108,27.343750
4109,27.343750
4110,27.343750
4111,27.343750
4112,27.343750
4113,27.343750
4114,31.250000
4115,31.250000
4116,31.250000
4117,31.250000
4118,31.250000
4119,31.250000
4120,31.250000
4121,31.250000
4122,35.156250
4123,35.156250
4124,35.156250
4125,35.156250
4126,35.156250
4127,35.156250
4128,35.156250
4129,35.156250
4130,35.156250
4131,35.156250
4132,35.156250
4133,39.062500
4134,39.062500
4135,39.062500
4136,39.062500
4137,39.062500
4138,39.062500
4139,39.062500
4140,39.062500
4141,42.968750
4142,42.968750
4143,42.968750
4144,42.968750
4145,42.968750
4146,42.968750
4147,42.968750
4148,42.968750
4149,42.968750
4150,42.968750
4151,46.875000
4152,46.875000
4153,46.875000
4154,46.875000
4155,46.875000
4156,46.875000
4157,46.875000
4158,46.875000
4159,46.875000
4160,46.875000
4161,50.781250
4162,46.875000
4163,50.781250
4164,50.781250
4165,50.781250
4166,50.781250
4167,50.781250
4168,50.781250
4169,50.781250
4170,50.781250
4171,50.781250
4172,50.781250
4173,54.687500
4174,54.687500
4175,54.687500
4176,54.687500
4177,54.687500
4178,54.687500
4179,54.687500
4180,54.687500
4181,54.687500
4182,54.687500
4183,54.687500
4184,54.687500
4185,54.687500
4186,54.687500
4187,58.593750
4188,58.593750
4189,58.593750
4190,58.593750
4191,58.593750
4192,58.593750
4193,58.593750
4194,58.593750
4195,58.593750
4196,58.593750
4197,58.593750
4198,58.593750
4199,62.500000
4200,62.500000
4201,62.500000
4202,62.500000
4203,62.500000
4204,62.500000
4205,62.500000
4206,58.593750
4207,62.500000
4208,62.500000
4209,62.500000
4210,62.500000
4211,62.500000
4212,62.500000
4213,62.500000
4214,62.500000
4215,62.500000
4216,62.500000
4217,62.500000
4218,66.406250
4219,66.406250
4220,66.406250
4221,66.406250
4222,66.406250
4223,66.406250
4224,66.406250
4225,66.406250
4226,66.406250
4227,66.406250
4228,66.406250
4229,66.406250
4230,66.406250
4231,66.406250
4232,66.406250
4233,66.406250
4234,66.406250
4235,66.406250
4236,66.406250
4237,66.406250
4238,66.406250
4239,66.406250
4240,66.406250
4241,66.406250
4242,66.406250
4243,66.406250
4244,66.406250
4245,66.406250
4246,66.406250
4247,66.406250
4248,66.406250
4249,70.312500
4250,66.406250
4251,70.312500
4252,70.312500
4253,70.312500
4254,70.312500
4255,70.312500
4256,66.406250
4257,70.312500
4258,70.312500
4259,70.312500
4260,70.312500
4261,70.312500
4262,70.312500
4263,70.312500
4264,70.312500
4265,70.312500
4266,70.312500
4267,70.312500
4268,70.312500
4269,70.312500
4270,70.312500
4271,70.312500
4272,70.312500
4273,70.312500
4274,70.312500
4275,70.312500
4276,70.312500
4277,70.312500
4278,70.312500
4279,70.312500
4280,70.312500
4281,70.312500
4282,70.312500
4283,70.312500
4284,70.312500
4285,70.312500
4286,70.312500
4287,70.312500
4288,70.312500
4289,70.312500
4290,70.312500
4291,70.312500
4292,70.312500
4293,70.312500
4294,70.312500
4295,70.312500
4296,70.312500
4297,70.312500
4298,70.312500
4299,70.312500
4300,70.312500
4301,70.312500
4302,70.312500
4303,70.312500
4304,70.312500
4305,70.312500
4306,70.312500
4307,70.312500
4308,70.312500
4309,70.312500
4310,70.312500
4311,70.312500
4312,70.312500
4313,70.312500
4314,70.312500
4315,70.312500
4316,70.312500
4317,70.312500
4318,70.312500
4319,70.312500
4320,70.312500
4321,70.312500
4322,66.406250
4323,66.406250
4324,66.406250
4325,70.312500
4326,66.406250
4327,70.312500
4328,66.406250
4329,66.406250
4330,66.406250
4331,66.406250
4332,66.406250
4333,66.406250
4334,66.406250
4335,66.406250
4336,66.406250
4337,66.406250
4338,66.406250
4339,66.406250
4340,66.406250
4341,66.406250
4342,66.406250
4343,66.406250
4344,66.406250
4345,66.406250
4346,66.406250
4347,66.406250
4348,66.406250
4349,62.500000
4350,62.500000
4351,66.406250
4352,62.500000
4353,62.500000
4354,62.500000
4355,62.500000
4356,62.500000
4357,62.500000
4358,62.500000
4359,62.500000
4360,62.500000
4361,62.500000
4362,62.500000
4363,62.500000
4364,62.500000
4365,62.500000
4366,62.500000
4367,62.500000
4368,58.593750
4369,58.593750
4370,58.593750
4371,58.593750
4372,58.593750
4373,58.593750
4374,58.593750
4375,58.593750
4376,58.593750
4377,58.593750
4378,58.593750
4379,58.593750
4380,58.593750
4381,58.593750
4382,54.687500
4383,54.687500
4384,54.687500
4385,54.687500
4386,54.687500
4387,58.593750
4388,54.687500
4389,54.687500
4390,54.687500
4391,54.687500
4392,54.687500
4393,54.687500
4394,54.687500
4395,50.781250
4396,54.687500
4397,50.781250
4398,50.781250
4399,50.781250
4400,50.781250
4401,50.781250
4402,50.781250
4403,50.781250
4404,50.781250
4405,50.781250
4406,50.781250
4407,50.781250
4408,50.781250
4409,46.875000
4410,46.875000
4411,46.875000
4412,46.875000
4413,46.875000
4414,46.875000
4415,46.875000
4416,46.875000
4417,46.875000
4418,42.968750
4419,46.875000
4420,42.968750
4421,42.968750
4422,42.968750
4423,42.968750
4424,42.968750
4425,42.968750
4426,42.968750
4427,42.968750
4428,42.968750
4429,39.062500
4430,39.062500
4431,39.062500
4432,39.062500
4433,39.062500
4434,39.062500
4435,39.062500
4436,39.062500
4437,39.062500
4438,35.156250
4439,39.062500
4440,39.062500
4441,35.156250
4442,35.156250
4443,35.156250
4444,35.156250
4445,35.156250
4446,35.156250
4447,35.156250
4448,35.156250
4449,35.156250
4450,31.250000
4451,35.156250
4452,31.250000
4453,31.250000
4454,31.250000
4455,31.250000
4456,27.343750
4457,27.343750
4458,27.343750
4459,27.343750
4460,31.250000
4461,27.343750
4462,27.343750
4463,27.343750
4464,27.343750
4465,27.343750
4466,23.437500
4467,23.437500
4468,23.437500
4469,23.437500
4470,23.437500
4471,23.437500
4472,23.437500
4473,23.437500
4474,23.437500
4475,19.531250
4476,19.531250
4477,19.531250
4478,19.531250
4479,19.531250
4480,19.531250
4481,19.531250
4482,15.625000
4483,15.625000
4484,15.625000
4485,15.625000
4486,15.625000
4487,15.625000
4488,15.625000
4489,15.625000
4490,11.718750
4491,11.718750
4492,11.718750
4493,11.718750
4494,11.718750
4495,11.718750
4496,11.718750
4497,11.718750
4498,7.812500
4499,7.812500
4500,7.812500
4501,7.812500
4502,3.906250
4503,7.812500
4504,7.812500
4505,3.906250
4506,3.906250
4507,3.906250
4508,3.906250
4509,3.906250
4510,3.906250
4511,3.906250
4512,3.906250
4513,3.906250
4514,0.000000
4515,0.000000
4516,0.000000
4517,0.000000
4518,0.000000
4519,0.000000
4520,-3.906250
4521,-3.906250
4522,-3.906250
4523,-3.906250
4524,-3.906250
4525,-3.906250
4526,-3.906250
4527,-7.812500
4528,-7.812500
4529,-7.812500
4530,-7.812500
4531,-7.812500
4532,-7.812500
4533,-7.812500
4534,-7.812500
4535,-11.718750
4536,-11.718750
4537,-11.718750
4538,-11.718750
4539,-15.625000
4540,-11.718750
4541,-11.718750
4542,-15.625000
4543,-15.625000
4544,-15.625000
4545,-15.625000
4546,-15.625000
4547,-15.625000
4548,-15.625000
4549,-15.625000
4550,-15.625000
4551,-19.531250
4552,-19.531250
4553,-19.531250
4554,-19.531250
4555,-19.531250
4556,-19.531250
4557,-23.437500
4558,-23.437500
4559,-23.437500
4560,-23.437500
4561,-23.437500
4562,-23.437500
4563,-23.437500
4564,-27.343750
4565,-27.343750
4566,-27.343750
4567,-27.343750
4568,-27.343750
4569,-27.343750
4570,-27.343750
4571,-27.343750
4572,-31.250000
4573,-31.250000
4574,-31.250000
4575,-31.250000
4576,-31.250000
4577,-31.250000
4578,-31.250000
4579,-35.156250
4580,-35.156250
4581,-35.156250
4582,-35.156250
4583,-35.156250
4584,-35.156250
4585,-35.156250
4586,-39.062500
4587,-39.062500
4588,-39.062500
4589,-39.062500
4590,-39.062500
4591,-39.062500
4592,-42.968750
4593,-42.968750
4594,-42.968750
4595,-42.968750
4596,-42.968750
4597,-42.968750
4598,-42.968750
4599,-42.968750
4600,-46.875000
4601,-46.875000
4602,-46.875000
4603,-46.875000
4604,-46.875000
4605,-46.875000
4606,-46.875000
4607,-46.875000
4608,-50.781250
4609,-50.781250
4610,-50.781250
4611,-50.781250
4612,-50.781250
4613,-50.781250
4614,-50.781250
4615,-50.781250
4616,-54.687500
4617,-54.687500
4618,-54.687500
4619,-54.687500
4620,-54.687500
4621,-54.687500
4622,-54.687500
4623,-54.687500
4624,-54.687500
4625,-58.593750
4626,-58.593750
4627,-58.593750
4628,-58.593750
4629,-58.593750
4630,-58.593750
4631,-58.593750
4632,-58.593750
4633,-62.500000
4634,-62.500000
4635,-62.500000
4636,-62.500000
4637,-62.500000
4638,-62.500000
4639,-62.500000
4640,-62.500000
4641,-66.406250
4642,-66.406250
4643,-66.406250
4644,-66.406250
4645,-66.406250
4646,-66.406250
4647,-66.406250
4648,-66.406250
4649,-66.406250
4650,-66.406250
4651,-70.312500
4652,-70.312500
4653,-70.312500
4654,-70.312500
4655,-70.312500
4656,-70.312500
4657,-70.312500
4658,-74.218750
4659,-70.312500
4660,-74.218750
4661,-74.218750
4662,-74.218750
4663,-74.218750
4664,-74.218750
4665,-74.218750
4666,-74.218750
4667,-78.125000
4668,-74.218750
4669,-74.218750
4670,-74.218750
4671,-74.218750
4672,-78.125000
4673,-78.125000
4674,-78.125000
4675,-78.125000
4676,-78.125000
4677,-78.125000
4678,-78.125000
4679,-78.125000
4680,-82.031250
4681,-78.125000
4682,-78.125000
4683,-78.125000
4684,-82.031250
4685,-82.031250
4686,-82.031250
4687,-82.031250
4688,-82.031250
4689,-82.031250
4690,-82.031250
4691,-82.031250
4692,-85.937500
4693,-85.937500
4694,-85.937500
4695,-85.937500
4696,-85.937500
4697,-85.937500
4698,-85.937500
4699,-85.937500
4700,-85.937500
4701,-85.937500
4702,-85.937500
4703,-85.937500
4704,-85.937500
4705,-85.937500
4706,-85.937500
4707,-85.937500
4708,-85.937500
4709,-89.843750
4710,-89.843750
4711,-89.843750
4712,-89.843750
4713,-89.843750
4714,-89.843750
4715,-89.843750
4716,-89.843750
4717,-89.843750
4718,-89.843750
4719,-89.843750
4720,-89.843750
4721,-89.843750
4722,-89.843750
4723,-89.843750
4724,-93.750000
4725,-89.843750
4726,-89.843750
4727,-93.750000
4728,-93.750000
4729,-93.750000
4730,-93.750000
4731,-93.750000
4732,-93.750000
4733,-93.750000
4734,-93.750000
4735,-93.750000
4736,-93.750000
4737,-93.750000
4738,-93.750000
4739,-93.750000
4740,-93.750000
4741,-93.750000
4742,-97.656250
4743,-93.750000
4744,-97.656250
4745,-93.750000
4746,-93.750000
4747,-93.750000
4748,-97.656250
4749,-97.656250
4750,-97.656250
4751,-97.656250
4752,-97.656250
4753,-97.656250
4754,-97.656250
4755,-97.656250
4756,-97.656250
4757,-97.656250
4758,-97.656250
4759,-97.656250
4760,-97.656250
4761,-97.656250
4762,-97.656250
4763,-97.656250
4764,-97.656250
4765,-97.656250
4766,-97.656250
4767,-97.656250
4768,-97.656250
4769,-97.656250
4770,-97.656250
4771,-97.656250
4772,-97.656250
4773,-97.656250
4774,-97.656250
4775,-97.656250
4776,-97.656250
4777,-97.656250
4778,-97.656250
4779,-97.656250
4780,-97.656250
4781,-97.656250
4782,-97.656250
4783,-97.656250
4784,-97.656250
4785,-97.656250
4786,-97.656250
4787,-97.656250
4788,-97.656250
4789,-97.656250
4790,-97.656250
4791,-97.656250
4792,-97.656250
4793,-97.656250
4794,-97.656250
4795,-97.656250
4796,-97.656250
4797,-97.656250
4798,-97.656250
4799,-97.656250
4800,-97.656250
4801,-97.656250
4802,-97.656250
4803,-97.656250
4804,-97.656250
4805,-97.656250
4806,-93.750000
4807,-93.750000
4808,-97.656250
4809,-93.750000
4810,-93.750000
4811,-93.750000
4812,-93.750000
4813,-93.750000
4814,-93.750000
4815,-93.750000
4816,-93.750000
4817,-93.750000
4818,-93.750000
4819,-93.750000
4820,-93.750000
4821,-93.750000
4822,-93.750000
4823,-93.750000
4824,-93.750000
4825,-93.750000
4826,-93.750000
4827,-93.750000
4828,-93.750000
4829,-93.750000
4830,-93.750000
4831,-89.843750
4832,-89.843750
4833,-89.843750
4834,-89.843750
4835,-89.843750
4836,-89.843750
4837,-89.843750
4838,-89.843750
4839,-89.843750
4840,-89.843750
4841,-89.843750
4842,-89.843750
4843,-89.843750
4844,-89.843750
4845,-89.843750
4846,-89.843750
4847,-89.843750
4848,-89.843750
4849,-89.843750
4850,-89.843750
4851,-85.937500
4852,-85.937500
4853,-85.937500
4854,-85.937500
4855,-85.937500
4856,-85.937500
4857,-85.937500
4858,-85.937500
4859,-85.937500
4860,-85.937500
4861,-85.937500
4862,-85.937500
4863,-82.031250
4864,-85.937500
4865,-82.031250
4866,-82.031250
4867,-82.031250
4868,-85.937500
4869,-82.031250
4870,-82.031250
4871,-82.031250
4872,-82.031250
4873,-82.031250
4874,-82.031250
4875,-82.031250
4876,-82.031250
4877,-78.125000
4878,-78.125000
4879,-78.125000
4880,-78.125000
4881,-78.125000
4882,-78.125000
4883,-78.125000
4884,-78.125000
4885,-78.125000
4886,-78.125000
4887,-78.125000
4888,-74.218750
4889,-74.218750
4890,-74.218750
4891,-74.218750
4892,-74.218750
4893,-74.218750
4894,-74.218750
4895,-74.218750
4896,-74.218750
4897,-74.218750
4898,-70.312500
4899,-70.312500
4900,-70.312500
4901,-70.312500
4902,-70.312500
4903,-70.312500
4904,-70.312500
4905,-70.312500
4906,-70.312500
4907,-70.312500
4908,-70.312500
4909,-66.406250
4910,-66.406250
4911,-66.406250
4912,-66.406250
4913,-66.406250
4914,-66.406250
4915,-66.406250
4916,-66.406250
4917,-62.500000
4918,-62.500000
4919,-62.500000
4920,-62.500000
4921,-62.500000
4922,-62.500000
4923,-62.500000
4924,-62.500000
4925,-62.500000
4926,-62.500000
4927,-58.593750
4928,-58.593750
4929,-58.593750
4930,-58.593750
4931,-58.593750
4932,-58.593750
4933,-54.687500
4934,-54.687500
4935,-54.687500
4936,-54.687500
4937,-54.687500
4938,-54.687500
4939,-54.687500
4940,-54.687500
4941,-54.687500
4942,-54.687500
4943,-50.781250
4944,-50.781250
4945,-50.781250
4946,-50.781250
4947,-50.781250
4948,-50.781250
4949,-50.781250
4950,-46.875000
4951,-46.875000
4952,-46.875000
4953,-46.875000
4954,-46.875000
4955,-46.875000
4956,-46.875000
4957,-46.875000
4958,-42.968750
4959,-42.968750
4960,-42.968750
4961,-42.968750
4962,-42.968750
4963,-42.968750
4964,-42.968750
4965,-39.062500
4966,-39.062500
4967,-39.062500
4968,-39.062500
4969,-39.062500
4970,-39.062500
4971,-39.062500
4972,-35.156250
4973,-39.062500
4974,-35.156250
4975,-35.156250
4976,-35.156250
4977,-35.156250
4978,-35.156250
4979,-35.156250
4980,-35.156250
4981,-31.250000
4982,-31.250000
4983,-31.250000
4984,-31.250000
4985,-31.250000
4986,-31.250000
4987,-31.250000
4988,-31.250000
4989,-27.343750
4990,-27.343750
4991,-27.343750
4992,-27.343750
4993,-27.343750
4994,-27.343750
4995,-27.343750
4996,-27.343750
4997,-27.343750
4998,-23.437500
4999,-23.437500
5000,-23.437500
5001,-23.437500
5002,-23.437500
5003,-19.531250
5004,-19.531250
5005,-19.531250
5006,-19.531250
5007,-19.531250
5008,-19.531250
5009,-19.531250
5010,-19.531250
5011,-15.625000
5012,-15.625000
5013,-15.625000
5014,-15.625000
5015,-15.625000
5016,-15.625000
5017,-15.625000
5018,-15.625000
5019,-11.718750
5020,-11.718750
5021,-11.718750
5022,-11.718750
5023,-11.718750
5024,-7.812500
5025,-7.812500
5026,-7.812500
5027,-7.812500
5028,-7.812500
5029,-7.812500
5030,-7.812500
5031,-3.906250
5032,-7.812500
5033,-3.906250
5034,-3.906250
5035,-3.906250
5036,-3.906250
5037,-3.906250
5038,-3.906250
5039,-3.906250
5040,0.000000
5041,0.000000
5042,0.000000
5043,0.000000
5044,0.000000
5045,0.000000
5046,3.906250
5047,0.000000
5048,3.906250
5049,3.906250
5050,3.906250
5051,3.906250
5052,3.906250
5053,3.906250
5054,7.812500
5055,7.812500
5056,7.812500
5057,7.812500
5058,7.812500
5059,7.812500
5060,7.812500
5061,7.812500
5062,7.812500
5063,11.718750
5064,11.718750
5065,11.718750
5066,11.718750
5067,11.718750
5068,11.718750
5069,11.718750
5070,11.718750
5071,15.625000
5072,15.625000
5073,15.625000
5074,15.625000
5075,15.625000
5076,15.625000
5077,15.625000
5078,19.531250
5079,19.531250
5080,19.531250
5081,19.531250
5082,19.531250
5083,19.531250
5084,19.531250
5085,23.437500
5086,23.437500
5087,23.437500
5088,23.437500
5089,23.437500
5090,23.437500
5091,23.437500
5092,23.437500
5093,23.437500
5094,27.343750
5095,27.343750
5096,27.343750
5097,27.343750
5098,27.343750
5099,27.343750
5100,27.343750
5101,27.343750
5102,27.343750
5103,27.343750
5104,31.250000
5105,31.250000
5106,31.250000
5107,31.250000
5108,31.250000
5109,31.250000
5110,31.250000
5111,31.250000
5112,31.250000
5113,35.156250
5114,35.156250
5115,35.156250
5116,35.156250
5117,35.156250
5118,35.156250
5119,35.156250
5120,35.156250
5121,35.156250
5122,39.062500
5123,39.062500
5124,39.062500
5125,39.062500
5126,39.062500
5127,39.062500
5128,39.062500
5129,39.062500
5130,39.062500
5131,39.062500
5132,39.062500
5133,42.968750
5134,42.968750
5135,42.968750
5136,42.968750
5137,42.968750
5138,42.968750
5139,42.968750
5140,42.968750
5141,42.968750
5142,42.968750
5143,46.875000
5144,46.875000
5145,46.875000
5146,46.875000
5147,46.875000
5148,46.875000
5149,46.875000
5150,46.875000
5151,46.875000
5152,46.875000
5153,50.781250
5154,50.781250
5155,50.781250
5156,50.781250
5157,50.781250
5158,50.781250
5159,50.781250
5160,50.781250
5161,50.781250
5162,50.781250
5163,50.781250
5164,50.781250
5165,50.781250
5166,50.781250
5167,54.687500
5168,54.687500
5169,54.687500
5170,54.687500
5171,54.687500
5172,54.687500
5173,54.687500
5174,54.687500
5175,54.687500
5176,54.687500
5177,54.687500
5178,58.593750
5179,58.593750
5180,58.593750
5181,58.593750
5182,58.593750
5183,58.593750
5184,58.593750
5185,58.593750
5186,58.593750
5187,58.593750
5188,58.593750
5189,58.593750
5190,58.593750
5191,58.593750
5192,58.593750
5193,58.593750
5194,58.593750
5195,58.593750
5196,62.500000
5197,62.500000
5198,62.500000
5199,62.500000
5200,62.500000
5201,62.500000
5202,62.500000
5203,62.500000
5204,62.500000
5205,62.500000
5206,62.500000
5207,62.500000
5208,62.500000
5209,62.500000
5210,62.500000
5211,62.500000
5212,62.500000
5213,62.500000
5214,66.406250
5215,66.406250
5216,66.406250
5217,66.406250
5218,66.406250
5219,66.406250
5220,66.406250
5221,66.406250
5222,66.406250
5223,66.406250
5224,66.406250
5225,66.406250
5226,66.406250
5227,66.406250
5228,66.406250
5229,66.406250
5230,66.406250
5231,70.312500
5232,66.406250
5233,66.406250
5234,70.312500
5235,66.406250
5236,66.406250
5237,70.312500
5238,66.406250
5239,66.406250
5240,66.406250
5241,70.312500
5242,66.406250
5243,66.406250
5244,66.406250
5245,66.406250
5246,70.312500
5247,66.406250
5248,70.312500
5249,70.312500
5250,70.312500
5251,70.312500
5252,70.312500
5253,70.312500
5254,66.406250
5255,70.312500
5256,70.312500
5257,70.312500
5258,66.406250
5259,70.312500
5260,70.312500
5261,70.312500
5262,66.406250
5263,70.312500
5264,70.312500
5265,70.312500
5266,66.406250
5267,70.312500
5268,70.312500
5269,70.312500
5270,70.312500
5271,70.312500
5272,70.312500
5273,70.312500
5274,70.312500
5275,70.312500
5276,70.312500
5277,70.312500
5278,70.312500
5279,70.312500
5280,70.312500
5281,70.312500
5282,70.312500
5283,70.312500
5284,70.312500
5285,70.312500
5286,70.312500
5287,70.312500
5288,70.312500
5289,70.312500
5290,66.406250
5291,70.312500
5292,66.406250
5293,70.312500
5294,70.312500
5295,70.312500
5296,66.406250
5297,70.312500
5298,70.312500
5299,66.406250
5300,66.406250
5301,66.406250
5302,66.406250
5303,66.406250
5304,66.406250
5305,70.312500
5306,66.406250
5307,66.406250
5308,66.406250
5309,66.406250
5310,66.406250
5311,66.406250
5312,66.406250
5313,66.406250
5314,66.406250
5315,66.406250
5316,66.406250
5317,66.406250
5318,66.406250
5319,66.406250
5320,66.406250
5321,66.406250
5322,66.406250
5323,66.406250
5324,66.406250
5325,66.406250
5326,66.406250
5327,66.406250
5328,66.406250
5329,66.406250
5330,62.500000
5331,66.406250
5332,62.500000
5333,66.406250
5334,66.406250
5335,66.406250
5336,62.500000
5337,62.500000
5338,62.500000
5339,62.500000
5340,62.500000
5341,62.500000
5342,62.500000
5343,62.500000
5344,62.500000
5345,62.500000
5346,62.500000
5347,62.500000
5348,62.500000
5349,62.500000
5350,58.593750
5351,62.500000
5352,62.500000
5353,62.500000
5354,58.593750
5355,58.593750
5356,58.593750
5357,58.593750
5358,58.593750
5359,58.593750
5360,58.593750
5361,58.593750
5362,58.593750
5363,58.593750
5364,58.593750
5365,58.593750
5366,58.593750
5367,58.593750
5368,54.687500
5369,54.687500
5370,58.593750
5371,54.687500
5372,54.687500
5373,58.593750
5374,54.687500
5375,54.687500
5376,54.687500
5377,54.687500
5378,54.687500
5379,54.687500
5380,54.687500
5381,50.781250
5382,50.781250
5383,50.781250
5384,50.781250
5385,50.781250
5386,50.781250
5387,50.781250
5388,50.781250
5389,50.781250
5390,50.781250
5391,50.781250
5392,50.781250
5393,46.875000
5394,46.875000
5395,46.875000
5396,46.875000
5397,46.875000
5398,46.875000
5399,46.875000
5400,46.875000
5401,46.875000
5402,46.875000
5403,46.875000
5404,42.968750
5405,46.875000
5406,42.968750
5407,42.968750
5408,42.968750
5409,42.968750
5410,42.968750
5411,42.968750
5412,42.968750
5413,42.968750
5414,42.968750
5415,39.062500
5416,39.062500
5417,39.062500
5418,39.062500
5419,39.062500
5420,39.062500
5421,39.062500
5422,39.062500
5423,39.062500
5424,39.062500
5425,35.156250
5426,35.156250
5427,35.156250
5428,35.156250
5429,35.156250
5430,35.156250
5431,35.156250
5432,35.156250
5433,35.156250
5434,31.250000
5435,31.250000
5436,31.250000
5437,31.250000
5438,31.250000
5439,31.250000
5440,31.250000
5441,31.250000
5442,31.250000
5443,31.250000
5444,27.343750
5445,27.343750
5446,27.343750
5447,27.343750
5448,27.343750
5449,27.343750
5450,27.343750
5451,27.343750
5452,27.343750
5453,27.343750
5454,23.437500
5455,23.437500
5456,23.437500
5457,23.437500
5458,23.437500
5459,23.437500
5460,23.437500
5461,19.531250
5462,23.437500
5463,19.531250
5464,19.531250
5465,19.531250
5466,19.531250
5467,19.531250
5468,19.531250
5469,19.531250
5470,19.531250
5471,15.625000
5472,15.625000
5473,15.625000
5474,15.625000
5475,15.625000
5476,15.625000
5477,15.625000
5478,11.718750
5479,11.718750
5480,11.718750
5481,11.718750
5482,11.718750
5483,11.718750
5484,11.718750
5485,7.812500
5486,7.812500
5487,7.812500
5488,7.812500
5489,7.812500
5490,7.812500
5491,7.812500
5492,7.812500
5493,7.812500
5494,3.906250
5495,3.906250
5496,3.906250
5497,3.906250
5498,3.906250
5499,3.906250
5500,0.000000
5501,0.000000
5502,0.000000
5503,0.000000
5504,0.000000
5505,0.000000
5506,0.000000
5507,0.000000
5508,-3.906250
5509,-3.906250
5510,-3.906250
5511,-3.906250
5512,-3.906250
5513,-3.906250
5514,-3.906250
5515,-3.906250
5516,-7.812500
5517,-7.812500
5518,-7.812500
5519,-7.812500
5520,-7.812500
5521,-11.718750
5522,-11.718750
5523,-11.718750
5524,-11.718750
5525,-11.718750
5526,-11.718750
5527,-11.718750
5528,-11.718750
5529,-11.718750
5530,-15.625000
5531,-15.625000
5532,-15.625000
5533,-15.625000
5534,-15.625000
5535,-15.625000
5536,-19.531250
5537,-19.531250
5538,-19.531250
5539,-19.531250
5540,-19.531250
5541,-19.531250
5542,-19.531250
5543,-19.531250
5544,-23.437500
5545,-23.437500
5546,-23.437500
5547,-23.437500
5548,-23.437500
5549,-23.437500
5550,-23.437500
5551,-27.343750
5552,-27.343750
5553,-27.343750
5554,-27.343750
5555,-27.343750
5556,-27.343750
5557,-27.343750
5558,-27.343750
5559,-27.343750
5560,-31.250000
5561,-31.250000
5562,-31.250000
5563,-31.250000
5564,-31.250000
5565,-31.250000
5566,-31.250000
5567,-35.156250
5568,-35.156250
5569,-35.156250
5570,-35.156250
5571,-35.156250
5572,-35.156250
5573,-35.156250
5574,-39.062500
5575,-39.062500
5576,-39.062500
5577,-39.062500
5578,-39.062500
5579,-39.062500
5580,-39.062500
5581,-39.062500
5582,-39.062500
5583,-42.968750
5584,-42.968750
5585,-42.968750
5586,-42.968750
5587,-42.968750
5588,-42.968750
5589,-42.968750
5590,-46.875000
5591,-46.875000
5592,-46.875000
5593,-46.875000
5594,-46.875000
5595,-46.875000
5596,-46.875000
5597,-46.875000
5598,-46.875000
5599,-50.781250
5600,-50.781250
5601,-50.781250
5602,-50.781250
5603,-50.781250
5604,-54.687500
5605,-50.781250
5606,-54.687500
5607,-54.687500
5608,-54.687500
5609,-54.687500
5610,-54.687500
5611,-54.687500
5612,-58.593750
5613,-58.593750
5614,-58.593750
5615,-58.593750
5616,-58.593750
5617,-58.593750
5618,-58.593750
5619,-58.593750
5620,-58.593750
5621,-62.500000
5622,-62.500000
5623,-62.500000
5624,-62.500000
5625,-62.500000
5626,-62.500000
5627,-62.500000
5628,-62.500000
5629,-62.500000
5630,-66.406250
5631,-66.406250
5632,-66.406250
5633,-66.406250
5634,-66.406250
5635,-66.406250
5636,-66.406250
5637,-66.406250
5638,-70.312500
5639,-70.312500
5640,-70.312500
5641,-70.312500
5642,-70.312500
5643,-70.312500
5644,-70.312500
5645,-70.312500
5646,-70.312500
5647,-70.312500
5648,-70.312500
5649,-70.312500
5650,-74.218750
5651,-74.218750
5652,-74.218750
5653,-74.218750
5654,-74.218750
5655,-74.218750
5656,-74.218750
5657,-74.218750
5658,-78.125000
5659,-78.125000
5660,-78.125000
5661,-78.125000
5662,-78.125000
5663,-78.125000
5664,-78.125000
5665,-78.125000
5666,-78.125000
5667,-78.125000
5668,-82.031250
5669,-82.031250
5670,-82.031250
5671,-82.031250
5672,-82.031250
5673,-82.031250
5674,-82.031250
5675,-82.031250
5676,-82.031250
5677,-85.937500
5678,-82.031250
5679,-82.031250
5680,-85.937500
5681,-85.937500
5682,-85.937500
5683,-85.937500
5684,-85.937500
5685,-85.937500
5686,-85.937500
5687,-85.937500
5688,-85.937500
5689,-85.937500
5690,-85.937500
5691,-85.937500
5692,-89.843750
5693,-89.843750
5694,-89.843750
5695,-89.843750
5696,-89.843750
5697,-89.843750
5698,-89.843750
5699,-89.843750
5700,-89.843750
5701,-93.750000
5702,-89.843750
5703,-89.843750
5704,-89.843750
5705,-89.843750
5706,-89.843750
5707,-89.843750
5708,-89.843750
5709,-93.750000
5710,-93.750000
5711,-93.750000
5712,-93.750000
5713,-93.750000
5714,-93.750000
5715,-93.750000
5716,-93.750000
5717,-93.750000
5718,-93.750000
5719,-93.750000
5720,-93.750000
5721,-93.750000
5722,-93.750000
5723,-93.750000
5724,-93.750000
5725,-93.750000
5726,-93.750000
5727,-93.750000
5728,-93.750000
5729,-93.750000
5730,-93.750000
5731,-93.750000
5732,-93.750000
5733,-93.750000
5734,-97.656250
5735,-97.656250
5736,-97.656250
5737,-97.656250
5738,-97.656250
5739,-93.750000
5740,-97.656250
5741,-97.656250
5742,-97.656250
5743,-97.656250
5744,-97.656250
5745,-97.656250
5746,-97.656250
5747,-97.656250
5748,-97.656250
5749,-97.656250
5750,-97.656250
5751,-97.656250
5752,-97.656250
5753,-97.656250
5754,-97.656250
5755,-97.656250
5756,-97.656250
5757,-97.656250
5758,-97.656250
5759,-97.656250
5760,-97.656250
5761,-97.656250
5762,-97.656250
5763,-97.656250
5764,-97.656250
5765,-97.656250
5766,-97.656250
5767,-97.656250
5768,-97.656250
5769,-97.656250
5770,-97.656250
5771,-97.656250
5772,-101.562500
5773,-97.656250
5774,-97.656250
5775,-97.656250
5776,-97.656250
5777,-97.656250
5778,-97.656250
5779,-97.656250
5780,-97.656250
5781,-97.656250
5782,-97.656250
5783,-97.656250
5784,-101.562500
5785,-97.656250
5786,-97.656250
5787,-97.656250
5788,-97.656250
5789,-97.656250
5790,-97.656250
5791,-97.656250
5792,-97.656250
5793,-97.656250
5794,-97.656250
5795,-97.656250
5796,-97.656250
5797,-97.656250
5798,-97.656250
5799,-97.656250
5800,-97.656250
5801,-97.656250
5802,-97.656250
5803,-97.656250
5804,-97.656250
5805,-97.656250
5806,-97.656250
5807,-97.656250
5808,-93.750000
5809,-93.750000
5810,-93.750000
5811,-97.656250
5812,-93.750000
5813,-93.750000
5814,-93.750000
5815,-93.750000
5816,-93.750000
5817,-93.750000
5818,-93.750000
5819,-93.750000
5820,-93.750000
5821,-93.750000
5822,-93.750000
5823,-93.750000
5824,-93.750000
5825,-93.750000
5826,-93.750000
5827,-93.750000
5828,-89.843750
5829,-89.843750
5830,-89.843750
5831,-93.750000
5832,-89.843750
5833,-89.843750
5834,-89.843750
5835,-89.843750
5836,-89.843750
5837,-89.843750
5838,-89.843750
5839,-89.843750
5840,-89.843750
5841,-89.843750
5842,-89.843750
5843,-89.843750
5844,-85.937500
5845,-85.937500
5846,-85.937500
5847,-85.937500
5848,-85.937500
5849,-85.937500
5850,-85.937500
5851,-85.937500
5852,-85.937500
5853,-85.937500
5854,-85.937500
5855,-85.937500
5856,-85.937500
5857,-85.937500
5858,-85.937500
5859,-85.937500
5860,-85.937500
5861,-82.031250
5862,-82.031250
5863,-82.031250
5864,-82.031250
5865,-82.031250
5866,-82.031250
5867,-82.031250
5868,-78.125000
5869,-82.031250
5870,-82.031250
5871,-78.125000
5872,-78.125000
5873,-78.125000
5874,-78.125000
5875,-78.125000
5876,-78.125000
5877,-78.125000
5878,-78.125000
5879,-78.125000
5880,-78.125000
5881,-74.218750
5882,-74.218750
5883,-74.218750
5884,-74.218750
5885,-74.218750
5886,-74.218750
5887,-74.218750
5888,-74.218750
5889,-74.218750
5890,-74.218750
5891,-70.312500
5892,-70.312500
5893,-70.312500
5894,-70.312500
5895,-70.312500
5896,-70.312500
5897,-70.312500
5898,-70.312500
5899,-70.312500
5900,-70.312500
5901,-70.312500
5902,-70.312500
5903,-66.406250
5904,-66.406250
5905,-66.406250
5906,-66.406250
5907,-66.406250
5908,-62.500000
5909,-66.406250
5910,-66.406250
5911,-62.500000
5912,-62.500000
5913,-62.500000
5914,-62.500000
5915,-62.500000
5916,-62.500000
5917,-62.500000
5918,-58.593750
5919,-58.593750
5920,-58.593750
5921,-58.593750
5922,-58.593750
5923,-58.593750
5924,-58.593750
5925,-58.593750
5926,-58.593750
5927,-54.687500
5928,-54.687500
5929,-54.687500
5930,-54.687500
5931,-54.687500
5932,-54.687500
5933,-54.687500
5934,-54.687500
5935,-50.781250
5936,-50.781250
5937,-50.781250
5938,-50.781250
5939,-50.781250
5940,-50.781250
5941,-46.875000
5942,-46.875000
5943,-46.875000
5944,-46.875000
5945,-46.875000
5946,-46.875000
5947,-46.875000
5948,-46.875000
5949,-42.968750
5950,-42.968750
5951,-42.968750
5952,-42.968750
5953,-42.968750
5954,-42.968750
5955,-42.968750
5956,-42.968750
5957,-39.062500
5958,-39.062500
5959,-39.062500
5960,-39.062500
5961,-39.062500
5962,-39.062500
5963,-39.062500
5964,-35.156250
5965,-39.062500
5966,-35.156250
5967,-35.156250
5968,-35.156250
5969,-35.156250
5970,-35.156250
5971,-31.250000
5972,-31.250000
5973,-31.250000
5974,-31.250000
5975,-31.250000
5976,-31.250000
5977,-31.250000
5978,-27.343750
5979,-27.343750
5980,-27.343750
5981,-27.343750
5982,-27.343750
5983,-27.343750
5984,-27.343750
5985,-27.343750
5986,-23.437500
5987,-23.437500
5988,-23.437500
5989,-23.437500
5990,-23.437500
5991,-23.437500
5992,-23.437500
5993,-19.531250
5994,-19.531250
5995,-19.531250
5996,-19.531250
5997,-19.531250
5998,-19.531250
5999,-19.531250
6000,-19.531250
6001,-15.625000
6002,-15.625000
6003,-15.625000
6004,-15.625000
6005,-15.625000
6006,-15.625000
6007,-11.718750
6008,-11.718750
6009,-11.718750
6010,-11.718750
6011,-11.718750
6012,-11.718750
6013,-7.812500
6014,-11.718750
6015,-7.812500
6016,-7.812500
6017,-7.812500
6018,-7.812500
6019,-7.812500
6020,-7.812500
6021,-7.812500
6022,-7.812500
6023,-3.906250
6024,-3.906250
6025,-3.906250
6026,-3.906250
6027,-3.906250
6028,-3.906250
6029,0.000000
6030,0.000000
6031,0.000000
6032,0.000000
6033,0.000000
6034,0.000000
6035,0.000000
6036,0.000000
6037,0.000000
6038,3.906250
6039,3.906250
6040,3.906250
6041,3.906250
6042,3.906250
6043,3.906250
6044,7.812500
6045,3.906250
6046,7.812500
6047,7.812500
6048,7.812500
6049,7.812500
6050,7.812500
6051,7.812500
6052,7.812500
6053,11.718750
6054,11.718750
6055,11.718750
6056,11.718750
6057,11.718750
6058,11.718750
6059,15.625000
6060,15.625000
6061,15.625000
6062,15.625000
6063,15.625000
6064,15.625000
6065,11.718750
6066,15.625000
6067,15.625000
6068,11.718750
6069,19.531250
6070,19.531250
6071,19.531250
6072,19.531250
6073,19.531250
6074,15.625000
6075,19.531250
6076,23.437500
6077,19.531250
6078,23.437500
6079,23.437500
6080,23.437500
6081,23.437500
6082,23.437500
6083,23.437500
6084,23.437500
6085,27.343750
6086,27.343750
6087,27.343750
6088,27.343750
6089,27.343750
6090,27.343750
6091,27.343750
6092,27.343750
6093,31.250000
6094,31.250000
6095,31.250000
6096,31.250000
6097,31.250000
6098,31.250000
6099,31.250000
6100,35.156250
6101,35.156250
6102,35.156250
6103,35.156250
6104,35.156250
6105,35.156250
6106,31.250000
6107,35.156250
6108,35.156250
6109,35.156250
6110,35.156250
6111,39.062500
6112,39.062500
6113,39.062500
6114,39.062500
6115,39.062500
6116,39.062500
6117,39.062500
6118,39.062500
6119,39.062500
6120,39.062500
6121,42.968750
6122,42.968750
6123,42.968750
6124,42.968750
6125,42.968750
6126,42.968750
6127,42.968750
6128,42.968750
6129,42.968750
6130,46.875000
6131,42.968750
6132,46.875000
6133,46.875000
6134,46.875000
6135,46.875000
6136,46.875000
6137,46.875000
6138,46.875000
6139,46.875000
6140,46.875000
6141,46.875000
6142,46.875000
6143,50.781250
6144,50.781250
6145,50.781250
6146,50.781250
6147,50.781250
6148,50.781250
6149,50.781250
6150,50.781250
6151,50.781250
6152,50.781250
6153,54.687500
6154,50.781250
6155,54.687500
6156,54.687500
6157,54.687500
6158,54.687500
6159,54.687500
6160,54.687500
6161,54.687500
6162,54.687500
6163,54.687500
6164,54.687500
6165,54.687500
6166,54.687500
6167,54.687500
6168,54.687500
6169,54.687500
6170,58.593750
6171,58.593750
6172,58.593750
6173,58.593750
6174,58.593750
6175,58.593750
6176,58.593750
6177,58.593750
6178,58.593750
6179,58.593750
6180,58.593750
6181,58.593750
6182,58.593750
6183,62.500000
6184,62.500000
6185,62.500000
6186,62.500000
6187,62.500000
6188,62.500000
6189,62.500000
6190,62.500000
6191,62.500000
6192,62.500000
6193,62.500000
6194,62.500000
6195,62.500000
6196,62.500000
6197,62.500000
6198,62.500000
6199,62.500000
6200,62.500000
6201,62.500000
6202,62.500000
6203,66.406250
6204,66.406250
6205,66.406250
6206,66.406250
6207,66.406250
6208,66.406250
6209,66.406250
6210,66.406250
6211,66.406250
6212,66.406250
6213,66.406250
6214,66.406250
6215,66.406250
6216,66.406250
6217,66.406250
6218,66.406250
6219,66.406250
6220,66.406250
6221,66.406250
6222,66.406250
6223,66.406250
6224,66.406250
6225,66.406250
6226,66.406250
6227,70.312500
6228,70.312500
6229,70.312500
6230,70.312500
6231,70.312500
6232,70.312500
6233,70.312500
6234,70.312500
6235,70.312500
6236,66.406250
6237,70.312500
6238,70.312500
6239,70.312500
6240,70.312500
6241,70.312500
6242,70.312500
6243,70.312500
6244,70.312500
6245,70.312500
6246,70.312500
6247,70.312500
6248,70.312500
6249,70.312500
6250,70.312500
6251,70.312500
6252,70.312500
6253,70.312500
6254,70.312500
6255,70.312500
6256,70.312500
6257,70.312500
6258,70.312500
6259,70.312500
6260,70.312500
6261,70.312500
6262,70.312500
6263,70.312500
6264,70.312500
6265,70.312500
6266,70.312500
6267,70.312500
6268,70.312500
6269,70.312500
6270,70.312500
6271,70.312500
6272,70.312500
6273,70.312500
6274,70.312500
6275,70.312500
6276,70.312500
6277,70.312500
6278,70.312500
6279,70.312500
6280,70.312500
6281,70.312500
6282,70.312500
6283,70.312500
6284,70.312500
6285,70.312500
6286,70.312500
6287,70.312500
6288,70.312500
6289,70.312500
6290,66.406250
6291,66.406250
6292,70.312500
6293,70.312500
6294,70.312500
6295,66.406250
6296,66.406250
6297,70.312500
6298,66.406250
6299,70.312500
6300,70.312500
6301,66.406250
6302,66.406250
6303,66.406250
6304,66.406250
6305,66.406250
6306,66.406250
6307,66.406250
6308,66.406250
6309,66.406250
6310,66.406250
6311,66.406250
6312,66.406250
6313,66.406250
6314,66.406250
6315,66.406250
6316,66.406250
6317,66.406250
6318,66.406250
6319,66.406250
6320,66.406250
6321,66.406250
6322,66.406250
6323,66.406250
6324,66.406250
6325,66.406250
6326,62.500000
6327,62.500000
6328,62.500000
6329,62.500000
6330,62.500000
6331,62.500000
6332,62.500000
6333,62.500000
6334,62.500000
6335,62.500000
6336,62.500000
6337,62.500000
6338,62.500000
6339,62.500000
6340,62.500000
6341,62.500000
6342,62.500000
6343,62.500000
6344,62.500000
6345,58.593750
6346,58.593750
6347,58.593750
6348,58.593750
6349,58.593750
6350,58.593750
6351,58.593750
6352,58.593750
6353,58.593750
6354,58.593750
6355,58.593750
6356,58.593750
6357,58.593750
6358,58.593750
6359,58.593750
6360,58.593750
6361,58.593750
6362,58.593750
6363,54.687500
6364,54.687500
6365,54.687500
6366,54.687500
6367,54.687500
6368,54.687500
6369,54.687500
6370,54.687500
6371,54.687500
6372,50.781250
6373,54.687500
6374,54.687500
6375,54.687500
6376,50.781250
6377,50.781250
6378,50.781250
6379,50.781250
6380,50.781250
6381,50.781250
6382,50.781250
6383,50.781250
6384,50.781250
6385,50.781250
6386,50.781250
6387,50.781250
6388,50.781250
6389,46.875000
6390,46.875000
6391,46.875000
6392,46.875000
6393,46.875000
6394,46.875000
6395,46.875000
6396,46.875000
6397,46.875000
6398,46.875000
6399,42.968750
6400,42.968750
6401,42.968750
6402,42.968750
6403,42.968750
6404,42.968750
6405,42.968750
6406,42.968750
6407,42.968750
6408,39.062500
6409,39.062500
6410,39.062500
6411,39.062500
6412,39.062500
6413,39.062500
6414,39.062500
6415,39.062500
6416,39.062500
6417,39.062500
6418,35.156250
6419,35.156250
6420,35.156250
6421,35.156250
6422,35.156250
6423,35.156250
6424,35.156250
6425,35.156250
6426,35.156250
6427,31.250000
6428,31.250000
6429,31.250000
6430,31.250000
6431,31.250000
6432,31.250000
6433,31.250000
6434,31.250000
6435,31.250000
6436,31.250000
6437,27.343750
6438,27.343750
6439,27.343750
6440,27.343750
6441,27.343750
6442,27.343750
6443,27.343750
6444,27.343750
6445,23.437500
6446,23.437500
6447,23.437500
6448,23.437500
6449,23.437500
6450,23.437500
6451,19.531250
6452,23.437500
6453,23.437500
6454,19.531250
6455,19.531250
6456,19.531250
6457,19.531250
6458,19.531250
6459,19.531250
6460,15.625000
6461,15.625000
6462,15.625000
6463,19.531250
6464,15.625000
6465,15.625000
6466,15.625000
6467,15.625000
6468,15.625000
6469,11.718750
6470,11.718750
6471,11.718750
6472,11.718750
6473,11.718750
6474,11.718750
6475,11.718750
6476,7.812500
6477,7.812500
6478,7.812500
6479,7.812500
6480,7.812500
6481,7.812500
6482,7.812500
6483,7.812500
6484,7.812500
6485,3.906250
6486,7.812500
6487,3.906250
6488,3.906250
6489,3.906250
6490,3.906250
6491,0.000000
6492,0.000000
6493,0.000000
6494,0.000000
6495,0.000000
6496,0.000000
6497,0.000000
6498,0.000000
6499,0.000000
6500,0.000000
6501,-3.906250
6502,-3.906250
6503,-3.906250
6504,-3.906250
6505,-3.906250
6506,-7.812500
6507,-7.812500
6508,-7.812500
6509,-7.812500
6510,-7.812500
6511,-7.812500
6512,-7.812500
6513,-7.812500
6514,-7.812500
6515,-11.718750
6516,-11.718750
6517,-11.718750
6518,-11.718750
6519,-11.718750
6520,-11.718750
6521,-11.718750
6522,-15.625000
6523,-15.625000
6524,-15.625000
6525,-15.625000
6526,-15.625000
6527,-15.625000
6528,-19.531250
6529,-19.531250
6530,-19.531250
6531,-19.531250
6532,-19.531250
6533,-19.531250
6534,-19.531250
6535,-23.437500
6536,-23.437500
6537,-23.437500
6538,-23.437500
6539,-23.437500
6540,-23.437500
6541,-27.343750
6542,-27.343750
6543,-27.343750
6544,-27.343750
6545,-27.343750
6546,-27.343750
6547,-27.343750
6548,-27.343750
6549,-27.343750
6550,-31.250000
6551,-31.250000
6552,-31.250000
6553,-31.250000
6554,-31.250000
6555,-31.250000
6556,-35.156250
6557,-35.156250
6558,-35.156250
6559,-35.156250
6560,-35.156250
6561,-35.156250
6562,-35.156250
6563,-35.156250
6564,-35.156250
6565,-35.156250
6566,-39.062500
6567,-39.062500
6568,-39.062500
6569,-39.062500
6570,-39.062500
6571,-39.062500
6572,-42.968750
6573,-42.968750
6574,-42.968750
6575,-42.968750
6576,-42.968750
6577,-42.968750
6578,-42.968750
6579,-42.968750
6580,-46.875000
6581,-46.875000
6582,-46.875000
6583,-46.875000
6584,-46.875000
6585,-46.875000
6586,-46.875000
6587,-46.875000
6588,-50.781250
6589,-50.781250
6590,-50.781250
6591,-50.781250
6592,-50.781250
6593,-50.781250
6594,-50.781250
6595,-50.781250
6596,-50.781250
6597,-54.687500
6598,-54.687500
6599,-54.687500
6600,-54.687500
6601,-54.687500
6602,-54.687500
6603,-58.593750
6604,-58.593750
6605,-58.593750
6606,-58.593750
6607,-58.593750
6608,-58.593750
6609,-58.593750
6610,-58.593750
6611,-58.593750
6612,-62.500000
6613,-62.500000
6614,-62.500000
6615,-62.500000
6616,-62.500000
6617,-62.500000
6618,-62.500000
6619,-62.500000
6620,-62.500000
6621,-62.500000
6622,-66.406250
6623,-66.406250
6624,-66.406250
6625,-66.406250
6626,-66.406250
6627,-66.406250
6628,-66.406250
6629,-66.406250
6630,-66.406250
6631,-66.406250
6632,-70.312500
6633,-70.312500
6634,-70.312500
6635,-70.312500
6636,-70.312500
6637,-70.312500
6638,-70.312500
6639,-70.312500
6640,-74.218750
6641,-74.218750
6642,-74.218750
6643,-74.218750
6644,-74.218750
6645,-74.218750
6646,-74.218750
6647,-74.218750
6648,-74.218750
6649,-74.218750
6650,-74.218750
6651,-78.125000
6652,-78.125000
6653,-78.125000
6654,-78.125000
6655,-78.125000
6656,-78.125000
6657,-78.125000
6658,-78.125000
6659,-82.031250
6660,-82.031250
6661,-82.031250
6662,-82.031250
6663,-82.031250
6664,-82.031250
6665,-82.031250
6666,-82.031250
6667,-82.031250
6668,-82.031250
6669,-85.937500
6670,-82.031250
6671,-82.031250
6672,-85.937500
6673,-85.937500
6674,-85.937500
6675,-85.937500
6676,-85.937500
6677,-85.937500
6678,-85.937500
6679,-85.937500
6680,-85.937500
6681,-85.937500
6682,-85.937500
6683,-85.937500
6684,-85.937500
6685,-85.937500
6686,-89.843750
6687,-89.843750
6688,-89.843750
6689,-89.843750
6690,-89.843750
6691,-89.843750
6692,-89.843750
6693,-89.843750
6694,-89.843750
6695,-89.843750
6696,-89.843750
6697,-89.843750
6698,-89.843750
6699,-89.843750
6700,-93.750000
6701,-89.843750
6702,-89.843750
6703,-93.750000
6704,-93.750000
6705,-93.750000
6706,-93.750000
6707,-93.750000
6708,-93.750000
6709,-93.750000
6710,-93.750000
6711,-93.750000
6712,-93.750000
6713,-93.750000
6714,-93.750000
6715,-93.750000
6716,-93.750000
6717,-93.750000
6718,-93.750000
6719,-93.750000
6720,-93.750000
6721,-93.750000
6722,-93.750000
6723,-93.750000
6724,-93.750000
6725,-93.750000
6726,-93.750000
6727,-93.750000
6728,-97.656250
6729,-97.656250
6730,-97.656250
6731,-97.656250
6732,-97.656250
6733,-97.656250
6734,-93.750000
6735,-97.656250
6736,-97.656250
6737,-97.656250
6738,-97.656250
6739,-97.656250
6740,-97.656250
6741,-97.656250
6742,-97.656250
6743,-97.656250
6744,-97.656250
6745,-97.656250
6746,-97.656250
6747,-97.656250
6748,-97.656250
6749,-97.656250
6750,-97.656250
6751,-97.656250
6752,-97.656250
6753,-97.656250
6754,-97.656250
6755,-97.656250
6756,-97.656250
6757,-97.656250
6758,-97.656250
6759,-97.656250
6760,-97.656250
6761,-97.656250
6762,-97.656250
6763,-97.656250
6764,-97.656250
6765,-97.656250
6766,-97.656250
6767,-97.656250
6768,-97.656250
6769,-97.656250
6770,-97.656250
6771,-97.656250
6772,-97.656250
6773,-97.656250
6774,-97.656250
6775,-97.656250
6776,-97.656250
6777,-97.656250
6778,-97.656250
6779,-97.656250
6780,-97.656250
6781,-97.656250
6782,-97.656250
6783,-97.656250
6784,-97.656250
6785,-93.750000
6786,-97.656250
6787,-93.750000
6788,-97.656250
6789,-97.656250
6790,-97.656250
6791,-97.656250
6792,-93.750000
6793,-93.750000
6794,-93.750000
6795,-93.750000
6796,-93.750000
6797,-93.750000
6798,-93.750000
6799,-93.750000
6800,-93.750000
6801,-93.750000
6802,-93.750000
6803,-93.750000
6804,-93.750000
6805,-93.750000
6806,-93.750000
6807,-93.750000
6808,-93.750000
6809,-93.750000
6810,-93.750000
6811,-93.750000
6812,-93.750000
6813,-93.750000
6814,-89.843750
6815,-93.750000
6816,-93.750000
6817,-89.843750
6818,-89.843750
6819,-89.843750
6820,-89.843750
6821,-89.843750
6822,-89.843750
6823,-89.843750
6824,-89.843750
6825,-89.843750
6826,-89.843750
6827,-89.843750
6828,-89.843750
6829,-89.843750
6830,-89.843750
6831,-85.937500
6832,-89.843750
6833,-89.843750
6834,-89.843750
6835,-85.937500
6836,-85.937500
6837,-85.937500
6838,-85.937500
6839,-85.937500
6840,-85.937500
6841,-85.937500
6842,-85.937500
6843,-85.937500
6844,-85.937500
6845,-85.937500
6846,-85.937500
6847,-82.031250
6848,-82.031250
6849,-82.031250
6850,-82.031250
6851,-82.031250
6852,-82.031250
6853,-82.031250
6854,-82.031250
6855,-82.031250
6856,-82.031250
6857,-78.125000
6858,-78.125000
6859,-82.031250
6860,-78.125000
6861,-78.125000
6862,-78.125000
6863,-78.125000
6864,-78.125000
6865,-78.125000
6866,-74.218750
6867,-74.218750
6868,-74.218750
6869,-74.218750
6870,-74.218750
6871,-74.218750
6872,-74.218750
6873,-74.218750
6874,-74.218750
6875,-74.218750
6876,-74.218750
6877,-74.218750
6878,-70.312500
6879,-70.312500
6880,-70.312500
6881,-70.312500
6882,-70.312500
6883,-70.312500
6884,-70.312500
6885,-70.312500
6886,-66.406250
6887,-66.406250
6888,-66.406250
6889,-66.406250
6890,-66.406250
6891,-66.406250
6892,-66.406250
6893,-66.406250
6894,-66.406250
6895,-66.406250
6896,-62.500000
6897,-62.500000
6898,-62.500000
6899,-62.500000
6900,-62.500000
6901,-62.500000
6902,-62.500000
6903,-62.500000
6904,-62.500000
6905,-58.593750
6906,-58.593750
6907,-58.593750
6908,-58.593750
6909,-58.593750
6910,-58.593750
6911,-58.593750
6912,-58.593750
6913,-58.593750
6914,-58.593750
6915,-54.687500
6916,-54.687500
6917,-54.687500
6918,-54.687500
6919,-54.687500
6920,-54.687500
6921,-54.687500
6922,-54.687500
6923,-50.781250
6924,-50.781250
6925,-50.781250
6926,-50.781250
6927,-50.781250
6928,-50.781250
6929,-50.781250
6930,-50.781250
6931,-46.875000
6932,-46.875000
6933,-46.875000
6934,-46.875000
6935,-46.875000
6936,-46.875000
6937,-46.875000
6938,-42.968750
6939,-42.968750
6940,-42.968750
6941,-42.968750
6942,-42.968750
6943,-42.968750
6944,-39.062500
6945,-39.062500
6946,-42.968750
6947,-39.062500
6948,-39.062500
6949,-39.062500
6950,-39.062500
6951,-39.062500
6952,-39.062500
6953,-39.062500
6954,-35.156250
6955,-35.156250
6956,-35.156250
6957,-35.156250
6958,-35.156250
6959,-35.156250
6960,-35.156250
6961,-31.250000
6962,-31.250000
6963,-31.250000
6964,-31.250000
6965,-31.250000
6966,-31.250000
6967,-31.250000
6968,-31.250000
6969,-27.343750
6970,-27.343750
6971,-27.343750
6972,-27.343750
6973,-27.343750
6974,-27.343750
6975,-23.437500
6976,-23.437500
6977,-23.437500
6978,-23.437500
6979,-23.437500
6980,-23.437500
6981,-23.437500
6982,-23.437500
6983,-23.437500
6984,-19.531250
6985,-19.531250
6986,-19.531250
6987,-19.531250
6988,-19.531250
6989,-15.625000
6990,-15.625000
6991,-15.625000
6992,-15.625000
6993,-15.625000
6994,-15.625000
6995,-15.625000
6996,-15.625000
6997,-11.718750
6998,-11.718750
6999,-11.718750
7000,-11.718750
7001,-11.718750
7002,-11.718750
7003,-11.718750
7004,-11.718750
7005,-7.812500
7006,-7.812500
7007,-7.812500
7008,-7.812500
7009,-7.812500
7010,-7.812500
7011,-7.812500
7012,-3.906250
7013,-3.906250
7014,-3.906250
7015,-3.906250
7016,-3.906250
7017,-3.906250
7018,0.000000
7019,0.000000
7020,0.000000
7021,0.000000
7022,0.000000
7023,0.000000
7024,0.000000
7025,0.000000
7026,0.000000
7027,3.906250
7028,3.906250
7029,3.906250
7030,3.906250
7031,3.906250
7032,3.906250
7033,7.812500
7034,7.812500
7035,7.812500
7036,7.812500
7037,7.812500
7038,7.812500
7039,7.812500
7040,7.812500
7041,11.718750
7042,11.718750
7043,11.718750
7044,11.718750
7045,11.718750
7046,11.718750
7047,11.718750
7048,15.625000
7049,11.718750
7050,15.625000
7051,15.625000
7052,15.625000
7053,15.625000
7054,15.625000
7055,15.625000
7056,15.625000
7057,19.531250
7058,19.531250
7059,19.531250
7060,19.531250
7061,19.531250
7062,19.531250
7063,19.531250
7064,19.531250
7065,23.437500
7066,19.531250
7067,23.437500
7068,23.437500
7069,23.437500
7070,23.437500
7071,23.437500
7072,23.437500
7073,23.437500
7074,23.437500
7075,23.437500
7076,27.343750
7077,27.343750
7078,27.343750
7079,27.343750
7080,27.343750
7081,27.343750
7082,31.250000
7083,27.343750
7084,27.343750
7085,31.250000
7086,31.250000
7087,31.250000
7088,31.250000
7089,31.250000
7090,31.250000
7091,35.156250
7092,35.156250
7093,35.156250
7094,35.156250
7095,35.156250
7096,35.156250
7097,35.156250
7098,35.156250
7099,35.156250
7100,35.156250
7101,39.062500
7102,39.062500
7103,39.062500
7104,39.062500
7105,39.062500
7106,39.062500
7107,39.062500
7108,39.062500
7109,39.062500
7110,39.062500
7111,42.968750
7112,42.968750
7113,42.968750
7114,42.968750
7115,42.968750
7116,42.968750
7117,42.968750
7118,42.968750
7119,46.875000
7120,46.875000
7121,46.875000
7122,46.875000
7123,46.875000
7124,46.875000
7125,46.875000
7126,46.875000
7127,46.875000
7128,46.875000
7129,46.875000
7130,50.781250
7131,46.875000
7132,50.781250
7133,50.781250
7134,50.781250
7135,50.781250
7136,50.781250
7137,50.781250
7138,50.781250
7139,50.781250
7140,50.781250
7141,50.781250
7142,50.781250
7143,50.781250
7144,54.687500
7145,54.687500
7146,54.687500
7147,54.687500
7148,54.687500
7149,54.687500
7150,54.687500
7151,54.687500
7152,54.687500
7153,54.687500
7154,54.687500
7155,54.687500
7156,54.687500
7157,54.687500
7158,58.593750
7159,58.593750
7160,54.687500
7161,58.593750
7162,58.593750
7163,58.593750
7164,58.593750
7165,58.593750
7166,58.593750
7167,58.593750
7168,58.593750
7169,58.593750
7170,58.593750
7171,58.593750
7172,62.500000
7173,62.500000
7174,58.593750
7175,62.500000
7176,62.500000
7177,62.500000
7178,62.500000
7179,62.500000
7180,62.500000
7181,62.500000
7182,62.500000
7183,62.500000
7184,62.500000
7185,62.500000
7186,62.500000
7187,62.500000
7188,62.500000
7189,62.500000
7190,62.500000
7191,62.500000
7192,66.406250
7193,62.500000
7194,62.500000
7195,66.406250
7196,62.500000
7197,66.406250
7198,66.406250
7199,66.406250
7200,66.406250
7201,66.406250
7202,66.406250
7203,66.406250
7204,66.406250
7205,66.406250
7206,66.406250
7207,66.406250
7208,66.406250
7209,66.406250
7210,66.406250
7211,66.406250
7212,66.406250
7213,66.406250
7214,66.406250
7215,66.406250
7216,66.406250
7217,66.406250
7218,66.406250
7219,66.406250
7220,66.406250
7221,66.406250
7222,66.406250
7223,70.312500
7224,66.406250
7225,70.312500
7226,70.312500
7227,70.312500
7228,70.312500
7229,70.312500
7230,66.406250
7231,66.406250
7232,66.406250
7233,70.312500
7234,70.312500
7235,70.312500
7236,70.312500
7237,70.312500
7238,70.312500
7239,70.312500
7240,70.312500
7241,70.312500
7242,70.312500
7243,70.312500
7244,70.312500
7245,70.312500
7246,70.312500
7247,70.312500
7248,70.312500
7249,70.312500
7250,70.312500
7251,70.312500
7252,70.312500
7253,70.312500
7254,70.312500
7255,70.312500
7256,70.312500
7257,70.312500
7258,70.312500
7259,70.312500
7260,70.312500
7261,70.312500
7262,70.312500
7263,70.312500
7264,70.312500
7265,70.312500
7266,70.312500
7267,70.312500
7268,70.312500
7269,70.312500
7270,70.312500
7271,70.312500
7272,70.312500
7273,70.312500
7274,70.312500
7275,70.312500
7276,70.312500
7277,70.312500
7278,70.312500
7279,70.312500
7280,70.312500
7281,66.406250
7282,70.312500
7283,70.312500
7284,70.312500
7285,70.312500
7286,70.312500
7287,66.406250
7288,66.406250
7289,66.406250
7290,66.406250
7291,66.406250
7292,66.406250
7293,66.406250
7294,66.406250
7295,66.406250
7296,66.406250
7297,66.406250
7298,66.406250
7299,66.406250
7300,66.406250
7301,66.406250
7302,66.406250
7303,66.406250
7304,66.406250
7305,66.406250
7306,66.406250
7307,66.406250
7308,66.406250
7309,66.406250
7310,66.406250
7311,66.406250
7312,62.500000
7313,62.500000
7314,62.500000
7315,62.500000
7316,62.500000
7317,62.500000
7318,62.500000
7319,62.500000
7320,62.500000
7321,62.500000
7322,62.500000
7323,62.500000
7324,62.500000
7325,62.500000
7326,62.500000
7327,62.500000
7328,62.500000
7329,58.593750
7330,58.593750
7331,58.593750
7332,58.593750
7333,58.593750
7334,58.593750
7335,58.593750
7336,58.593750
7337,58.593750
7338,58.593750
7339,58.593750
7340,58.593750
7341,58.593750
7342,58.593750
7343,58.593750
7344,58.593750
7345,54.687500
7346,54.687500
7347,54.687500
7348,54.687500
7349,58.593750
7350,54.687500
7351,54.687500
7352,54.687500
7353,54.687500
7354,54.687500
7355,54.687500
7356,54.687500
7357,54.687500
7358,54.687500
7359,54.687500
7360,54.687500
7361,50.781250
7362,54.687500
7363,50.781250
7364,54.687500
7365,54.687500
7366,50.781250
7367,50.781250
7368,50.781250
7369,50.781250
7370,50.781250
7371,50.781250
7372,50.781250
7373,50.781250
7374,50.781250
7375,46.875000
7376,46.875000
7377,46.875000
7378,46.875000
7379,46.875000
7380,46.875000
7381,46.875000
7382,46.875000
7383,46.875000
7384,46.875000
7385,46.875000
7386,42.968750
7387,42.968750
7388,42.968750
7389,42.968750
7390,42.968750
7391,42.968750
7392,42.968750
7393,42.968750
7394,42.968750
7395,42.968750
7396,42.968750
7397,39.062500
7398,39.062500
7399,39.062500
7400,39.062500
7401,39.062500
7402,39.062500
7403,39.062500
7404,39.062500
7405,39.062500
7406,35.156250
7407,35.156250
7408,35.156250
7409,35.156250
7410,35.156250
7411,35.156250
7412,35.156250
7413,35.156250
7414,35.156250
7415,31.250000
7416,31.250000
7417,31.250000
7418,31.250000
7419,31.250000
7420,31.250000
7421,31.250000
7422,31.250000
7423,31.250000
7424,27.343750
7425,27.343750
7426,27.343750
7427,27.343750
7428,27.343750
7429,27.343750
7430,27.343750
7431,27.343750
7432,23.437500
7433,23.437500
7434,23.437500
7435,23.437500
7436,23.437500
7437,23.437500
7438,23.437500
7439,23.437500
7440,23.437500
7441,19.531250
7442,19.531250
7443,19.531250
7444,19.531250
7445,19.531250
7446,19.531250
7447,19.531250
7448,15.625000
7449,15.625000
7450,15.625000
7451,15.625000
7452,15.625000
7453,15.625000
7454,15.625000
7455,15.625000
7456,15.625000
7457,11.718750
7458,11.718750
7459,11.718750
7460,11.718750
7461,11.718750
7462,11.718750
7463,11.718750
7464,11.718750
7465,7.812500
7466,7.812500
7467,7.812500
7468,7.812500
7469,7.812500
7470,7.812500
7471,7.812500
7472,3.906250
7473,3.906250
7474,3.906250
7475,3.906250
7476,3.906250
7477,3.906250
7478,3.906250
7479,3.906250
7480,0.000000
7481,0.000000
7482,0.000000
7483,0.000000
7484,0.000000
7485,0.000000
7486,0.000000
7487,0.000000
7488,-3.906250
7489,-3.906250
7490,-3.906250
7491,-3.906250
7492,-3.906250
7493,-3.906250
7494,-7.812500
7495,-7.812500
7496,-7.812500
7497,-7.812500
7498,-7.812500
7499,-7.812500
7500,-7.812500
7501,-7.812500
7502,-11.718750
7503,-11.718750
7504,-11.718750
7505,-11.718750
7506,-11.718750
7507,-11.718750
7508,-11.718750
7509,-15.625000
7510,-15.625000
7511,-15.625000
7512,-15.625000
7513,-15.625000
7514,-15.625000
7515,-15.625000
7516,-15.625000
7517,-15.625000
7518,-19.531250
7519,-19.531250
7520,-19.531250
7521,-19.531250
7522,-19.531250
7523,-19.531250
7524,-23.437500
7525,-23.437500
7526,-23.437500
7527,-23.437500
7528,-23.437500
7529,-23.437500
7530,-23.437500
7531,-23.437500
7532,-27.343750
7533,-27.343750
7534,-27.343750
7535,-27.343750
7536,-27.343750
7537,-27.343750
7538,-27.343750
7539,-27.343750
7540,-31.250000
7541,-31.250000
7542,-31.250000
7543,-31.250000
7544,-35.156250
7545,-31.250000
7546,-35.156250
7547,-35.156250
7548,-35.156250
7549,-35.156250
7550,-35.156250
7551,-35.156250
7552,-39.062500
7553,-35.156250
7554,-39.062500
7555,-39.062500
7556,-39.062500
7557,-39.062500
7558,-39.062500
7559,-39.062500
7560,-39.062500
7561,-42.968750
7562,-42.968750
7563,-42.968750
7564,-42.968750
7565,-42.968750
7566,-42.968750
7567,-42.968750
7568,-46.875000
7569,-46.875000
7570,-46.875000
7571,-46.875000
7572,-46.875000
7573,-46.875000
7574,-46.875000
7575,-46.875000
7576,-46.875000
7577,-50.781250
7578,-50.781250
7579,-50.781250
7580,-50.781250
7581,-50.781250
7582,-50.781250
7583,-50.781250
7584,-54.687500
7585,-54.687500
7586,-54.687500
7587,-54.687500
7588,-54.687500
7589,-54.687500
7590,-54.687500
7591,-54.687500
7592,-58.593750
7593,-58.593750
7594,-58.593750
7595,-58.593750
7596,-58.593750
7597,-58.593750
7598,-58.593750
7599,-58.593750
7600,-62.500000
7601,-62.500000
7602,-62.500000
7603,-62.500000
7604,-62.500000
7605,-62.500000
7606,-62.500000
7607,-62.500000
7608,-62.500000
7609,-62.500000
7610,-66.406250
7611,-66.406250
7612,-66.406250
7613,-66.406250
7614,-70.312500
7615,-66.406250
7616,-66.406250
7617,-70.312500
7618,-70.312500
7619,-70.312500
7620,-70.312500
7621,-70.312500
7622,-70.312500
7623,-70.312500
7624,-70.312500
7625,-74.218750
7626,-70.312500
7627,-74.218750
7628,-74.218750
7629,-74.218750
7630,-74.218750
7631,-74.218750
7632,-74.218750
7633,-74.218750
7634,-74.218750
7635,-74.218750
7636,-74.218750
7637,-78.125000
7638,-78.125000
7639,-78.125000
7640,-78.125000
7641,-78.125000
7642,-78.125000
7643,-78.125000
7644,-78.125000
7645,-78.125000
7646,-78.125000
7647,-82.031250
7648,-78.125000
7649,-82.031250
7650,-82.031250
7651,-82.031250
7652,-82.031250
7653,-82.031250
7654,-82.031250
7655,-82.031250
7656,-82.031250
7657,-82.031250
7658,-82.031250
7659,-82.031250
7660,-82.031250
7661,-85.937500
7662,-85.937500
7663,-85.937500
7664,-85.937500
7665,-85.937500
7666,-85.937500
7667,-85.937500
7668,-85.937500
7669,-85.937500
7670,-85.937500
7671,-89.843750
7672,-85.937500
7673,-89.843750
7674,-89.843750
7675,-89.843750
7676,-85.937500
7677,-89.843750
7678,-89.843750
7679,-89.843750
7680,-89.843750
7681,-89.843750
7682,-89.843750
7683,-89.843750
7684,-89.843750
7685,-89.843750
7686,-89.843750
7687,-89.843750
7688,-89.843750
7689,-93.750000
7690,-89.843750
7691,-89.843750
7692,-93.750000
7693,-89.843750
7694,-93.750000
7695,-93.750000
7696,-93.750000
7697,-93.750000
7698,-93.750000
7699,-93.750000
7700,-93.750000
7701,-93.750000
7702,-93.750000
7703,-93.750000
7704,-93.750000
7705,-93.750000
7706,-93.750000
7707,-93.750000
7708,-93.750000
7709,-93.750000
7710,-93.750000
7711,-97.656250
7712,-97.656250
7713,-97.656250
7714,-97.656250
7715,-97.656250
7716,-97.656250
7717,-97.656250
7718,-97.656250
7719,-97.656250
7720,-97.656250
7721,-97.656250
7722,-97.656250
7723,-97.656250
7724,-97.656250
7725,-97.656250
7726,-97.656250
7727,-97.656250
7728,-97.656250
7729,-97.656250
7730,-97.656250
7731,-97.656250
7732,-97.656250
7733,-97.656250
7734,-97.656250
7735,-97.656250
7736,-97.656250
7737,-97.656250
7738,-97.656250
7739,-97.656250
7740,-97.656250
7741,-97.656250
7742,-97.656250
7743,-97.656250
7744,-97.656250
7745,-97.656250
7746,-97.656250
7747,-97.656250
7748,-97.656250
7749,-97.656250
7750,-97.656250
7751,-97.656250
7752,-97.656250
7753,-97.656250
7754,-97.656250
7755,-97.656250
7756,-97.656250
7757,-97.656250
7758,-97.656250
7759,-97.656250
7760,-97.656250
7761,-97.656250
7762,-97.656250
7763,-97.656250
7764,-97.656250
7765,-97.656250
7766,-97.656250
7767,-97.656250
7768,-97.656250
7769,-97.656250
7770,-97.656250
7771,-97.656250
7772,-97.656250
7773,-97.656250
7774,-97.656250
7775,-97.656250
7776,-93.750000
7777,-97.656250
7778,-97.656250
7779,-97.656250
7780,-97.656250
7781,-97.656250
7782,-97.656250
7783,-97.656250
7784,-93.750000
7785,-93.750000
7786,-93.750000
7787,-93.750000
7788,-97.656250
7789,-93.750000
7790,-93.750000
7791,-93.750000
7792,-93.750000
7793,-93.750000
7794,-93.750000
7795,-93.750000
7796,-93.750000
7797,-93.750000
7798,-93.750000
7799,-93.750000
7800,-93.750000
7801,-93.750000
7802,-93.750000
7803,-93.750000
7804,-93.750000
7805,-93.750000
7806,-93.750000
7807,-93.750000
7808,-93.750000
7809,-89.843750
7810,-89.843750
7811,-89.843750
7812,-89.843750
7813,-89.843750
7814,-89.843750
7815,-89.843750
7816,-89.843750
7817,-89.843750
7818,-89.843750
7819,-89.843750
7820,-89.843750
7821,-89.843750
7822,-89.843750
7823,-85.937500
7824,-85.937500
7825,-89.843750
7826,-85.937500
7827,-85.937500
7828,-85.937500
7829,-85.937500
7830,-85.937500
7831,-85.937500
7832,-85.937500
7833,-85.937500
7834,-85.937500
7835,-85.937500
7836,-85.937500
7837,-82.031250
7838,-82.031250
7839,-82.031250
7840,-82.031250
7841,-82.031250
7842,-82.031250
7843,-82.031250
7844,-82.031250
7845,-82.031250
7846,-82.031250
7847,-82.031250
7848,-82.031250
7849,-82.031250
7850,-78.125000
7851,-78.125000
7852,-78.125000
7853,-78.125000
7854,-78.125000
7855,-78.125000
7856,-78.125000
7857,-78.125000
7858,-78.125000
7859,-78.125000
7860,-78.125000
7861,-74.218750
7862,-74.218750
7863,-74.218750
7864,-74.218750
7865,-74.218750
7866,-74.218750
7867,-74.218750
7868,-74.218750
7869,-74.218750
7870,-74.218750
7871,-70.312500
7872,-70.312500
7873,-70.312500
7874,-70.312500
7875,-70.312500
7876,-70.312500
7877,-70.312500
7878,-70.312500
7879,-66.406250
7880,-66.406250
7881,-66.406250
7882,-66.406250
7883,-66.406250
7884,-66.406250
7885,-66.406250
7886,-66.406250
7887,-66.406250
7888,-66.406250
7889,-62.500000
7890,-62.500000
7891,-62.500000
7892,-62.500000
7893,-62.500000
7894,-62.500000
7895,-58.593750
7896,-62.500000
7897,-58.593750
7898,-58.593750
7899,-58.593750
7900,-58.593750
7901,-58.593750
7902,-58.593750
7903,-58.593750
7904,-58.593750
7905,-54.687500
7906,-54.687500
7907,-54.687500
7908,-54.687500
7909,-54.687500
7910,-54.687500
7911,-54.687500
7912,-54.687500
7913,-54.687500
7914,-50.781250
7915,-50.781250
7916,-50.781250
7917,-50.781250
7918,-50.781250
7919,-50.781250
7920,-46.875000
7921,-46.875000
7922,-46.875000
7923,-46.875000
7924,-46.875000
7925,-46.875000
7926,-46.875000
7927,-46.875000
7928,-46.875000
7929,-42.968750
7930,-42.968750
7931,-42.968750
7932,-42.968750
7933,-42.968750
7934,-42.968750
7935,-39.062500
7936,-39.062500
7937,-39.062500
7938,-39.062500
7939,-39.062500
7940,-39.062500
7941,-39.062500
7942,-39.062500
7943,-39.062500
7944,-35.156250
7945,-35.156250
7946,-35.156250
7947,-35.156250
7948,-35.156250
7949,-35.156250
7950,-31.250000
7951,-31.250000
7952,-31.250000
7953,-31.250000
7954,-31.250000
7955,-31.250000
7956,-31.250000
7957,-31.250000
7958,-27.343750
7959,-27.343750
7960,-27.343750
7961,-27.343750
7962,-27.343750
7963,-27.343750
7964,-27.343750
7965,-23.437500
7966,-23.437500
7967,-23.437500
7968,-23.437500
7969,-23.437500
7970,-23.437500
7971,-23.437500
7972,-23.437500
7973,-19.531250
7974,-19.531250
7975,-19.531250
7976,-19.531250
7977,-19.531250
7978,-19.531250
7979,-19.531250
7980,-19.531250
7981,-15.625000
7982,-15.625000
7983,-15.625000
7984,-15.625000
7985,-15.625000
7986,-15.625000
7987,-15.625000
7988,-15.625000
7989,-11.718750
7990,-11.718750
7991,-11.718750
7992,-11.718750
7993,-11.718750
7994,-11.718750
7995,-7.812500
7996,-7.812500
7997,-7.812500
7998,-7.812500
7999,-3.906250
8000,-7.812500
8001,-7.812500
8002,-3.906250
8003,-3.906250
8004,-3.906250
8005,-3.906250
8006,-3.906250
8007,-3.906250
8008,-3.906250
8009,-3.906250
8010,-3.906250
8011,0.000000
8012,0.000000
8013,0.000000
8014,0.000000
8015,0.000000
8016,3.906250
8017,0.000000
8018,3.906250
8019,3.906250
8020,3.906250
8021,3.906250
8022,3.906250
8023,3.906250
8024,7.812500
8025,7.812500
8026,7.812500
8027,7.812500
8028,7.812500
8029,7.812500
8030,7.812500
8031,7.812500
8032,11.718750
8033,11.718750
8034,11.718750
8035,11.718750
8036,11.718750
8037,11.718750
8038,15.625000
8039,11.718750
8040,15.625000
8041,15.625000
8042,15.625000
8043,15.625000
8044,15.625000
8045,15.625000
8046,15.625000
8047,15.625000
8048,19.531250
8049,19.531250
8050,19.531250
8051,19.531250
8052,19.531250
8053,19.531250
8054,19.531250
8055,19.531250
8056,23.437500
8057,19.531250
8058,23.437500
8059,23.437500
8060,23.437500
8061,23.437500
8062,23.437500
8063,27.343750
8064,27.343750
8065,27.343750
8066,27.343750
8067,27.343750
8068,27.343750
8069,27.343750
8070,27.343750
8071,27.343750
8072,31.250000
8073,31.250000
8074,31.250000
8075,31.250000
8076,31.250000
8077,31.250000
8078,31.250000
8079,31.250000
8080,31.250000
8081,31.250000
8082,35.156250
8083,35.156250
8084,35.156250
8085,35.156250
8086,35.156250
8087,35.156250
8088,35.156250
8089,35.156250
8090,35.156250
8091,39.062500
8092,39.062500
8093,39.062500
8094,39.062500
8095,39.062500
8096,39.062500
8097,39.062500
8098,39.062500
8099,39.062500
8100,39.062500
8101,39.062500
8102,42.968750
8103,39.062500
8104,42.968750
8105,42.968750
8106,42.968750
8107,42.968750
8108,42.968750
8109,42.968750
8110,42.968750
8111,42.968750
8112,42.968750
8113,46.875000
8114,46.875000
8115,46.875000
8116,46.875000
8117,46.875000
8118,46.875000
8119,46.875000
8120,46.875000
8121,46.875000
8122,46.875000
8123,50.781250
8124,50.781250
8125,50.781250
8126,50.781250
8127,50.781250
8128,50.781250
8129,50.781250
8130,50.781250
8131,50.781250
8132,50.781250
8133,50.781250
8134,50.781250
8135,50.781250
8136,54.687500
8137,54.687500
8138,54.687500
8139,54.687500
8140,54.687500
8141,54.687500
8142,54.687500
8143,54.687500
8144,54.687500
8145,54.687500
8146,54.687500
8147,58.593750
8148,58.593750
8149,58.593750
8150,58.593750
8151,58.593750
8152,58.593750
8153,58.593750
8154,58.593750
8155,58.593750
8156,58.593750
8157,58.593750
8158,58.593750
8159,58.593750
8160,58.593750
8161,58.593750
8162,62.500000
8163,62.500000
8164,62.500000
8165,62.500000
8166,62.500000
8167,62.500000
8168,62.500000
8169,62.500000
8170,62.500000
8171,62.500000
8172,62.500000
8173,62.500000
8174,62.500000
8175,62.500000
8176,62.500000
8177,62.500000
8178,62.500000
8179,62.500000
8180,66.406250
8181,66.406250
8182,66.406250
8183,66.406250
8184,66.406250
8185,66.406250
8186,66.406250
8187,66.406250
8188,66.406250
8189,66.406250
8190,66.406250
8191,66.406250
8192,66.406250
8193,66.406250
8194,66.406250
8195,66.406250
8196,66.406250
8197,66.406250
8198,66.406250
8199,66.406250
8200,66.406250
8201,66.406250
8202,66.406250
8203,66.406250
8204,70.312500
8205,70.312500
8206,66.406250
8207,66.406250
8208,66.406250
8209,70.312500
8210,66.406250
8211,70.312500
8212,70.312500
8213,70.312500
8214,70.312500
8215,70.312500
8216,70.312500
8217,70.312500
8218,70.312500
8219,70.312500
8220,70.312500
8221,70.312500
8222,70.312500
8223,70.312500
8224,70.312500
8225,70.312500
8226,70.312500
8227,70.312500
8228,70.312500
8229,70.312500
8230,70.312500
8231,70.312500
8232,70.312500
8233,70.312500
8234,70.312500
8235,70.312500
8236,70.312500
8237,70.312500
8238,70.312500
8239,70.312500
8240,70.312500
8241,70.312500
8242,70.312500
8243,70.312500
8244,70.312500
8245,70.312500
8246,70.312500
8247,70.312500
8248,70.312500
8249,70.312500
8250,70.312500
8251,70.312500
8252,70.312500
8253,70.312500
8254,70.312500
8255,70.312500
8256,70.312500
8257,70.312500
8258,70.312500
8259,70.312500
8260,70.312500
8261,70.312500
8262,70.312500
8263,66.406250
8264,70.312500
8265,70.312500
8266,70.312500
8267,70.312500
8268,70.312500
8269,70.312500
8270,66.406250
8271,70.312500
8272,66.406250
8273,70.312500
8274,70.312500
8275,70.312500
8276,66.406250
8277,66.406250
8278,66.406250
8279,70.312500
8280,70.312500
8281,66.406250
8282,66.406250
8283,66.406250
8284,66.406250
8285,66.406250
8286,66.406250
8287,66.406250
8288,66.406250
8289,66.406250
8290,66.406250
8291,66.406250
8292,66.406250
8293,66.406250
8294,66.406250
8295,66.406250
8296,66.406250
8297,66.406250
8298,66.406250
8299,66.406250
8300,66.406250
8301,66.406250
8302,66.406250
8303,66.406250
8304,66.406250
8305,66.406250
8306,66.406250
8307,66.406250
8308,62.500000
8309,62.500000
8310,62.500000
8311,62.500000
8312,62.500000
8313,62.500000
8314,62.500000
8315,62.500000
8316,62.500000
8317,62.500000
8318,62.500000
8319,62.500000
8320,62.500000
8321,62.500000
8322,62.500000
8323,62.500000
8324,62.500000
8325,62.500000
8326,62.500000
8327,62.500000
8328,58.593750
8329,58.593750
8330,58.593750
8331,58.593750
8332,58.593750
8333,58.593750
8334,58.593750
8335,58.593750
8336,58.593750
8337,58.593750
8338,58.593750
8339,58.593750
8340,58.593750
8341,54.687500
8342,54.687500
8343,54.687500
8344,54.687500
8345,54.687500
8346,54.687500
8347,54.687500
8348,54.687500
8349,54.687500
8350,54.687500
8351,54.687500
8352,54.687500
8353,50.781250
8354,50.781250
8355,50.781250
8356,50.781250
8357,50.781250
8358,50.781250
8359,50.781250
8360,50.781250
8361,50.781250
8362,50.781250
8363,50.781250
8364,50.781250
8365,50.781250
8366,46.875000
8367,46.875000
8368,46.875000
8369,46.875000
8370,46.875000
8371,46.875000
8372,46.875000
8373,46.875000
8374,46.875000
8375,46.875000
8376,42.968750
8377,42.968750
8378,42.968750
8379,42.968750
8380,42.968750
8381,42.968750
8382,42.968750
8383,42.968750
8384,42.968750
8385,42.968750
8386,39.062500
8387,39.062500
8388,39.062500
8389,39.062500
8390,39.062500
8391,39.062500
8392,39.062500
8393,39.062500
8394,39.062500
8395,35.156250
8396,35.156250
8397,39.062500
8398,35.156250
8399,35.156250
8400,35.156250
8401,35.156250
8402,35.156250
8403,35.156250
8404,35.156250
8405,35.156250
8406,35.156250
8407,31.250000
8408,31.250000
8409,31.250000
8410,31.250000
8411,31.250000
8412,31.250000
8413,27.343750
8414,31.250000
8415,27.343750
8416,27.343750
8417,27.343750
8418,27.343750
8419,27.343750
8420,27.343750
8421,27.343750
8422,27.343750
8423,27.343750
8424,27.343750
8425,23.437500
8426,23.437500
8427,23.437500
8428,23.437500
8429,23.437500
8430,23.437500
8431,23.437500
8432,23.437500
8433,19.531250
8434,19.531250
8435,19.531250
8436,19.531250
8437,19.531250
8438,19.531250
8439,19.531250
8440,19.531250
8441,15.625000
8442,19.531250
8443,15.625000
8444,15.625000
8445,15.625000
8446,15.625000
8447,15.625000
8448,11.718750
8449,11.718750
8450,11.718750
8451,11.718750
8452,11.718750
8453,11.718750
8454,11.718750
8455,11.718750
8456,11.718750
8457,7.812500
8458,7.812500
8459,7.812500
8460,7.812500
8461,7.812500
8462,7.812500
8463,7.812500
8464,3.906250
8465,3.906250
8466,3.906250
8467,3.906250
8468,3.906250
8469,3.906250
8470,0.000000
8471,3.906250
8472,0.000000
8473,0.000000
8474,0.000000
8475,0.000000
8476,0.000000
8477,0.000000
8478,0.000000
8479,-3.906250
8480,-3.906250
8481,-3.906250
8482,-3.906250
8483,-3.906250
8484,-7.812500
8485,-7.812500
8486,-7.812500
8487,-7.812500
8488,-7.812500
8489,-7.812500
8490,-7.812500
8491,-7.812500
8492,-11.718750
8493,-11.718750
8494,-11.718750
8495,-11.718750
8496,-11.718750
8497,-11.718750
8498,-15.625000
8499,-11.718750
8500,-15.625000
8501,-15.625000
8502,-15.625000
8503,-15.625000
8504,-15.625000
8505,-15.625000
8506,-19.531250
8507,-19.531250
8508,-19.531250
8509,-19.531250
8510,-19.531250
8511,-19.531250
8512,-19.531250
8513,-19.531250
8514,-23.437500
8515,-23.437500
8516,-23.437500
8517,-23.437500
8518,-23.437500
8519,-23.437500
8520,-23.437500
8521,-27.343750
8522,-27.343750
8523,-27.343750
8524,-27.343750
8525,-27.343750
8526,-27.343750
8527,-27.343750
8528,-27.343750
8529,-31.250000
8530,-31.250000
8531,-31.250000
8532,-31.250000
8533,-31.250000
8534,-31.250000
8535,-35.156250
8536,-35.156250
8537,-35.156250
8538,-35.156250
8539,-35.156250
8540,-35.156250
8541,-35.156250
8542,-39.062500
8543,-39.062500
8544,-39.062500
8545,-39.062500
8546,-39.062500
8547,-39.062500
8548,-39.062500
8549,-39.062500
8550,-42.968750
8551,-42.968750
8552,-42.968750
8553,-42.968750
8554,-42.968750
8555,-42.968750
8556,-42.968750
8557,-42.968750
8558,-46.875000
8559,-46.875000
8560,-46.875000
8561,-46.875000
8562,-46.875000
8563,-46.875000
8564,-46.875000
8565,-46.875000
8566,-50.781250
8567,-50.781250
8568,-50.781250
8569,-50.781250
8570,-50.781250
8571,-50.781250
8572,-50.781250
8573,-50.781250
8574,-54.687500
8575,-54.687500
8576,-54.687500
8577,-54.687500
8578,-54.687500
8579,-54.687500
8580,-54.687500
8581,-58.593750
8582,-54.687500
8583,-54.687500
8584,-58.593750
8585,-58.593750
8586,-58.593750
8587,-58.593750
8588,-58.593750
8589,-58.593750
8590,-58.593750
8591,-62.500000
8592,-62.500000
8593,-62.500000
8594,-62.500000
8595,-62.500000
8596,-62.500000
8597,-62.500000
8598,-62.500000
8599,-62.500000
8600,-66.406250
8601,-66.406250
8602,-66.406250
8603,-66.406250
8604,-66.406250
8605,-66.406250
8606,-70.312500
8607,-66.406250
8608,-70.312500
8609,-66.406250
8610,-70.312500
8611,-70.312500
8612,-70.312500
8613,-70.312500
8614,-70.312500
8615,-70.312500
8616,-70.312500
8617,-74.218750
8618,-74.218750
8619,-74.218750
8620,-74.218750
8621,-74.218750
8622,-74.218750
8623,-74.218750
8624,-74.218750
8625,-74.218750
8626,-74.218750
8627,-78.125000
8628,-78.125000
8629,-78.125000
8630,-78.125000
8631,-78.125000
8632,-78.125000
8633,-78.125000
8634,-78.125000
8635,-78.125000
8636,-82.031250
8637,-78.125000
8638,-78.125000
8639,-82.031250
8640,-82.031250
8641,-82.031250
8642,-82.031250
8643,-82.031250
8644,-82.031250
8645,-82.031250
8646,-82.031250
8647,-82.031250
8648,-82.031250
8649,-85.937500
8650,-85.937500
8651,-85.937500
8652,-85.937500
8653,-85.937500
8654,-85.937500
8655,-85.937500
8656,-85.937500
8657,-85.937500
8658,-85.937500
8659,-85.937500
8660,-85.937500
8661,-85.937500
8662,-89.843750
8663,-85.937500
8664,-85.937500
8665,-89.843750
8666,-89.843750
8667,-89.843750
8668,-89.843750
8669,-89.843750
8670,-89.843750
8671,-89.843750
8672,-89.843750
8673,-89.843750
8674,-89.843750
8675,-89.843750
8676,-89.843750
8677,-89.843750
8678,-89.843750
8679,-89.843750
8680,-93.750000
8681,-89.843750
8682,-93.750000
8683,-93.750000
8684,-93.750000
8685,-93.750000
8686,-93.750000
8687,-93.750000
8688,-93.750000
8689,-93.750000
8690,-93.750000
8691,-93.750000
8692,-93.750000
8693,-93.750000
8694,-93.750000
8695,-93.750000
8696,-93.750000
8697,-93.750000
8698,-93.750000
8699,-93.750000
8700,-93.750000
8701,-93.750000
8702,-93.750000
8703,-93.750000
8704,-93.750000
8705,-97.656250
8706,-97.656250
8707,-97.656250
8708,-97.656250
8709,-97.656250
8710,-93.750000
8711,-93.750000
8712,-97.656250
8713,-97.656250
8714,-97.656250
8715,-97.656250
8716,-97.656250
8717,-97.656250
8718,-97.656250
8719,-93.750000
8720,-97.656250
8721,-97.656250
8722,-97.656250
8723,-97.656250
8724,-97.656250
8725,-97.656250
8726,-97.656250
8727,-97.656250
8728,-97.656250
8729,-97.656250
8730,-97.656250
8731,-97.656250
8732,-97.656250
8733,-97.656250
8734,-97.656250
8735,-97.656250
8736,-97.656250
8737,-97.656250
8738,-97.656250
8739,-97.656250
8740,-97.656250
8741,-97.656250
8742,-97.656250
8743,-97.656250
8744,-97.656250
8745,-97.656250
8746,-97.656250
8747,-97.656250
8748,-97.656250
8749,-97.656250
8750,-97.656250
8751,-97.656250
8752,-97.656250
8753,-97.656250
8754,-97.656250
8755,-97.656250
8756,-97.656250
8757,-97.656250
8758,-97.656250
8759,-97.656250
8760,-97.656250
8761,-97.656250
8762,-97.656250
8763,-97.656250
8764,-97.656250
8765,-97.656250
8766,-97.656250
8767,-97.656250
8768,-97.656250
8769,-97.656250
8770,-97.656250
8771,-97.656250
8772,-97.656250
8773,-97.656250
8774,-93.750000
8775,-93.750000
8776,-93.750000
8777,-93.750000
8778,-93.750000
8779,-93.750000
8780,-93.750000
8781,-93.750000
8782,-93.750000
8783,-93.750000
8784,-93.750000
8785,-93.750000
8786,-93.750000
8787,-93.750000
8788,-93.750000
8789,-93.750000
8790,-93.750000
8791,-93.750000
8792,-93.750000
8793,-93.750000
8794,-93.750000
8795,-93.750000
8796,-89.843750
8797,-89.843750
8798,-89.843750
8799,-89.843750
8800,-89.843750
8801,-89.843750
8802,-89.843750
8803,-89.843750
8804,-89.843750
8805,-89.843750
8806,-89.843750
8807,-89.843750
8808,-89.843750
8809,-85.937500
8810,-85.937500
8811,-89.843750
8812,-89.843750
8813,-85.937500
8814,-85.937500
8815,-85.937500
8816,-85.937500
8817,-85.937500
8818,-85.937500
8819,-85.937500
8820,-85.937500
8821,-85.937500
8822,-85.937500
8823,-85.937500
8824,-85.937500
8825,-85.937500
8826,-82.031250
8827,-82.031250
8828,-82.031250
8829,-82.031250
8830,-82.031250
8831,-82.031250
8832,-82.031250
8833,-82.031250
8834,-78.125000
8835,-82.031250
8836,-82.031250
8837,-82.031250
8838,-78.125000
8839,-78.125000
8840,-78.125000
8841,-78.125000
8842,-78.125000
8843,-78.125000
8844,-78.125000
8845,-78.125000
8846,-78.125000
8847,-78.125000
8848,-74.218750
8849,-74.218750
8850,-74.218750
8851,-74.218750
8852,-74.218750
8853,-74.218750
8854,-74.218750
8855,-74.218750
8856,-74.218750
8857,-74.218750
8858,-74.218750
8859,-70.312500
8860,-70.312500
8861,-70.312500
8862,-70.312500
8863,-70.312500
8864,-70.312500
8865,-70.312500
8866,-70.312500
8867,-70.312500
8868,-70.312500
8869,-70.312500
8870,-66.406250
8871,-66.406250
8872,-66.406250
8873,-66.406250
8874,-66.406250
8875,-66.406250
8876,-66.406250
8877,-66.406250
8878,-62.500000
8879,-62.500000
8880,-62.500000
8881,-62.500000
8882,-62.500000
8883,-62.500000
8884,-62.500000
8885,-62.500000
8886,-62.500000
8887,-58.593750
8888,-58.593750
8889,-58.593750
8890,-58.593750
8891,-58.593750
8892,-58.593750
8893,-58.593750
8894,-54.687500
8895,-54.687500
8896,-54.687500
8897,-54.687500
8898,-54.687500
8899,-54.687500
8900,-54.687500
8901,-54.687500
8902,-54.687500
8903,-50.781250
8904,-50.781250
8905,-50.781250
8906,-50.781250
8907,-50.781250
8908,-50.781250
8909,-50.781250
8910,-50.781250
8911,-46.875000
8912,-46.875000
8913,-46.875000
8914,-46.875000
8915,-46.875000
8916,-46.875000
8917,-46.875000
8918,-42.968750
8919,-42.968750
8920,-42.968750
8921,-42.968750
8922,-42.968750
8923,-42.968750
8924,-42.968750
8925,-42.968750
8926,-39.062500
8927,-39.062500
8928,-39.062500
8929,-39.062500
8930,-39.062500
8931,-39.062500
8932,-35.156250
8933,-35.156250
8934,-35.156250
8935,-35.156250
8936,-35.156250
8937,-35.156250
8938,-35.156250
8939,-35.156250
8940,-31.250000
8941,-31.250000
8942,-31.250000
8943,-31.250000
8944,-31.250000
8945,-31.250000
8946,-31.250000
8947,-27.343750
8948,-27.343750
8949,-27.343750
8950,-27.343750
8951,-27.343750
8952,-27.343750
8953,-27.343750
8954,-23.437500
8955,-23.437500
8956,-23.437500
8957,-23.437500
8958,-23.437500
8959,-23.437500
8960,-19.531250
8961,-19.531250
8962,-19.531250
8963,-19.531250
8964,-19.531250
8965,-19.531250
8966,-19.531250
8967,-19.531250
8968,-15.625000
8969,-15.625000
8970,-15.625000
8971,-15.625000
8972,-15.625000
8973,-15.625000
8974,-11.718750
8975,-11.718750
8976,-15.625000
8977,-11.718750
8978,-11.718750
8979,-11.718750
8980,-11.718750
8981,-11.718750
8982,-11.718750
8983,-11.718750
8984,-7.812500
8985,-7.812500
8986,-7.812500
8987,-7.812500
8988,-7.812500
8989,-3.906250
8990,-7.812500
8991,-3.906250
8992,-3.906250
8993,-3.906250
8994,-3.906250
8995,-3.906250
8996,-3.906250
8997,-3.906250
8998,-3.906250
8999,0.000000
9000,0.000000
9001,0.000000
9002,0.000000
9003,3.906250
9004,3.906250
9005,0.000000
9006,0.000000
9007,0.000000
9008,3.906250
9009,3.906250
9010,3.906250
9011,3.906250
9012,7.812500
9013,3.906250
9014,7.812500
9015,7.812500
9016,7.812500
9017,7.812500
9018,7.812500
9019,7.812500
9020,7.812500
9021,7.812500
9022,11.718750
9023,11.718750
9024,11.718750
9025,11.718750
9026,11.718750
9027,11.718750
9028,15.625000
9029,15.625000
9030,15.625000
9031,15.625000
9032,15.625000
9033,15.625000
9034,15.625000
9035,15.625000
9036,15.625000
9037,19.531250
9038,19.531250
9039,19.531250
9040,19.531250
9041,19.531250
9042,19.531250
9043,19.531250
9044,19.531250
9045,23.437500
9046,23.437500
9047,23.437500
9048,23.437500
9049,23.437500
9050,23.437500
9051,23.437500
9052,23.437500
9053,27.343750
9054,27.343750
9055,27.343750
9056,27.343750
9057,27.343750
9058,27.343750
9059,27.343750
9060,27.343750
9061,27.343750
9062,31.250000
9063,31.250000
9064,31.250000
9065,31.250000
9066,31.250000
9067,31.250000
9068,31.250000
9069,31.250000
9070,31.250000
9071,35.156250
9072,35.156250
9073,35.156250
9074,35.156250
9075,35.156250
9076,35.156250
9077,35.156250
9078,35.156250
9079,39.062500
9080,39.062500
9081,39.062500
9082,39.062500
9083,39.062500
9084,39.062500
9085,39.062500
9086,39.062500
9087,39.062500
9088,39.062500
9089,39.062500
9090,42.968750
9091,42.968750
9092,42.968750
9093,42.968750
9094,42.968750
9095,42.968750
9096,42.968750
9097,42.968750
9098,42.968750
9099,42.968750
9100,46.875000
9101,46.875000
9102,46.875000
9103,46.875000
9104,46.875000
9105,46.875000
9106,46.875000
9107,46.875000
9108,46.875000
9109,50.781250
9110,46.875000
9111,50.781250
9112,46.875000
9113,50.781250
9114,50.781250
9115,50.781250
9116,50.781250
9117,50.781250
9118,50.781250
9119,50.781250
9120,50.781250
9121,50.781250
9122,50.781250
9123,50.781250
9124,50.781250
9125,54.687500
9126,54.687500
9127,54.687500
9128,54.687500
9129,54.687500
9130,54.687500
9131,54.687500
9132,54.687500
9133,54.687500
9134,54.687500
9135,54.687500
9136,54.687500
9137,54.687500
9138,58.593750
9139,58.593750
9140,58.593750
9141,58.593750
9142,58.593750
9143,58.593750
9144,58.593750
9145,58.593750
9146,58.593750
9147,58.593750
9148,58.593750
9149,58.593750
9150,58.593750
9151,58.593750
9152,58.593750
9153,58.593750
9154,58.593750
9155,62.500000
9156,62.500000
9157,62.500000
9158,62.500000
9159,62.500000
9160,62.500000
9161,62.500000
9162,62.500000
9163,62.500000
9164,58.593750
9165,62.500000
9166,62.500000
9167,62.500000
9168,62.500000
9169,62.500000
9170,62.500000
9171,62.500000
9172,62.500000
9173,62.500000
9174,66.406250
9175,66.406250
9176,66.406250
9177,66.406250
9178,66.406250
9179,66.406250
9180,66.406250
9181,66.406250
9182,66.406250
9183,66.406250
9184,66.406250
9185,66.406250
9186,66.406250
9187,66.406250
9188,66.406250
9189,66.406250
9190,66.406250
9191,66.406250
9192,66.406250
9193,66.406250
9194,66.406250
9195,66.406250
9196,66.406250
9197,66.406250
9198,66.406250
9199,66.406250
9200,66.406250
9201,66.406250
9202,70.312500
9203,70.312500
9204,70.312500
9205,70.312500
9206,70.312500
9207,70.312500
9208,70.312500
9209,70.312500
9210,70.312500
9211,66.406250
9212,70.312500
9213,70.312500
9214,70.312500
9215,70.312500
9216,70.312500
9217,70.312500
9218,70.312500
9219,70.312500
9220,70.312500
9221,70.312500
9222,70.312500
9223,70.312500
9224,70.312500
9225,70.312500
9226,70.312500
9227,70.312500
9228,70.312500
9229,70.312500
9230,70.312500
9231,70.312500
9232,70.312500
9233,70.312500
9234,70.312500
9235,70.312500
9236,70.312500
9237,70.312500
9238,70.312500
9239,70.312500
9240,70.312500
9241,70.312500
9242,70.312500
9243,70.312500
9244,70.312500
9245,70.312500
9246,70.312500
9247,70.312500
9248,70.312500
9249,70.312500
9250,70.312500
9251,70.312500
9252,70.312500
9253,70.312500
9254,70.312500
9255,70.312500
9256,70.312500
9257,66.406250
9258,70.312500
9259,66.406250
9260,66.406250
9261,70.312500
9262,70.312500
9263,70.312500
9264,66.406250
9265,66.406250
9266,66.406250
9267,66.406250
9268,66.406250
9269,66.406250
9270,66.406250
9271,70.312500
9272,66.406250
9273,66.406250
9274,66.406250
9275,66.406250
9276,66.406250
9277,66.406250
9278,66.406250
9279,66.406250
9280,66.406250
9281,66.406250
9282,66.406250
9283,66.406250
9284,66.406250
9285,66.406250
9286,66.406250
9287,66.406250
9288,66.406250
9289,62.500000
9290,66.406250
9291,66.406250
9292,66.406250
9293,66.406250
9294,62.500000
9295,62.500000
9296,62.500000
9297,62.500000
9298,62.500000
9299,62.500000
9300,62.500000
9301,62.500000
9302,62.500000
9303,62.500000
9304,62.500000
9305,62.500000
9306,62.500000
9307,62.500000
9308,62.500000
9309,62.500000
9310,62.500000
9311,58.593750
9312,58.593750
9313,58.593750
9314,58.593750
9315,58.593750
9316,58.593750
9317,58.593750
9318,58.593750
9319,58.593750
9320,58.593750
9321,58.593750
9322,58.593750
9323,58.593750
9324,58.593750
9325,58.593750
9326,58.593750
9327,58.593750
9328,54.687500
9329,58.593750
9330,54.687500
9331,54.687500
9332,54.687500
9333,54.687500
9334,54.687500
9335,54.687500
9336,54.687500
9337,54.687500
9338,54.687500
9339,54.687500
9340,54.687500
9341,54.687500
9342,54.687500
9343,50.781250
9344,50.781250
9345,50.781250
9346,50.781250
9347,50.781250
9348,50.781250
9349,50.781250
9350,50.781250
9351,50.781250
9352,50.781250
9353,50.781250
9354,50.781250
9355,46.875000
9356,46.875000
9357,46.875000
9358,46.875000
9359,46.875000
9360,46.875000
9361,46.875000
9362,46.875000
9363,46.875000
9364,42.968750
9365,46.875000
9366,42.968750
9367,46.875000
9368,42.968750
9369,42.968750
9370,42.968750
9371,42.968750
9372,42.968750
9373,42.968750
9374,42.968750
9375,42.968750
9376,39.062500
9377,39.062500
9378,39.062500
9379,39.062500
9380,39.062500
9381,39.062500
9382,39.062500
9383,39.062500
9384,39.062500
9385,39.062500
9386,35.156250
9387,35.156250
9388,35.156250
9389,35.156250
9390,35.156250
9391,35.156250
9392,35.156250
9393,35.156250
9394,35.156250
9395,35.156250
9396,31.250000
9397,31.250000
9398,31.250000
9399,31.250000
9400,31.250000
9401,31.250000
9402,31.250000
9403,31.250000
9404,31.250000
9405,27.343750
9406,27.343750
9407,27.343750
9408,27.343750
9409,27.343750
9410,27.343750
9411,27.343750
9412,23.437500
9413,23.437500
9414,23.437500
9415,23.437500
9416,23.437500
9417,23.437500
9418,23.437500
9419,23.437500
9420,23.437500
9421,19.531250
9422,19.531250
9423,19.531250
9424,19.531250
9425,19.531250
9426,19.531250
9427,19.531250
9428,19.531250
9429,19.531250
9430,15.625000
9431,15.625000
9432,15.625000
9433,15.625000
9434,15.625000
9435,15.625000
9436,15.625000
9437,15.625000
9438,11.718750
9439,11.718750
9440,11.718750
9441,11.718750
9442,11.718750
9443,11.718750
9444,7.812500
9445,7.812500
9446,7.812500
9447,7.812500
9448,7.812500
9449,7.812500
9450,7.812500
9451,7.812500
9452,7.812500
9453,7.812500
9454,3.906250
9455,3.906250
9456,3.906250
9457,3.906250
9458,3.906250
9459,3.906250
9460,3.906250
9461,0.000000
9462,0.000000
9463,0.000000
9464,0.000000
9465,0.000000
9466,0.000000
9467,0.000000
9468,0.000000
9469,-3.906250
9470,-3.906250
9471,-3.906250
9472,-3.906250
9473,-3.906250
9474,-3.906250
9475,-7.812500
9476,-7.812500
9477,-7.812500
9478,-7.812500
9479,-7.812500
9480,-7.812500
9481,-7.812500
9482,-11.718750
9483,-11.718750
9484,-11.718750
9485,-11.718750
9486,-11.718750
9487,-11.718750
9488,-11.718750
9489,-11.718750
9490,-15.625000
9491,-15.625000
9492,-15.625000
9493,-15.625000
9494,-15.625000
9495,-15.625000
9496,-15.625000
9497,-15.625000
9498,-19.531250
9499,-19.531250
9500,-19.531250
9501,-19.531250
9502,-19.531250
9503,-19.531250
9504,-19.531250
9505,-23.437500
9506,-23.437500
9507,-23.437500
9508,-23.437500
9509,-23.437500
9510,-23.437500
9511,-23.437500
9512,-27.343750
9513,-27.343750
9514,-27.343750
9515,-27.343750
9516,-27.343750
9517,-27.343750
9518,-27.343750
9519,-31.250000
9520,-31.250000
9521,-31.250000
9522,-31.250000
9523,-31.250000
9524,-31.250000
9525,-31.250000
9526,-35.156250
9527,-35.156250
9528,-35.156250
9529,-35.156250
9530,-35.156250
9531,-35.156250
9532,-35.156250
9533,-39.062500
9534,-39.062500
9535,-39.062500
9536,-39.062500
9537,-39.062500
9538,-39.062500
9539,-39.062500
9540,-42.968750
9541,-42.968750
9542,-42.968750
9543,-42.968750
9544,-42.968750
9545,-42.968750
9546,-42.968750
9547,-42.968750
9548,-42.968750
9549,-46.875000
9550,-46.875000
9551,-46.875000
9552,-46.875000
9553,-46.875000
9554,-46.875000
9555,-46.875000
9556,-50.781250
9557,-50.781250
9558,-50.781250
9559,-50.781250
9560,-50.781250
9561,-50.781250
9562,-50.781250
9563,-50.781250
9564,-50.781250
9565,-54.687500
9566,-54.687500
9567,-54.687500
9568,-54.687500
9569,-54.687500
9570,-54.687500
9571,-54.687500
9572,-54.687500
9573,-54.687500
9574,-58.593750
9575,-58.593750
9576,-58.593750
9577,-58.593750
9578,-58.593750
9579,-58.593750
9580,-62.500000
9581,-58.593750
9582,-62.500000
9583,-62.500000
9584,-62.500000
9585,-62.500000
9586,-62.500000
9587,-62.500000
9588,-62.500000
9589,-62.500000
9590,-62.500000
9591,-62.500000
9592,-66.406250
9593,-66.406250
9594,-66.406250
9595,-66.406250
9596,-66.406250
9597,-66.406250
9598,-70.312500
9599,-66.406250
9600,-70.312500
9601,-70.312500
9602,-70.312500
9603,-70.312500
9604,-70.312500
9605,-70.312500
9606,-70.312500
9607,-70.312500
9608,-74.218750
9609,-74.218750
9610,-74.218750
9611,-74.218750
9612,-74.218750
9613,-74.218750
9614,-74.218750
9615,-74.218750
9616,-74.218750
9617,-74.218750
9618,-78.125000
9619,-74.218750
9620,-78.125000
9621,-78.125000
9622,-78.125000
9623,-78.125000
9624,-78.125000
9625,-78.125000
9626,-78.125000
9627,-78.125000
9628,-82.031250
9629,-82.031250
9630,-82.031250
9631,-82.031250
9632,-82.031250
9633,-82.031250
9634,-82.031250
9635,-82.031250
9636,-82.031250
9637,-82.031250
9638,-82.031250
9639,-82.031250
9640,-82.031250
9641,-85.937500
9642,-85.937500
9643,-85.937500
9644,-85.937500
9645,-85.937500
9646,-85.937500
9647,-85.937500
9648,-85.937500
9649,-85.937500
9650,-85.937500
9651,-85.937500
9652,-85.937500
9653,-85.937500
9654,-85.937500
9655,-85.937500
9656,-89.843750
9657,-89.843750
9658,-89.843750
9659,-89.843750
9660,-89.843750
9661,-89.843750
9662,-89.843750
9663,-89.843750
9664,-89.843750
9665,-89.843750
9666,-93.750000
9667,-93.750000
9668,-93.750000
9669,-89.843750
9670,-89.843750
9671,-89.843750
9672,-93.750000
9673,-93.750000
9674,-93.750000
9675,-93.750000
9676,-93.750000
9677,-93.750000
9678,-93.750000
9679,-93.750000
9680,-93.750000
9681,-93.750000
9682,-93.750000
9683,-93.750000
9684,-93.750000
9685,-93.750000
9686,-93.750000
9687,-93.750000
9688,-93.750000
9689,-93.750000
9690,-93.750000
9691,-93.750000
9692,-93.750000
9693,-93.750000
9694,-97.656250
9695,-93.750000
9696,-93.750000
9697,-97.656250
9698,-97.656250
9699,-97.656250
9700,-97.656250
9701,-97.656250
9702,-97.656250
9703,-97.656250
9704,-97.656250
9705,-97.656250
9706,-97.656250
9707,-97.656250
9708,-97.656250
9709,-97.656250
9710,-97.656250
9711,-97.656250
9712,-97.656250
9713,-97.656250
9714,-97.656250
9715,-97.656250
9716,-97.656250
9717,-97.656250
9718,-97.656250
9719,-97.656250
9720,-97.656250
9721,-97.656250
9722,-97.656250
9723,-97.656250
9724,-97.656250
9725,-97.656250
9726,-97.656250
9727,-97.656250
9728,-97.656250
9729,-97.656250
9730,-97.656250
9731,-97.656250
9732,-97.656250
9733,-97.656250
9734,-97.656250
9735,-97.656250
9736,-97.656250
9737,-97.656250
9738,-97.656250
9739,-97.656250
9740,-97.656250
9741,-97.656250
9742,-97.656250
9743,-97.656250
9744,-97.656250
9745,-97.656250
9746,-97.656250
9747,-97.656250
9748,-97.656250
9749,-97.656250
9750,-97.656250
9751,-97.656250
9752,-97.656250
9753,-97.656250
9754,-97.656250
9755,-97.656250
9756,-93.750000
9757,-97.656250
9758,-93.750000
9759,-93.750000
9760,-93.750000
9761,-93.750000
9762,-93.750000
9763,-97.656250
9764,-93.750000
9765,-93.750000
9766,-93.750000
9767,-93.750000
9768,-93.750000
9769,-93.750000
9770,-93.750000
9771,-93.750000
9772,-93.750000
9773,-93.750000
9774,-93.750000
9775,-93.750000
9776,-93.750000
9777,-93.750000
9778,-93.750000
9779,-93.750000
9780,-93.750000
9781,-93.750000
9782,-93.750000
9783,-93.750000
9784,-93.750000
9785,-89.843750
9786,-89.843750
9787,-89.843750
9788,-89.843750
9789,-89.843750
9790,-89.843750
9791,-89.843750
9792,-89.843750
9793,-89.843750
9794,-89.843750
9795,-89.843750
9796,-89.843750
9797,-89.843750
9798,-89.843750
9799,-89.843750
9800,-89.843750
9801,-89.843750
9802,-85.937500
9803,-85.937500
9804,-85.937500
9805,-85.937500
9806,-85.937500
9807,-85.937500
9808,-85.937500
9809,-85.937500
9810,-85.937500
9811,-85.937500
9812,-85.937500
9813,-85.937500
9814,-85.937500
9815,-82.031250
9816,-82.031250
9817,-82.031250
9818,-82.031250
9819,-82.031250
9820,-82.031250
9821,-82.031250
9822,-82.031250
9823,-82.031250
9824,-82.031250
9825,-78.125000
9826,-82.031250
9827,-82.031250
9828,-82.031250
9829,-78.125000
9830,-78.125000
9831,-78.125000
9832,-78.125000
9833,-78.125000
9834,-78.125000
9835,-78.125000
9836,-78.125000
9837,-78.125000
9838,-74.218750
9839,-74.218750
9840,-74.218750
9841,-74.218750
9842,-74.218750
9843,-74.218750
9844,-74.218750
9845,-74.218750
9846,-70.312500
9847,-70.312500
9848,-70.312500
9849,-70.312500
9850,-70.312500
9851,-70.312500
9852,-70.312500
9853,-70.312500
9854,-70.312500
9855,-70.312500
9856,-66.406250
9857,-66.406250
9858,-66.406250
9859,-66.406250
9860,-66.406250
9861,-66.406250
9862,-66.406250
9863,-66.406250
9864,-66.406250
9865,-62.500000
9866,-62.500000
9867,-62.500000
9868,-62.500000
9869,-62.500000
9870,-62.500000
9871,-62.500000
9872,-62.500000
9873,-62.500000
9874,-62.500000
9875,-58.593750
9876,-58.593750
9877,-58.593750
9878,-58.593750
9879,-58.593750
9880,-58.593750
9881,-58.593750
9882,-58.593750
9883,-54.687500
9884,-54.687500
9885,-54.687500
9886,-54.687500
9887,-54.687500
9888,-54.687500
9889,-50.781250
9890,-50.781250
9891,-50.781250
9892,-54.687500
9893,-50.781250
9894,-50.781250
9895,-50.781250
9896,-50.781250
9897,-50.781250
9898,-46.875000
9899,-46.875000
9900,-46.875000
9901,-46.875000
9902,-46.875000
9903,-46.875000
9904,-46.875000
9905,-46.875000
9906,-42.968750
9907,-42.968750
9908,-42.968750
9909,-42.968750
9910,-42.968750
9911,-42.968750
9912,-42.968750
9913,-42.968750
9914,-42.968750
9915,-39.062500
9916,-39.062500
9917,-39.062500
9918,-39.062500
9919,-39.062500
9920,-35.156250
9921,-39.062500
9922,-35.156250
9923,-35.156250
9924,-35.156250
9925,-35.156250
9926,-35.156250
9927,-35.156250
9928,-31.250000
9929,-31.250000
9930,-31.250000
9931,-31.250000
9932,-31.250000
9933,-31.250000
9934,-31.250000
9935,-31.250000
9936,-27.343750
9937,-31.250000
9938,-31.250000
9939,-27.343750
9940,-27.343750
9941,-27.343750
9942,-27.343750
9943,-23.437500
9944,-27.343750
9945,-23.437500
9946,-23.437500
9947,-23.437500
9948,-23.437500
9949,-23.437500
9950,-23.437500
9951,-19.531250
9952,-19.531250
9953,-19.531250
9954,-19.531250
9955,-19.531250
9956,-19.531250
9957,-15.625000
9958,-15.625000
9959,-15.625000
9960,-15.625000
9961,-15.625000
9962,-15.625000
9963,-15.625000
9964,-15.625000
9965,-11.718750
9966,-11.718750
9967,-11.718750
9968,-11.718750
9969,-11.718750
9970,-11.718750
9971,-7.812500
9972,-7.812500
9973,-7.812500
9974,-7.812500
9975,-7.812500
9976,-7.812500
9977,-7.812500
9978,-3.906250
9979,-3.906250
9980,-3.906250
9981,-3.906250
9982,-3.906250
9983,-3.906250
9984,-3.906250
9985,-3.906250
9986,0.000000
9987,-3.906250
9988,0.000000
9989,0.000000
9990,0.000000
9991,0.000000
9992,0.000000
9993,0.000000
9994,3.906250
9995,3.906250
9996,3.906250
9997,3.906250
9998,3.906250
9999,3.906250
10000,3.906250
