Channel              :,CH1
Frequency            :,1.010kHz
Period               :,0.990ms
PK-PK                :,304.7mV
Probe attenuation    :,1X
Voltage per ADC value:,0.244141mV
Time interval        :,1.00000us

index,CH1_Voltage(mV)
1,-74.218750
2,-74.218750
3,-74.218750
4,-74.218750
5,-70.312500
6,-70.312500
7,-70.312500
8,-70.312500
9,-70.312500
10,-66.406250
11,-66.406250
12,-66.406250
13,-62.500000
14,-62.500000
15,-62.500000
16,-62.500000
17,-58.593750
18,-58.593750
19,-58.593750
20,-58.593750
21,-58.593750
22,-54.687500
23,-54.687500
24,-50.781250
25,-50.781250
26,-50.781250
27,-50.781250
28,-50.781250
29,-46.875000
30,-46.875000
31,-46.875000
32,-46.875000
33,-46.875000
34,-42.968750
35,-42.968750
36,-42.968750
37,-42.968750
38,-39.062500
39,-39.062500
40,-39.062500
41,-39.062500
42,-35.156250
43,-35.156250
44,-35.156250
45,-35.156250
46,-31.250000
47,-31.250000
48,-31.250000
49,-27.343750
50,-27.343750
51,-27.343750
52,-27.343750
53,-23.437500
54,-23.437500
55,-23.437500
56,-23.437500
57,-19.531250
58,-19.531250
59,-19.531250
60,-19.531250
61,-19.531250
62,-15.625000
63,-15.625000
64,-15.625000
65,-11.718750
66,-11.718750
67,-11.718750
68,-11.718750
69,-11.718750
70,-7.812500
71,-7.812500
72,-7.812500
73,-3.906250
74,-3.906250
75,-3.906250
76,-3.906250
77,0.000000
78,0.000000
79,0.000000
80,0.000000
81,0.000000
82,3.906250
83,3.906250
84,3.906250
85,7.812500
86,7.812500
87,7.812500
88,7.812500
89,7.812500
90,11.718750
91,11.718750
92,11.718750
93,11.718750
94,15.625000
95,15.625000
96,15.625000
97,15.625000
98,15.625000
99,19.531250
100,19.531250
101,19.531250
102,23.437500
103,23.437500
104,23.437500
105,23.437500
106,23.437500
107,27.343750
108,27.343750
109,27.343750
110,27.343750
111,31.250000
112,31.250000
113,31.250000
114,31.250000
115,31.250000
116,35.156250
117,35.156250
118,35.156250
119,35.156250
120,39.062500
121,39.062500
122,39.062500
123,39.062500
124,42.968750
125,42.968750
126,42.968750
127,42.968750
128,42.968750
129,42.968750
130,46.875000
131,46.875000
132,46.875000
133,50.781250
134,50.781250
135,50.781250
136,50.781250
137,50.781250
138,54.687500
139,54.687500
140,54.687500
141,54.687500
142,58.593750
143,58.593750
144,58.593750
145,58.593750
146,58.593750
147,62.500000
148,62.500000
149,62.500000
150,62.500000
151,62.500000
152,62.500000
153,66.406250
154,66.406250
155,66.406250
156,66.406250
157,66.406250
158,70.312500
159,70.312500
160,70.312500
161,70.312500
162,70.312500
163,74.218750
164,74.218750
165,74.218750
166,74.218750
167,74.218750
168,74.218750
169,78.125000
170,78.125000
171,78.125000
172,78.125000
173,78.125000
174,82.031250
175,82.031250
176,82.031250
177,82.031250
178,82.031250
179,85.937500
180,85.937500
181,85.937500
182,85.937500
183,85.937500
184,85.937500
185,85.937500
186,89.843750
187,89.843750
188,89.843750
189,89.843750
190,89.843750
191,89.843750
192,93.750000
193,93.750000
194,93.750000
195,93.750000
196,93.750000
197,93.750000
198,93.750000
199,93.750000
200,97.656250
201,97.656250
202,97.656250
203,97.656250
204,97.656250
205,101.562500
206,101.562500
207,101.562500
208,101.562500
209,101.562500
210,101.562500
211,101.562500
212,101.562500
213,101.562500
214,105.468750
215,105.468750
216,105.468750
217,105.468750
218,105.468750
219,105.468750
220,105.468750
221,105.468750
222,109.375000
223,109.375000
224,109.375000
225,109.375000
226,109.375000
227,109.375000
228,109.375000
229,109.375000
230,109.375000
231,113.281250
232,113.281250
233,113.281250
234,113.281250
235,113.281250
236,113.281250
237,113.281250
238,113.281250
239,117.187500
240,117.187500
241,117.187500
242,117.187500
243,117.187500
244,117.187500
245,117.187500
246,117.187500
247,117.187500
248,117.187500
249,117.187500
250,121.093750
251,121.093750
252,121.093750
253,121.093750
254,121.093750
255,121.093750
256,121.093750
257,121.093750
258,121.093750
259,121.093750
260,121.093750
261,121.093750
262,121.093750
263,125.000000
264,125.000000
265,125.000000
266,125.000000
267,125.000000
268,125.000000
269,125.000000
270,125.000000
271,125.000000
272,125.000000
273,125.000000
274,125.000000
275,125.000000
276,125.000000
277,125.000000
278,128.906250
279,128.906250
280,128.906250
281,128.906250
282,128.906250
283,128.906250
284,128.906250
285,128.906250
286,128.906250
287,128.906250
288,128.906250
289,128.906250
290,128.906250
291,128.906250
292,128.906250
293,128.906250
294,128.906250
295,128.906250
296,128.906250
297,128.906250
298,128.906250
299,128.906250
300,132.812500
301,128.906250
302,132.812500
303,132.812500
304,132.812500
305,132.812500
306,132.812500
307,128.906250
308,132.812500
309,132.812500
310,132.812500
311,132.812500
312,132.812500
313,132.812500
314,132.812500
315,132.812500
316,132.812500
317,132.812500
318,132.812500
319,132.812500
320,132.812500
321,132.812500
322,132.812500
323,132.812500
324,132.812500
325,132.812500
326,132.812500
327,132.812500
328,132.812500
329,128.906250
330,132.812500
331,132.812500
332,132.812500
333,132.812500
334,132.812500
335,132.812500
336,132.812500
337,132.812500
338,132.812500
339,132.812500
340,132.812500
341,128.906250
342,132.812500
343,132.812500
344,132.812500
345,128.906250
346,132.812500
347,128.906250
348,128.906250
349,128.906250
350,128.906250
351,128.906250
352,128.906250
353,128.906250
354,128.906250
355,128.906250
356,128.906250
357,128.906250
358,128.906250
359,128.906250
360,128.906250
361,128.906250
362,128.906250
363,128.906250
364,128.906250
365,128.906250
366,128.906250
367,128.906250
368,128.906250
369,125.000000
370,128.906250
371,125.000000
372,125.000000
373,125.000000
374,125.000000
375,125.000000
376,125.000000
377,125.000000
378,125.000000
379,125.000000
380,125.000000
381,125.000000
382,125.000000
383,125.000000
384,125.000000
385,125.000000
386,125.000000
387,121.093750
388,121.093750
389,121.093750
390,121.093750
391,121.093750
392,121.093750
393,121.093750
394,121.093750
395,121.093750
396,121.093750
397,121.093750
398,121.093750
399,117.187500
400,117.187500
401,117.187500
402,117.187500
403,117.187500
404,117.187500
405,117.187500
406,117.187500
407,117.187500
408,117.187500
409,117.187500
410,113.281250
411,113.281250
412,113.281250
413,113.281250
414,113.281250
415,113.281250
416,113.281250
417,113.281250
418,113.281250
419,109.375000
420,109.375000
421,109.375000
422,109.375000
423,109.375000
424,109.375000
425,109.375000
426,109.375000
427,105.468750
428,105.468750
429,105.468750
430,105.468750
431,105.468750
432,105.468750
433,105.468750
434,105.468750
435,101.562500
436,101.562500
437,101.562500
438,101.562500
439,101.562500
440,101.562500
441,101.562500
442,101.562500
443,97.656250
444,97.656250
445,97.656250
446,97.656250
447,97.656250
448,97.656250
449,93.750000
450,93.750000
451,93.750000
452,93.750000
453,93.750000
454,93.750000
455,93.750000
456,93.750000
457,89.843750
458,89.843750
459,89.843750
460,89.843750
461,89.843750
462,89.843750
463,85.937500
464,85.937500
465,85.937500
466,85.937500
467,85.937500
468,82.031250
469,82.031250
470,82.031250
471,82.031250
472,82.031250
473,82.031250
474,78.125000
475,78.125000
476,78.125000
477,78.125000
478,78.125000
479,74.218750
480,74.218750
481,74.218750
482,74.218750
483,74.218750
484,74.218750
485,70.312500
486,70.312500
487,70.312500
488,70.312500
489,70.312500
490,66.406250
491,66.406250
492,66.406250
493,66.406250
494,66.406250
495,66.406250
496,62.500000
497,62.500000
498,62.500000
499,62.500000
500,62.500000
501,58.593750
502,58.593750
503,58.593750
504,58.593750
505,58.593750
506,54.687500
507,54.687500
508,54.687500
509,50.781250
510,54.687500
511,50.781250
512,50.781250
513,50.781250
514,50.781250
515,46.875000
516,46.875000
517,46.875000
518,46.875000
519,46.875000
520,42.968750
521,42.968750
522,42.968750
523,42.968750
524,39.062500
525,39.062500
526,39.062500
527,39.062500
528,39.062500
529,35.156250
530,35.156250
531,35.156250
532,35.156250
533,31.250000
534,31.250000
535,31.250000
536,31.250000
537,27.343750
538,27.343750
539,27.343750
540,27.343750
541,27.343750
542,23.437500
543,23.437500
544,23.437500
545,23.437500
546,19.531250
547,19.531250
548,19.531250
549,19.531250
550,15.625000
551,15.625000
552,15.625000
553,15.625000
554,15.625000
555,11.718750
556,11.718750
557,11.718750
558,11.718750
559,7.812500
560,7.812500
561,7.812500
562,7.812500
563,3.906250
564,3.906250
565,3.906250
566,3.906250
567,0.000000
568,0.000000
569,0.000000
570,0.000000
571,-3.906250
572,-3.906250
573,-3.906250
574,-3.906250
575,-7.812500
576,-7.812500
577,-7.812500
578,-7.812500
579,-11.718750
580,-11.718750
581,-11.718750
582,-11.718750
583,-15.625000
584,-15.625000
585,-15.625000
586,-15.625000
587,-19.531250
588,-19.531250
589,-19.531250
590,-19.531250
591,-23.437500
592,-23.437500
593,-23.437500
594,-23.437500
595,-27.343750
596,-27.343750
597,-27.343750
598,-31.250000
599,-31.250000
600,-31.250000
601,-31.250000
602,-31.250000
603,-35.156250
604,-35.156250
605,-35.156250
606,-39.062500
607,-39.062500
608,-39.062500
609,-39.062500
610,-39.062500
611,-42.968750
612,-42.968750
613,-42.968750
614,-46.875000
615,-46.875000
616,-46.875000
617,-46.875000
618,-46.875000
619,-50.781250
620,-50.781250
621,-50.781250
622,-50.781250
623,-54.687500
624,-54.687500
625,-54.687500
626,-54.687500
627,-58.593750
628,-58.593750
629,-58.593750
630,-58.593750
631,-62.500000
632,-62.500000
633,-62.500000
634,-62.500000
635,-66.406250
636,-66.406250
637,-66.406250
638,-66.406250
639,-70.312500
640,-70.312500
641,-70.312500
642,-70.312500
643,-70.312500
644,-74.218750
645,-74.218750
646,-74.218750
647,-78.125000
648,-78.125000
649,-78.125000
650,-78.125000
651,-78.125000
652,-82.031250
653,-82.031250
654,-82.031250
655,-82.031250
656,-85.937500
657,-85.937500
658,-85.937500
659,-85.937500
660,-85.937500
661,-89.843750
662,-89.843750
663,-89.843750
664,-89.843750
665,-93.750000
666,-93.750000
667,-93.750000
668,-93.750000
669,-93.750000
670,-97.656250
671,-97.656250
672,-97.656250
673,-97.656250
674,-97.656250
675,-101.562500
676,-101.562500
677,-101.562500
678,-101.562500
679,-105.468750
680,-105.468750
681,-105.468750
682,-105.468750
683,-105.468750
684,-109.375000
685,-109.375000
686,-109.375000
687,-109.375000
688,-109.375000
689,-113.281250
690,-113.281250
691,-113.281250
692,-113.281250
693,-113.281250
694,-113.281250
695,-117.187500
696,-117.187500
697,-117.187500
698,-117.187500
699,-121.093750
700,-121.093750
701,-121.093750
702,-121.093750
703,-121.093750
704,-125.000000
705,-125.000000
706,-125.000000
707,-125.000000
708,-125.000000
709,-128.906250
710,-128.906250
711,-128.906250
712,-128.906250
713,-128.906250
714,-128.906250
715,-132.812500
716,-132.812500
717,-132.812500
718,-132.812500
719,-132.812500
720,-132.812500
721,-132.812500
722,-136.718750
723,-136.718750
724,-136.718750
725,-136.718750
726,-136.718750
727,-140.625000
728,-140.625000
729,-140.625000
730,-140.625000
731,-140.625000
732,-140.625000
733,-144.531250
734,-144.531250
735,-144.531250
736,-144.531250
737,-144.531250
738,-144.531250
739,-144.531250
740,-144.531250
741,-144.531250
742,-144.531250
743,-148.437500
744,-148.437500
745,-148.437500
746,-148.437500
747,-148.437500
748,-148.437500
749,-148.437500
750,-148.437500
751,-152.343750
752,-152.343750
753,-152.343750
754,-152.343750
755,-152.343750
756,-152.343750
757,-156.250000
758,-156.250000
759,-156.250000
760,-156.250000
761,-156.250000
762,-156.250000
763,-156.250000
764,-156.250000
765,-156.250000
766,-156.250000
767,-156.250000
768,-156.250000
769,-156.250000
770,-160.156250
771,-160.156250
772,-160.156250
773,-160.156250
774,-160.156250
775,-160.156250
776,-160.156250
777,-160.156250
778,-160.156250
779,-160.156250
780,-164.062500
781,-160.156250
782,-160.156250
783,-164.062500
784,-164.062500
785,-164.062500
786,-164.062500
787,-164.062500
788,-164.062500
789,-164.062500
790,-164.062500
791,-164.062500
792,-164.062500
793,-164.062500
794,-164.062500
795,-164.062500
796,-164.062500
797,-164.062500
798,-164.062500
799,-164.062500
800,-164.062500
801,-164.062500
802,-164.062500
803,-167.968750
804,-167.968750
805,-167.968750
806,-164.062500
807,-167.968750
808,-167.968750
809,-167.968750
810,-167.968750
811,-167.968750
812,-167.968750
813,-167.968750
814,-164.062500
815,-167.968750
816,-167.968750
817,-167.968750
818,-167.968750
819,-167.968750
820,-167.968750
821,-164.062500
822,-167.968750
823,-167.968750
824,-167.968750
825,-167.968750
826,-167.968750
827,-164.062500
828,-164.062500
829,-164.062500
830,-164.062500
831,-167.968750
832,-167.968750
833,-167.968750
834,-167.968750
835,-164.062500
836,-167.968750
837,-164.062500
838,-164.062500
839,-164.062500
840,-164.062500
841,-164.062500
842,-164.062500
843,-164.062500
844,-164.062500
845,-164.062500
846,-164.062500
847,-164.062500
848,-164.062500
849,-164.062500
850,-164.062500
851,-164.062500
852,-164.062500
853,-164.062500
854,-164.062500
855,-164.062500
856,-164.062500
857,-160.156250
858,-160.156250
859,-160.156250
860,-160.156250
861,-160.156250
862,-160.156250
863,-160.156250
864,-160.156250
865,-160.156250
866,-160.156250
867,-160.156250
868,-160.156250
869,-160.156250
870,-156.250000
871,-156.250000
872,-156.250000
873,-156.250000
874,-156.250000
875,-156.250000
876,-156.250000
877,-156.250000
878,-156.250000
879,-156.250000
880,-152.343750
881,-152.343750
882,-152.343750
883,-152.343750
884,-152.343750
885,-152.343750
886,-152.343750
887,-148.437500
888,-148.437500
889,-148.437500
890,-152.343750
891,-148.437500
892,-148.437500
893,-148.437500
894,-148.437500
895,-148.437500
896,-148.437500
897,-144.531250
898,-144.531250
899,-144.531250
900,-144.531250
901,-144.531250
902,-144.531250
903,-144.531250
904,-140.625000
905,-140.625000
906,-140.625000
907,-140.625000
908,-140.625000
909,-140.625000
910,-140.625000
911,-136.718750
912,-136.718750
913,-136.718750
914,-136.718750
915,-136.718750
916,-132.812500
917,-132.812500
918,-132.812500
919,-132.812500
920,-132.812500
921,-132.812500
922,-128.906250
923,-128.906250
924,-128.906250
925,-128.906250
926,-128.906250
927,-128.906250
928,-125.000000
929,-125.000000
930,-125.000000
931,-125.000000
932,-125.000000
933,-121.093750
934,-121.093750
935,-121.093750
936,-121.093750
937,-121.093750
938,-121.093750
939,-117.187500
940,-117.187500
941,-117.187500
942,-117.187500
943,-117.187500
944,-113.281250
945,-113.281250
946,-113.281250
947,-113.281250
948,-113.281250
949,-109.375000
950,-109.375000
951,-109.375000
952,-109.375000
953,-109.375000
954,-105.468750
955,-105.468750
956,-105.468750
957,-105.468750
958,-105.468750
959,-101.562500
960,-101.562500
961,-101.562500
962,-101.562500
963,-97.656250
964,-97.656250
965,-97.656250
966,-97.656250
967,-97.656250
968,-97.656250
969,-93.750000
970,-93.750000
971,-93.750000
972,-93.750000
973,-93.750000
974,-89.843750
975,-89.843750
976,-89.843750
977,-89.843750
978,-85.937500
979,-85.937500
980,-85.937500
981,-85.937500
982,-82.031250
983,-82.031250
984,-82.031250
985,-82.031250
986,-78.125000
987,-78.125000
988,-78.125000
989,-78.125000
990,-74.218750
991,-74.218750
992,-74.218750
993,-74.218750
994,-74.218750
995,-70.312500
996,-70.312500
997,-70.312500
998,-70.312500
999,-66.406250
1000,-66.406250
1001,-66.406250
1002,-66.406250
1003,-62.500000
1004,-62.500000
1005,-62.500000
1006,-62.500000
1007,-58.593750
1008,-58.593750
1009,-58.593750
1010,-58.593750
1011,-54.687500
1012,-54.687500
1013,-54.687500
1014,-54.687500
1015,-54.687500
1016,-50.781250
1017,-50.781250
1018,-50.781250
1019,-50.781250
1020,-46.875000
1021,-46.875000
1022,-46.875000
1023,-46.875000
1024,-42.968750
1025,-42.968750
1026,-42.968750
1027,-42.968750
1028,-39.062500
1029,-39.062500
1030,-39.062500
1031,-35.156250
1032,-35.156250
1033,-35.156250
1034,-35.156250
1035,-35.156250
1036,-31.250000
1037,-31.250000
1038,-31.250000
1039,-27.343750
1040,-27.343750
1041,-27.343750
1042,-27.343750
1043,-23.437500
1044,-23.437500
1045,-23.437500
1046,-23.437500
1047,-23.437500
1048,-19.531250
1049,-19.531250
1050,-19.531250
1051,-15.625000
1052,-15.625000
1053,-15.625000
1054,-15.625000
1055,-11.718750
1056,-11.718750
1057,-11.718750
1058,-11.718750
1059,-11.718750
1060,-7.812500
1061,-7.812500
1062,-3.906250
1063,-3.906250
1064,-3.906250
1065,-3.906250
1066,-3.906250
1067,0.000000
1068,0.000000
1069,0.000000
1070,0.000000
1071,0.000000
1072,3.906250
1073,3.906250
1074,3.906250
1075,7.812500
1076,7.812500
1077,7.812500
1078,7.812500
1079,11.718750
1080,11.718750
1081,11.718750
1082,11.718750
1083,15.625000
1084,15.625000
1085,15.625000
1086,15.625000
1087,15.625000
1088,19.531250
1089,19.531250
1090,19.531250
1091,19.531250
1092,23.437500
1093,23.437500
1094,23.437500
1095,27.343750
1096,27.343750
1097,27.343750
1098,27.343750
1099,27.343750
1100,31.250000
1101,31.250000
1102,31.250000
1103,31.250000
1104,31.250000
1105,31.250000
1106,35.156250
1107,35.156250
1108,35.156250
1109,39.062500
1110,39.062500
1111,39.062500
1112,39.062500
1113,39.062500
1114,39.062500
1115,42.968750
1116,42.968750
1117,42.968750
1118,42.968750
1119,46.875000
1120,46.875000
1121,46.875000
1122,46.875000
1123,46.875000
1124,50.781250
1125,50.781250
1126,50.781250
1127,50.781250
1128,54.687500
1129,54.687500
1130,54.687500
1131,54.687500
1132,54.687500
1133,58.593750
1134,58.593750
1135,58.593750
1136,58.593750
1137,58.593750
1138,62.500000
1139,62.500000
1140,62.500000
1141,62.500000
1142,66.406250
1143,66.406250
1144,66.406250
1145,66.406250
1146,66.406250
1147,66.406250
1148,70.312500
1149,70.312500
1150,70.312500
1151,70.312500
1152,70.312500
1153,74.218750
1154,74.218750
1155,74.218750
1156,74.218750
1157,74.218750
1158,74.218750
1159,78.125000
1160,78.125000
1161,78.125000
1162,78.125000
1163,78.125000
1164,78.125000
1165,82.031250
1166,82.031250
1167,82.031250
1168,82.031250
1169,82.031250
1170,82.031250
1171,85.937500
1172,85.937500
1173,85.937500
1174,85.937500
1175,85.937500
1176,85.937500
1177,89.843750
1178,89.843750
1179,89.843750
1180,89.843750
1181,89.843750
1182,93.750000
1183,93.750000
1184,93.750000
1185,93.750000
1186,93.750000
1187,93.750000
1188,93.750000
1189,97.656250
1190,97.656250
1191,97.656250
1192,97.656250
1193,97.656250
1194,97.656250
1195,97.656250
1196,97.656250
1197,101.562500
1198,101.562500
1199,101.562500
1200,101.562500
1201,101.562500
1202,101.562500
1203,101.562500
1204,105.468750
1205,105.468750
1206,105.468750
1207,105.468750
1208,105.468750
1209,105.468750
1210,105.468750
1211,109.375000
1212,109.375000
1213,109.375000
1214,109.375000
1215,109.375000
1216,109.375000
1217,109.375000
1218,109.375000
1219,109.375000
1220,113.281250
1221,113.281250
1222,113.281250
1223,113.281250
1224,113.281250
1225,113.281250
1226,113.281250
1227,113.281250
1228,113.281250
1229,117.187500
1230,117.187500
1231,117.187500
1232,117.187500
1233,117.187500
1234,117.187500
1235,117.187500
1236,117.187500
1237,117.187500
1238,117.187500
1239,117.187500
1240,117.187500
1241,121.093750
1242,121.093750
1243,121.093750
1244,121.093750
1245,121.093750
1246,121.093750
1247,121.093750
1248,121.093750
1249,121.093750
1250,121.093750
1251,121.093750
1252,121.093750
1253,121.093750
1254,125.000000
1255,125.000000
1256,125.000000
1257,125.000000
1258,125.000000
1259,125.000000
1260,125.000000
1261,125.000000
1262,125.000000
1263,125.000000
1264,125.000000
1265,125.000000
1266,125.000000
1267,125.000000
1268,128.906250
1269,128.906250
1270,128.906250
1271,128.906250
1272,128.906250
1273,128.906250
1274,128.906250
1275,128.906250
1276,128.906250
1277,128.906250
1278,128.906250
1279,128.906250
1280,128.906250
1281,128.906250
1282,128.906250
1283,128.906250
1284,128.906250
1285,128.906250
1286,128.906250
1287,128.906250
1288,128.906250
1289,128.906250
1290,128.906250
1291,128.906250
1292,128.906250
1293,128.906250
1294,132.812500
1295,132.812500
1296,132.812500
1297,132.812500
1298,132.812500
1299,128.906250
1300,132.812500
1301,132.812500
1302,132.812500
1303,128.906250
1304,132.812500
1305,132.812500
1306,132.812500
1307,132.812500
1308,132.812500
1309,132.812500
1310,132.812500
1311,132.812500
1312,132.812500
1313,132.812500
1314,132.812500
1315,132.812500
1316,132.812500
1317,132.812500
1318,132.812500
1319,132.812500
1320,132.812500
1321,132.812500
1322,132.812500
1323,132.812500
1324,132.812500
1325,132.812500
1326,132.812500
1327,132.812500
1328,132.812500
1329,132.812500
1330,132.812500
1331,132.812500
1332,132.812500
1333,132.812500
1334,132.812500
1335,128.906250
1336,132.812500
1337,128.906250
1338,128.906250
1339,128.906250
1340,132.812500
1341,132.812500
1342,128.906250
1343,128.906250
1344,128.906250
1345,128.906250
1346,128.906250
1347,128.906250
1348,128.906250
1349,128.906250
1350,128.906250
1351,128.906250
1352,128.906250
1353,128.906250
1354,128.906250
1355,128.906250
1356,128.906250
1357,128.906250
1358,128.906250
1359,125.000000
1360,128.906250
1361,125.000000
1362,125.000000
1363,125.000000
1364,125.000000
1365,125.000000
1366,125.000000
1367,125.000000
1368,125.000000
1369,125.000000
1370,125.000000
1371,125.000000
1372,125.000000
1373,125.000000
1374,125.000000
1375,121.093750
1376,121.093750
1377,121.093750
1378,121.093750
1379,121.093750
1380,121.093750
1381,121.093750
1382,121.093750
1383,121.093750
1384,121.093750
1385,121.093750
1386,121.093750
1387,117.187500
1388,117.187500
1389,117.187500
1390,117.187500
1391,117.187500
1392,117.187500
1393,117.187500
1394,117.187500
1395,117.187500
1396,117.187500
1397,117.187500
1398,113.281250
1399,113.281250
1400,113.281250
1401,113.281250
1402,113.281250
1403,113.281250
1404,113.281250
1405,113.281250
1406,113.281250
1407,109.375000
1408,113.281250
1409,109.375000
1410,113.281250
1411,109.375000
1412,109.375000
1413,109.375000
1414,109.375000
1415,109.375000
1416,109.375000
1417,109.375000
1418,105.468750
1419,105.468750
1420,105.468750
1421,105.468750
1422,105.468750
1423,105.468750
1424,101.562500
1425,101.562500
1426,101.562500
1427,101.562500
1428,101.562500
1429,101.562500
1430,101.562500
1431,101.562500
1432,101.562500
1433,97.656250
1434,97.656250
1435,97.656250
1436,97.656250
1437,97.656250
1438,97.656250
1439,97.656250
1440,97.656250
1441,93.750000
1442,93.750000
1443,93.750000
1444,93.750000
1445,89.843750
1446,89.843750
1447,89.843750
1448,89.843750
1449,89.843750
1450,89.843750
1451,89.843750
1452,85.937500
1453,85.937500
1454,85.937500
1455,85.937500
1456,85.937500
1457,85.937500
1458,85.937500
1459,82.031250
1460,82.031250
1461,82.031250
1462,82.031250
1463,82.031250
1464,78.125000
1465,78.125000
1466,78.125000
1467,78.125000
1468,78.125000
1469,78.125000
1470,74.218750
1471,74.218750
1472,74.218750
1473,74.218750
1474,74.218750
1475,74.218750
1476,70.312500
1477,70.312500
1478,70.312500
1479,70.312500
1480,70.312500
1481,66.406250
1482,66.406250
1483,66.406250
1484,66.406250
1485,62.500000
1486,62.500000
1487,62.500000
1488,62.500000
1489,62.500000
1490,58.593750
1491,58.593750
1492,58.593750
1493,58.593750
1494,58.593750
1495,54.687500
1496,54.687500
1497,54.687500
1498,54.687500
1499,54.687500
1500,50.781250
1501,50.781250
1502,50.781250
1503,50.781250
1504,46.875000
1505,46.875000
1506,46.875000
1507,46.875000
1508,46.875000
1509,46.875000
1510,42.968750
1511,42.968750
1512,42.968750
1513,39.062500
1514,39.062500
1515,39.062500
1516,39.062500
1517,39.062500
1518,35.156250
1519,35.156250
1520,35.156250
1521,35.156250
1522,35.156250
1523,31.250000
1524,31.250000
1525,31.250000
1526,31.250000
1527,27.343750
1528,27.343750
1529,27.343750
1530,27.343750
1531,23.437500
1532,23.437500
1533,23.437500
1534,23.437500
1535,19.531250
1536,19.531250
1537,19.531250
1538,19.531250
1539,19.531250
1540,15.625000
1541,15.625000
1542,15.625000
1543,11.718750
1544,11.718750
1545,11.718750
1546,11.718750
1547,11.718750
1548,7.812500
1549,7.812500
1550,7.812500
1551,3.906250
1552,3.906250
1553,3.906250
1554,3.906250
1555,3.906250
1556,0.000000
1557,0.000000
1558,0.000000
1559,0.000000
1560,0.000000
1561,-3.906250
1562,-3.906250
1563,-3.906250
1564,-7.812500
1565,-7.812500
1566,-7.812500
1567,-7.812500
1568,-7.812500
1569,-11.718750
1570,-11.718750
1571,-11.718750
1572,-15.625000
1573,-15.625000
1574,-15.625000
1575,-15.625000
1576,-15.625000
1577,-19.531250
1578,-19.531250
1579,-19.531250
1580,-19.531250
1581,-23.437500
1582,-23.437500
1583,-23.437500
1584,-27.343750
1585,-27.343750
1586,-27.343750
1587,-27.343750
1588,-27.343750
1589,-31.250000
1590,-31.250000
1591,-31.250000
1592,-31.250000
1593,-35.156250
1594,-35.156250
1595,-35.156250
1596,-35.156250
1597,-39.062500
1598,-39.062500
1599,-39.062500
1600,-42.968750
1601,-42.968750
1602,-42.968750
1603,-42.968750
1604,-46.875000
1605,-46.875000
1606,-46.875000
1607,-46.875000
1608,-46.875000
1609,-50.781250
1610,-50.781250
1611,-50.781250
1612,-54.687500
1613,-54.687500
1614,-54.687500
1615,-54.687500
1616,-54.687500
1617,-58.593750
1618,-58.593750
1619,-58.593750
1620,-62.500000
1621,-62.500000
1622,-62.500000
1623,-62.500000
1624,-62.500000
1625,-66.406250
1626,-66.406250
1627,-66.406250
1628,-70.312500
1629,-70.312500
1630,-70.312500
1631,-70.312500
1632,-70.312500
1633,-74.218750
1634,-74.218750
1635,-74.218750
1636,-74.218750
1637,-78.125000
1638,-78.125000
1639,-78.125000
1640,-78.125000
1641,-82.031250
1642,-82.031250
1643,-82.031250
1644,-82.031250
1645,-85.937500
1646,-85.937500
1647,-85.937500
1648,-85.937500
1649,-85.937500
1650,-89.843750
1651,-89.843750
1652,-89.843750
1653,-93.750000
1654,-93.750000
1655,-93.750000
1656,-93.750000
1657,-93.750000
1658,-93.750000
1659,-97.656250
1660,-97.656250
1661,-97.656250
1662,-97.656250
1663,-101.562500
1664,-101.562500
1665,-101.562500
1666,-101.562500
1667,-101.562500
1668,-101.562500
1669,-105.468750
1670,-105.468750
1671,-105.468750
1672,-109.375000
1673,-109.375000
1674,-109.375000
1675,-109.375000
1676,-109.375000
1677,-109.375000
1678,-113.281250
1679,-113.281250
1680,-113.281250
1681,-113.281250
1682,-113.281250
1683,-117.187500
1684,-117.187500
1685,-117.187500
1686,-117.187500
1687,-117.187500
1688,-121.093750
1689,-121.093750
1690,-121.093750
1691,-121.093750
1692,-121.093750
1693,-125.000000
1694,-125.000000
1695,-125.000000
1696,-125.000000
1697,-125.000000
1698,-125.000000
1699,-128.906250
1700,-128.906250
1701,-128.906250
1702,-128.906250
1703,-128.906250
1704,-132.812500
1705,-132.812500
1706,-132.812500
1707,-132.812500
1708,-132.812500
1709,-132.812500
1710,-132.812500
1711,-136.718750
1712,-136.718750
1713,-136.718750
1714,-136.718750
1715,-136.718750
1716,-136.718750
1717,-140.625000
1718,-140.625000
1719,-140.625000
1720,-140.625000
1721,-140.625000
1722,-140.625000
1723,-140.625000
1724,-144.531250
1725,-144.531250
1726,-144.531250
1727,-144.531250
1728,-144.531250
1729,-144.531250
1730,-144.531250
1731,-148.437500
1732,-148.437500
1733,-148.437500
1734,-148.437500
1735,-148.437500
1736,-148.437500
1737,-148.437500
1738,-148.437500
1739,-152.343750
1740,-152.343750
1741,-152.343750
1742,-152.343750
1743,-152.343750
1744,-152.343750
1745,-152.343750
1746,-152.343750
1747,-152.343750
1748,-152.343750
1749,-156.250000
1750,-156.250000
1751,-156.250000
1752,-156.250000
1753,-156.250000
1754,-156.250000
1755,-156.250000
1756,-156.250000
1757,-156.250000
1758,-156.250000
1759,-160.156250
1760,-160.156250
1761,-160.156250
1762,-160.156250
1763,-160.156250
1764,-160.156250
1765,-160.156250
1766,-160.156250
1767,-160.156250
1768,-160.156250
1769,-160.156250
1770,-160.156250
1771,-164.062500
1772,-164.062500
1773,-164.062500
1774,-164.062500
1775,-164.062500
1776,-164.062500
1777,-164.062500
1778,-164.062500
1779,-164.062500
1780,-164.062500
1781,-164.062500
1782,-164.062500
1783,-164.062500
1784,-164.062500
1785,-164.062500
1786,-164.062500
1787,-167.968750
1788,-164.062500
1789,-164.062500
1790,-167.968750
1791,-167.968750
1792,-167.968750
1793,-167.968750
1794,-167.968750
1795,-167.968750
1796,-167.968750
1797,-167.968750
1798,-167.968750
1799,-167.968750
1800,-167.968750
1801,-167.968750
1802,-167.968750
1803,-167.968750
1804,-167.968750
1805,-167.968750
1806,-167.968750
1807,-167.968750
1808,-167.968750
1809,-167.968750
1810,-167.968750
1811,-167.968750
1812,-167.968750
1813,-167.968750
1814,-167.968750
1815,-167.968750
1816,-167.968750
1817,-167.968750
1818,-167.968750
1819,-167.968750
1820,-167.968750
1821,-167.968750
1822,-167.968750
1823,-167.968750
1824,-167.968750
1825,-167.968750
1826,-167.968750
1827,-164.062500
1828,-164.062500
1829,-164.062500
1830,-164.062500
1831,-164.062500
1832,-164.062500
1833,-164.062500
1834,-164.062500
1835,-164.062500
1836,-164.062500
1837,-164.062500
1838,-164.062500
1839,-164.062500
1840,-164.062500
1841,-164.062500
1842,-164.062500
1843,-164.062500
1844,-160.156250
1845,-164.062500
1846,-160.156250
1847,-164.062500
1848,-160.156250
1849,-160.156250
1850,-160.156250
1851,-160.156250
1852,-160.156250
1853,-160.156250
1854,-160.156250
1855,-160.156250
1856,-160.156250
1857,-160.156250
1858,-160.156250
1859,-160.156250
1860,-156.250000
1861,-156.250000
1862,-156.250000
1863,-156.250000
1864,-156.250000
1865,-156.250000
1866,-156.250000
1867,-156.250000
1868,-156.250000
1869,-152.343750
1870,-152.343750
1871,-152.343750
1872,-152.343750
1873,-152.343750
1874,-152.343750
1875,-152.343750
1876,-152.343750
1877,-152.343750
1878,-152.343750
1879,-148.437500
1880,-148.437500
1881,-148.437500
1882,-148.437500
1883,-148.437500
1884,-148.437500
1885,-148.437500
1886,-148.437500
1887,-148.437500
1888,-144.531250
1889,-144.531250
1890,-144.531250
1891,-144.531250
1892,-144.531250
1893,-144.531250
1894,-144.531250
1895,-144.531250
1896,-140.625000
1897,-140.625000
1898,-140.625000
1899,-140.625000
1900,-140.625000
1901,-140.625000
1902,-136.718750
1903,-136.718750
1904,-136.718750
1905,-136.718750
1906,-136.718750
1907,-132.812500
1908,-132.812500
1909,-132.812500
1910,-132.812500
1911,-132.812500
1912,-128.906250
1913,-132.812500
1914,-128.906250
1915,-128.906250
1916,-128.906250
1917,-128.906250
1918,-128.906250
1919,-125.000000
1920,-125.000000
1921,-125.000000
1922,-125.000000
1923,-125.000000
1924,-125.000000
1925,-121.093750
1926,-121.093750
1927,-121.093750
1928,-121.093750
1929,-121.093750
1930,-117.187500
1931,-117.187500
1932,-117.187500
1933,-117.187500
1934,-113.281250
1935,-113.281250
1936,-113.281250
1937,-113.281250
1938,-113.281250
1939,-113.281250
1940,-109.375000
1941,-109.375000
1942,-109.375000
1943,-109.375000
1944,-105.468750
1945,-105.468750
1946,-105.468750
1947,-105.468750
1948,-105.468750
1949,-101.562500
1950,-101.562500
1951,-101.562500
1952,-101.562500
1953,-101.562500
1954,-97.656250
1955,-97.656250
1956,-97.656250
1957,-97.656250
1958,-93.750000
1959,-93.750000
1960,-93.750000
1961,-93.750000
1962,-93.750000
1963,-89.843750
1964,-89.843750
1965,-89.843750
1966,-89.843750
1967,-85.937500
1968,-85.937500
1969,-85.937500
1970,-85.937500
1971,-85.937500
1972,-82.031250
1973,-82.031250
1974,-82.031250
1975,-82.031250
1976,-78.125000
1977,-78.125000
1978,-78.125000
1979,-78.125000
1980,-74.218750
1981,-74.218750
1982,-74.218750
1983,-74.218750
1984,-70.312500
1985,-70.312500
1986,-70.312500
1987,-70.312500
1988,-66.406250
1989,-66.406250
1990,-66.406250
1991,-66.406250
1992,-62.500000
1993,-62.500000
1994,-62.500000
1995,-62.500000
1996,-62.500000
1997,-58.593750
1998,-58.593750
1999,-58.593750
2000,-58.593750
2001,-54.687500
2002,-54.687500
2003,-54.687500
2004,-50.781250
2005,-50.781250
2006,-50.781250
2007,-50.781250
2008,-50.781250
2009,-46.875000
2010,-46.875000
2011,-46.875000
2012,-46.875000
2013,-42.968750
2014,-42.968750
2015,-42.968750
2016,-42.968750
2017,-39.062500
2018,-39.062500
2019,-39.062500
2020,-39.062500
2021,-35.156250
2022,-35.156250
2023,-35.156250
2024,-35.156250
2025,-31.250000
2026,-31.250000
2027,-31.250000
2028,-31.250000
2029,-27.343750
2030,-27.343750
2031,-27.343750
2032,-27.343750
2033,-23.437500
2034,-23.437500
2035,-23.437500
2036,-19.531250
2037,-19.531250
2038,-19.531250
2039,-19.531250
2040,-15.625000
2041,-15.625000
2042,-15.625000
2043,-15.625000
2044,-15.625000
2045,-11.718750
2046,-11.718750
2047,-11.718750
2048,-11.718750
2049,-7.812500
2050,-7.812500
2051,-7.812500
2052,-7.812500
2053,-3.906250
2054,-3.906250
2055,-3.906250
2056,-3.906250
2057,0.000000
2058,0.000000
2059,0.000000
2060,0.000000
2061,3.906250
2062,3.906250
2063,3.906250
2064,3.906250
2065,7.812500
2066,7.812500
2067,7.812500
2068,7.812500
2069,11.718750
2070,11.718750
2071,11.718750
2072,11.718750
2073,15.625000
2074,15.625000
2075,15.625000
2076,15.625000
2077,15.625000
2078,19.531250
2079,19.531250
2080,19.531250
2081,19.531250
2082,23.437500
2083,23.437500
2084,23.437500
2085,23.437500
2086,27.343750
2087,27.343750
2088,27.343750
2089,27.343750
2090,31.250000
2091,31.250000
2092,31.250000
2093,31.250000
2094,35.156250
2095,35.156250
2096,35.156250
2097,35.156250
2098,35.156250
2099,39.062500
2100,39.062500
2101,39.062500
2102,39.062500
2103,42.968750
2104,42.968750
2105,42.968750
2106,42.968750
2107,42.968750
2108,46.875000
2109,46.875000
2110,46.875000
2111,46.875000
2112,50.781250
2113,50.781250
2114,50.781250
2115,50.781250
2116,50.781250
2117,54.687500
2118,54.687500
2119,54.687500
2120,54.687500
2121,54.687500
2122,54.687500
2123,58.593750
2124,58.593750
2125,58.593750
2126,58.593750
2127,62.500000
2128,62.500000
2129,62.500000
2130,62.500000
2131,62.500000
2132,66.406250
2133,66.406250
2134,66.406250
2135,66.406250
2136,66.406250
2137,70.312500
2138,70.312500
2139,70.312500
2140,70.312500
2141,70.312500
2142,74.218750
2143,74.218750
2144,74.218750
2145,74.218750
2146,74.218750
2147,78.125000
2148,78.125000
2149,78.125000
2150,78.125000
2151,78.125000
2152,78.125000
2153,78.125000
2154,82.031250
2155,82.031250
2156,82.031250
2157,82.031250
2158,85.937500
2159,85.937500
2160,85.937500
2161,85.937500
2162,85.937500
2163,85.937500
2164,85.937500
2165,85.937500
2166,85.937500
2167,89.843750
2168,89.843750
2169,89.843750
2170,89.843750
2171,89.843750
2172,93.750000
2173,93.750000
2174,93.750000
2175,93.750000
2176,93.750000
2177,93.750000
2178,97.656250
2179,97.656250
2180,97.656250
2181,97.656250
2182,97.656250
2183,97.656250
2184,97.656250
2185,97.656250
2186,101.562500
2187,101.562500
2188,101.562500
2189,101.562500
2190,101.562500
2191,101.562500
2192,101.562500
2193,101.562500
2194,105.468750
2195,105.468750
2196,105.468750
2197,105.468750
2198,105.468750
2199,105.468750
2200,105.468750
2201,105.468750
2202,109.375000
2203,109.375000
2204,109.375000
2205,109.375000
2206,109.375000
2207,109.375000
2208,109.375000
2209,109.375000
2210,113.281250
2211,113.281250
2212,113.281250
2213,113.281250
2214,113.281250
2215,113.281250
2216,113.281250
2217,117.187500
2218,113.281250
2219,113.281250
2220,117.187500
2221,117.187500
2222,117.187500
2223,117.187500
2224,117.187500
2225,117.187500
2226,121.093750
2227,117.187500
2228,117.187500
2229,117.187500
2230,121.093750
2231,121.093750
2232,121.093750
2233,121.093750
2234,121.093750
2235,121.093750
2236,121.093750
2237,121.093750
2238,121.093750
2239,121.093750
2240,121.093750
2241,125.000000
2242,121.093750
2243,125.000000
2244,125.000000
2245,125.000000
2246,125.000000
2247,125.000000
2248,125.000000
2249,125.000000
2250,125.000000
2251,125.000000
2252,125.000000
2253,125.000000
2254,128.906250
2255,125.000000
2256,128.906250
2257,128.906250
2258,128.906250
2259,128.906250
2260,128.906250
2261,128.906250
2262,128.906250
2263,128.906250
2264,128.906250
2265,128.906250
2266,128.906250
2267,128.906250
2268,128.906250
2269,128.906250
2270,128.906250
2271,128.906250
2272,128.906250
2273,128.906250
2274,128.906250
2275,128.906250
2276,128.906250
2277,128.906250
2278,132.812500
2279,128.906250
2280,128.906250
2281,128.906250
2282,128.906250
2283,128.906250
2284,132.812500
2285,132.812500
2286,132.812500
2287,128.906250
2288,132.812500
2289,128.906250
2290,132.812500
2291,128.906250
2292,132.812500
2293,128.906250
2294,132.812500
2295,132.812500
2296,132.812500
2297,132.812500
2298,132.812500
2299,128.906250
2300,132.812500
2301,128.906250
2302,132.812500
2303,132.812500
2304,132.812500
2305,132.812500
2306,132.812500
2307,132.812500
2308,132.812500
2309,132.812500
2310,132.812500
2311,132.812500
2312,132.812500
2313,128.906250
2314,132.812500
2315,132.812500
2316,132.812500
2317,128.906250
2318,132.812500
2319,128.906250
2320,128.906250
2321,128.906250
2322,132.812500
2323,128.906250
2324,128.906250
2325,132.812500
2326,128.906250
2327,128.906250
2328,128.906250
2329,128.906250
2330,128.906250
2331,128.906250
2332,128.906250
2333,128.906250
2334,128.906250
2335,128.906250
2336,128.906250
2337,128.906250
2338,128.906250
2339,128.906250
2340,128.906250
2341,128.906250
2342,128.906250
2343,128.906250
2344,128.906250
2345,128.906250
2346,128.906250
2347,128.906250
2348,128.906250
2349,125.000000
2350,128.906250
2351,128.906250
2352,128.906250
2353,125.000000
2354,125.000000
2355,125.000000
2356,125.000000
2357,125.000000
2358,125.000000
2359,125.000000
2360,125.000000
2361,125.000000
2362,125.000000
2363,125.000000
2364,125.000000
2365,125.000000
2366,125.000000
2367,121.093750
2368,121.093750
2369,121.093750
2370,121.093750
2371,121.093750
2372,121.093750
2373,121.093750
2374,121.093750
2375,121.093750
2376,121.093750
2377,117.187500
2378,121.093750
2379,117.187500
2380,117.187500
2381,117.187500
2382,117.187500
2383,117.187500
2384,117.187500
2385,117.187500
2386,117.187500
2387,113.281250
2388,113.281250
2389,113.281250
2390,113.281250
2391,113.281250
2392,113.281250
2393,113.281250
2394,113.281250
2395,113.281250
2396,113.281250
2397,109.375000
2398,109.375000
2399,109.375000
2400,109.375000
2401,109.375000
2402,109.375000
2403,109.375000
2404,109.375000
2405,109.375000
2406,109.375000
2407,105.468750
2408,105.468750
2409,105.468750
2410,105.468750
2411,105.468750
2412,105.468750
2413,105.468750
2414,105.468750
2415,101.562500
2416,101.562500
2417,101.562500
2418,101.562500
2419,101.562500
2420,101.562500
2421,97.656250
2422,97.656250
2423,97.656250
2424,97.656250
2425,97.656250
2426,97.656250
2427,97.656250
2428,93.750000
2429,93.750000
2430,93.750000
2431,93.750000
2432,93.750000
2433,93.750000
2434,93.750000
2435,89.843750
2436,89.843750
2437,89.843750
2438,89.843750
2439,89.843750
2440,85.937500
2441,85.937500
2442,85.937500
2443,85.937500
2444,85.937500
2445,85.937500
2446,85.937500
2447,82.031250
2448,82.031250
2449,82.031250
2450,82.031250
2451,82.031250
2452,78.125000
2453,78.125000
2454,78.125000
2455,78.125000
2456,78.125000
2457,78.125000
2458,78.125000
2459,74.218750
2460,74.218750
2461,74.218750
2462,74.218750
2463,74.218750
2464,70.312500
2465,70.312500
2466,70.312500
2467,70.312500
2468,70.312500
2469,66.406250
2470,66.406250
2471,66.406250
2472,66.406250
2473,66.406250
2474,66.406250
2475,62.500000
2476,62.500000
2477,62.500000
2478,62.500000
2479,62.500000
2480,58.593750
2481,58.593750
2482,58.593750
2483,58.593750
2484,58.593750
2485,54.687500
2486,54.687500
2487,54.687500
2488,54.687500
2489,54.687500
2490,50.781250
2491,50.781250
2492,50.781250
2493,50.781250
2494,46.875000
2495,46.875000
2496,46.875000
2497,46.875000
2498,46.875000
2499,42.968750
2500,42.968750
2501,42.968750
2502,42.968750
2503,39.062500
2504,39.062500
2505,39.062500
2506,39.062500
2507,39.062500
2508,35.156250
2509,35.156250
2510,35.156250
2511,35.156250
2512,31.250000
2513,31.250000
2514,31.250000
2515,31.250000
2516,27.343750
2517,27.343750
2518,27.343750
2519,27.343750
2520,27.343750
2521,23.437500
2522,23.437500
2523,23.437500
2524,19.531250
2525,19.531250
2526,19.531250
2527,19.531250
2528,19.531250
2529,15.625000
2530,15.625000
2531,15.625000
2532,15.625000
2533,15.625000
2534,11.718750
2535,11.718750
2536,11.718750
2537,7.812500
2538,7.812500
2539,7.812500
2540,7.812500
2541,3.906250
2542,3.906250
2543,3.906250
2544,3.906250
2545,0.000000
2546,0.000000
2547,0.000000
2548,0.000000
2549,-3.906250
2550,-3.906250
2551,-3.906250
2552,-3.906250
2553,-3.906250
2554,-7.812500
2555,-7.812500
2556,-7.812500
2557,-11.718750
2558,-11.718750
2559,-11.718750
2560,-11.718750
2561,-15.625000
2562,-15.625000
2563,-15.625000
2564,-15.625000
2565,-15.625000
2566,-19.531250
2567,-19.531250
2568,-19.531250
2569,-23.437500
2570,-23.437500
2571,-23.437500
2572,-23.437500
2573,-23.437500
2574,-27.343750
2575,-27.343750
2576,-27.343750
2577,-31.250000
2578,-31.250000
2579,-31.250000
2580,-31.250000
2581,-35.156250
2582,-35.156250
2583,-35.156250
2584,-35.156250
2585,-39.062500
2586,-39.062500
2587,-39.062500
2588,-39.062500
2589,-39.062500
2590,-42.968750
2591,-42.968750
2592,-42.968750
2593,-42.968750
2594,-46.875000
2595,-46.875000
2596,-46.875000
2597,-50.781250
2598,-50.781250
2599,-50.781250
2600,-50.781250
2601,-50.781250
2602,-54.687500
2603,-54.687500
2604,-54.687500
2605,-54.687500
2606,-58.593750
2607,-58.593750
2608,-58.593750
2609,-62.500000
2610,-62.500000
2611,-62.500000
2612,-62.500000
2613,-62.500000
2614,-66.406250
2615,-66.406250
2616,-66.406250
2617,-66.406250
2618,-70.312500
2619,-70.312500
2620,-70.312500
2621,-70.312500
2622,-74.218750
2623,-74.218750
2624,-74.218750
2625,-74.218750
2626,-74.218750
2627,-78.125000
2628,-78.125000
2629,-78.125000
2630,-82.031250
2631,-82.031250
2632,-82.031250
2633,-82.031250
2634,-82.031250
2635,-85.937500
2636,-85.937500
2637,-85.937500
2638,-85.937500
2639,-89.843750
2640,-89.843750
2641,-89.843750
2642,-89.843750
2643,-89.843750
2644,-89.843750
2645,-93.750000
2646,-93.750000
2647,-93.750000
2648,-93.750000
2649,-97.656250
2650,-97.656250
2651,-97.656250
2652,-97.656250
2653,-101.562500
2654,-101.562500
2655,-105.468750
2656,-101.562500
2657,-105.468750
2658,-105.468750
2659,-105.468750
2660,-105.468750
2661,-105.468750
2662,-105.468750
2663,-109.375000
2664,-109.375000
2665,-109.375000
2666,-109.375000
2667,-113.281250
2668,-113.281250
2669,-113.281250
2670,-113.281250
2671,-113.281250
2672,-117.187500
2673,-117.187500
2674,-117.187500
2675,-117.187500
2676,-117.187500
2677,-121.093750
2678,-121.093750
2679,-121.093750
2680,-121.093750
2681,-125.000000
2682,-125.000000
2683,-125.000000
2684,-125.000000
2685,-125.000000
2686,-125.000000
2687,-125.000000
2688,-128.906250
2689,-128.906250
2690,-128.906250
2691,-128.906250
2692,-128.906250
2693,-132.812500
2694,-132.812500
2695,-132.812500
2696,-132.812500
2697,-132.812500
2698,-132.812500
2699,-136.718750
2700,-136.718750
2701,-136.718750
2702,-136.718750
2703,-136.718750
2704,-136.718750
2705,-136.718750
2706,-140.625000
2707,-140.625000
2708,-140.625000
2709,-140.625000
2710,-140.625000
2711,-140.625000
2712,-140.625000
2713,-144.531250
2714,-144.531250
2715,-144.531250
2716,-144.531250
2717,-144.531250
2718,-144.531250
2719,-148.437500
2720,-148.437500
2721,-148.437500
2722,-148.437500
2723,-148.437500
2724,-148.437500
2725,-148.437500
2726,-148.437500
2727,-152.343750
2728,-152.343750
2729,-152.343750
2730,-152.343750
2731,-152.343750
2732,-152.343750
2733,-152.343750
2734,-152.343750
2735,-152.343750
2736,-152.343750
2737,-152.343750
2738,-156.250000
2739,-156.250000
2740,-156.250000
2741,-156.250000
2742,-156.250000
2743,-156.250000
2744,-156.250000
2745,-156.250000
2746,-156.250000
2747,-160.156250
2748,-160.156250
2749,-160.156250
2750,-160.156250
2751,-160.156250
2752,-160.156250
2753,-160.156250
2754,-160.156250
2755,-160.156250
2756,-160.156250
2757,-160.156250
2758,-160.156250
2759,-164.062500
2760,-164.062500
2761,-164.062500
2762,-164.062500
2763,-164.062500
2764,-164.062500
2765,-164.062500
2766,-164.062500
2767,-164.062500
2768,-164.062500
2769,-164.062500
2770,-164.062500
2771,-164.062500
2772,-164.062500
2773,-164.062500
2774,-164.062500
2775,-164.062500
2776,-164.062500
2777,-167.968750
2778,-167.968750
2779,-167.968750
2780,-167.968750
2781,-164.062500
2782,-167.968750
2783,-167.968750
2784,-167.968750
2785,-167.968750
2786,-167.968750
2787,-167.968750
2788,-167.968750
2789,-167.968750
2790,-167.968750
2791,-167.968750
2792,-167.968750
2793,-167.968750
2794,-167.968750
2795,-167.968750
2796,-167.968750
2797,-167.968750
2798,-167.968750
2799,-167.968750
2800,-167.968750
2801,-167.968750
2802,-167.968750
2803,-167.968750
2804,-167.968750
2805,-167.968750
2806,-167.968750
2807,-167.968750
2808,-167.968750
2809,-167.968750
2810,-167.968750
2811,-167.968750
2812,-167.968750
2813,-167.968750
2814,-167.968750
2815,-167.968750
2816,-167.968750
2817,-167.968750
2818,-164.062500
2819,-164.062500
2820,-167.968750
2821,-164.062500
2822,-164.062500
2823,-164.062500
2824,-164.062500
2825,-164.062500
2826,-164.062500
2827,-164.062500
2828,-164.062500
2829,-164.062500
2830,-164.062500
2831,-164.062500
2832,-164.062500
2833,-164.062500
2834,-160.156250
2835,-164.062500
2836,-164.062500
2837,-160.156250
2838,-164.062500
2839,-160.156250
2840,-160.156250
2841,-160.156250
2842,-160.156250
2843,-160.156250
2844,-160.156250
2845,-160.156250
2846,-160.156250
2847,-160.156250
2848,-156.250000
2849,-156.250000
2850,-156.250000
2851,-156.250000
2852,-156.250000
2853,-156.250000
2854,-156.250000
2855,-156.250000
2856,-156.250000
2857,-156.250000
2858,-152.343750
2859,-152.343750
2860,-152.343750
2861,-152.343750
2862,-152.343750
2863,-152.343750
2864,-152.343750
2865,-152.343750
2866,-152.343750
2867,-148.437500
2868,-148.437500
2869,-148.437500
2870,-148.437500
2871,-148.437500
2872,-148.437500
2873,-148.437500
2874,-148.437500
2875,-148.437500
2876,-144.531250
2877,-144.531250
2878,-144.531250
2879,-144.531250
2880,-144.531250
2881,-144.531250
2882,-140.625000
2883,-140.625000
2884,-140.625000
2885,-140.625000
2886,-140.625000
2887,-140.625000
2888,-140.625000
2889,-140.625000
2890,-140.625000
2891,-136.718750
2892,-136.718750
2893,-136.718750
2894,-136.718750
2895,-132.812500
2896,-132.812500
2897,-132.812500
2898,-132.812500
2899,-132.812500
2900,-132.812500
2901,-132.812500
2902,-132.812500
2903,-128.906250
2904,-128.906250
2905,-128.906250
2906,-128.906250
2907,-128.906250
2908,-125.000000
2909,-125.000000
2910,-125.000000
2911,-125.000000
2912,-125.000000
2913,-121.093750
2914,-121.093750
2915,-121.093750
2916,-121.093750
2917,-121.093750
2918,-121.093750
2919,-121.093750
2920,-117.187500
2921,-117.187500
2922,-117.187500
2923,-117.187500
2924,-113.281250
2925,-113.281250
2926,-113.281250
2927,-113.281250
2928,-113.281250
2929,-113.281250
2930,-109.375000
2931,-109.375000
2932,-109.375000
2933,-109.375000
2934,-105.468750
2935,-105.468750
2936,-105.468750
2937,-105.468750
2938,-105.468750
2939,-101.562500
2940,-101.562500
2941,-101.562500
2942,-101.562500
2943,-97.656250
2944,-97.656250
2945,-97.656250
2946,-97.656250
2947,-97.656250
2948,-93.750000
2949,-93.750000
2950,-93.750000
2951,-93.750000
2952,-89.843750
2953,-89.843750
2954,-89.843750
2955,-89.843750
2956,-89.843750
2957,-89.843750
2958,-85.937500
2959,-85.937500
2960,-85.937500
2961,-82.031250
2962,-82.031250
2963,-82.031250
2964,-82.031250
2965,-82.031250
2966,-78.125000
2967,-78.125000
2968,-78.125000
2969,-74.218750
2970,-74.218750
2971,-74.218750
2972,-74.218750
2973,-74.218750
2974,-70.312500
2975,-70.312500
2976,-70.312500
2977,-70.312500
2978,-66.406250
2979,-66.406250
2980,-66.406250
2981,-66.406250
2982,-62.500000
2983,-62.500000
2984,-62.500000
2985,-62.500000
2986,-58.593750
2987,-58.593750
2988,-58.593750
2989,-58.593750
2990,-58.593750
2991,-54.687500
2992,-54.687500
2993,-54.687500
2994,-50.781250
2995,-50.781250
2996,-50.781250
2997,-50.781250
2998,-46.875000
2999,-46.875000
3000,-46.875000
3001,-46.875000
3002,-42.968750
3003,-42.968750
3004,-42.968750
3005,-42.968750
3006,-39.062500
3007,-39.062500
3008,-39.062500
3009,-39.062500
3010,-35.156250
3011,-35.156250
3012,-35.156250
3013,-35.156250
3014,-31.250000
3015,-31.250000
3016,-31.250000
3017,-31.250000
3018,-27.343750
3019,-27.343750
3020,-27.343750
3021,-27.343750
3022,-27.343750
3023,-23.437500
3024,-23.437500
3025,-23.437500
3026,-19.531250
3027,-19.531250
3028,-19.531250
3029,-19.531250
3030,-19.531250
3031,-15.625000
3032,-15.625000
3033,-15.625000
3034,-11.718750
3035,-11.718750
3036,-11.718750
3037,-11.718750
3038,-11.718750
3039,-7.812500
3040,-7.812500
3041,-7.812500
3042,-3.906250
3043,-3.906250
3044,-3.906250
3045,-3.906250
3046,0.000000
3047,0.000000
3048,0.000000
3049,0.000000
3050,0.000000
3051,3.906250
3052,3.906250
3053,3.906250
3054,3.906250
3055,7.812500
3056,7.812500
3057,7.812500
3058,11.718750
3059,7.812500
3060,11.718750
3061,11.718750
3062,11.718750
3063,15.625000
3064,15.625000
3065,15.625000
3066,15.625000
3067,19.531250
3068,19.531250
3069,19.531250
3070,19.531250
3071,19.531250
3072,23.437500
3073,23.437500
3074,23.437500
3075,23.437500
3076,27.343750
3077,27.343750
3078,27.343750
3079,27.343750
3080,31.250000
3081,31.250000
3082,31.250000
3083,31.250000
3084,31.250000
3085,35.156250
3086,35.156250
3087,35.156250
3088,35.156250
3089,35.156250
3090,39.062500
3091,39.062500
3092,39.062500
3093,39.062500
3094,42.968750
3095,42.968750
3096,42.968750
3097,42.968750
3098,42.968750
3099,46.875000
3100,46.875000
3101,46.875000
3102,50.781250
3103,50.781250
3104,50.781250
3105,50.781250
3106,50.781250
3107,50.781250
3108,54.687500
3109,54.687500
3110,54.687500
3111,54.687500
3112,58.593750
3113,58.593750
3114,58.593750
3115,58.593750
3116,58.593750
3117,58.593750
3118,62.500000
3119,62.500000
3120,62.500000
3121,62.500000
3122,66.406250
3123,66.406250
3124,66.406250
3125,66.406250
3126,70.312500
3127,70.312500
3128,70.312500
3129,70.312500
3130,70.312500
3131,70.312500
3132,70.312500
3133,74.218750
3134,74.218750
3135,74.218750
3136,74.218750
3137,74.218750
3138,74.218750
3139,78.125000
3140,78.125000
3141,78.125000
3142,78.125000
3143,82.031250
3144,82.031250
3145,82.031250
3146,82.031250
3147,82.031250
3148,82.031250
3149,85.937500
3150,85.937500
3151,85.937500
3152,85.937500
3153,85.937500
3154,85.937500
3155,85.937500
3156,89.843750
3157,89.843750
3158,89.843750
3159,89.843750
3160,89.843750
3161,93.750000
3162,93.750000
3163,93.750000
3164,93.750000
3165,93.750000
3166,93.750000
3167,93.750000
3168,93.750000
3169,97.656250
3170,97.656250
3171,97.656250
3172,97.656250
3173,97.656250
3174,97.656250
3175,101.562500
3176,101.562500
3177,101.562500
3178,101.562500
3179,101.562500
3180,101.562500
3181,101.562500
3182,101.562500
3183,105.468750
3184,105.468750
3185,105.468750
3186,105.468750
3187,105.468750
3188,105.468750
3189,105.468750
3190,109.375000
3191,105.468750
3192,109.375000
3193,109.375000
3194,109.375000
3195,109.375000
3196,109.375000
3197,109.375000
3198,109.375000
3199,109.375000
3200,109.375000
3201,109.375000
3202,113.281250
3203,113.281250
3204,113.281250
3205,113.281250
3206,113.281250
3207,113.281250
3208,113.281250
3209,113.281250
3210,117.187500
3211,117.187500
3212,117.187500
3213,117.187500
3214,117.187500
3215,117.187500
3216,117.187500
3217,117.187500
3218,117.187500
3219,117.187500
3220,117.187500
3221,121.093750
3222,121.093750
3223,121.093750
3224,121.093750
3225,121.093750
3226,121.093750
3227,121.093750
3228,121.093750
3229,121.093750
3230,121.093750
3231,121.093750
3232,121.093750
3233,125.000000
3234,125.000000
3235,125.000000
3236,125.000000
3237,125.000000
3238,125.000000
3239,125.000000
3240,125.000000
3241,125.000000
3242,125.000000
3243,125.000000
3244,125.000000
3245,125.000000
3246,125.000000
3247,125.000000
3248,128.906250
3249,125.000000
3250,128.906250
3251,128.906250
3252,128.906250
3253,128.906250
3254,128.906250
3255,128.906250
3256,128.906250
3257,128.906250
3258,128.906250
3259,128.906250
3260,128.906250
3261,128.906250
3262,128.906250
3263,128.906250
3264,128.906250
3265,128.906250
3266,128.906250
3267,128.906250
3268,128.906250
3269,128.906250
3270,132.812500
3271,128.906250
3272,132.812500
3273,132.812500
3274,132.812500
3275,132.812500
3276,132.812500
3277,132.812500
3278,132.812500
3279,132.812500
3280,132.812500
3281,132.812500
3282,132.812500
3283,132.812500
3284,132.812500
3285,132.812500
3286,132.812500
3287,132.812500
3288,132.812500
3289,132.812500
3290,132.812500
3291,128.906250
3292,132.812500
3293,132.812500
3294,132.812500
3295,132.812500
3296,132.812500
3297,132.812500
3298,132.812500
3299,128.906250
3300,132.812500
3301,128.906250
3302,132.812500
3303,132.812500
3304,132.812500
3305,128.906250
3306,132.812500
3307,128.906250
3308,132.812500
3309,128.906250
3310,128.906250
3311,128.906250
3312,132.812500
3313,128.906250
3314,128.906250
3315,128.906250
3316,128.906250
3317,128.906250
3318,128.906250
3319,128.906250
3320,128.906250
3321,128.906250
3322,128.906250
3323,128.906250
3324,128.906250
3325,128.906250
3326,128.906250
3327,128.906250
3328,128.906250
3329,128.906250
3330,128.906250
3331,128.906250
3332,128.906250
3333,128.906250
3334,128.906250
3335,128.906250
3336,128.906250
3337,125.000000
3338,125.000000
3339,125.000000
3340,128.906250
3341,125.000000
3342,125.000000
3343,125.000000
3344,125.000000
3345,125.000000
3346,125.000000
3347,125.000000
3348,125.000000
3349,125.000000
3350,125.000000
3351,125.000000
3352,121.093750
3353,125.000000
3354,121.093750
3355,121.093750
3356,121.093750
3357,121.093750
3358,121.093750
3359,121.093750
3360,121.093750
3361,121.093750
3362,121.093750
3363,121.093750
3364,117.187500
3365,121.093750
3366,117.187500
3367,117.187500
3368,117.187500
3369,117.187500
3370,117.187500
3371,117.187500
3372,117.187500
3373,117.187500
3374,117.187500
3375,117.187500
3376,117.187500
3377,113.281250
3378,113.281250
3379,113.281250
3380,113.281250
3381,113.281250
3382,113.281250
3383,113.281250
3384,113.281250
3385,113.281250
3386,113.281250
3387,109.375000
3388,109.375000
3389,109.375000
3390,109.375000
3391,109.375000
3392,109.375000
3393,109.375000
3394,109.375000
3395,109.375000
3396,105.468750
3397,105.468750
3398,105.468750
3399,105.468750
3400,105.468750
3401,105.468750
3402,105.468750
3403,105.468750
3404,101.562500
3405,101.562500
3406,101.562500
3407,101.562500
3408,101.562500
3409,101.562500
3410,101.562500
3411,101.562500
3412,97.656250
3413,97.656250
3414,97.656250
3415,97.656250
3416,97.656250
3417,97.656250
3418,93.750000
3419,93.750000
3420,93.750000
3421,93.750000
3422,93.750000
3423,93.750000
3424,89.843750
3425,89.843750
3426,89.843750
3427,89.843750
3428,89.843750
3429,89.843750
3430,85.937500
3431,89.843750
3432,85.937500
3433,85.937500
3434,85.937500
3435,82.031250
3436,82.031250
3437,82.031250
3438,82.031250
3439,82.031250
3440,82.031250
3441,82.031250
3442,82.031250
3443,78.125000
3444,78.125000
3445,78.125000
3446,78.125000
3447,74.218750
3448,74.218750
3449,74.218750
3450,74.218750
3451,74.218750
3452,74.218750
3453,70.312500
3454,70.312500
3455,70.312500
3456,70.312500
3457,70.312500
3458,66.406250
3459,66.406250
3460,66.406250
3461,66.406250
3462,66.406250
3463,66.406250
3464,62.500000
3465,62.500000
3466,62.500000
3467,62.500000
3468,58.593750
3469,58.593750
3470,58.593750
3471,58.593750
3472,58.593750
3473,58.593750
3474,54.687500
3475,54.687500
3476,54.687500
3477,54.687500
3478,50.781250
3479,50.781250
3480,50.781250
3481,50.781250
3482,50.781250
3483,46.875000
3484,46.875000
3485,46.875000
3486,46.875000
3487,46.875000
3488,42.968750
3489,42.968750
3490,42.968750
3491,42.968750
3492,39.062500
3493,39.062500
3494,39.062500
3495,39.062500
3496,39.062500
3497,35.156250
3498,35.156250
3499,35.156250
3500,35.156250
3501,31.250000
3502,31.250000
3503,31.250000
3504,31.250000
3505,27.343750
3506,27.343750
3507,27.343750
3508,27.343750
3509,27.343750
3510,23.437500
3511,23.437500
3512,23.437500
3513,23.437500
3514,19.531250
3515,19.531250
3516,19.531250
3517,19.531250
3518,15.625000
3519,15.625000
3520,15.625000
3521,15.625000
3522,15.625000
3523,11.718750
3524,11.718750
3525,11.718750
3526,7.812500
3527,7.812500
3528,7.812500
3529,7.812500
3530,7.812500
3531,3.906250
3532,3.906250
3533,3.906250
3534,0.000000
3535,0.000000
3536,0.000000
3537,0.000000
3538,0.000000
3539,-3.906250
3540,-3.906250
3541,-3.906250
3542,-3.906250
3543,-7.812500
3544,-7.812500
3545,-7.812500
3546,-7.812500
3547,-11.718750
3548,-11.718750
3549,-11.718750
3550,-11.718750
3551,-15.625000
3552,-15.625000
3553,-15.625000
3554,-15.625000
3555,-19.531250
3556,-19.531250
3557,-19.531250
3558,-19.531250
3559,-23.437500
3560,-23.437500
3561,-23.437500
3562,-23.437500
3563,-27.343750
3564,-27.343750
3565,-27.343750
3566,-27.343750
3567,-31.250000
3568,-31.250000
3569,-31.250000
3570,-31.250000
3571,-35.156250
3572,-35.156250
3573,-35.156250
3574,-39.062500
3575,-39.062500
3576,-39.062500
3577,-39.062500
3578,-42.968750
3579,-42.968750
3580,-42.968750
3581,-42.968750
3582,-46.875000
3583,-46.875000
3584,-46.875000
3585,-46.875000
3586,-46.875000
3587,-50.781250
3588,-50.781250
3589,-50.781250
3590,-54.687500
3591,-54.687500
3592,-54.687500
3593,-54.687500
3594,-58.593750
3595,-58.593750
3596,-58.593750
3597,-58.593750
3598,-58.593750
3599,-62.500000
3600,-62.500000
3601,-62.500000
3602,-66.406250
3603,-66.406250
3604,-66.406250
3605,-66.406250
3606,-66.406250
3607,-70.312500
3608,-70.312500
3609,-70.312500
3610,-70.312500
3611,-74.218750
3612,-74.218750
3613,-74.218750
3614,-74.218750
3615,-78.125000
3616,-78.125000
3617,-78.125000
3618,-78.125000
3619,-82.031250
3620,-82.031250
3621,-82.031250
3622,-82.031250
3623,-82.031250
3624,-85.937500
3625,-85.937500
3626,-85.937500
3627,-85.937500
3628,-89.843750
3629,-89.843750
3630,-89.843750
3631,-89.843750
3632,-89.843750
3633,-93.750000
3634,-93.750000
3635,-93.750000
3636,-93.750000
3637,-97.656250
3638,-97.656250
3639,-97.656250
3640,-97.656250
3641,-97.656250
3642,-101.562500
3643,-101.562500
3644,-101.562500
3645,-101.562500
3646,-101.562500
3647,-105.468750
3648,-105.468750
3649,-105.468750
3650,-105.468750
3651,-109.375000
3652,-109.375000
3653,-109.375000
3654,-109.375000
3655,-109.375000
3656,-113.281250
3657,-113.281250
3658,-113.281250
3659,-113.281250
3660,-113.281250
3661,-113.281250
3662,-113.281250
3663,-113.281250
3664,-117.187500
3665,-117.187500
3666,-117.187500
3667,-121.093750
3668,-121.093750
3669,-121.093750
3670,-121.093750
3671,-121.093750
3672,-125.000000
3673,-125.000000
3674,-125.000000
3675,-125.000000
3676,-128.906250
3677,-128.906250
3678,-128.906250
3679,-128.906250
3680,-128.906250
3681,-128.906250
3682,-128.906250
3683,-132.812500
3684,-132.812500
3685,-132.812500
3686,-132.812500
3687,-132.812500
3688,-136.718750
3689,-136.718750
3690,-136.718750
3691,-136.718750
3692,-136.718750
3693,-136.718750
3694,-136.718750
3695,-140.625000
3696,-140.625000
3697,-140.625000
3698,-140.625000
3699,-140.625000
3700,-140.625000
3701,-140.625000
3702,-144.531250
3703,-144.531250
3704,-144.531250
3705,-144.531250
3706,-144.531250
3707,-144.531250
3708,-148.437500
3709,-148.437500
3710,-148.437500
3711,-148.437500
3712,-148.437500
3713,-148.437500
3714,-148.437500
3715,-148.437500
3716,-148.437500
3717,-152.343750
3718,-152.343750
3719,-152.343750
3720,-152.343750
3721,-152.343750
3722,-152.343750
3723,-152.343750
3724,-152.343750
3725,-156.250000
3726,-156.250000
3727,-156.250000
3728,-156.250000
3729,-156.250000
3730,-156.250000
3731,-156.250000
3732,-156.250000
3733,-156.250000
3734,-160.156250
3735,-156.250000
3736,-160.156250
3737,-160.156250
3738,-160.156250
3739,-160.156250
3740,-160.156250
3741,-160.156250
3742,-160.156250
3743,-160.156250
3744,-160.156250
3745,-160.156250
3746,-160.156250
3747,-164.062500
3748,-164.062500
3749,-164.062500
3750,-164.062500
3751,-164.062500
3752,-164.062500
3753,-164.062500
3754,-164.062500
3755,-164.062500
3756,-164.062500
3757,-164.062500
3758,-164.062500
3759,-164.062500
3760,-164.062500
3761,-164.062500
3762,-164.062500
3763,-164.062500
3764,-164.062500
3765,-164.062500
3766,-164.062500
3767,-164.062500
3768,-167.968750
3769,-167.968750
3770,-167.968750
3771,-167.968750
3772,-167.968750
3773,-167.968750
3774,-167.968750
3775,-167.968750
3776,-167.968750
3777,-167.968750
3778,-167.968750
3779,-167.968750
3780,-167.968750
3781,-167.968750
3782,-167.968750
3783,-167.968750
3784,-167.968750
3785,-167.968750
3786,-167.968750
3787,-167.968750
3788,-167.968750
3789,-167.968750
3790,-167.968750
3791,-167.968750
3792,-167.968750
3793,-167.968750
3794,-167.968750
3795,-167.968750
3796,-167.968750
3797,-167.968750
3798,-167.968750
3799,-167.968750
3800,-167.968750
3801,-167.968750
3802,-167.968750
3803,-167.968750
3804,-167.968750
3805,-167.968750
3806,-167.968750
3807,-167.968750
3808,-164.062500
3809,-164.062500
3810,-164.062500
3811,-164.062500
3812,-164.062500
3813,-164.062500
3814,-164.062500
3815,-164.062500
3816,-164.062500
3817,-164.062500
3818,-164.062500
3819,-164.062500
3820,-164.062500
3821,-164.062500
3822,-164.062500
3823,-164.062500
3824,-164.062500
3825,-164.062500
3826,-164.062500
3827,-160.156250
3828,-160.156250
3829,-160.156250
3830,-160.156250
3831,-160.156250
3832,-160.156250
3833,-160.156250
3834,-160.156250
3835,-160.156250
3836,-160.156250
3837,-160.156250
3838,-160.156250
3839,-160.156250
3840,-156.250000
3841,-160.156250
3842,-156.250000
3843,-156.250000
3844,-156.250000
3845,-156.250000
3846,-156.250000
3847,-156.250000
3848,-156.250000
3849,-156.250000
3850,-156.250000
3851,-152.343750
3852,-152.343750
3853,-152.343750
3854,-152.343750
3855,-152.343750
3856,-152.343750
3857,-152.343750
3858,-152.343750
3859,-148.437500
3860,-148.437500
3861,-148.437500
3862,-148.437500
3863,-148.437500
3864,-148.437500
3865,-148.437500
3866,-148.437500
3867,-148.437500
3868,-144.531250
3869,-144.531250
3870,-144.531250
3871,-144.531250
3872,-144.531250
3873,-144.531250
3874,-140.625000
3875,-140.625000
3876,-140.625000
3877,-140.625000
3878,-140.625000
3879,-140.625000
3880,-140.625000
3881,-140.625000
3882,-136.718750
3883,-136.718750
3884,-136.718750
3885,-136.718750
3886,-136.718750
3887,-132.812500
3888,-132.812500
3889,-132.812500
3890,-132.812500
3891,-132.812500
3892,-132.812500
3893,-128.906250
3894,-128.906250
3895,-128.906250
3896,-128.906250
3897,-128.906250
3898,-125.000000
3899,-125.000000
3900,-125.000000
3901,-125.000000
3902,-125.000000
3903,-125.000000
3904,-125.000000
3905,-121.093750
3906,-121.093750
3907,-121.093750
3908,-121.093750
3909,-117.187500
3910,-117.187500
3911,-117.187500
3912,-117.187500
3913,-117.187500
3914,-117.187500
3915,-113.281250
3916,-113.281250
3917,-113.281250
3918,-113.281250
3919,-113.281250
3920,-109.375000
3921,-109.375000
3922,-109.375000
3923,-109.375000
3924,-105.468750
3925,-105.468750
3926,-105.468750
3927,-105.468750
3928,-105.468750
3929,-101.562500
3930,-101.562500
3931,-101.562500
3932,-101.562500
3933,-101.562500
3934,-97.656250
3935,-97.656250
3936,-97.656250
3937,-93.750000
3938,-93.750000
3939,-93.750000
3940,-93.750000
3941,-93.750000
3942,-89.843750
3943,-89.843750
3944,-89.843750
3945,-89.843750
3946,-89.843750
3947,-85.937500
3948,-85.937500
3949,-85.937500
3950,-85.937500
3951,-85.937500
3952,-82.031250
3953,-82.031250
3954,-82.031250
3955,-82.031250
3956,-78.125000
3957,-78.125000
3958,-78.125000
3959,-78.125000
3960,-74.218750
3961,-74.218750
3962,-74.218750
3963,-74.218750
3964,-70.312500
3965,-70.312500
3966,-70.312500
3967,-70.312500
3968,-66.406250
3969,-66.406250
3970,-66.406250
3971,-66.406250
3972,-62.500000
3973,-62.500000
3974,-62.500000
3975,-62.500000
3976,-58.593750
3977,-58.593750
3978,-58.593750
3979,-58.593750
3980,-54.687500
3981,-54.687500
3982,-54.687500
3983,-54.687500
3984,-54.687500
3985,-50.781250
3986,-50.781250
3987,-50.781250
3988,-46.875000
3989,-46.875000
3990,-46.875000
3991,-46.875000
3992,-46.875000
3993,-42.968750
3994,-42.968750
3995,-42.968750
3996,-42.968750
3997,-39.062500
3998,-39.062500
3999,-39.062500
4000,-35.156250
4001,-35.156250
4002,-35.156250
4003,-35.156250
4004,-35.156250
4005,-31.250000
4006,-31.250000
4007,-31.250000
4008,-27.343750
4009,-27.343750
4010,-27.343750
4011,-27.343750
4012,-23.437500
4013,-23.437500
4014,-23.437500
4015,-23.437500
4016,-19.531250
4017,-19.531250
4018,-19.531250
4019,-19.531250
4020,-15.625000
4021,-15.625000
4022,-15.625000
4023,-15.625000
4024,-11.718750
4025,-11.718750
4026,-11.718750
4027,-11.718750
4028,-7.812500
4029,-7.812500
4030,-7.812500
4031,-7.812500
4032,-3.906250
4033,-3.906250
4034,-3.906250
4035,-3.906250
4036,-3.906250
4037,0.000000
4038,0.000000
4039,0.000000
4040,3.906250
4041,3.906250
4042,3.906250
4043,3.906250
4044,3.906250
4045,7.812500
4046,7.812500
4047,7.812500
4048,11.718750
4049,11.718750
4050,11.718750
4051,11.718750
4052,11.718750
4053,15.625000
4054,15.625000
4055,15.625000
4056,15.625000
4057,19.531250
4058,19.531250
4059,19.531250
4060,23.437500
4061,23.437500
4062,23.437500
4063,23.437500
4064,23.437500
4065,27.343750
4066,27.343750
4067,27.343750
4068,27.343750
4069,31.250000
4070,31.250000
4071,31.250000
4072,31.250000
4073,31.250000
4074,31.250000
4075,35.156250
4076,35.156250
4077,35.156250
4078,39.062500
4079,39.062500
4080,39.062500
4081,39.062500
4082,39.062500
4083,39.062500
4084,42.968750
4085,42.968750
4086,42.968750
4087,46.875000
4088,46.875000
4089,46.875000
4090,46.875000
4091,46.875000
4092,46.875000
4093,50.781250
4094,50.781250
4095,50.781250
4096,50.781250
4097,50.781250
4098,54.687500
4099,54.687500
4100,54.687500
4101,54.687500
4102,58.593750
4103,58.593750
4104,58.593750
4105,58.593750
4106,58.593750
4107,62.500000
4108,62.500000
4109,62.500000
4110,62.500000
4111,62.500000
4112,66.406250
4113,66.406250
4114,66.406250
4115,66.406250
4116,66.406250
4117,70.312500
4118,70.312500
4119,70.312500
4120,70.312500
4121,70.312500
4122,70.312500
4123,74.218750
4124,74.218750
4125,74.218750
4126,74.218750
4127,74.218750
4128,78.125000
4129,78.125000
4130,78.125000
4131,78.125000
4132,78.125000
4133,78.125000
4134,78.125000
4135,82.031250
4136,82.031250
4137,82.031250
4138,82.031250
4139,82.031250
4140,85.937500
4141,85.937500
4142,85.937500
4143,85.937500
4144,85.937500
4145,85.937500
4146,89.843750
4147,89.843750
4148,89.843750
4149,89.843750
4150,89.843750
4151,89.843750
4152,89.843750
4153,93.750000
4154,93.750000
4155,93.750000
4156,93.750000
4157,93.750000
4158,97.656250
4159,97.656250
4160,97.656250
4161,97.656250
4162,97.656250
4163,97.656250
4164,97.656250
4165,101.562500
4166,101.562500
4167,101.562500
4168,101.562500
4169,101.562500
4170,101.562500
4171,101.562500
4172,101.562500
4173,101.562500
4174,105.468750
4175,105.468750
4176,105.468750
4177,105.468750
4178,105.468750
4179,105.468750
4180,109.375000
4181,109.375000
4182,109.375000
4183,109.375000
4184,109.375000
4185,109.375000
4186,109.375000
4187,109.375000
4188,109.375000
4189,113.281250
4190,113.281250
4191,113.281250
4192,113.281250
4193,113.281250
4194,113.281250
4195,113.281250
4196,113.281250
4197,113.281250
4198,113.281250
4199,117.187500
4200,117.187500
4201,117.187500
4202,117.187500
4203,117.187500
4204,117.187500
4205,117.187500
4206,117.187500
4207,117.187500
4208,117.187500
4209,121.093750
4210,121.093750
4211,121.093750
4212,121.093750
4213,121.093750
4214,121.093750
4215,121.093750
4216,121.093750
4217,121.093750
4218,121.093750
4219,121.093750
4220,121.093750
4221,121.093750
4222,121.093750
4223,121.093750
4224,125.000000
4225,125.000000
4226,125.000000
4227,125.000000
4228,125.000000
4229,125.000000
4230,125.000000
4231,125.000000
4232,125.000000
4233,125.000000
4234,125.000000
4235,125.000000
4236,125.000000
4237,125.000000
4238,128.906250
4239,125.000000
4240,128.906250
4241,125.000000
4242,128.906250
4243,128.906250
4244,128.906250
4245,128.906250
4246,128.906250
4247,128.906250
4248,128.906250
4249,128.906250
4250,128.906250
4251,128.906250
4252,128.906250
4253,128.906250
4254,128.906250
4255,128.906250
4256,128.906250
4257,128.906250
4258,128.906250
4259,128.906250
4260,128.906250
4261,128.906250
4262,128.906250
4263,128.906250
4264,128.906250
4265,128.906250
4266,128.906250
4267,128.906250
4268,132.812500
4269,128.906250
4270,132.812500
4271,128.906250
4272,128.906250
4273,128.906250
4274,132.812500
4275,128.906250
4276,128.906250
4277,132.812500
4278,132.812500
4279,132.812500
4280,132.812500
4281,132.812500
4282,132.812500
4283,128.906250
4284,132.812500
4285,132.812500
4286,132.812500
4287,128.906250
4288,132.812500
4289,132.812500
4290,132.812500
4291,128.906250
4292,132.812500
4293,128.906250
4294,128.906250
4295,128.906250
4296,132.812500
4297,128.906250
4298,132.812500
4299,128.906250
4300,132.812500
4301,132.812500
4302,128.906250
4303,132.812500
4304,128.906250
4305,128.906250
4306,128.906250
4307,128.906250
4308,128.906250
4309,128.906250
4310,128.906250
4311,128.906250
4312,128.906250
4313,128.906250
4314,128.906250
4315,128.906250
4316,128.906250
4317,128.906250
4318,128.906250
4319,128.906250
4320,128.906250
4321,128.906250
4322,128.906250
4323,128.906250
4324,128.906250
4325,125.000000
4326,128.906250
4327,128.906250
4328,128.906250
4329,125.000000
4330,125.000000
4331,125.000000
4332,125.000000
4333,125.000000
4334,125.000000
4335,125.000000
4336,125.000000
4337,125.000000
4338,125.000000
4339,125.000000
4340,125.000000
4341,125.000000
4342,121.093750
4343,121.093750
4344,121.093750
4345,121.093750
4346,121.093750
4347,121.093750
4348,121.093750
4349,121.093750
4350,121.093750
4351,121.093750
4352,121.093750
4353,121.093750
4354,121.093750
4355,117.187500
4356,117.187500
4357,117.187500
4358,117.187500
4359,117.187500
4360,117.187500
4361,117.187500
4362,117.187500
4363,117.187500
4364,117.187500
4365,117.187500
4366,117.187500
4367,113.281250
4368,113.281250
4369,113.281250
4370,113.281250
4371,113.281250
4372,113.281250
4373,113.281250
4374,113.281250
4375,109.375000
4376,109.375000
4377,109.375000
4378,109.375000
4379,109.375000
4380,109.375000
4381,109.375000
4382,109.375000
4383,105.468750
4384,105.468750
4385,105.468750
4386,105.468750
4387,105.468750
4388,105.468750
4389,105.468750
4390,105.468750
4391,101.562500
4392,101.562500
4393,101.562500
4394,101.562500
4395,101.562500
4396,101.562500
4397,101.562500
4398,101.562500
4399,101.562500
4400,97.656250
4401,97.656250
4402,97.656250
4403,97.656250
4404,97.656250
4405,97.656250
4406,97.656250
4407,93.750000
4408,93.750000
4409,93.750000
4410,93.750000
4411,93.750000
4412,89.843750
4413,89.843750
4414,89.843750
4415,89.843750
4416,89.843750
4417,89.843750
4418,89.843750
4419,89.843750
4420,85.937500
4421,85.937500
4422,85.937500
4423,85.937500
4424,85.937500
4425,82.031250
4426,82.031250
4427,82.031250
4428,82.031250
4429,82.031250
4430,82.031250
4431,82.031250
4432,82.031250
4433,78.125000
4434,78.125000
4435,78.125000
4436,78.125000
4437,78.125000
4438,74.218750
4439,74.218750
4440,74.218750
4441,74.218750
4442,74.218750
4443,70.312500
4444,70.312500
4445,70.312500
4446,70.312500
4447,70.312500
4448,66.406250
4449,66.406250
4450,66.406250
4451,66.406250
4452,66.406250
4453,62.500000
4454,62.500000
4455,62.500000
4456,62.500000
4457,62.500000
4458,62.500000
4459,58.593750
4460,58.593750
4461,58.593750
4462,58.593750
4463,54.687500
4464,54.687500
4465,54.687500
4466,54.687500
4467,54.687500
4468,50.781250
4469,50.781250
4470,50.781250
4471,50.781250
4472,46.875000
4473,46.875000
4474,46.875000
4475,46.875000
4476,46.875000
4477,42.968750
4478,42.968750
4479,42.968750
4480,42.968750
4481,42.968750
4482,39.062500
4483,39.062500
4484,39.062500
4485,39.062500
4486,35.156250
4487,35.156250
4488,35.156250
4489,35.156250
4490,35.156250
4491,31.250000
4492,31.250000
4493,31.250000
4494,31.250000
4495,27.343750
4496,27.343750
4497,27.343750
4498,27.343750
4499,23.437500
4500,23.437500
4501,23.437500
4502,23.437500
4503,19.531250
4504,19.531250
4505,19.531250
4506,19.531250
4507,15.625000
4508,15.625000
4509,15.625000
4510,15.625000
4511,11.718750
4512,11.718750
4513,11.718750
4514,11.718750
4515,11.718750
4516,7.812500
4517,7.812500
4518,7.812500
4519,7.812500
4520,7.812500
4521,3.906250
4522,3.906250
4523,0.000000
4524,0.000000
4525,0.000000
4526,0.000000
4527,0.000000
4528,-3.906250
4529,-3.906250
4530,-3.906250
4531,-3.906250
4532,-7.812500
4533,-7.812500
4534,-7.812500
4535,-7.812500
4536,-7.812500
4537,-15.625000
4538,-11.718750
4539,-11.718750
4540,-15.625000
4541,-15.625000
4542,-15.625000
4543,-15.625000
4544,-15.625000
4545,-19.531250
4546,-19.531250
4547,-19.531250
4548,-23.437500
4549,-23.437500
4550,-23.437500
4551,-23.437500
4552,-23.437500
4553,-27.343750
4554,-27.343750
4555,-27.343750
4556,-27.343750
4557,-31.250000
4558,-31.250000
4559,-31.250000
4560,-35.156250
4561,-35.156250
4562,-35.156250
4563,-35.156250
4564,-35.156250
4565,-39.062500
4566,-39.062500
4567,-42.968750
4568,-39.062500
4569,-42.968750
4570,-42.968750
4571,-42.968750
4572,-46.875000
4573,-46.875000
4574,-46.875000
4575,-46.875000
4576,-50.781250
4577,-50.781250
4578,-50.781250
4579,-50.781250
4580,-54.687500
4581,-54.687500
4582,-54.687500
4583,-54.687500
4584,-58.593750
4585,-58.593750
4586,-58.593750
4587,-58.593750
4588,-58.593750
4589,-62.500000
4590,-62.500000
4591,-62.500000
4592,-66.406250
4593,-66.406250
4594,-70.312500
4595,-66.406250
4596,-66.406250
4597,-70.312500
4598,-70.312500
4599,-70.312500
4600,-74.218750
4601,-74.218750
4602,-74.218750
4603,-74.218750
4604,-78.125000
4605,-78.125000
4606,-78.125000
4607,-78.125000
4608,-78.125000
4609,-82.031250
4610,-82.031250
4611,-82.031250
4612,-85.937500
4613,-85.937500
4614,-85.937500
4615,-85.937500
4616,-85.937500
4617,-89.843750
4618,-89.843750
4619,-89.843750
4620,-89.843750
4621,-93.750000
4622,-93.750000
4623,-93.750000
4624,-93.750000
4625,-93.750000
4626,-97.656250
4627,-97.656250
4628,-97.656250
4629,-97.656250
4630,-101.562500
4631,-101.562500
4632,-101.562500
4633,-101.562500
4634,-101.562500
4635,-105.468750
4636,-105.468750
4637,-105.468750
4638,-105.468750
4639,-105.468750
4640,-109.375000
4641,-109.375000
4642,-109.375000
4643,-109.375000
4644,-109.375000
4645,-113.281250
4646,-113.281250
4647,-113.281250
4648,-113.281250
4649,-117.187500
4650,-117.187500
4651,-117.187500
4652,-117.187500
4653,-117.187500
4654,-117.187500
4655,-121.093750
4656,-121.093750
4657,-121.093750
4658,-121.093750
4659,-121.093750
4660,-121.093750
4661,-125.000000
4662,-125.000000
4663,-125.000000
4664,-125.000000
4665,-125.000000
4666,-125.000000
4667,-128.906250
4668,-128.906250
4669,-128.906250
4670,-128.906250
4671,-132.812500
4672,-132.812500
4673,-132.812500
4674,-132.812500
4675,-132.812500
4676,-132.812500
4677,-132.812500
4678,-136.718750
4679,-136.718750
4680,-136.718750
4681,-136.718750
4682,-136.718750
4683,-136.718750
4684,-140.625000
4685,-140.625000
4686,-140.625000
4687,-140.625000
4688,-140.625000
4689,-140.625000
4690,-140.625000
4691,-144.531250
4692,-144.531250
4693,-144.531250
4694,-144.531250
4695,-144.531250
4696,-144.531250
4697,-144.531250
4698,-144.531250
4699,-148.437500
4700,-148.437500
4701,-148.437500
4702,-148.437500
4703,-148.437500
4704,-148.437500
4705,-148.437500
4706,-148.437500
4707,-148.437500
4708,-152.343750
4709,-152.343750
4710,-152.343750
4711,-152.343750
4712,-152.343750
4713,-152.343750
4714,-156.250000
4715,-156.250000
4716,-156.250000
4717,-156.250000
4718,-156.250000
4719,-156.250000
4720,-156.250000
4721,-156.250000
4722,-156.250000
4723,-156.250000
4724,-156.250000
4725,-156.250000
4726,-160.156250
4727,-160.156250
4728,-160.156250
4729,-160.156250
4730,-160.156250
4731,-160.156250
4732,-160.156250
4733,-160.156250
4734,-160.156250
4735,-160.156250
4736,-164.062500
4737,-164.062500
4738,-164.062500
4739,-164.062500
4740,-164.062500
4741,-164.062500
4742,-164.062500
4743,-164.062500
4744,-164.062500
4745,-164.062500
4746,-164.062500
4747,-164.062500
4748,-164.062500
4749,-164.062500
4750,-164.062500
4751,-164.062500
4752,-164.062500
4753,-167.968750
4754,-167.968750
4755,-167.968750
4756,-167.968750
4757,-167.968750
4758,-167.968750
4759,-167.968750
4760,-167.968750
4761,-167.968750
4762,-167.968750
4763,-167.968750
4764,-167.968750
4765,-167.968750
4766,-167.968750
4767,-167.968750
4768,-167.968750
4769,-167.968750
4770,-167.968750
4771,-167.968750
4772,-167.968750
4773,-167.968750
4774,-167.968750
4775,-167.968750
4776,-167.968750
4777,-167.968750
4778,-167.968750
4779,-167.968750
4780,-167.968750
4781,-167.968750
4782,-167.968750
4783,-167.968750
4784,-167.968750
4785,-167.968750
4786,-167.968750
4787,-167.968750
4788,-167.968750
4789,-167.968750
4790,-167.968750
4791,-167.968750
4792,-167.968750
4793,-167.968750
4794,-167.968750
4795,-167.968750
4796,-164.062500
4797,-164.062500
4798,-164.062500
4799,-164.062500
4800,-164.062500
4801,-164.062500
4802,-164.062500
4803,-164.062500
4804,-164.062500
4805,-164.062500
4806,-164.062500
4807,-164.062500
4808,-164.062500
4809,-164.062500
4810,-164.062500
4811,-164.062500
4812,-164.062500
4813,-164.062500
4814,-164.062500
4815,-164.062500
4816,-160.156250
4817,-160.156250
4818,-160.156250
4819,-160.156250
4820,-160.156250
4821,-160.156250
4822,-160.156250
4823,-160.156250
4824,-160.156250
4825,-160.156250
4826,-160.156250
4827,-156.250000
4828,-156.250000
4829,-156.250000
4830,-156.250000
4831,-156.250000
4832,-156.250000
4833,-156.250000
4834,-156.250000
4835,-156.250000
4836,-156.250000
4837,-152.343750
4838,-152.343750
4839,-152.343750
4840,-152.343750
4841,-152.343750
4842,-152.343750
4843,-152.343750
4844,-152.343750
4845,-152.343750
4846,-148.437500
4847,-148.437500
4848,-148.437500
4849,-148.437500
4850,-148.437500
4851,-148.437500
4852,-148.437500
4853,-148.437500
4854,-148.437500
4855,-144.531250
4856,-144.531250
4857,-144.531250
4858,-144.531250
4859,-144.531250
4860,-144.531250
4861,-144.531250
4862,-144.531250
4863,-144.531250
4864,-140.625000
4865,-140.625000
4866,-140.625000
4867,-140.625000
4868,-140.625000
4869,-136.718750
4870,-136.718750
4871,-136.718750
4872,-136.718750
4873,-136.718750
4874,-136.718750
4875,-136.718750
4876,-132.812500
4877,-132.812500
4878,-132.812500
4879,-132.812500
4880,-132.812500
4881,-132.812500
4882,-132.812500
4883,-132.812500
4884,-128.906250
4885,-128.906250
4886,-128.906250
4887,-128.906250
4888,-125.000000
4889,-125.000000
4890,-125.000000
4891,-125.000000
4892,-125.000000
4893,-125.000000
4894,-121.093750
4895,-121.093750
4896,-121.093750
4897,-121.093750
4898,-121.093750
4899,-117.187500
4900,-117.187500
4901,-117.187500
4902,-117.187500
4903,-117.187500
4904,-113.281250
4905,-113.281250
4906,-113.281250
4907,-113.281250
4908,-113.281250
4909,-109.375000
4910,-109.375000
4911,-109.375000
4912,-109.375000
4913,-105.468750
4914,-105.468750
4915,-105.468750
4916,-105.468750
4917,-105.468750
4918,-101.562500
4919,-101.562500
4920,-101.562500
4921,-101.562500
4922,-97.656250
4923,-101.562500
4924,-97.656250
4925,-97.656250
4926,-97.656250
4927,-93.750000
4928,-93.750000
4929,-93.750000
4930,-93.750000
4931,-93.750000
4932,-89.843750
4933,-89.843750
4934,-89.843750
4935,-89.843750
4936,-89.843750
4937,-85.937500
4938,-85.937500
4939,-85.937500
4940,-82.031250
4941,-82.031250
4942,-85.937500
4943,-82.031250
4944,-78.125000
4945,-78.125000
4946,-78.125000
4947,-78.125000
4948,-78.125000
4949,-74.218750
4950,-74.218750
4951,-74.218750
4952,-74.218750
4953,-70.312500
4954,-70.312500
4955,-70.312500
4956,-70.312500
4957,-70.312500
4958,-66.406250
4959,-66.406250
4960,-66.406250
4961,-66.406250
4962,-62.500000
4963,-62.500000
4964,-62.500000
4965,-62.500000
4966,-58.593750
4967,-58.593750
4968,-58.593750
4969,-54.687500
4970,-54.687500
4971,-54.687500
4972,-54.687500
4973,-50.781250
4974,-50.781250
4975,-50.781250
4976,-50.781250
4977,-46.875000
4978,-46.875000
4979,-46.875000
4980,-46.875000
4981,-46.875000
4982,-42.968750
4983,-42.968750
4984,-42.968750
4985,-42.968750
4986,-35.156250
4987,-39.062500
4988,-39.062500
4989,-39.062500
4990,-35.156250
4991,-35.156250
4992,-35.156250
4993,-35.156250
4994,-31.250000
4995,-31.250000
4996,-31.250000
4997,-31.250000
4998,-27.343750
4999,-27.343750
5000,-27.343750
5001,-27.343750
5002,-23.437500
5003,-23.437500
5004,-23.437500
5005,-23.437500
5006,-19.531250
5007,-19.531250
5008,-19.531250
5009,-19.531250
5010,-15.625000
5011,-15.625000
5012,-15.625000
5013,-15.625000
5014,-11.718750
5015,-11.718750
5016,-11.718750
5017,-11.718750
5018,-7.812500
5019,-7.812500
5020,-7.812500
5021,-3.906250
5022,-3.906250
5023,-3.906250
5024,-3.906250
5025,-3.906250
5026,0.000000
5027,0.000000
5028,0.000000
5029,0.000000
5030,3.906250
5031,3.906250
5032,3.906250
5033,3.906250
5034,7.812500
5035,7.812500
5036,7.812500
5037,7.812500
5038,11.718750
5039,11.718750
5040,11.718750
5041,11.718750
5042,15.625000
5043,15.625000
5044,15.625000
5045,15.625000
5046,19.531250
5047,19.531250
5048,19.531250
5049,19.531250
5050,23.437500
5051,23.437500
5052,23.437500
5053,23.437500
5054,23.437500
5055,27.343750
5056,27.343750
5057,27.343750
5058,27.343750
5059,31.250000
5060,31.250000
5061,31.250000
5062,31.250000
5063,35.156250
5064,35.156250
5065,35.156250
5066,35.156250
5067,35.156250
5068,39.062500
5069,39.062500
5070,39.062500
5071,39.062500
5072,42.968750
5073,42.968750
5074,42.968750
5075,42.968750
5076,46.875000
5077,46.875000
5078,46.875000
5079,46.875000
5080,46.875000
5081,50.781250
5082,50.781250
5083,50.781250
5084,50.781250
5085,50.781250
5086,50.781250
5087,54.687500
5088,54.687500
5089,54.687500
5090,54.687500
5091,58.593750
5092,58.593750
5093,58.593750
5094,58.593750
5095,58.593750
5096,62.500000
5097,62.500000
5098,62.500000
5099,62.500000
5100,62.500000
5101,66.406250
5102,66.406250
5103,66.406250
5104,66.406250
5105,66.406250
5106,70.312500
5107,70.312500
5108,70.312500
5109,70.312500
5110,70.312500
5111,70.312500
5112,74.218750
5113,74.218750
5114,74.218750
5115,74.218750
5116,78.125000
5117,78.125000
5118,78.125000
5119,78.125000
5120,78.125000
5121,78.125000
5122,78.125000
5123,82.031250
5124,82.031250
5125,82.031250
5126,82.031250
5127,82.031250
5128,85.937500
5129,85.937500
5130,85.937500
5131,85.937500
5132,85.937500
5133,85.937500
5134,89.843750
5135,89.843750
5136,89.843750
5137,89.843750
5138,89.843750
5139,89.843750
5140,89.843750
5141,93.750000
5142,93.750000
5143,93.750000
5144,93.750000
5145,93.750000
5146,93.750000
5147,93.750000
5148,97.656250
5149,97.656250
5150,97.656250
5151,97.656250
5152,97.656250
5153,97.656250
5154,97.656250
5155,97.656250
5156,101.562500
5157,101.562500
5158,101.562500
5159,101.562500
5160,101.562500
5161,101.562500
5162,101.562500
5163,105.468750
5164,105.468750
5165,105.468750
5166,105.468750
5167,105.468750
5168,105.468750
5169,105.468750
5170,105.468750
5171,105.468750
5172,109.375000
5173,109.375000
5174,109.375000
5175,109.375000
5176,109.375000
5177,109.375000
5178,113.281250
5179,109.375000
5180,113.281250
5181,113.281250
5182,113.281250
5183,113.281250
5184,113.281250
5185,113.281250
5186,117.187500
5187,113.281250
5188,113.281250
5189,117.187500
5190,117.187500
5191,117.187500
5192,117.187500
5193,117.187500
5194,117.187500
5195,117.187500
5196,117.187500
5197,121.093750
5198,117.187500
5199,117.187500
5200,121.093750
5201,121.093750
5202,121.093750
5203,121.093750
5204,121.093750
5205,121.093750
5206,121.093750
5207,121.093750
5208,125.000000
5209,121.093750
5210,125.000000
5211,125.000000
5212,125.000000
5213,125.000000
5214,125.000000
5215,125.000000
5216,125.000000
5217,125.000000
5218,125.000000
5219,125.000000
5220,125.000000
5221,125.000000
5222,125.000000
5223,125.000000
5224,125.000000
5225,125.000000
5226,128.906250
5227,128.906250
5228,128.906250
5229,128.906250
5230,128.906250
5231,128.906250
5232,128.906250
5233,128.906250
5234,128.906250
5235,128.906250
5236,128.906250
5237,128.906250
5238,128.906250
5239,128.906250
5240,128.906250
5241,128.906250
5242,128.906250
5243,128.906250
5244,128.906250
5245,128.906250
5246,128.906250
5247,128.906250
5248,132.812500
5249,128.906250
5250,128.906250
5251,128.906250
5252,132.812500
5253,128.906250
5254,132.812500
5255,132.812500
5256,132.812500
5257,128.906250
5258,132.812500
5259,128.906250
5260,132.812500
5261,132.812500
5262,132.812500
5263,132.812500
5264,132.812500
5265,132.812500
5266,132.812500
5267,132.812500
5268,132.812500
5269,128.906250
5270,128.906250
5271,132.812500
5272,132.812500
5273,132.812500
5274,132.812500
5275,132.812500
5276,132.812500
5277,132.812500
5278,132.812500
5279,132.812500
5280,132.812500
5281,128.906250
5282,132.812500
5283,132.812500
5284,132.812500
5285,128.906250
5286,132.812500
5287,128.906250
5288,132.812500
5289,128.906250
5290,128.906250
5291,128.906250
5292,128.906250
5293,128.906250
5294,132.812500
5295,128.906250
5296,128.906250
5297,128.906250
5298,128.906250
5299,128.906250
5300,128.906250
5301,128.906250
5302,128.906250
5303,128.906250
5304,128.906250
5305,128.906250
5306,128.906250
5307,128.906250
5308,128.906250
5309,128.906250
5310,128.906250
5311,128.906250
5312,128.906250
5313,128.906250
5314,128.906250
5315,125.000000
5316,128.906250
5317,125.000000
5318,125.000000
5319,125.000000
5320,125.000000
5321,125.000000
5322,125.000000
5323,125.000000
5324,125.000000
5325,125.000000
5326,125.000000
5327,125.000000
5328,125.000000
5329,125.000000
5330,125.000000
5331,125.000000
5332,125.000000
5333,121.093750
5334,125.000000
5335,125.000000
5336,121.093750
5337,121.093750
5338,121.093750
5339,121.093750
5340,121.093750
5341,121.093750
5342,121.093750
5343,121.093750
5344,121.093750
5345,121.093750
5346,121.093750
5347,117.187500
5348,117.187500
5349,117.187500
5350,117.187500
5351,117.187500
5352,117.187500
5353,117.187500
5354,117.187500
5355,117.187500
5356,117.187500
5357,113.281250
5358,113.281250
5359,113.281250
5360,113.281250
5361,113.281250
5362,113.281250
5363,113.281250
5364,113.281250
5365,113.281250
5366,113.281250
5367,113.281250
5368,109.375000
5369,109.375000
5370,109.375000
5371,109.375000
5372,109.375000
5373,109.375000
5374,109.375000
5375,109.375000
5376,105.468750
5377,105.468750
5378,105.468750
5379,105.468750
5380,101.562500
5381,105.468750
5382,105.468750
5383,101.562500
5384,101.562500
5385,101.562500
5386,101.562500
5387,101.562500
5388,101.562500
5389,97.656250
5390,101.562500
5391,97.656250
5392,97.656250
5393,97.656250
5394,97.656250
5395,97.656250
5396,97.656250
5397,93.750000
5398,93.750000
5399,93.750000
5400,93.750000
5401,93.750000
5402,93.750000
5403,93.750000
5404,89.843750
5405,89.843750
5406,89.843750
5407,89.843750
5408,89.843750
5409,85.937500
5410,85.937500
5411,85.937500
5412,85.937500
5413,85.937500
5414,85.937500
5415,82.031250
5416,82.031250
5417,82.031250
5418,82.031250
5419,82.031250
5420,82.031250
5421,78.125000
5422,78.125000
5423,78.125000
5424,78.125000
5425,78.125000
5426,78.125000
5427,74.218750
5428,74.218750
5429,74.218750
5430,74.218750
5431,74.218750
5432,74.218750
5433,70.312500
5434,70.312500
5435,70.312500
5436,70.312500
5437,70.312500
5438,66.406250
5439,66.406250
5440,66.406250
5441,66.406250
5442,66.406250
5443,66.406250
5444,62.500000
5445,62.500000
5446,62.500000
5447,62.500000
5448,58.593750
5449,58.593750
5450,58.593750
5451,58.593750
5452,58.593750
5453,54.687500
5454,54.687500
5455,54.687500
5456,54.687500
5457,54.687500
5458,54.687500
5459,50.781250
5460,50.781250
5461,50.781250
5462,50.781250
5463,46.875000
5464,46.875000
5465,46.875000
5466,46.875000
5467,46.875000
5468,42.968750
5469,42.968750
5470,42.968750
5471,42.968750
5472,39.062500
5473,39.062500
5474,39.062500
5475,39.062500
5476,35.156250
5477,35.156250
5478,35.156250
5479,35.156250
5480,35.156250
5481,31.250000
5482,31.250000
5483,31.250000
5484,31.250000
5485,27.343750
5486,27.343750
5487,27.343750
5488,27.343750
5489,23.437500
5490,23.437500
5491,23.437500
5492,23.437500
5493,23.437500
5494,19.531250
5495,19.531250
5496,19.531250
5497,19.531250
5498,15.625000
5499,15.625000
5500,15.625000
5501,15.625000
5502,15.625000
5503,11.718750
5504,11.718750
5505,11.718750
5506,7.812500
5507,7.812500
5508,7.812500
5509,7.812500
5510,3.906250
5511,3.906250
5512,3.906250
5513,3.906250
5514,0.000000
5515,0.000000
5516,0.000000
5517,0.000000
5518,-3.906250
5519,-3.906250
5520,-3.906250
5521,-3.906250
5522,-7.812500
5523,-7.812500
5524,-7.812500
5525,-7.812500
5526,-7.812500
5527,-11.718750
5528,-11.718750
5529,-11.718750
5530,-15.625000
5531,-15.625000
5532,-15.625000
5533,-15.625000
5534,-15.625000
5535,-19.531250
5536,-19.531250
5537,-19.531250
5538,-23.437500
5539,-23.437500
5540,-23.437500
5541,-23.437500
5542,-23.437500
5543,-27.343750
5544,-27.343750
5545,-27.343750
5546,-31.250000
5547,-31.250000
5548,-31.250000
5549,-31.250000
5550,-35.156250
5551,-35.156250
5552,-35.156250
5553,-35.156250
5554,-35.156250
5555,-39.062500
5556,-39.062500
5557,-39.062500
5558,-42.968750
5559,-42.968750
5560,-42.968750
5561,-42.968750
5562,-42.968750
5563,-46.875000
5564,-46.875000
5565,-46.875000
5566,-46.875000
5567,-50.781250
5568,-50.781250
5569,-50.781250
5570,-54.687500
5571,-54.687500
5572,-54.687500
5573,-54.687500
5574,-54.687500
5575,-58.593750
5576,-58.593750
5577,-58.593750
5578,-62.500000
5579,-62.500000
5580,-62.500000
5581,-62.500000
5582,-62.500000
5583,-66.406250
5584,-66.406250
5585,-66.406250
5586,-66.406250
5587,-70.312500
5588,-70.312500
5589,-70.312500
5590,-74.218750
5591,-74.218750
5592,-74.218750
5593,-74.218750
5594,-74.218750
5595,-78.125000
5596,-78.125000
5597,-78.125000
5598,-78.125000
5599,-78.125000
5600,-82.031250
5601,-82.031250
5602,-82.031250
5603,-82.031250
5604,-82.031250
5605,-85.937500
5606,-85.937500
5607,-85.937500
5608,-89.843750
5609,-89.843750
5610,-89.843750
5611,-89.843750
5612,-89.843750
5613,-93.750000
5614,-93.750000
5615,-93.750000
5616,-93.750000
5617,-97.656250
5618,-97.656250
5619,-97.656250
5620,-97.656250
5621,-97.656250
5622,-101.562500
5623,-101.562500
5624,-101.562500
5625,-101.562500
5626,-105.468750
5627,-105.468750
5628,-105.468750
5629,-105.468750
5630,-105.468750
5631,-105.468750
5632,-109.375000
5633,-109.375000
5634,-109.375000
5635,-109.375000
5636,-113.281250
5637,-113.281250
5638,-113.281250
5639,-113.281250
5640,-113.281250
5641,-117.187500
5642,-117.187500
5643,-117.187500
5644,-117.187500
5645,-117.187500
5646,-121.093750
5647,-121.093750
5648,-121.093750
5649,-121.093750
5650,-121.093750
5651,-125.000000
5652,-125.000000
5653,-125.000000
5654,-125.000000
5655,-125.000000
5656,-125.000000
5657,-128.906250
5658,-128.906250
5659,-128.906250
5660,-128.906250
5661,-128.906250
5662,-128.906250
5663,-132.812500
5664,-132.812500
5665,-132.812500
5666,-132.812500
5667,-136.718750
5668,-136.718750
5669,-136.718750
5670,-136.718750
5671,-136.718750
5672,-136.718750
5673,-136.718750
5674,-136.718750
5675,-136.718750
5676,-140.625000
5677,-140.625000
5678,-140.625000
5679,-140.625000
5680,-140.625000
5681,-140.625000
5682,-144.531250
5683,-144.531250
5684,-144.531250
5685,-144.531250
5686,-144.531250
5687,-144.531250
5688,-144.531250
5689,-148.437500
5690,-148.437500
5691,-148.437500
5692,-148.437500
5693,-148.437500
5694,-148.437500
5695,-148.437500
5696,-152.343750
5697,-152.343750
5698,-152.343750
5699,-152.343750
5700,-152.343750
5701,-152.343750
5702,-152.343750
5703,-152.343750
5704,-152.343750
5705,-156.250000
5706,-152.343750
5707,-156.250000
5708,-156.250000
5709,-156.250000
5710,-156.250000
5711,-156.250000
5712,-156.250000
5713,-156.250000
5714,-156.250000
5715,-156.250000
5716,-156.250000
5717,-160.156250
5718,-160.156250
5719,-160.156250
5720,-160.156250
5721,-160.156250
5722,-160.156250
5723,-160.156250
5724,-160.156250
5725,-160.156250
5726,-160.156250
5727,-160.156250
5728,-160.156250
5729,-160.156250
5730,-160.156250
5731,-164.062500
5732,-164.062500
5733,-164.062500
5734,-164.062500
5735,-164.062500
5736,-164.062500
5737,-164.062500
5738,-164.062500
5739,-164.062500
5740,-164.062500
5741,-164.062500
5742,-164.062500
5743,-164.062500
5744,-164.062500
5745,-164.062500
5746,-167.968750
5747,-164.062500
5748,-164.062500
5749,-164.062500
5750,-167.968750
5751,-164.062500
5752,-164.062500
5753,-164.062500
5754,-167.968750
5755,-167.968750
5756,-167.968750
5757,-167.968750
5758,-167.968750
5759,-167.968750
5760,-167.968750
5761,-167.968750
5762,-167.968750
5763,-167.968750
5764,-164.062500
5765,-167.968750
5766,-167.968750
5767,-167.968750
5768,-167.968750
5769,-167.968750
5770,-167.968750
5771,-167.968750
5772,-167.968750
5773,-167.968750
5774,-167.968750
5775,-167.968750
5776,-167.968750
5777,-167.968750
5778,-167.968750
5779,-167.968750
5780,-167.968750
5781,-164.062500
5782,-164.062500
5783,-164.062500
5784,-164.062500
5785,-164.062500
5786,-167.968750
5787,-164.062500
5788,-164.062500
5789,-164.062500
5790,-164.062500
5791,-164.062500
5792,-164.062500
5793,-164.062500
5794,-164.062500
5795,-164.062500
5796,-164.062500
5797,-164.062500
5798,-164.062500
5799,-164.062500
5800,-164.062500
5801,-164.062500
5802,-164.062500
5803,-164.062500
5804,-164.062500
5805,-160.156250
5806,-160.156250
5807,-164.062500
5808,-160.156250
5809,-160.156250
5810,-160.156250
5811,-160.156250
5812,-160.156250
5813,-160.156250
5814,-160.156250
5815,-160.156250
5816,-160.156250
5817,-160.156250
5818,-156.250000
5819,-156.250000
5820,-156.250000
5821,-156.250000
5822,-156.250000
5823,-156.250000
5824,-156.250000
5825,-156.250000
5826,-156.250000
5827,-156.250000
5828,-152.343750
5829,-152.343750
5830,-152.343750
5831,-152.343750
5832,-152.343750
5833,-152.343750
5834,-152.343750
5835,-152.343750
5836,-152.343750
5837,-152.343750
5838,-148.437500
5839,-148.437500
5840,-148.437500
5841,-148.437500
5842,-148.437500
5843,-144.531250
5844,-148.437500
5845,-144.531250
5846,-144.531250
5847,-144.531250
5848,-144.531250
5849,-144.531250
5850,-144.531250
5851,-144.531250
5852,-140.625000
5853,-140.625000
5854,-140.625000
5855,-140.625000
5856,-140.625000
5857,-140.625000
5858,-136.718750
5859,-136.718750
5860,-136.718750
5861,-136.718750
5862,-136.718750
5863,-136.718750
5864,-136.718750
5865,-132.812500
5866,-132.812500
5867,-132.812500
5868,-132.812500
5869,-132.812500
5870,-132.812500
5871,-128.906250
5872,-128.906250
5873,-128.906250
5874,-128.906250
5875,-128.906250
5876,-128.906250
5877,-125.000000
5878,-125.000000
5879,-125.000000
5880,-125.000000
5881,-121.093750
5882,-121.093750
5883,-121.093750
5884,-121.093750
5885,-121.093750
5886,-117.187500
5887,-117.187500
5888,-117.187500
5889,-117.187500
5890,-117.187500
5891,-117.187500
5892,-113.281250
5893,-113.281250
5894,-113.281250
5895,-113.281250
5896,-113.281250
5897,-113.281250
5898,-109.375000
5899,-109.375000
5900,-109.375000
5901,-109.375000
5902,-105.468750
5903,-105.468750
5904,-105.468750
5905,-105.468750
5906,-105.468750
5907,-101.562500
5908,-101.562500
5909,-101.562500
5910,-101.562500
5911,-101.562500
5912,-97.656250
5913,-97.656250
5914,-97.656250
5915,-97.656250
5916,-97.656250
5917,-93.750000
5918,-93.750000
5919,-93.750000
5920,-93.750000
5921,-89.843750
5922,-89.843750
5923,-89.843750
5924,-89.843750
5925,-89.843750
5926,-85.937500
5927,-85.937500
5928,-85.937500
5929,-85.937500
5930,-82.031250
5931,-82.031250
5932,-82.031250
5933,-82.031250
5934,-78.125000
5935,-78.125000
5936,-78.125000
5937,-78.125000
5938,-74.218750
5939,-74.218750
5940,-74.218750
5941,-74.218750
5942,-70.312500
5943,-70.312500
5944,-70.312500
5945,-70.312500
5946,-70.312500
5947,-66.406250
5948,-66.406250
5949,-66.406250
5950,-66.406250
5951,-62.500000
5952,-62.500000
5953,-62.500000
5954,-62.500000
5955,-58.593750
5956,-58.593750
5957,-58.593750
5958,-58.593750
5959,-54.687500
5960,-54.687500
5961,-54.687500
5962,-50.781250
5963,-50.781250
5964,-50.781250
5965,-50.781250
5966,-50.781250
5967,-50.781250
5968,-46.875000
5969,-46.875000
5970,-46.875000
5971,-42.968750
5972,-42.968750
5973,-42.968750
5974,-42.968750
5975,-39.062500
5976,-39.062500
5977,-39.062500
5978,-39.062500
5979,-35.156250
5980,-35.156250
5981,-35.156250
5982,-31.250000
5983,-31.250000
5984,-31.250000
5985,-31.250000
5986,-27.343750
5987,-27.343750
5988,-27.343750
5989,-27.343750
5990,-23.437500
5991,-23.437500
5992,-23.437500
5993,-23.437500
5994,-23.437500
5995,-19.531250
5996,-19.531250
5997,-19.531250
5998,-15.625000
5999,-15.625000
6000,-15.625000
6001,-15.625000
6002,-11.718750
6003,-11.718750
6004,-11.718750
6005,-11.718750
6006,-11.718750
6007,-7.812500
6008,-7.812500
6009,-7.812500
6010,-7.812500
6011,-3.906250
6012,-3.906250
6013,-3.906250
6014,0.000000
6015,0.000000
6016,0.000000
6017,0.000000
6018,3.906250
6019,3.906250
6020,3.906250
6021,3.906250
6022,3.906250
6023,7.812500
6024,7.812500
6025,7.812500
6026,7.812500
6027,11.718750
6028,11.718750
6029,11.718750
6030,11.718750
6031,15.625000
6032,15.625000
6033,15.625000
6034,15.625000
6035,15.625000
6036,19.531250
6037,19.531250
6038,19.531250
6039,19.531250
6040,23.437500
6041,23.437500
6042,23.437500
6043,23.437500
6044,27.343750
6045,27.343750
6046,27.343750
6047,27.343750
6048,27.343750
6049,31.250000
6050,31.250000
6051,31.250000
6052,35.156250
6053,35.156250
6054,35.156250
6055,35.156250
6056,35.156250
6057,35.156250
6058,39.062500
6059,39.062500
6060,39.062500
6061,39.062500
6062,42.968750
6063,42.968750
6064,42.968750
6065,42.968750
6066,46.875000
6067,42.968750
6068,46.875000
6069,46.875000
6070,46.875000
6071,50.781250
6072,50.781250
6073,50.781250
6074,50.781250
6075,50.781250
6076,54.687500
6077,54.687500
6078,54.687500
6079,54.687500
6080,58.593750
6081,54.687500
6082,58.593750
6083,58.593750
6084,58.593750
6085,58.593750
6086,62.500000
6087,62.500000
6088,62.500000
6089,62.500000
6090,66.406250
6091,66.406250
6092,66.406250
6093,66.406250
6094,66.406250
6095,66.406250
6096,70.312500
6097,70.312500
6098,70.312500
6099,70.312500
6100,74.218750
6101,74.218750
6102,74.218750
6103,74.218750
6104,78.125000
6105,74.218750
6106,78.125000
6107,78.125000
6108,78.125000
6109,78.125000
6110,78.125000
6111,78.125000
6112,82.031250
6113,82.031250
6114,82.031250
6115,82.031250
6116,82.031250
6117,82.031250
6118,85.937500
6119,85.937500
6120,85.937500
6121,85.937500
6122,85.937500
6123,89.843750
6124,89.843750
6125,89.843750
6126,89.843750
6127,89.843750
6128,89.843750
6129,89.843750
6130,89.843750
6131,93.750000
6132,93.750000
6133,93.750000
6134,93.750000
6135,93.750000
6136,97.656250
6137,97.656250
6138,97.656250
6139,97.656250
6140,97.656250
6141,97.656250
6142,97.656250
6143,97.656250
6144,101.562500
6145,101.562500
6146,101.562500
6147,101.562500
6148,101.562500
6149,101.562500
6150,105.468750
6151,101.562500
6152,105.468750
6153,105.468750
6154,105.468750
6155,105.468750
6156,105.468750
6157,105.468750
6158,109.375000
6159,105.468750
6160,109.375000
6161,109.375000
6162,109.375000
6163,109.375000
6164,109.375000
6165,109.375000
6166,109.375000
6167,109.375000
6168,109.375000
6169,109.375000
6170,113.281250
6171,113.281250
6172,113.281250
6173,113.281250
6174,113.281250
6175,113.281250
6176,113.281250
6177,113.281250
6178,113.281250
6179,117.187500
6180,117.187500
6181,117.187500
6182,117.187500
6183,117.187500
6184,117.187500
6185,117.187500
6186,117.187500
6187,121.093750
6188,117.187500
6189,117.187500
6190,121.093750
6191,121.093750
6192,121.093750
6193,121.093750
6194,121.093750
6195,121.093750
6196,121.093750
6197,121.093750
6198,121.093750
6199,121.093750
6200,121.093750
6201,121.093750
6202,125.000000
6203,125.000000
6204,125.000000
6205,125.000000
6206,125.000000
6207,125.000000
6208,125.000000
6209,125.000000
6210,125.000000
6211,125.000000
6212,125.000000
6213,125.000000
6214,125.000000
6215,125.000000
6216,128.906250
6217,125.000000
6218,128.906250
6219,128.906250
6220,128.906250
6221,128.906250
6222,128.906250
6223,128.906250
6224,128.906250
6225,128.906250
6226,128.906250
6227,128.906250
6228,128.906250
6229,128.906250
6230,128.906250
6231,128.906250
6232,128.906250
6233,128.906250
6234,128.906250
6235,128.906250
6236,128.906250
6237,128.906250
6238,128.906250
6239,128.906250
6240,132.812500
6241,128.906250
6242,128.906250
6243,128.906250
6244,132.812500
6245,132.812500
6246,132.812500
6247,128.906250
6248,132.812500
6249,132.812500
6250,132.812500
6251,132.812500
6252,132.812500
6253,128.906250
6254,132.812500
6255,132.812500
6256,132.812500
6257,132.812500
6258,132.812500
6259,132.812500
6260,132.812500
6261,132.812500
6262,132.812500
6263,132.812500
6264,132.812500
6265,132.812500
6266,132.812500
6267,132.812500
6268,132.812500
6269,132.812500
6270,132.812500
6271,132.812500
6272,132.812500
6273,132.812500
6274,132.812500
6275,132.812500
6276,132.812500
6277,132.812500
6278,132.812500
6279,132.812500
6280,132.812500
6281,128.906250
6282,132.812500
6283,128.906250
6284,128.906250
6285,128.906250
6286,128.906250
6287,128.906250
6288,128.906250
6289,128.906250
6290,128.906250
6291,128.906250
6292,128.906250
6293,128.906250
6294,128.906250
6295,128.906250
6296,128.906250
6297,128.906250
6298,128.906250
6299,128.906250
6300,128.906250
6301,128.906250
6302,128.906250
6303,125.000000
6304,128.906250
6305,125.000000
6306,125.000000
6307,125.000000
6308,128.906250
6309,125.000000
6310,128.906250
6311,125.000000
6312,125.000000
6313,125.000000
6314,125.000000
6315,125.000000
6316,125.000000
6317,125.000000
6318,125.000000
6319,125.000000
6320,125.000000
6321,125.000000
6322,121.093750
6323,121.093750
6324,121.093750
6325,121.093750
6326,121.093750
6327,121.093750
6328,121.093750
6329,121.093750
6330,121.093750
6331,121.093750
6332,121.093750
6333,121.093750
6334,121.093750
6335,117.187500
6336,117.187500
6337,117.187500
6338,117.187500
6339,117.187500
6340,117.187500
6341,117.187500
6342,117.187500
6343,117.187500
6344,117.187500
6345,113.281250
6346,117.187500
6347,113.281250
6348,113.281250
6349,113.281250
6350,113.281250
6351,113.281250
6352,113.281250
6353,113.281250
6354,113.281250
6355,113.281250
6356,109.375000
6357,109.375000
6358,109.375000
6359,109.375000
6360,109.375000
6361,109.375000
6362,109.375000
6363,109.375000
6364,109.375000
6365,105.468750
6366,105.468750
6367,105.468750
6368,105.468750
6369,105.468750
6370,105.468750
6371,105.468750
6372,105.468750
6373,101.562500
6374,101.562500
6375,101.562500
6376,101.562500
6377,101.562500
6378,101.562500
6379,97.656250
6380,97.656250
6381,97.656250
6382,97.656250
6383,97.656250
6384,97.656250
6385,97.656250
6386,97.656250
6387,93.750000
6388,93.750000
6389,93.750000
6390,93.750000
6391,93.750000
6392,93.750000
6393,93.750000
6394,89.843750
6395,89.843750
6396,89.843750
6397,89.843750
6398,89.843750
6399,89.843750
6400,85.937500
6401,85.937500
6402,85.937500
6403,85.937500
6404,85.937500
6405,82.031250
6406,82.031250
6407,82.031250
6408,82.031250
6409,82.031250
6410,82.031250
6411,82.031250
6412,78.125000
6413,78.125000
6414,78.125000
6415,78.125000
6416,78.125000
6417,74.218750
6418,74.218750
6419,74.218750
6420,74.218750
6421,74.218750
6422,74.218750
6423,70.312500
6424,70.312500
6425,70.312500
6426,70.312500
6427,70.312500
6428,66.406250
6429,66.406250
6430,66.406250
6431,66.406250
6432,66.406250
6433,62.500000
6434,62.500000
6435,62.500000
6436,58.593750
6437,58.593750
6438,58.593750
6439,58.593750
6440,58.593750
6441,58.593750
6442,54.687500
6443,54.687500
6444,54.687500
6445,54.687500
6446,54.687500
6447,50.781250
6448,50.781250
6449,50.781250
6450,50.781250
6451,46.875000
6452,46.875000
6453,46.875000
6454,46.875000
6455,42.968750
6456,42.968750
6457,42.968750
6458,42.968750
6459,42.968750
6460,42.968750
6461,39.062500
6462,39.062500
6463,39.062500
6464,39.062500
6465,35.156250
6466,35.156250
6467,35.156250
6468,35.156250
6469,31.250000
6470,31.250000
6471,31.250000
6472,31.250000
6473,27.343750
6474,31.250000
6475,27.343750
6476,27.343750
6477,27.343750
6478,27.343750
6479,23.437500
6480,23.437500
6481,23.437500
6482,19.531250
6483,23.437500
6484,19.531250
6485,19.531250
6486,19.531250
6487,15.625000
6488,15.625000
6489,15.625000
6490,15.625000
6491,11.718750
6492,11.718750
6493,11.718750
6494,11.718750
6495,11.718750
6496,7.812500
6497,7.812500
6498,7.812500
6499,7.812500
6500,3.906250
6501,3.906250
6502,3.906250
6503,3.906250
6504,0.000000
6505,0.000000
6506,0.000000
6507,0.000000
6508,-3.906250
6509,-3.906250
6510,-3.906250
6511,-3.906250
6512,-7.812500
6513,-7.812500
6514,-7.812500
6515,-7.812500
6516,-11.718750
6517,-11.718750
6518,-11.718750
6519,-11.718750
6520,-15.625000
6521,-15.625000
6522,-15.625000
6523,-15.625000
6524,-19.531250
6525,-19.531250
6526,-19.531250
6527,-19.531250
6528,-23.437500
6529,-23.437500
6530,-23.437500
6531,-23.437500
6532,-27.343750
6533,-27.343750
6534,-27.343750
6535,-27.343750
6536,-31.250000
6537,-31.250000
6538,-31.250000
6539,-31.250000
6540,-35.156250
6541,-35.156250
6542,-35.156250
6543,-39.062500
6544,-39.062500
6545,-39.062500
6546,-39.062500
6547,-39.062500
6548,-42.968750
6549,-42.968750
6550,-42.968750
6551,-42.968750
6552,-46.875000
6553,-46.875000
6554,-46.875000
6555,-50.781250
6556,-50.781250
6557,-50.781250
6558,-50.781250
6559,-54.687500
6560,-50.781250
6561,-54.687500
6562,-54.687500
6563,-58.593750
6564,-58.593750
6565,-58.593750
6566,-58.593750
6567,-62.500000
6568,-62.500000
6569,-62.500000
6570,-62.500000
6571,-62.500000
6572,-66.406250
6573,-66.406250
6574,-66.406250
6575,-70.312500
6576,-70.312500
6577,-70.312500
6578,-70.312500
6579,-70.312500
6580,-74.218750
6581,-74.218750
6582,-74.218750
6583,-74.218750
6584,-78.125000
6585,-78.125000
6586,-78.125000
6587,-78.125000
6588,-82.031250
6589,-82.031250
6590,-82.031250
6591,-82.031250
6592,-82.031250
6593,-85.937500
6594,-85.937500
6595,-85.937500
6596,-89.843750
6597,-89.843750
6598,-89.843750
6599,-89.843750
6600,-89.843750
6601,-93.750000
6602,-93.750000
6603,-93.750000
6604,-93.750000
6605,-93.750000
6606,-97.656250
6607,-97.656250
6608,-97.656250
6609,-97.656250
6610,-97.656250
6611,-101.562500
6612,-101.562500
6613,-101.562500
6614,-101.562500
6615,-105.468750
6616,-105.468750
6617,-105.468750
6618,-105.468750
6619,-105.468750
6620,-109.375000
6621,-109.375000
6622,-109.375000
6623,-109.375000
6624,-109.375000
6625,-113.281250
6626,-113.281250
6627,-113.281250
6628,-113.281250
6629,-113.281250
6630,-113.281250
6631,-117.187500
6632,-117.187500
6633,-117.187500
6634,-117.187500
6635,-121.093750
6636,-121.093750
6637,-121.093750
6638,-121.093750
6639,-121.093750
6640,-121.093750
6641,-125.000000
6642,-125.000000
6643,-125.000000
6644,-125.000000
6645,-125.000000
6646,-128.906250
6647,-128.906250
6648,-128.906250
6649,-128.906250
6650,-128.906250
6651,-128.906250
6652,-132.812500
6653,-132.812500
6654,-132.812500
6655,-132.812500
6656,-132.812500
6657,-132.812500
6658,-136.718750
6659,-136.718750
6660,-136.718750
6661,-136.718750
6662,-136.718750
6663,-136.718750
6664,-136.718750
6665,-140.625000
6666,-140.625000
6667,-140.625000
6668,-140.625000
6669,-140.625000
6670,-140.625000
6671,-140.625000
6672,-144.531250
6673,-144.531250
6674,-144.531250
6675,-144.531250
6676,-144.531250
6677,-148.437500
6678,-148.437500
6679,-148.437500
6680,-148.437500
6681,-148.437500
6682,-148.437500
6683,-148.437500
6684,-148.437500
6685,-148.437500
6686,-152.343750
6687,-152.343750
6688,-152.343750
6689,-152.343750
6690,-152.343750
6691,-152.343750
6692,-152.343750
6693,-152.343750
6694,-156.250000
6695,-156.250000
6696,-156.250000
6697,-156.250000
6698,-156.250000
6699,-156.250000
6700,-156.250000
6701,-156.250000
6702,-156.250000
6703,-156.250000
6704,-160.156250
6705,-160.156250
6706,-160.156250
6707,-160.156250
6708,-160.156250
6709,-160.156250
6710,-160.156250
6711,-160.156250
6712,-160.156250
6713,-160.156250
6714,-160.156250
6715,-160.156250
6716,-160.156250
6717,-164.062500
6718,-160.156250
6719,-160.156250
6720,-164.062500
6721,-164.062500
6722,-164.062500
6723,-164.062500
6724,-164.062500
6725,-164.062500
6726,-164.062500
6727,-164.062500
6728,-164.062500
6729,-164.062500
6730,-164.062500
6731,-164.062500
6732,-164.062500
6733,-164.062500
6734,-164.062500
6735,-164.062500
6736,-164.062500
6737,-167.968750
6738,-167.968750
6739,-167.968750
6740,-164.062500
6741,-167.968750
6742,-167.968750
6743,-167.968750
6744,-167.968750
6745,-167.968750
6746,-167.968750
6747,-167.968750
6748,-167.968750
6749,-167.968750
6750,-167.968750
6751,-167.968750
6752,-167.968750
6753,-167.968750
6754,-167.968750
6755,-167.968750
6756,-167.968750
6757,-167.968750
6758,-167.968750
6759,-167.968750
6760,-167.968750
6761,-167.968750
6762,-167.968750
6763,-167.968750
6764,-167.968750
6765,-167.968750
6766,-167.968750
6767,-167.968750
6768,-167.968750
6769,-167.968750
6770,-167.968750
6771,-167.968750
6772,-167.968750
6773,-167.968750
6774,-164.062500
6775,-164.062500
6776,-164.062500
6777,-164.062500
6778,-164.062500
6779,-164.062500
6780,-164.062500
6781,-164.062500
6782,-164.062500
6783,-164.062500
6784,-164.062500
6785,-164.062500
6786,-164.062500
6787,-164.062500
6788,-164.062500
6789,-164.062500
6790,-164.062500
6791,-164.062500
6792,-164.062500
6793,-160.156250
6794,-160.156250
6795,-160.156250
6796,-160.156250
6797,-160.156250
6798,-160.156250
6799,-160.156250
6800,-160.156250
6801,-160.156250
6802,-160.156250
6803,-160.156250
6804,-160.156250
6805,-160.156250
6806,-160.156250
6807,-156.250000
6808,-156.250000
6809,-156.250000
6810,-156.250000
6811,-156.250000
6812,-156.250000
6813,-156.250000
6814,-156.250000
6815,-156.250000
6816,-156.250000
6817,-156.250000
6818,-156.250000
6819,-152.343750
6820,-152.343750
6821,-152.343750
6822,-152.343750
6823,-152.343750
6824,-152.343750
6825,-152.343750
6826,-152.343750
6827,-152.343750
6828,-148.437500
6829,-148.437500
6830,-148.437500
6831,-148.437500
6832,-148.437500
6833,-148.437500
6834,-148.437500
6835,-144.531250
6836,-144.531250
6837,-144.531250
6838,-144.531250
6839,-144.531250
6840,-144.531250
6841,-144.531250
6842,-140.625000
6843,-140.625000
6844,-140.625000
6845,-140.625000
6846,-140.625000
6847,-140.625000
6848,-136.718750
6849,-136.718750
6850,-136.718750
6851,-136.718750
6852,-136.718750
6853,-136.718750
6854,-136.718750
6855,-132.812500
6856,-132.812500
6857,-132.812500
6858,-132.812500
6859,-132.812500
6860,-132.812500
6861,-128.906250
6862,-128.906250
6863,-128.906250
6864,-128.906250
6865,-128.906250
6866,-125.000000
6867,-125.000000
6868,-125.000000
6869,-125.000000
6870,-125.000000
6871,-125.000000
6872,-121.093750
6873,-121.093750
6874,-121.093750
6875,-121.093750
6876,-121.093750
6877,-121.093750
6878,-117.187500
6879,-117.187500
6880,-117.187500
6881,-117.187500
6882,-113.281250
6883,-113.281250
6884,-113.281250
6885,-113.281250
6886,-113.281250
6887,-109.375000
6888,-109.375000
6889,-109.375000
6890,-105.468750
6891,-109.375000
6892,-105.468750
6893,-105.468750
6894,-105.468750
6895,-105.468750
6896,-101.562500
6897,-101.562500
6898,-101.562500
6899,-101.562500
6900,-101.562500
6901,-97.656250
6902,-97.656250
6903,-97.656250
6904,-97.656250
6905,-93.750000
6906,-93.750000
6907,-93.750000
6908,-93.750000
6909,-93.750000
6910,-89.843750
6911,-89.843750
6912,-89.843750
6913,-89.843750
6914,-89.843750
6915,-85.937500
6916,-85.937500
6917,-85.937500
6918,-85.937500
6919,-82.031250
6920,-82.031250
6921,-82.031250
6922,-82.031250
6923,-82.031250
6924,-78.125000
6925,-78.125000
6926,-78.125000
6927,-78.125000
6928,-74.218750
6929,-74.218750
6930,-74.218750
6931,-74.218750
6932,-70.312500
6933,-70.312500
6934,-70.312500
6935,-70.312500
6936,-66.406250
6937,-66.406250
6938,-66.406250
6939,-66.406250
6940,-62.500000
6941,-62.500000
6942,-62.500000
6943,-62.500000
6944,-58.593750
6945,-58.593750
6946,-58.593750
6947,-58.593750
6948,-58.593750
6949,-54.687500
6950,-54.687500
6951,-54.687500
6952,-54.687500
6953,-50.781250
6954,-50.781250
6955,-50.781250
6956,-50.781250
6957,-46.875000
6958,-46.875000
6959,-46.875000
6960,-42.968750
6961,-42.968750
6962,-42.968750
6963,-42.968750
6964,-42.968750
6965,-42.968750
6966,-39.062500
6967,-39.062500
6968,-35.156250
6969,-35.156250
6970,-35.156250
6971,-35.156250
6972,-31.250000
6973,-35.156250
6974,-31.250000
6975,-31.250000
6976,-31.250000
6977,-31.250000
6978,-27.343750
6979,-27.343750
6980,-27.343750
6981,-27.343750
6982,-23.437500
6983,-23.437500
6984,-23.437500
6985,-19.531250
6986,-19.531250
6987,-19.531250
6988,-19.531250
6989,-15.625000
6990,-15.625000
6991,-15.625000
6992,-15.625000
6993,-11.718750
6994,-11.718750
6995,-11.718750
6996,-11.718750
6997,-7.812500
6998,-7.812500
6999,-7.812500
7000,-7.812500
7001,-3.906250
7002,-3.906250
7003,-3.906250
7004,-3.906250
7005,-3.906250
7006,0.000000
7007,0.000000
7008,0.000000
7009,3.906250
7010,3.906250
7011,3.906250
7012,3.906250
7013,7.812500
7014,7.812500
7015,7.812500
7016,7.812500
7017,11.718750
7018,11.718750
7019,11.718750
7020,11.718750
7021,15.625000
7022,15.625000
7023,15.625000
7024,15.625000
7025,19.531250
7026,19.531250
7027,19.531250
7028,19.531250
7029,23.437500
7030,23.437500
7031,23.437500
7032,23.437500
7033,23.437500
7034,27.343750
7035,27.343750
7036,27.343750
7037,27.343750
7038,31.250000
7039,31.250000
7040,31.250000
7041,31.250000
7042,31.250000
7043,35.156250
7044,35.156250
7045,35.156250
7046,35.156250
7047,39.062500
7048,39.062500
7049,39.062500
7050,39.062500
7051,39.062500
7052,42.968750
7053,42.968750
7054,42.968750
7055,42.968750
7056,46.875000
7057,46.875000
7058,46.875000
7059,46.875000
7060,46.875000
7061,50.781250
7062,50.781250
7063,50.781250
7064,50.781250
7065,50.781250
7066,50.781250
7067,54.687500
7068,54.687500
7069,54.687500
7070,54.687500
7071,58.593750
7072,58.593750
7073,58.593750
7074,58.593750
7075,58.593750
7076,58.593750
7077,62.500000
7078,62.500000
7079,62.500000
7080,66.406250
7081,66.406250
7082,66.406250
7083,66.406250
7084,66.406250
7085,66.406250
7086,70.312500
7087,70.312500
7088,70.312500
7089,70.312500
7090,70.312500
7091,70.312500
7092,74.218750
7093,74.218750
7094,74.218750
7095,74.218750
7096,78.125000
7097,78.125000
7098,78.125000
7099,78.125000
7100,78.125000
7101,78.125000
7102,78.125000
7103,82.031250
7104,82.031250
7105,82.031250
7106,82.031250
7107,82.031250
7108,85.937500
7109,85.937500
7110,85.937500
7111,85.937500
7112,85.937500
7113,85.937500
7114,89.843750
7115,89.843750
7116,89.843750
7117,89.843750
7118,89.843750
7119,89.843750
7120,89.843750
7121,93.750000
7122,93.750000
7123,93.750000
7124,93.750000
7125,93.750000
7126,93.750000
7127,97.656250
7128,97.656250
7129,97.656250
7130,97.656250
7131,97.656250
7132,97.656250
7133,97.656250
7134,101.562500
7135,101.562500
7136,101.562500
7137,101.562500
7138,101.562500
7139,101.562500
7140,105.468750
7141,105.468750
7142,105.468750
7143,105.468750
7144,105.468750
7145,105.468750
7146,105.468750
7147,105.468750
7148,109.375000
7149,109.375000
7150,109.375000
7151,109.375000
7152,109.375000
7153,109.375000
7154,109.375000
7155,109.375000
7156,109.375000
7157,113.281250
7158,113.281250
7159,113.281250
7160,113.281250
7161,113.281250
7162,113.281250
7163,113.281250
7164,113.281250
7165,113.281250
7166,113.281250
7167,113.281250
7168,117.187500
7169,117.187500
7170,117.187500
7171,117.187500
7172,117.187500
7173,117.187500
7174,117.187500
7175,117.187500
7176,117.187500
7177,117.187500
7178,121.093750
7179,121.093750
7180,121.093750
7181,121.093750
7182,121.093750
7183,121.093750
7184,121.093750
7185,121.093750
7186,121.093750
7187,121.093750
7188,121.093750
7189,125.000000
7190,121.093750
7191,125.000000
7192,125.000000
7193,125.000000
7194,125.000000
7195,125.000000
7196,125.000000
7197,125.000000
7198,125.000000
7199,125.000000
7200,128.906250
7201,125.000000
7202,125.000000
7203,125.000000
7204,125.000000
7205,125.000000
7206,125.000000
7207,128.906250
7208,128.906250
7209,128.906250
7210,128.906250
7211,128.906250
7212,128.906250
7213,128.906250
7214,128.906250
7215,128.906250
7216,128.906250
7217,128.906250
7218,128.906250
7219,128.906250
7220,128.906250
7221,128.906250
7222,128.906250
7223,128.906250
7224,128.906250
7225,128.906250
7226,128.906250
7227,128.906250
7228,128.906250
7229,128.906250
7230,128.906250
7231,128.906250
7232,128.906250
7233,128.906250
7234,128.906250
7235,132.812500
7236,128.906250
7237,128.906250
7238,132.812500
7239,132.812500
7240,132.812500
7241,128.906250
7242,132.812500
7243,132.812500
7244,132.812500
7245,128.906250
7246,132.812500
7247,132.812500
7248,132.812500
7249,132.812500
7250,132.812500
7251,132.812500
7252,132.812500
7253,132.812500
7254,132.812500
7255,132.812500
7256,132.812500
7257,132.812500
7258,132.812500
7259,132.812500
7260,132.812500
7261,132.812500
7262,132.812500
7263,132.812500
7264,132.812500
7265,128.906250
7266,132.812500
7267,132.812500
7268,132.812500
7269,132.812500
7270,132.812500
7271,132.812500
7272,132.812500
7273,128.906250
7274,132.812500
7275,128.906250
7276,132.812500
7277,128.906250
7278,128.906250
7279,128.906250
7280,128.906250
7281,128.906250
7282,128.906250
7283,128.906250
7284,128.906250
7285,128.906250
7286,128.906250
7287,128.906250
7288,128.906250
7289,128.906250
7290,128.906250
7291,128.906250
7292,128.906250
7293,125.000000
7294,128.906250
7295,125.000000
7296,128.906250
7297,125.000000
7298,128.906250
7299,125.000000
7300,125.000000
7301,125.000000
7302,125.000000
7303,125.000000
7304,125.000000
7305,125.000000
7306,125.000000
7307,125.000000
7308,125.000000
7309,125.000000
7310,125.000000
7311,121.093750
7312,121.093750
7313,121.093750
7314,121.093750
7315,121.093750
7316,121.093750
7317,121.093750
7318,121.093750
7319,121.093750
7320,121.093750
7321,121.093750
7322,121.093750
7323,117.187500
7324,117.187500
7325,117.187500
7326,117.187500
7327,117.187500
7328,117.187500
7329,117.187500
7330,117.187500
7331,117.187500
7332,117.187500
7333,117.187500
7334,117.187500
7335,113.281250
7336,113.281250
7337,113.281250
7338,113.281250
7339,113.281250
7340,113.281250
7341,113.281250
7342,113.281250
7343,109.375000
7344,109.375000
7345,109.375000
7346,109.375000
7347,109.375000
7348,109.375000
7349,109.375000
7350,109.375000
7351,109.375000
7352,109.375000
7353,105.468750
7354,109.375000
7355,105.468750
7356,105.468750
7357,105.468750
7358,105.468750
7359,101.562500
7360,105.468750
7361,101.562500
7362,101.562500
7363,101.562500
7364,101.562500
7365,101.562500
7366,101.562500
7367,101.562500
7368,97.656250
7369,97.656250
7370,97.656250
7371,97.656250
7372,97.656250
7373,97.656250
7374,97.656250
7375,97.656250
7376,93.750000
7377,93.750000
7378,93.750000
7379,93.750000
7380,93.750000
7381,93.750000
7382,89.843750
7383,89.843750
7384,89.843750
7385,89.843750
7386,89.843750
7387,89.843750
7388,89.843750
7389,85.937500
7390,85.937500
7391,85.937500
7392,85.937500
7393,85.937500
7394,82.031250
7395,82.031250
7396,82.031250
7397,82.031250
7398,82.031250
7399,82.031250
7400,78.125000
7401,78.125000
7402,78.125000
7403,78.125000
7404,78.125000
7405,78.125000
7406,74.218750
7407,74.218750
7408,74.218750
7409,74.218750
7410,74.218750
7411,70.312500
7412,70.312500
7413,70.312500
7414,70.312500
7415,70.312500
7416,70.312500
7417,66.406250
7418,66.406250
7419,66.406250
7420,66.406250
7421,62.500000
7422,62.500000
7423,62.500000
7424,62.500000
7425,62.500000
7426,62.500000
7427,58.593750
7428,58.593750
7429,58.593750
7430,58.593750
7431,54.687500
7432,54.687500
7433,54.687500
7434,54.687500
7435,54.687500
7436,54.687500
7437,50.781250
7438,50.781250
7439,50.781250
7440,50.781250
7441,46.875000
7442,46.875000
7443,46.875000
7444,46.875000
7445,46.875000
7446,42.968750
7447,42.968750
7448,42.968750
7449,42.968750
7450,42.968750
7451,39.062500
7452,39.062500
7453,39.062500
7454,39.062500
7455,35.156250
7456,35.156250
7457,35.156250
7458,35.156250
7459,31.250000
7460,31.250000
7461,31.250000
7462,31.250000
7463,31.250000
7464,27.343750
7465,27.343750
7466,27.343750
7467,23.437500
7468,23.437500
7469,23.437500
7470,23.437500
7471,23.437500
7472,23.437500
7473,19.531250
7474,19.531250
7475,19.531250
7476,19.531250
7477,15.625000
7478,15.625000
7479,15.625000
7480,15.625000
7481,11.718750
7482,11.718750
7483,11.718750
7484,11.718750
7485,7.812500
7486,7.812500
7487,7.812500
7488,7.812500
7489,3.906250
7490,3.906250
7491,3.906250
7492,3.906250
7493,0.000000
7494,0.000000
7495,0.000000
7496,0.000000
7497,-3.906250
7498,-3.906250
7499,-3.906250
7500,-3.906250
7501,-7.812500
7502,-7.812500
7503,-7.812500
7504,-11.718750
7505,-11.718750
7506,-11.718750
7507,-11.718750
7508,-11.718750
7509,-15.625000
7510,-15.625000
7511,-15.625000
7512,-15.625000
7513,-19.531250
7514,-19.531250
7515,-19.531250
7516,-19.531250
7517,-23.437500
7518,-23.437500
7519,-23.437500
7520,-23.437500
7521,-27.343750
7522,-27.343750
7523,-27.343750
7524,-27.343750
7525,-27.343750
7526,-31.250000
7527,-31.250000
7528,-31.250000
7529,-35.156250
7530,-35.156250
7531,-35.156250
7532,-35.156250
7533,-39.062500
7534,-39.062500
7535,-39.062500
7536,-39.062500
7537,-39.062500
7538,-42.968750
7539,-42.968750
7540,-42.968750
7541,-46.875000
7542,-46.875000
7543,-46.875000
7544,-46.875000
7545,-50.781250
7546,-50.781250
7547,-50.781250
7548,-50.781250
7549,-50.781250
7550,-54.687500
7551,-54.687500
7552,-54.687500
7553,-54.687500
7554,-58.593750
7555,-58.593750
7556,-58.593750
7557,-58.593750
7558,-58.593750
7559,-62.500000
7560,-62.500000
7561,-66.406250
7562,-66.406250
7563,-66.406250
7564,-66.406250
7565,-70.312500
7566,-70.312500
7567,-70.312500
7568,-70.312500
7569,-70.312500
7570,-74.218750
7571,-74.218750
7572,-74.218750
7573,-74.218750
7574,-78.125000
7575,-78.125000
7576,-78.125000
7577,-78.125000
7578,-78.125000
7579,-82.031250
7580,-82.031250
7581,-82.031250
7582,-82.031250
7583,-85.937500
7584,-85.937500
7585,-85.937500
7586,-85.937500
7587,-85.937500
7588,-89.843750
7589,-89.843750
7590,-89.843750
7591,-93.750000
7592,-93.750000
7593,-93.750000
7594,-93.750000
7595,-93.750000
7596,-97.656250
7597,-97.656250
7598,-97.656250
7599,-97.656250
7600,-101.562500
7601,-101.562500
7602,-101.562500
7603,-101.562500
7604,-105.468750
7605,-105.468750
7606,-105.468750
7607,-105.468750
7608,-105.468750
7609,-105.468750
7610,-105.468750
7611,-109.375000
7612,-109.375000
7613,-109.375000
7614,-109.375000
7615,-113.281250
7616,-113.281250
7617,-113.281250
7618,-113.281250
7619,-113.281250
7620,-117.187500
7621,-117.187500
7622,-117.187500
7623,-117.187500
7624,-121.093750
7625,-121.093750
7626,-121.093750
7627,-121.093750
7628,-121.093750
7629,-121.093750
7630,-121.093750
7631,-125.000000
7632,-125.000000
7633,-125.000000
7634,-125.000000
7635,-125.000000
7636,-125.000000
7637,-128.906250
7638,-128.906250
7639,-128.906250
7640,-128.906250
7641,-132.812500
7642,-132.812500
7643,-132.812500
7644,-132.812500
7645,-132.812500
7646,-132.812500
7647,-132.812500
7648,-136.718750
7649,-136.718750
7650,-136.718750
7651,-136.718750
7652,-136.718750
7653,-140.625000
7654,-140.625000
7655,-140.625000
7656,-140.625000
7657,-140.625000
7658,-140.625000
7659,-140.625000
7660,-144.531250
7661,-144.531250
7662,-144.531250
7663,-144.531250
7664,-144.531250
7665,-144.531250
7666,-144.531250
7667,-144.531250
7668,-144.531250
7669,-148.437500
7670,-148.437500
7671,-148.437500
7672,-148.437500
7673,-148.437500
7674,-148.437500
7675,-148.437500
7676,-148.437500
7677,-152.343750
7678,-152.343750
7679,-152.343750
7680,-152.343750
7681,-152.343750
7682,-152.343750
7683,-152.343750
7684,-152.343750
7685,-152.343750
7686,-156.250000
7687,-156.250000
7688,-156.250000
7689,-156.250000
7690,-156.250000
7691,-156.250000
7692,-156.250000
7693,-156.250000
7694,-156.250000
7695,-160.156250
7696,-160.156250
7697,-160.156250
7698,-160.156250
7699,-160.156250
7700,-160.156250
7701,-160.156250
7702,-160.156250
7703,-160.156250
7704,-160.156250
7705,-160.156250
7706,-160.156250
7707,-160.156250
7708,-160.156250
7709,-164.062500
7710,-164.062500
7711,-164.062500
7712,-164.062500
7713,-164.062500
7714,-160.156250
7715,-164.062500
7716,-164.062500
7717,-164.062500
7718,-164.062500
7719,-164.062500
7720,-164.062500
7721,-167.968750
7722,-164.062500
7723,-164.062500
7724,-167.968750
7725,-164.062500
7726,-164.062500
7727,-167.968750
7728,-164.062500
7729,-167.968750
7730,-167.968750
7731,-167.968750
7732,-167.968750
7733,-167.968750
7734,-164.062500
7735,-167.968750
7736,-167.968750
7737,-167.968750
7738,-167.968750
7739,-167.968750
7740,-167.968750
7741,-167.968750
7742,-167.968750
7743,-167.968750
7744,-167.968750
7745,-167.968750
7746,-167.968750
7747,-167.968750
7748,-167.968750
7749,-167.968750
7750,-167.968750
7751,-167.968750
7752,-167.968750
7753,-167.968750
7754,-167.968750
7755,-167.968750
7756,-167.968750
7757,-167.968750
7758,-164.062500
7759,-167.968750
7760,-167.968750
7761,-167.968750
7762,-167.968750
7763,-167.968750
7764,-164.062500
7765,-164.062500
7766,-164.062500
7767,-164.062500
7768,-164.062500
7769,-164.062500
7770,-164.062500
7771,-164.062500
7772,-164.062500
7773,-164.062500
7774,-164.062500
7775,-164.062500
7776,-164.062500
7777,-164.062500
7778,-164.062500
7779,-164.062500
7780,-164.062500
7781,-164.062500
7782,-164.062500
7783,-160.156250
7784,-164.062500
7785,-160.156250
7786,-160.156250
7787,-160.156250
7788,-160.156250
7789,-160.156250
7790,-160.156250
7791,-160.156250
7792,-160.156250
7793,-160.156250
7794,-160.156250
7795,-156.250000
7796,-160.156250
7797,-156.250000
7798,-156.250000
7799,-156.250000
7800,-156.250000
7801,-156.250000
7802,-156.250000
7803,-156.250000
7804,-156.250000
7805,-156.250000
7806,-152.343750
7807,-152.343750
7808,-152.343750
7809,-152.343750
7810,-152.343750
7811,-152.343750
7812,-152.343750
7813,-152.343750
7814,-152.343750
7815,-148.437500
7816,-148.437500
7817,-148.437500
7818,-148.437500
7819,-148.437500
7820,-148.437500
7821,-148.437500
7822,-148.437500
7823,-148.437500
7824,-144.531250
7825,-144.531250
7826,-144.531250
7827,-144.531250
7828,-144.531250
7829,-144.531250
7830,-140.625000
7831,-140.625000
7832,-140.625000
7833,-140.625000
7834,-140.625000
7835,-140.625000
7836,-140.625000
7837,-136.718750
7838,-136.718750
7839,-136.718750
7840,-136.718750
7841,-136.718750
7842,-136.718750
7843,-136.718750
7844,-132.812500
7845,-132.812500
7846,-132.812500
7847,-132.812500
7848,-132.812500
7849,-132.812500
7850,-128.906250
7851,-128.906250
7852,-128.906250
7853,-128.906250
7854,-128.906250
7855,-125.000000
7856,-125.000000
7857,-125.000000
7858,-125.000000
7859,-125.000000
7860,-125.000000
7861,-121.093750
7862,-121.093750
7863,-121.093750
7864,-121.093750
7865,-121.093750
7866,-117.187500
7867,-117.187500
7868,-117.187500
7869,-117.187500
7870,-117.187500
7871,-117.187500
7872,-113.281250
7873,-113.281250
7874,-113.281250
7875,-113.281250
7876,-113.281250
7877,-109.375000
7878,-109.375000
7879,-109.375000
7880,-109.375000
7881,-109.375000
7882,-105.468750
7883,-105.468750
7884,-105.468750
7885,-105.468750
7886,-101.562500
7887,-101.562500
7888,-101.562500
7889,-101.562500
7890,-101.562500
7891,-97.656250
7892,-97.656250
7893,-97.656250
7894,-97.656250
7895,-97.656250
7896,-93.750000
7897,-93.750000
7898,-93.750000
7899,-93.750000
7900,-89.843750
7901,-89.843750
7902,-89.843750
7903,-89.843750
7904,-85.937500
7905,-85.937500
7906,-85.937500
7907,-85.937500
7908,-82.031250
7909,-82.031250
7910,-82.031250
7911,-82.031250
7912,-82.031250
7913,-78.125000
7914,-78.125000
7915,-78.125000
7916,-78.125000
7917,-74.218750
7918,-74.218750
7919,-78.125000
7920,-74.218750
7921,-70.312500
7922,-70.312500
7923,-70.312500
7924,-66.406250
7925,-70.312500
7926,-66.406250
7927,-66.406250
7928,-66.406250
7929,-66.406250
7930,-62.500000
7931,-62.500000
7932,-62.500000
7933,-62.500000
7934,-58.593750
7935,-58.593750
7936,-58.593750
7937,-54.687500
7938,-54.687500
7939,-54.687500
7940,-54.687500
7941,-54.687500
7942,-50.781250
7943,-50.781250
7944,-50.781250
7945,-46.875000
7946,-46.875000
7947,-46.875000
7948,-46.875000
7949,-46.875000
7950,-42.968750
7951,-42.968750
7952,-42.968750
7953,-39.062500
7954,-39.062500
7955,-39.062500
7956,-39.062500
7957,-39.062500
7958,-35.156250
7959,-35.156250
7960,-35.156250
7961,-35.156250
7962,-31.250000
7963,-31.250000
7964,-31.250000
7965,-31.250000
7966,-27.343750
7967,-27.343750
7968,-27.343750
7969,-23.437500
7970,-23.437500
7971,-23.437500
7972,-23.437500
7973,-23.437500
7974,-19.531250
7975,-19.531250
7976,-19.531250
7977,-19.531250
7978,-15.625000
7979,-15.625000
7980,-15.625000
7981,-11.718750
7982,-11.718750
7983,-11.718750
7984,-11.718750
7985,-11.718750
7986,-7.812500
7987,-7.812500
7988,-7.812500
7989,-3.906250
7990,-3.906250
7991,-3.906250
7992,-3.906250
7993,-3.906250
7994,0.000000
7995,0.000000
7996,0.000000
7997,0.000000
7998,3.906250
7999,3.906250
8000,3.906250
8001,3.906250
8002,7.812500
8003,7.812500
8004,7.812500
8005,7.812500
8006,11.718750
8007,11.718750
8008,11.718750
8009,11.718750
8010,11.718750
8011,11.718750
8012,15.625000
8013,15.625000
8014,15.625000
8015,19.531250
8016,19.531250
8017,19.531250
8018,19.531250
8019,23.437500
8020,23.437500
8021,23.437500
8022,23.437500
8023,27.343750
8024,27.343750
8025,27.343750
8026,27.343750
8027,31.250000
8028,31.250000
8029,31.250000
8030,31.250000
8031,31.250000
8032,35.156250
8033,35.156250
8034,35.156250
8035,35.156250
8036,35.156250
8037,39.062500
8038,39.062500
8039,39.062500
8040,39.062500
8041,42.968750
8042,42.968750
8043,42.968750
8044,42.968750
8045,42.968750
8046,46.875000
8047,46.875000
8048,46.875000
8049,46.875000
8050,50.781250
8051,50.781250
8052,50.781250
8053,54.687500
8054,54.687500
8055,54.687500
8056,54.687500
8057,54.687500
8058,54.687500
8059,54.687500
8060,58.593750
8061,58.593750
8062,58.593750
8063,58.593750
8064,62.500000
8065,62.500000
8066,62.500000
8067,62.500000
8068,62.500000
8069,66.406250
8070,66.406250
8071,66.406250
8072,66.406250
8073,66.406250
8074,70.312500
8075,70.312500
8076,70.312500
8077,70.312500
8078,70.312500
8079,70.312500
8080,74.218750
8081,74.218750
8082,74.218750
8083,74.218750
8084,74.218750
8085,78.125000
8086,78.125000
8087,78.125000
8088,78.125000
8089,78.125000
8090,78.125000
8091,82.031250
8092,82.031250
8093,82.031250
8094,82.031250
8095,82.031250
8096,82.031250
8097,85.937500
8098,85.937500
8099,85.937500
8100,85.937500
8101,85.937500
8102,85.937500
8103,89.843750
8104,89.843750
8105,89.843750
8106,89.843750
8107,89.843750
8108,89.843750
8109,93.750000
8110,93.750000
8111,93.750000
8112,93.750000
8113,93.750000
8114,93.750000
8115,93.750000
8116,93.750000
8117,97.656250
8118,97.656250
8119,97.656250
8120,97.656250
8121,97.656250
8122,97.656250
8123,97.656250
8124,101.562500
8125,101.562500
8126,101.562500
8127,101.562500
8128,101.562500
8129,101.562500
8130,101.562500
8131,101.562500
8132,105.468750
8133,105.468750
8134,105.468750
8135,105.468750
8136,105.468750
8137,105.468750
8138,105.468750
8139,105.468750
8140,109.375000
8141,109.375000
8142,109.375000
8143,109.375000
8144,109.375000
8145,109.375000
8146,109.375000
8147,109.375000
8148,109.375000
8149,113.281250
8150,113.281250
8151,113.281250
8152,113.281250
8153,113.281250
8154,113.281250
8155,113.281250
8156,117.187500
8157,113.281250
8158,117.187500
8159,117.187500
8160,117.187500
8161,117.187500
8162,117.187500
8163,117.187500
8164,117.187500
8165,117.187500
8166,117.187500
8167,121.093750
8168,121.093750
8169,121.093750
8170,121.093750
8171,121.093750
8172,121.093750
8173,121.093750
8174,121.093750
8175,121.093750
8176,121.093750
8177,121.093750
8178,121.093750
8179,121.093750
8180,125.000000
8181,125.000000
8182,125.000000
8183,125.000000
8184,125.000000
8185,125.000000
8186,125.000000
8187,125.000000
8188,125.000000
8189,125.000000
8190,125.000000
8191,125.000000
8192,125.000000
8193,125.000000
8194,128.906250
8195,128.906250
8196,128.906250
8197,128.906250
8198,128.906250
8199,128.906250
8200,128.906250
8201,128.906250
8202,128.906250
8203,128.906250
8204,128.906250
8205,128.906250
8206,128.906250
8207,128.906250
8208,128.906250
8209,128.906250
8210,128.906250
8211,128.906250
8212,128.906250
8213,128.906250
8214,128.906250
8215,128.906250
8216,132.812500
8217,128.906250
8218,128.906250
8219,128.906250
8220,132.812500
8221,128.906250
8222,128.906250
8223,132.812500
8224,132.812500
8225,128.906250
8226,132.812500
8227,132.812500
8228,132.812500
8229,128.906250
8230,132.812500
8231,132.812500
8232,132.812500
8233,132.812500
8234,132.812500
8235,132.812500
8236,132.812500
8237,132.812500
8238,132.812500
8239,132.812500
8240,132.812500
8241,128.906250
8242,132.812500
8243,132.812500
8244,132.812500
8245,132.812500
8246,132.812500
8247,132.812500
8248,132.812500
8249,128.906250
8250,128.906250
8251,128.906250
8252,132.812500
8253,128.906250
8254,132.812500
8255,132.812500
8256,132.812500
8257,132.812500
8258,128.906250
8259,128.906250
8260,128.906250
8261,128.906250
8262,128.906250
8263,128.906250
8264,128.906250
8265,128.906250
8266,128.906250
8267,128.906250
8268,128.906250
8269,128.906250
8270,128.906250
8271,128.906250
8272,128.906250
8273,128.906250
8274,128.906250
8275,128.906250
8276,128.906250
8277,128.906250
8278,128.906250
8279,128.906250
8280,128.906250
8281,128.906250
8282,128.906250
8283,128.906250
8284,128.906250
8285,128.906250
8286,125.000000
8287,125.000000
8288,125.000000
8289,125.000000
8290,125.000000
8291,125.000000
8292,125.000000
8293,125.000000
8294,125.000000
8295,125.000000
8296,125.000000
8297,125.000000
8298,125.000000
8299,125.000000
8300,125.000000
8301,121.093750
8302,121.093750
8303,121.093750
8304,121.093750
8305,121.093750
8306,121.093750
8307,121.093750
8308,121.093750
8309,121.093750
8310,121.093750
8311,121.093750
8312,121.093750
8313,117.187500
8314,117.187500
8315,121.093750
8316,117.187500
8317,117.187500
8318,117.187500
8319,117.187500
8320,117.187500
8321,117.187500
8322,117.187500
8323,117.187500
8324,117.187500
8325,117.187500
8326,113.281250
8327,113.281250
8328,113.281250
8329,113.281250
8330,113.281250
8331,113.281250
8332,113.281250
8333,113.281250
8334,113.281250
8335,109.375000
8336,109.375000
8337,109.375000
8338,109.375000
8339,109.375000
8340,109.375000
8341,109.375000
8342,109.375000
8343,105.468750
8344,105.468750
8345,105.468750
8346,105.468750
8347,105.468750
8348,105.468750
8349,105.468750
8350,105.468750
8351,101.562500
8352,101.562500
8353,101.562500
8354,101.562500
8355,101.562500
8356,101.562500
8357,101.562500
8358,101.562500
8359,97.656250
8360,97.656250
8361,97.656250
8362,97.656250
8363,97.656250
8364,97.656250
8365,93.750000
8366,93.750000
8367,93.750000
8368,93.750000
8369,93.750000
8370,93.750000
8371,93.750000
8372,93.750000
8373,89.843750
8374,89.843750
8375,89.843750
8376,89.843750
8377,89.843750
8378,85.937500
8379,85.937500
8380,85.937500
8381,85.937500
8382,85.937500
8383,85.937500
8384,85.937500
8385,82.031250
8386,82.031250
8387,82.031250
8388,82.031250
8389,82.031250
8390,78.125000
8391,78.125000
8392,78.125000
8393,78.125000
8394,78.125000
8395,74.218750
8396,74.218750
8397,74.218750
8398,74.218750
8399,74.218750
8400,74.218750
8401,70.312500
8402,70.312500
8403,70.312500
8404,70.312500
8405,70.312500
8406,70.312500
8407,66.406250
8408,66.406250
8409,66.406250
8410,66.406250
8411,66.406250
8412,62.500000
8413,62.500000
8414,62.500000
8415,62.500000
8416,58.593750
8417,58.593750
8418,58.593750
8419,58.593750
8420,58.593750
8421,58.593750
8422,58.593750
8423,54.687500
8424,54.687500
8425,54.687500
8426,54.687500
8427,50.781250
8428,50.781250
8429,50.781250
8430,50.781250
8431,50.781250
8432,46.875000
8433,46.875000
8434,46.875000
8435,46.875000
8436,42.968750
8437,42.968750
8438,42.968750
8439,42.968750
8440,42.968750
8441,39.062500
8442,39.062500
8443,39.062500
8444,39.062500
8445,35.156250
8446,35.156250
8447,35.156250
8448,35.156250
8449,31.250000
8450,31.250000
8451,31.250000
8452,31.250000
8453,31.250000
8454,27.343750
8455,27.343750
8456,27.343750
8457,27.343750
8458,27.343750
8459,23.437500
8460,23.437500
8461,23.437500
8462,23.437500
8463,19.531250
8464,19.531250
8465,19.531250
8466,15.625000
8467,15.625000
8468,15.625000
8469,15.625000
8470,15.625000
8471,11.718750
8472,11.718750
8473,11.718750
8474,11.718750
8475,7.812500
8476,7.812500
8477,7.812500
8478,7.812500
8479,3.906250
8480,3.906250
8481,3.906250
8482,3.906250
8483,0.000000
8484,0.000000
8485,0.000000
8486,0.000000
8487,-3.906250
8488,-3.906250
8489,-3.906250
8490,-3.906250
8491,-7.812500
8492,-7.812500
8493,-7.812500
8494,-7.812500
8495,-11.718750
8496,-11.718750
8497,-11.718750
8498,-11.718750
8499,-15.625000
8500,-15.625000
8501,-15.625000
8502,-15.625000
8503,-19.531250
8504,-19.531250
8505,-19.531250
8506,-19.531250
8507,-19.531250
8508,-23.437500
8509,-23.437500
8510,-23.437500
8511,-27.343750
8512,-27.343750
8513,-27.343750
8514,-27.343750
8515,-31.250000
8516,-31.250000
8517,-31.250000
8518,-35.156250
8519,-35.156250
8520,-35.156250
8521,-35.156250
8522,-39.062500
8523,-39.062500
8524,-39.062500
8525,-39.062500
8526,-42.968750
8527,-42.968750
8528,-42.968750
8529,-42.968750
8530,-46.875000
8531,-46.875000
8532,-46.875000
8533,-46.875000
8534,-50.781250
8535,-50.781250
8536,-50.781250
8537,-50.781250
8538,-54.687500
8539,-54.687500
8540,-54.687500
8541,-54.687500
8542,-54.687500
8543,-58.593750
8544,-58.593750
8545,-58.593750
8546,-58.593750
8547,-62.500000
8548,-62.500000
8549,-62.500000
8550,-62.500000
8551,-62.500000
8552,-66.406250
8553,-66.406250
8554,-66.406250
8555,-66.406250
8556,-70.312500
8557,-70.312500
8558,-70.312500
8559,-74.218750
8560,-74.218750
8561,-74.218750
8562,-74.218750
8563,-74.218750
8564,-78.125000
8565,-78.125000
8566,-78.125000
8567,-78.125000
8568,-82.031250
8569,-82.031250
8570,-82.031250
8571,-82.031250
8572,-82.031250
8573,-85.937500
8574,-85.937500
8575,-85.937500
8576,-85.937500
8577,-89.843750
8578,-89.843750
8579,-89.843750
8580,-89.843750
8581,-93.750000
8582,-93.750000
8583,-93.750000
8584,-93.750000
8585,-93.750000
8586,-97.656250
8587,-97.656250
8588,-97.656250
8589,-97.656250
8590,-101.562500
8591,-101.562500
8592,-101.562500
8593,-101.562500
8594,-101.562500
8595,-101.562500
8596,-105.468750
8597,-105.468750
8598,-105.468750
8599,-105.468750
8600,-109.375000
8601,-109.375000
8602,-109.375000
8603,-109.375000
8604,-109.375000
8605,-113.281250
8606,-113.281250
8607,-113.281250
8608,-113.281250
8609,-117.187500
8610,-117.187500
8611,-117.187500
8612,-117.187500
8613,-117.187500
8614,-117.187500
8615,-121.093750
8616,-121.093750
8617,-121.093750
8618,-121.093750
8619,-121.093750
8620,-125.000000
8621,-125.000000
8622,-125.000000
8623,-125.000000
8624,-125.000000
8625,-128.906250
8626,-128.906250
8627,-128.906250
8628,-128.906250
8629,-128.906250
8630,-128.906250
8631,-128.906250
8632,-132.812500
8633,-132.812500
8634,-132.812500
8635,-132.812500
8636,-132.812500
8637,-132.812500
8638,-136.718750
8639,-136.718750
8640,-136.718750
8641,-136.718750
8642,-136.718750
8643,-140.625000
8644,-140.625000
8645,-140.625000
8646,-140.625000
8647,-140.625000
8648,-140.625000
8649,-140.625000
8650,-140.625000
8651,-144.531250
8652,-144.531250
8653,-144.531250
8654,-144.531250
8655,-144.531250
8656,-144.531250
8657,-148.437500
8658,-148.437500
8659,-148.437500
8660,-148.437500
8661,-148.437500
8662,-148.437500
8663,-148.437500
8664,-148.437500
8665,-152.343750
8666,-152.343750
8667,-152.343750
8668,-152.343750
8669,-152.343750
8670,-152.343750
8671,-152.343750
8672,-152.343750
8673,-152.343750
8674,-152.343750
8675,-152.343750
8676,-156.250000
8677,-156.250000
8678,-156.250000
8679,-156.250000
8680,-156.250000
8681,-156.250000
8682,-156.250000
8683,-156.250000
8684,-156.250000
8685,-156.250000
8686,-160.156250
8687,-160.156250
8688,-160.156250
8689,-160.156250
8690,-160.156250
8691,-160.156250
8692,-160.156250
8693,-160.156250
8694,-160.156250
8695,-160.156250
8696,-164.062500
8697,-160.156250
8698,-160.156250
8699,-164.062500
8700,-164.062500
8701,-164.062500
8702,-164.062500
8703,-164.062500
8704,-164.062500
8705,-164.062500
8706,-164.062500
8707,-164.062500
8708,-164.062500
8709,-164.062500
8710,-164.062500
8711,-164.062500
8712,-164.062500
8713,-164.062500
8714,-164.062500
8715,-164.062500
8716,-164.062500
8717,-164.062500
8718,-164.062500
8719,-164.062500
8720,-164.062500
8721,-164.062500
8722,-164.062500
8723,-164.062500
8724,-164.062500
8725,-167.968750
8726,-167.968750
8727,-167.968750
8728,-164.062500
8729,-167.968750
8730,-167.968750
8731,-167.968750
8732,-167.968750
8733,-167.968750
8734,-164.062500
8735,-167.968750
8736,-167.968750
8737,-167.968750
8738,-167.968750
8739,-167.968750
8740,-167.968750
8741,-167.968750
8742,-167.968750
8743,-167.968750
8744,-164.062500
8745,-167.968750
8746,-167.968750
8747,-164.062500
8748,-167.968750
8749,-167.968750
8750,-164.062500
8751,-164.062500
8752,-164.062500
8753,-164.062500
8754,-164.062500
8755,-164.062500
8756,-164.062500
8757,-164.062500
8758,-164.062500
8759,-164.062500
8760,-164.062500
8761,-164.062500
8762,-164.062500
8763,-164.062500
8764,-164.062500
8765,-164.062500
8766,-164.062500
8767,-164.062500
8768,-164.062500
8769,-164.062500
8770,-164.062500
8771,-164.062500
8772,-164.062500
8773,-164.062500
8774,-160.156250
8775,-160.156250
8776,-160.156250
8777,-160.156250
8778,-160.156250
8779,-160.156250
8780,-160.156250
8781,-160.156250
8782,-160.156250
8783,-160.156250
8784,-160.156250
8785,-160.156250
8786,-156.250000
8787,-156.250000
8788,-156.250000
8789,-156.250000
8790,-156.250000
8791,-156.250000
8792,-156.250000
8793,-156.250000
8794,-156.250000
8795,-156.250000
8796,-156.250000
8797,-152.343750
8798,-152.343750
8799,-152.343750
8800,-152.343750
8801,-152.343750
8802,-152.343750
8803,-152.343750
8804,-152.343750
8805,-148.437500
8806,-148.437500
8807,-152.343750
8808,-148.437500
8809,-148.437500
8810,-148.437500
8811,-148.437500
8812,-144.531250
8813,-144.531250
8814,-144.531250
8815,-144.531250
8816,-144.531250
8817,-144.531250
8818,-144.531250
8819,-144.531250
8820,-144.531250
8821,-140.625000
8822,-140.625000
8823,-140.625000
8824,-140.625000
8825,-140.625000
8826,-136.718750
8827,-136.718750
8828,-136.718750
8829,-136.718750
8830,-136.718750
8831,-136.718750
8832,-136.718750
8833,-132.812500
8834,-132.812500
8835,-132.812500
8836,-132.812500
8837,-132.812500
8838,-132.812500
8839,-128.906250
8840,-128.906250
8841,-128.906250
8842,-128.906250
8843,-128.906250
8844,-125.000000
8845,-125.000000
8846,-125.000000
8847,-125.000000
8848,-125.000000
8849,-125.000000
8850,-121.093750
8851,-121.093750
8852,-121.093750
8853,-121.093750
8854,-121.093750
8855,-117.187500
8856,-117.187500
8857,-117.187500
8858,-117.187500
8859,-117.187500
8860,-113.281250
8861,-113.281250
8862,-113.281250
8863,-113.281250
8864,-113.281250
8865,-109.375000
8866,-109.375000
8867,-109.375000
8868,-109.375000
8869,-109.375000
8870,-105.468750
8871,-105.468750
8872,-105.468750
8873,-105.468750
8874,-105.468750
8875,-101.562500
8876,-101.562500
8877,-101.562500
8878,-101.562500
8879,-101.562500
8880,-97.656250
8881,-97.656250
8882,-97.656250
8883,-97.656250
8884,-97.656250
8885,-93.750000
8886,-93.750000
8887,-93.750000
8888,-93.750000
8889,-93.750000
8890,-89.843750
8891,-89.843750
8892,-89.843750
8893,-89.843750
8894,-85.937500
8895,-85.937500
8896,-85.937500
8897,-85.937500
8898,-85.937500
8899,-82.031250
8900,-82.031250
8901,-82.031250
8902,-78.125000
8903,-78.125000
8904,-78.125000
8905,-78.125000
8906,-78.125000
8907,-78.125000
8908,-74.218750
8909,-74.218750
8910,-74.218750
8911,-70.312500
8912,-70.312500
8913,-70.312500
8914,-70.312500
8915,-70.312500
8916,-66.406250
8917,-66.406250
8918,-66.406250
8919,-66.406250
8920,-62.500000
8921,-62.500000
8922,-62.500000
8923,-58.593750
8924,-58.593750
8925,-58.593750
8926,-58.593750
8927,-58.593750
8928,-54.687500
8929,-54.687500
8930,-54.687500
8931,-50.781250
8932,-50.781250
8933,-50.781250
8934,-50.781250
8935,-50.781250
8936,-46.875000
8937,-46.875000
8938,-46.875000
8939,-46.875000
8940,-42.968750
8941,-42.968750
8942,-42.968750
8943,-42.968750
8944,-39.062500
8945,-39.062500
8946,-39.062500
8947,-39.062500
8948,-35.156250
8949,-35.156250
8950,-35.156250
8951,-31.250000
8952,-31.250000
8953,-31.250000
8954,-31.250000
8955,-31.250000
8956,-27.343750
8957,-27.343750
8958,-27.343750
8959,-27.343750
8960,-23.437500
8961,-23.437500
8962,-23.437500
8963,-19.531250
8964,-19.531250
8965,-19.531250
8966,-19.531250
8967,-19.531250
8968,-15.625000
8969,-15.625000
8970,-15.625000
8971,-11.718750
8972,-11.718750
8973,-11.718750
8974,-11.718750
8975,-7.812500
8976,-7.812500
8977,-7.812500
8978,-7.812500
8979,-3.906250
8980,-3.906250
8981,-3.906250
8982,-3.906250
8983,0.000000
8984,0.000000
8985,0.000000
8986,0.000000
8987,3.906250
8988,3.906250
8989,3.906250
8990,3.906250
8991,7.812500
8992,7.812500
8993,7.812500
8994,7.812500
8995,7.812500
8996,11.718750
8997,11.718750
8998,11.718750
8999,11.718750
9000,15.625000
9001,15.625000
9002,15.625000
9003,15.625000
9004,19.531250
9005,19.531250
9006,19.531250
9007,19.531250
9008,23.437500
9009,23.437500
9010,23.437500
9011,23.437500
9012,23.437500
9013,27.343750
9014,27.343750
9015,27.343750
9016,27.343750
9017,31.250000
9018,31.250000
9019,31.250000
9020,31.250000
9021,31.250000
9022,35.156250
9023,35.156250
9024,35.156250
9025,35.156250
9026,39.062500
9027,39.062500
9028,39.062500
9029,39.062500
9030,42.968750
9031,42.968750
9032,42.968750
9033,42.968750
9034,42.968750
9035,46.875000
9036,46.875000
9037,46.875000
9038,46.875000
9039,46.875000
9040,50.781250
9041,50.781250
9042,50.781250
9043,50.781250
9044,50.781250
9045,54.687500
9046,54.687500
9047,54.687500
9048,54.687500
9049,58.593750
9050,58.593750
9051,58.593750
9052,58.593750
9053,58.593750
9054,62.500000
9055,62.500000
9056,62.500000
9057,62.500000
9058,62.500000
9059,62.500000
9060,66.406250
9061,66.406250
9062,66.406250
9063,70.312500
9064,70.312500
9065,70.312500
9066,70.312500
9067,70.312500
9068,70.312500
9069,70.312500
9070,74.218750
9071,74.218750
9072,74.218750
9073,74.218750
9074,74.218750
9075,74.218750
9076,78.125000
9077,78.125000
9078,78.125000
9079,78.125000
9080,82.031250
9081,82.031250
9082,82.031250
9083,82.031250
9084,82.031250
9085,82.031250
9086,85.937500
9087,85.937500
9088,85.937500
9089,85.937500
9090,85.937500
9091,85.937500
9092,89.843750
9093,89.843750
9094,89.843750
9095,89.843750
9096,89.843750
9097,89.843750
9098,89.843750
9099,93.750000
9100,93.750000
9101,93.750000
9102,93.750000
9103,93.750000
9104,93.750000
9105,97.656250
9106,97.656250
9107,97.656250
9108,97.656250
9109,97.656250
9110,97.656250
9111,101.562500
9112,101.562500
9113,101.562500
9114,101.562500
9115,101.562500
9116,101.562500
9117,101.562500
9118,101.562500
9119,101.562500
9120,105.468750
9121,105.468750
9122,105.468750
9123,105.468750
9124,105.468750
9125,105.468750
9126,105.468750
9127,105.468750
9128,109.375000
9129,109.375000
9130,109.375000
9131,109.375000
9132,109.375000
9133,109.375000
9134,109.375000
9135,109.375000
9136,109.375000
9137,109.375000
9138,113.281250
9139,113.281250
9140,113.281250
9141,113.281250
9142,113.281250
9143,113.281250
9144,113.281250
9145,113.281250
9146,117.187500
9147,113.281250
9148,117.187500
9149,117.187500
9150,117.187500
9151,117.187500
9152,117.187500
9153,117.187500
9154,117.187500
9155,117.187500
9156,117.187500
9157,117.187500
9158,121.093750
9159,121.093750
9160,121.093750
9161,121.093750
9162,121.093750
9163,121.093750
9164,121.093750
9165,121.093750
9166,121.093750
9167,121.093750
9168,121.093750
9169,121.093750
9170,125.000000
9171,125.000000
9172,125.000000
9173,125.000000
9174,125.000000
9175,125.000000
9176,125.000000
9177,125.000000
9178,125.000000
9179,125.000000
9180,125.000000
9181,125.000000
9182,125.000000
9183,125.000000
9184,128.906250
9185,125.000000
9186,128.906250
9187,128.906250
9188,128.906250
9189,128.906250
9190,128.906250
9191,128.906250
9192,128.906250
9193,128.906250
9194,128.906250
9195,128.906250
9196,128.906250
9197,128.906250
9198,128.906250
9199,128.906250
9200,128.906250
9201,128.906250
9202,132.812500
9203,128.906250
9204,128.906250
9205,128.906250
9206,128.906250
9207,128.906250
9208,132.812500
9209,128.906250
9210,132.812500
9211,128.906250
9212,132.812500
9213,128.906250
9214,132.812500
9215,132.812500
9216,132.812500
9217,132.812500
9218,132.812500
9219,132.812500
9220,132.812500
9221,132.812500
9222,132.812500
9223,128.906250
9224,132.812500
9225,128.906250
9226,132.812500
9227,132.812500
9228,132.812500
9229,132.812500
9230,132.812500
9231,132.812500
9232,132.812500
9233,132.812500
9234,132.812500
9235,132.812500
9236,132.812500
9237,132.812500
9238,132.812500
9239,132.812500
9240,132.812500
9241,132.812500
9242,132.812500
9243,132.812500
9244,132.812500
9245,132.812500
9246,132.812500
9247,128.906250
9248,132.812500
9249,128.906250
9250,132.812500
9251,132.812500
9252,132.812500
9253,128.906250
9254,128.906250
9255,128.906250
9256,128.906250
9257,128.906250
9258,128.906250
9259,128.906250
9260,132.812500
9261,128.906250
9262,128.906250
9263,128.906250
9264,128.906250
9265,128.906250
9266,128.906250
9267,128.906250
9268,128.906250
9269,128.906250
9270,128.906250
9271,128.906250
9272,128.906250
9273,128.906250
9274,128.906250
9275,128.906250
9276,125.000000
9277,125.000000
9278,125.000000
9279,125.000000
9280,125.000000
9281,125.000000
9282,125.000000
9283,125.000000
9284,125.000000
9285,125.000000
9286,125.000000
9287,125.000000
9288,125.000000
9289,121.093750
9290,121.093750
9291,121.093750
9292,121.093750
9293,121.093750
9294,121.093750
9295,125.000000
9296,121.093750
9297,121.093750
9298,121.093750
9299,117.187500
9300,121.093750
9301,121.093750
9302,117.187500
9303,121.093750
9304,121.093750
9305,117.187500
9306,117.187500
9307,117.187500
9308,117.187500
9309,117.187500
9310,117.187500
9311,117.187500
9312,117.187500
9313,117.187500
9314,113.281250
9315,113.281250
9316,113.281250
9317,113.281250
9318,113.281250
9319,113.281250
9320,113.281250
9321,113.281250
9322,113.281250
9323,113.281250
9324,109.375000
9325,109.375000
9326,109.375000
9327,109.375000
9328,109.375000
9329,109.375000
9330,109.375000
9331,109.375000
9332,109.375000
9333,105.468750
9334,105.468750
9335,105.468750
9336,105.468750
9337,105.468750
9338,105.468750
9339,105.468750
9340,105.468750
9341,101.562500
9342,101.562500
9343,101.562500
9344,101.562500
9345,101.562500
9346,101.562500
9347,101.562500
9348,97.656250
9349,97.656250
9350,97.656250
9351,97.656250
9352,97.656250
9353,97.656250
9354,97.656250
9355,93.750000
9356,93.750000
9357,93.750000
9358,93.750000
9359,93.750000
9360,93.750000
9361,89.843750
9362,89.843750
9363,89.843750
9364,89.843750
9365,89.843750
9366,89.843750
9367,89.843750
9368,89.843750
9369,85.937500
9370,85.937500
9371,85.937500
9372,85.937500
9373,85.937500
9374,85.937500
9375,82.031250
9376,82.031250
9377,82.031250
9378,82.031250
9379,82.031250
9380,82.031250
9381,78.125000
9382,78.125000
9383,78.125000
9384,78.125000
9385,78.125000
9386,74.218750
9387,74.218750
9388,74.218750
9389,74.218750
9390,74.218750
9391,70.312500
9392,70.312500
9393,70.312500
9394,70.312500
9395,70.312500
9396,66.406250
9397,66.406250
9398,66.406250
9399,66.406250
9400,66.406250
9401,66.406250
9402,66.406250
9403,62.500000
9404,62.500000
9405,62.500000
9406,58.593750
9407,58.593750
9408,58.593750
9409,58.593750
9410,58.593750
9411,54.687500
9412,54.687500
9413,54.687500
9414,54.687500
9415,54.687500
9416,50.781250
9417,50.781250
9418,50.781250
9419,50.781250
9420,50.781250
9421,46.875000
9422,46.875000
9423,46.875000
9424,46.875000
9425,42.968750
9426,42.968750
9427,42.968750
9428,42.968750
9429,42.968750
9430,39.062500
9431,39.062500
9432,39.062500
9433,39.062500
9434,35.156250
9435,35.156250
9436,35.156250
9437,31.250000
9438,31.250000
9439,31.250000
9440,31.250000
9441,31.250000
9442,31.250000
9443,27.343750
9444,27.343750
9445,27.343750
9446,27.343750
9447,23.437500
9448,23.437500
9449,23.437500
9450,23.437500
9451,23.437500
9452,19.531250
9453,19.531250
9454,19.531250
9455,19.531250
9456,15.625000
9457,15.625000
9458,15.625000
9459,15.625000
9460,11.718750
9461,11.718750
9462,11.718750
9463,11.718750
9464,11.718750
9465,7.812500
9466,7.812500
9467,7.812500
9468,3.906250
9469,3.906250
9470,3.906250
9471,3.906250
9472,0.000000
9473,0.000000
9474,0.000000
9475,0.000000
9476,0.000000
9477,-3.906250
9478,-3.906250
9479,-3.906250
9480,-3.906250
9481,-3.906250
9482,-7.812500
9483,-7.812500
9484,-11.718750
9485,-11.718750
9486,-11.718750
9487,-11.718750
9488,-11.718750
9489,-15.625000
9490,-15.625000
9491,-15.625000
9492,-15.625000
9493,-19.531250
9494,-19.531250
9495,-19.531250
9496,-19.531250
9497,-23.437500
9498,-23.437500
9499,-23.437500
9500,-23.437500
9501,-27.343750
9502,-27.343750
9503,-31.250000
9504,-27.343750
9505,-27.343750
9506,-31.250000
9507,-31.250000
9508,-31.250000
9509,-35.156250
9510,-35.156250
9511,-35.156250
9512,-35.156250
9513,-39.062500
9514,-39.062500
9515,-39.062500
9516,-39.062500
9517,-42.968750
9518,-42.968750
9519,-42.968750
9520,-42.968750
9521,-46.875000
9522,-46.875000
9523,-46.875000
9524,-50.781250
9525,-50.781250
9526,-50.781250
9527,-50.781250
9528,-50.781250
9529,-54.687500
9530,-54.687500
9531,-54.687500
9532,-58.593750
9533,-58.593750
9534,-58.593750
9535,-58.593750
9536,-58.593750
9537,-62.500000
9538,-62.500000
9539,-62.500000
9540,-62.500000
9541,-66.406250
9542,-66.406250
9543,-66.406250
9544,-70.312500
9545,-70.312500
9546,-70.312500
9547,-70.312500
9548,-74.218750
9549,-74.218750
9550,-74.218750
9551,-74.218750
9552,-74.218750
9553,-78.125000
9554,-78.125000
9555,-78.125000
9556,-78.125000
9557,-82.031250
9558,-82.031250
9559,-82.031250
9560,-82.031250
9561,-82.031250
9562,-85.937500
9563,-85.937500
9564,-85.937500
9565,-89.843750
9566,-89.843750
9567,-89.843750
9568,-89.843750
9569,-89.843750
9570,-89.843750
9571,-93.750000
9572,-93.750000
9573,-89.843750
9574,-93.750000
9575,-97.656250
9576,-97.656250
9577,-97.656250
9578,-97.656250
9579,-97.656250
9580,-101.562500
9581,-101.562500
9582,-101.562500
9583,-101.562500
9584,-101.562500
9585,-105.468750
9586,-105.468750
9587,-105.468750
9588,-105.468750
9589,-109.375000
9590,-109.375000
9591,-109.375000
9592,-109.375000
9593,-109.375000
9594,-113.281250
9595,-113.281250
9596,-113.281250
9597,-113.281250
9598,-113.281250
9599,-117.187500
9600,-117.187500
9601,-117.187500
9602,-117.187500
9603,-117.187500
9604,-117.187500
9605,-121.093750
9606,-121.093750
9607,-121.093750
9608,-121.093750
9609,-121.093750
9610,-121.093750
9611,-125.000000
9612,-125.000000
9613,-125.000000
9614,-125.000000
9615,-125.000000
9616,-128.906250
9617,-128.906250
9618,-128.906250
9619,-128.906250
9620,-128.906250
9621,-132.812500
9622,-132.812500
9623,-132.812500
9624,-132.812500
9625,-132.812500
9626,-132.812500
9627,-136.718750
9628,-136.718750
9629,-136.718750
9630,-136.718750
9631,-136.718750
9632,-136.718750
9633,-140.625000
9634,-140.625000
9635,-140.625000
9636,-140.625000
9637,-140.625000
9638,-140.625000
9639,-140.625000
9640,-144.531250
9641,-140.625000
9642,-144.531250
9643,-144.531250
9644,-144.531250
9645,-144.531250
9646,-144.531250
9647,-144.531250
9648,-148.437500
9649,-148.437500
9650,-148.437500
9651,-148.437500
9652,-148.437500
9653,-148.437500
9654,-148.437500
9655,-152.343750
9656,-152.343750
9657,-152.343750
9658,-152.343750
9659,-152.343750
9660,-152.343750
9661,-152.343750
9662,-152.343750
9663,-152.343750
9664,-156.250000
9665,-156.250000
9666,-156.250000
9667,-156.250000
9668,-156.250000
9669,-156.250000
9670,-156.250000
9671,-156.250000
9672,-156.250000
9673,-156.250000
9674,-160.156250
9675,-160.156250
9676,-160.156250
9677,-160.156250
9678,-160.156250
9679,-160.156250
9680,-160.156250
9681,-160.156250
9682,-160.156250
9683,-160.156250
9684,-160.156250
9685,-160.156250
9686,-164.062500
9687,-164.062500
9688,-164.062500
9689,-164.062500
9690,-164.062500
9691,-164.062500
9692,-164.062500
9693,-164.062500
9694,-164.062500
9695,-164.062500
9696,-164.062500
9697,-164.062500
9698,-164.062500
9699,-164.062500
9700,-164.062500
9701,-164.062500
9702,-164.062500
9703,-164.062500
9704,-164.062500
9705,-164.062500
9706,-167.968750
9707,-164.062500
9708,-164.062500
9709,-164.062500
9710,-164.062500
9711,-167.968750
9712,-167.968750
9713,-167.968750
9714,-167.968750
9715,-167.968750
9716,-167.968750
9717,-167.968750
9718,-167.968750
9719,-164.062500
9720,-167.968750
9721,-167.968750
9722,-167.968750
9723,-167.968750
9724,-167.968750
9725,-167.968750
9726,-167.968750
9727,-167.968750
9728,-164.062500
9729,-167.968750
9730,-167.968750
9731,-167.968750
9732,-167.968750
9733,-167.968750
9734,-167.968750
9735,-167.968750
9736,-167.968750
9737,-164.062500
9738,-167.968750
9739,-167.968750
9740,-164.062500
9741,-164.062500
9742,-167.968750
9743,-164.062500
9744,-164.062500
9745,-164.062500
9746,-164.062500
9747,-164.062500
9748,-164.062500
9749,-164.062500
9750,-164.062500
9751,-164.062500
9752,-164.062500
9753,-164.062500
9754,-164.062500
9755,-164.062500
9756,-164.062500
9757,-164.062500
9758,-164.062500
9759,-164.062500
9760,-160.156250
9761,-160.156250
9762,-160.156250
9763,-160.156250
9764,-160.156250
9765,-160.156250
9766,-160.156250
9767,-160.156250
9768,-160.156250
9769,-160.156250
9770,-160.156250
9771,-160.156250
9772,-160.156250
9773,-160.156250
9774,-160.156250
9775,-160.156250
9776,-156.250000
9777,-156.250000
9778,-156.250000
9779,-156.250000
9780,-156.250000
9781,-156.250000
9782,-156.250000
9783,-156.250000
9784,-156.250000
9785,-152.343750
9786,-152.343750
9787,-152.343750
9788,-152.343750
9789,-152.343750
9790,-152.343750
9791,-152.343750
9792,-152.343750
9793,-152.343750
9794,-148.437500
9795,-148.437500
9796,-148.437500
9797,-148.437500
9798,-148.437500
9799,-148.437500
9800,-148.437500
9801,-148.437500
9802,-144.531250
9803,-144.531250
9804,-144.531250
9805,-144.531250
9806,-144.531250
9807,-144.531250
9808,-144.531250
9809,-140.625000
9810,-140.625000
9811,-140.625000
9812,-140.625000
9813,-140.625000
9814,-140.625000
9815,-140.625000
9816,-140.625000
9817,-136.718750
9818,-136.718750
9819,-136.718750
9820,-136.718750
9821,-136.718750
9822,-136.718750
9823,-132.812500
9824,-132.812500
9825,-132.812500
9826,-132.812500
9827,-132.812500
9828,-128.906250
9829,-128.906250
9830,-128.906250
9831,-128.906250
9832,-128.906250
9833,-128.906250
9834,-128.906250
9835,-125.000000
9836,-125.000000
9837,-125.000000
9838,-125.000000
9839,-125.000000
9840,-121.093750
9841,-121.093750
9842,-121.093750
9843,-121.093750
9844,-121.093750
9845,-117.187500
9846,-117.187500
9847,-117.187500
9848,-117.187500
9849,-117.187500
9850,-113.281250
9851,-113.281250
9852,-113.281250
9853,-113.281250
9854,-113.281250
9855,-109.375000
9856,-109.375000
9857,-109.375000
9858,-109.375000
9859,-109.375000
9860,-105.468750
9861,-105.468750
9862,-105.468750
9863,-105.468750
9864,-105.468750
9865,-101.562500
9866,-101.562500
9867,-101.562500
9868,-101.562500
9869,-101.562500
9870,-97.656250
9871,-97.656250
9872,-97.656250
9873,-97.656250
9874,-93.750000
9875,-93.750000
9876,-93.750000
9877,-93.750000
9878,-93.750000
9879,-89.843750
9880,-89.843750
9881,-89.843750
9882,-89.843750
9883,-85.937500
9884,-85.937500
9885,-85.937500
9886,-85.937500
9887,-82.031250
9888,-82.031250
9889,-82.031250
9890,-82.031250
9891,-78.125000
9892,-78.125000
9893,-78.125000
9894,-78.125000
9895,-78.125000
9896,-74.218750
9897,-74.218750
9898,-74.218750
9899,-74.218750
9900,-70.312500
9901,-70.312500
9902,-70.312500
9903,-70.312500
9904,-66.406250
9905,-66.406250
9906,-66.406250
9907,-66.406250
9908,-62.500000
9909,-62.500000
9910,-62.500000
9911,-62.500000
9912,-58.593750
9913,-58.593750
9914,-58.593750
9915,-58.593750
9916,-58.593750
9917,-54.687500
9918,-54.687500
9919,-54.687500
9920,-54.687500
9921,-50.781250
9922,-50.781250
9923,-50.781250
9924,-50.781250
9925,-46.875000
9926,-46.875000
9927,-46.875000
9928,-46.875000
9929,-46.875000
9930,-42.968750
9931,-42.968750
9932,-42.968750
9933,-39.062500
9934,-39.062500
9935,-39.062500
9936,-39.062500
9937,-35.156250
9938,-35.156250
9939,-35.156250
9940,-35.156250
9941,-35.156250
9942,-31.250000
9943,-31.250000
9944,-27.343750
9945,-27.343750
9946,-27.343750
9947,-27.343750
9948,-27.343750
9949,-23.437500
9950,-23.437500
9951,-23.437500
9952,-23.437500
9953,-19.531250
9954,-19.531250
9955,-19.531250
9956,-19.531250
9957,-15.625000
9958,-15.625000
9959,-15.625000
9960,-15.625000
9961,-11.718750
9962,-11.718750
9963,-11.718750
9964,-11.718750
9965,-11.718750
9966,-7.812500
9967,-7.812500
9968,-7.812500
9969,-3.906250
9970,-3.906250
9971,-3.906250
9972,-3.906250
9973,-3.906250
9974,0.000000
9975,0.000000
9976,0.000000
9977,3.906250
9978,3.906250
9979,3.906250
9980,3.906250
9981,3.906250
9982,7.812500
9983,7.812500
9984,7.812500
9985,11.718750
9986,11.718750
9987,11.718750
9988,11.718750
9989,11.718750
9990,15.625000
9991,15.625000
9992,15.625000
9993,15.625000
9994,19.531250
9995,19.531250
9996,19.531250
9997,19.531250
9998,23.437500
9999,23.437500
10000,23.437500
