Channel              :,CH1
Frequency            :,1.010kHz
Period               :,0.990ms
PK-PK                :,324.2mV
Probe attenuation    :,1X
Voltage per ADC value:,0.244141mV
Time interval        :,1.00000us

index,CH1_Voltage(mV)
1,-78.125000
2,-78.125000
3,-78.125000
4,-74.218750
5,-74.218750
6,-74.218750
7,-74.218750
8,-70.312500
9,-70.312500
10,-70.312500
11,-70.312500
12,-66.406250
13,-66.406250
14,-66.406250
15,-66.406250
16,-62.500000
17,-62.500000
18,-62.500000
19,-62.500000
20,-58.593750
21,-58.593750
22,-58.593750
23,-58.593750
24,-54.687500
25,-54.687500
26,-54.687500
27,-50.781250
28,-50.781250
29,-50.781250
30,-50.781250
31,-46.875000
32,-46.875000
33,-46.875000
34,-42.968750
35,-42.968750
36,-42.968750
37,-42.968750
38,-39.062500
39,-39.062500
40,-39.062500
41,-39.062500
42,-35.156250
43,-35.156250
44,-35.156250
45,-35.156250
46,-31.250000
47,-31.250000
48,-31.250000
49,-31.250000
50,-27.343750
51,-27.343750
52,-27.343750
53,-23.437500
54,-23.437500
55,-23.437500
56,-23.437500
57,-19.531250
58,-19.531250
59,-19.531250
60,-15.625000
61,-15.625000
62,-15.625000
63,-15.625000
64,-11.718750
65,-11.718750
66,-11.718750
67,-7.812500
68,-7.812500
69,-7.812500
70,-7.812500
71,-3.906250
72,-3.906250
73,-3.906250
74,-3.906250
75,0.000000
76,0.000000
77,0.000000
78,0.000000
79,3.906250
80,3.906250
81,3.906250
82,3.906250
83,7.812500
84,7.812500
85,7.812500
86,7.812500
87,11.718750
88,11.718750
89,15.625000
90,15.625000
91,15.625000
92,15.625000
93,15.625000
94,19.531250
95,19.531250
96,19.531250
97,19.531250
98,23.437500
99,23.437500
100,23.437500
101,23.437500
102,27.343750
103,27.343750
104,27.343750
105,27.343750
106,31.250000
107,31.250000
108,31.250000
109,31.250000
110,35.156250
111,35.156250
112,35.156250
113,35.156250
114,39.062500
115,39.062500
116,39.062500
117,39.062500
118,42.968750
119,42.968750
120,42.968750
121,46.875000
122,46.875000
123,46.875000
124,46.875000
125,46.875000
126,50.781250
127,50.781250
128,50.781250
129,50.781250
130,54.687500
131,54.687500
132,54.687500
133,54.687500
134,54.687500
135,58.593750
136,58.593750
137,58.593750
138,58.593750
139,58.593750
140,62.500000
141,62.500000
142,62.500000
143,62.500000
144,66.406250
145,66.406250
146,66.406250
147,66.406250
148,66.406250
149,70.312500
150,70.312500
151,70.312500
152,70.312500
153,74.218750
154,74.218750
155,74.218750
156,74.218750
157,74.218750
158,74.218750
159,74.218750
160,78.125000
161,78.125000
162,82.031250
163,78.125000
164,82.031250
165,82.031250
166,82.031250
167,82.031250
168,82.031250
169,85.937500
170,85.937500
171,85.937500
172,85.937500
173,85.937500
174,89.843750
175,89.843750
176,89.843750
177,89.843750
178,89.843750
179,89.843750
180,89.843750
181,93.750000
182,93.750000
183,93.750000
184,93.750000
185,97.656250
186,97.656250
187,97.656250
188,97.656250
189,97.656250
190,97.656250
191,97.656250
192,101.562500
193,101.562500
194,101.562500
195,101.562500
196,101.562500
197,101.562500
198,105.468750
199,105.468750
200,105.468750
201,105.468750
202,105.468750
203,105.468750
204,109.375000
205,109.375000
206,109.375000
207,109.375000
208,109.375000
209,109.375000
210,109.375000
211,109.375000
212,113.281250
213,113.281250
214,113.281250
215,113.281250
216,113.281250
217,113.281250
218,117.187500
219,117.187500
220,117.187500
221,117.187500
222,117.187500
223,117.187500
224,117.187500
225,117.187500
226,121.093750
227,121.093750
228,121.093750
229,121.093750
230,121.093750
231,121.093750
232,121.093750
233,121.093750
234,121.093750
235,121.093750
236,125.000000
237,121.093750
238,125.000000
239,125.000000
240,125.000000
241,125.000000
242,125.000000
243,125.000000
244,125.000000
245,125.000000
246,128.906250
247,128.906250
248,128.906250
249,128.906250
250,128.906250
251,128.906250
252,128.906250
253,128.906250
254,128.906250
255,128.906250
256,132.812500
257,132.812500
258,132.812500
259,132.812500
260,132.812500
261,132.812500
262,132.812500
263,132.812500
264,132.812500
265,132.812500
266,132.812500
267,132.812500
268,136.718750
269,136.718750
270,136.718750
271,136.718750
272,136.718750
273,136.718750
274,136.718750
275,136.718750
276,136.718750
277,136.718750
278,136.718750
279,136.718750
280,136.718750
281,136.718750
282,136.718750
283,136.718750
284,136.718750
285,136.718750
286,136.718750
287,136.718750
288,140.625000
289,140.625000
290,140.625000
291,140.625000
292,140.625000
293,140.625000
294,140.625000
295,136.718750
296,140.625000
297,140.625000
298,140.625000
299,140.625000
300,140.625000
301,140.625000
302,140.625000
303,140.625000
304,140.625000
305,140.625000
306,140.625000
307,140.625000
308,140.625000
309,140.625000
310,140.625000
311,140.625000
312,140.625000
313,140.625000
314,140.625000
315,140.625000
316,140.625000
317,140.625000
318,140.625000
319,140.625000
320,140.625000
321,140.625000
322,140.625000
323,140.625000
324,140.625000
325,140.625000
326,140.625000
327,140.625000
328,140.625000
329,140.625000
330,140.625000
331,140.625000
332,140.625000
333,140.625000
334,140.625000
335,140.625000
336,140.625000
337,140.625000
338,140.625000
339,140.625000
340,140.625000
341,140.625000
342,140.625000
343,140.625000
344,140.625000
345,140.625000
346,140.625000
347,140.625000
348,140.625000
349,140.625000
350,140.625000
351,140.625000
352,140.625000
353,140.625000
354,140.625000
355,140.625000
356,136.718750
357,136.718750
358,136.718750
359,136.718750
360,136.718750
361,136.718750
362,136.718750
363,136.718750
364,136.718750
365,136.718750
366,136.718750
367,136.718750
368,136.718750
369,136.718750
370,136.718750
371,136.718750
372,136.718750
373,136.718750
374,136.718750
375,136.718750
376,132.812500
377,132.812500
378,132.812500
379,132.812500
380,132.812500
381,132.812500
382,132.812500
383,132.812500
384,132.812500
385,132.812500
386,132.812500
387,128.906250
388,132.812500
389,128.906250
390,132.812500
391,128.906250
392,128.906250
393,128.906250
394,128.906250
395,128.906250
396,128.906250
397,128.906250
398,128.906250
399,125.000000
400,128.906250
401,125.000000
402,125.000000
403,125.000000
404,125.000000
405,125.000000
406,125.000000
407,125.000000
408,125.000000
409,121.093750
410,121.093750
411,121.093750
412,121.093750
413,121.093750
414,121.093750
415,121.093750
416,121.093750
417,117.187500
418,117.187500
419,117.187500
420,121.093750
421,117.187500
422,117.187500
423,117.187500
424,117.187500
425,113.281250
426,113.281250
427,113.281250
428,113.281250
429,113.281250
430,113.281250
431,113.281250
432,113.281250
433,109.375000
434,109.375000
435,109.375000
436,109.375000
437,109.375000
438,109.375000
439,109.375000
440,109.375000
441,105.468750
442,105.468750
443,105.468750
444,105.468750
445,101.562500
446,105.468750
447,101.562500
448,101.562500
449,101.562500
450,101.562500
451,101.562500
452,97.656250
453,97.656250
454,97.656250
455,97.656250
456,97.656250
457,97.656250
458,93.750000
459,93.750000
460,93.750000
461,93.750000
462,93.750000
463,89.843750
464,93.750000
465,89.843750
466,89.843750
467,89.843750
468,89.843750
469,89.843750
470,85.937500
471,85.937500
472,85.937500
473,85.937500
474,85.937500
475,82.031250
476,82.031250
477,82.031250
478,82.031250
479,82.031250
480,82.031250
481,78.125000
482,78.125000
483,78.125000
484,78.125000
485,74.218750
486,74.218750
487,74.218750
488,74.218750
489,74.218750
490,70.312500
491,70.312500
492,70.312500
493,70.312500
494,70.312500
495,70.312500
496,66.406250
497,66.406250
498,66.406250
499,66.406250
500,62.500000
501,62.500000
502,62.500000
503,62.500000
504,62.500000
505,58.593750
506,58.593750
507,58.593750
508,58.593750
509,58.593750
510,54.687500
511,54.687500
512,54.687500
513,54.687500
514,50.781250
515,50.781250
516,50.781250
517,50.781250
518,50.781250
519,46.875000
520,46.875000
521,46.875000
522,42.968750
523,42.968750
524,42.968750
525,42.968750
526,39.062500
527,39.062500
528,39.062500
529,39.062500
530,39.062500
531,35.156250
532,35.156250
533,35.156250
534,31.250000
535,31.250000
536,31.250000
537,31.250000
538,27.343750
539,27.343750
540,27.343750
541,27.343750
542,27.343750
543,23.437500
544,23.437500
545,23.437500
546,19.531250
547,19.531250
548,19.531250
549,19.531250
550,19.531250
551,15.625000
552,15.625000
553,15.625000
554,11.718750
555,11.718750
556,11.718750
557,11.718750
558,7.812500
559,7.812500
560,7.812500
561,3.906250
562,3.906250
563,3.906250
564,3.906250
565,0.000000
566,0.000000
567,0.000000
568,0.000000
569,-3.906250
570,-3.906250
571,-3.906250
572,-3.906250
573,-7.812500
574,-7.812500
575,-7.812500
576,-7.812500
577,-11.718750
578,-11.718750
579,-15.625000
580,-15.625000
581,-15.625000
582,-15.625000
583,-15.625000
584,-19.531250
585,-19.531250
586,-19.531250
587,-19.531250
588,-23.437500
589,-23.437500
590,-23.437500
591,-27.343750
592,-27.343750
593,-27.343750
594,-27.343750
595,-31.250000
596,-31.250000
597,-31.250000
598,-31.250000
599,-35.156250
600,-35.156250
601,-35.156250
602,-39.062500
603,-39.062500
604,-39.062500
605,-39.062500
606,-39.062500
607,-42.968750
608,-42.968750
609,-46.875000
610,-46.875000
611,-46.875000
612,-46.875000
613,-46.875000
614,-50.781250
615,-50.781250
616,-50.781250
617,-50.781250
618,-54.687500
619,-54.687500
620,-54.687500
621,-58.593750
622,-58.593750
623,-58.593750
624,-58.593750
625,-62.500000
626,-62.500000
627,-62.500000
628,-66.406250
629,-66.406250
630,-66.406250
631,-66.406250
632,-66.406250
633,-70.312500
634,-70.312500
635,-70.312500
636,-74.218750
637,-74.218750
638,-74.218750
639,-74.218750
640,-78.125000
641,-78.125000
642,-78.125000
643,-78.125000
644,-82.031250
645,-82.031250
646,-82.031250
647,-82.031250
648,-85.937500
649,-85.937500
650,-85.937500
651,-85.937500
652,-89.843750
653,-89.843750
654,-89.843750
655,-89.843750
656,-93.750000
657,-93.750000
658,-93.750000
659,-93.750000
660,-97.656250
661,-97.656250
662,-97.656250
663,-97.656250
664,-97.656250
665,-101.562500
666,-101.562500
667,-101.562500
668,-105.468750
669,-105.468750
670,-105.468750
671,-105.468750
672,-105.468750
673,-109.375000
674,-109.375000
675,-109.375000
676,-113.281250
677,-113.281250
678,-113.281250
679,-113.281250
680,-113.281250
681,-113.281250
682,-117.187500
683,-117.187500
684,-117.187500
685,-121.093750
686,-121.093750
687,-121.093750
688,-117.187500
689,-121.093750
690,-125.000000
691,-125.000000
692,-125.000000
693,-125.000000
694,-125.000000
695,-128.906250
696,-128.906250
697,-128.906250
698,-128.906250
699,-128.906250
700,-132.812500
701,-132.812500
702,-132.812500
703,-136.718750
704,-132.812500
705,-136.718750
706,-136.718750
707,-136.718750
708,-136.718750
709,-136.718750
710,-140.625000
711,-140.625000
712,-140.625000
713,-140.625000
714,-140.625000
715,-144.531250
716,-144.531250
717,-144.531250
718,-144.531250
719,-144.531250
720,-144.531250
721,-144.531250
722,-148.437500
723,-148.437500
724,-148.437500
725,-148.437500
726,-148.437500
727,-152.343750
728,-152.343750
729,-152.343750
730,-152.343750
731,-152.343750
732,-152.343750
733,-156.250000
734,-156.250000
735,-156.250000
736,-156.250000
737,-156.250000
738,-156.250000
739,-156.250000
740,-156.250000
741,-160.156250
742,-160.156250
743,-160.156250
744,-160.156250
745,-160.156250
746,-160.156250
747,-164.062500
748,-160.156250
749,-164.062500
750,-164.062500
751,-164.062500
752,-164.062500
753,-164.062500
754,-164.062500
755,-164.062500
756,-167.968750
757,-167.968750
758,-167.968750
759,-167.968750
760,-167.968750
761,-167.968750
762,-167.968750
763,-167.968750
764,-167.968750
765,-171.875000
766,-167.968750
767,-171.875000
768,-171.875000
769,-171.875000
770,-171.875000
771,-171.875000
772,-171.875000
773,-171.875000
774,-171.875000
775,-171.875000
776,-171.875000
777,-171.875000
778,-171.875000
779,-171.875000
780,-175.781250
781,-175.781250
782,-175.781250
783,-175.781250
784,-175.781250
785,-175.781250
786,-175.781250
787,-175.781250
788,-175.781250
789,-175.781250
790,-175.781250
791,-175.781250
792,-175.781250
793,-175.781250
794,-179.687500
795,-179.687500
796,-179.687500
797,-175.781250
798,-179.687500
799,-179.687500
800,-179.687500
801,-179.687500
802,-179.687500
803,-179.687500
804,-179.687500
805,-179.687500
806,-179.687500
807,-179.687500
808,-179.687500
809,-179.687500
810,-179.687500
811,-179.687500
812,-179.687500
813,-179.687500
814,-179.687500
815,-179.687500
816,-179.687500
817,-179.687500
818,-179.687500
819,-179.687500
820,-179.687500
821,-179.687500
822,-179.687500
823,-179.687500
824,-179.687500
825,-179.687500
826,-179.687500
827,-179.687500
828,-179.687500
829,-179.687500
830,-179.687500
831,-179.687500
832,-179.687500
833,-179.687500
834,-179.687500
835,-179.687500
836,-179.687500
837,-179.687500
838,-179.687500
839,-179.687500
840,-175.781250
841,-175.781250
842,-175.781250
843,-175.781250
844,-179.687500
845,-175.781250
846,-175.781250
847,-175.781250
848,-175.781250
849,-175.781250
850,-175.781250
851,-175.781250
852,-175.781250
853,-175.781250
854,-175.781250
855,-175.781250
856,-175.781250
857,-175.781250
858,-171.875000
859,-171.875000
860,-171.875000
861,-171.875000
862,-171.875000
863,-171.875000
864,-171.875000
865,-171.875000
866,-171.875000
867,-171.875000
868,-167.968750
869,-167.968750
870,-167.968750
871,-167.968750
872,-167.968750
873,-167.968750
874,-167.968750
875,-167.968750
876,-167.968750
877,-164.062500
878,-164.062500
879,-164.062500
880,-164.062500
881,-164.062500
882,-164.062500
883,-164.062500
884,-164.062500
885,-164.062500
886,-164.062500
887,-164.062500
888,-160.156250
889,-160.156250
890,-160.156250
891,-160.156250
892,-160.156250
893,-160.156250
894,-156.250000
895,-156.250000
896,-156.250000
897,-156.250000
898,-156.250000
899,-152.343750
900,-152.343750
901,-152.343750
902,-152.343750
903,-152.343750
904,-152.343750
905,-152.343750
906,-152.343750
907,-148.437500
908,-148.437500
909,-148.437500
910,-148.437500
911,-148.437500
912,-148.437500
913,-144.531250
914,-144.531250
915,-144.531250
916,-144.531250
917,-144.531250
918,-140.625000
919,-140.625000
920,-140.625000
921,-140.625000
922,-140.625000
923,-140.625000
924,-136.718750
925,-136.718750
926,-136.718750
927,-136.718750
928,-132.812500
929,-132.812500
930,-132.812500
931,-132.812500
932,-132.812500
933,-132.812500
934,-132.812500
935,-128.906250
936,-128.906250
937,-128.906250
938,-128.906250
939,-128.906250
940,-125.000000
941,-125.000000
942,-125.000000
943,-121.093750
944,-121.093750
945,-121.093750
946,-121.093750
947,-121.093750
948,-121.093750
949,-117.187500
950,-117.187500
951,-117.187500
952,-113.281250
953,-117.187500
954,-113.281250
955,-113.281250
956,-113.281250
957,-109.375000
958,-109.375000
959,-109.375000
960,-109.375000
961,-105.468750
962,-105.468750
963,-105.468750
964,-105.468750
965,-105.468750
966,-101.562500
967,-101.562500
968,-101.562500
969,-101.562500
970,-97.656250
971,-101.562500
972,-97.656250
973,-97.656250
974,-93.750000
975,-93.750000
976,-93.750000
977,-93.750000
978,-89.843750
979,-89.843750
980,-89.843750
981,-89.843750
982,-89.843750
983,-85.937500
984,-85.937500
985,-85.937500
986,-82.031250
987,-82.031250
988,-82.031250
989,-82.031250
990,-78.125000
991,-78.125000
992,-78.125000
993,-78.125000
994,-74.218750
995,-74.218750
996,-74.218750
997,-74.218750
998,-70.312500
999,-70.312500
1000,-70.312500
1001,-70.312500
1002,-66.406250
1003,-66.406250
1004,-66.406250
1005,-66.406250
1006,-62.500000
1007,-62.500000
1008,-62.500000
1009,-58.593750
1010,-58.593750
1011,-58.593750
1012,-58.593750
1013,-54.687500
1014,-54.687500
1015,-54.687500
1016,-54.687500
1017,-50.781250
1018,-50.781250
1019,-50.781250
1020,-46.875000
1021,-46.875000
1022,-46.875000
1023,-46.875000
1024,-42.968750
1025,-42.968750
1026,-42.968750
1027,-39.062500
1028,-39.062500
1029,-39.062500
1030,-39.062500
1031,-35.156250
1032,-35.156250
1033,-35.156250
1034,-35.156250
1035,-31.250000
1036,-31.250000
1037,-31.250000
1038,-27.343750
1039,-27.343750
1040,-27.343750
1041,-27.343750
1042,-23.437500
1043,-23.437500
1044,-23.437500
1045,-23.437500
1046,-19.531250
1047,-19.531250
1048,-19.531250
1049,-19.531250
1050,-15.625000
1051,-15.625000
1052,-15.625000
1053,-11.718750
1054,-11.718750
1055,-11.718750
1056,-11.718750
1057,-7.812500
1058,-7.812500
1059,-7.812500
1060,-3.906250
1061,-3.906250
1062,-3.906250
1063,-3.906250
1064,-3.906250
1065,0.000000
1066,0.000000
1067,0.000000
1068,0.000000
1069,3.906250
1070,3.906250
1071,3.906250
1072,3.906250
1073,7.812500
1074,7.812500
1075,7.812500
1076,11.718750
1077,11.718750
1078,11.718750
1079,11.718750
1080,11.718750
1081,15.625000
1082,15.625000
1083,15.625000
1084,19.531250
1085,19.531250
1086,19.531250
1087,19.531250
1088,23.437500
1089,23.437500
1090,23.437500
1091,23.437500
1092,23.437500
1093,27.343750
1094,27.343750
1095,27.343750
1096,27.343750
1097,31.250000
1098,31.250000
1099,31.250000
1100,31.250000
1101,35.156250
1102,35.156250
1103,39.062500
1104,39.062500
1105,39.062500
1106,39.062500
1107,39.062500
1108,42.968750
1109,42.968750
1110,42.968750
1111,42.968750
1112,42.968750
1113,46.875000
1114,46.875000
1115,46.875000
1116,46.875000
1117,50.781250
1118,50.781250
1119,50.781250
1120,50.781250
1121,50.781250
1122,54.687500
1123,54.687500
1124,54.687500
1125,54.687500
1126,58.593750
1127,58.593750
1128,58.593750
1129,58.593750
1130,62.500000
1131,62.500000
1132,62.500000
1133,62.500000
1134,62.500000
1135,66.406250
1136,66.406250
1137,66.406250
1138,66.406250
1139,70.312500
1140,70.312500
1141,70.312500
1142,70.312500
1143,70.312500
1144,70.312500
1145,74.218750
1146,74.218750
1147,74.218750
1148,74.218750
1149,78.125000
1150,78.125000
1151,78.125000
1152,78.125000
1153,78.125000
1154,82.031250
1155,82.031250
1156,82.031250
1157,82.031250
1158,82.031250
1159,85.937500
1160,85.937500
1161,85.937500
1162,85.937500
1163,85.937500
1164,89.843750
1165,89.843750
1166,89.843750
1167,89.843750
1168,89.843750
1169,89.843750
1170,89.843750
1171,93.750000
1172,93.750000
1173,93.750000
1174,93.750000
1175,93.750000
1176,97.656250
1177,97.656250
1178,97.656250
1179,97.656250
1180,101.562500
1181,101.562500
1182,101.562500
1183,101.562500
1184,101.562500
1185,101.562500
1186,101.562500
1187,101.562500
1188,105.468750
1189,105.468750
1190,105.468750
1191,105.468750
1192,105.468750
1193,105.468750
1194,105.468750
1195,109.375000
1196,109.375000
1197,109.375000
1198,109.375000
1199,109.375000
1200,109.375000
1201,109.375000
1202,113.281250
1203,113.281250
1204,113.281250
1205,113.281250
1206,113.281250
1207,113.281250
1208,113.281250
1209,113.281250
1210,113.281250
1211,117.187500
1212,117.187500
1213,117.187500
1214,117.187500
1215,117.187500
1216,117.187500
1217,117.187500
1218,121.093750
1219,121.093750
1220,121.093750
1221,121.093750
1222,121.093750
1223,121.093750
1224,121.093750
1225,121.093750
1226,121.093750
1227,121.093750
1228,125.000000
1229,125.000000
1230,125.000000
1231,125.000000
1232,125.000000
1233,125.000000
1234,125.000000
1235,125.000000
1236,125.000000
1237,128.906250
1238,128.906250
1239,128.906250
1240,128.906250
1241,128.906250
1242,128.906250
1243,128.906250
1244,128.906250
1245,128.906250
1246,128.906250
1247,128.906250
1248,132.812500
1249,132.812500
1250,132.812500
1251,132.812500
1252,132.812500
1253,132.812500
1254,132.812500
1255,132.812500
1256,132.812500
1257,132.812500
1258,132.812500
1259,132.812500
1260,136.718750
1261,132.812500
1262,136.718750
1263,136.718750
1264,136.718750
1265,136.718750
1266,136.718750
1267,136.718750
1268,136.718750
1269,136.718750
1270,136.718750
1271,136.718750
1272,136.718750
1273,136.718750
1274,136.718750
1275,136.718750
1276,140.625000
1277,140.625000
1278,140.625000
1279,136.718750
1280,136.718750
1281,140.625000
1282,140.625000
1283,140.625000
1284,140.625000
1285,140.625000
1286,140.625000
1287,140.625000
1288,140.625000
1289,140.625000
1290,140.625000
1291,140.625000
1292,140.625000
1293,140.625000
1294,140.625000
1295,140.625000
1296,140.625000
1297,140.625000
1298,140.625000
1299,140.625000
1300,140.625000
1301,140.625000
1302,140.625000
1303,140.625000
1304,140.625000
1305,140.625000
1306,140.625000
1307,140.625000
1308,140.625000
1309,140.625000
1310,140.625000
1311,140.625000
1312,140.625000
1313,140.625000
1314,140.625000
1315,140.625000
1316,140.625000
1317,144.531250
1318,140.625000
1319,140.625000
1320,140.625000
1321,140.625000
1322,140.625000
1323,140.625000
1324,140.625000
1325,140.625000
1326,140.625000
1327,140.625000
1328,140.625000
1329,140.625000
1330,140.625000
1331,140.625000
1332,140.625000
1333,140.625000
1334,140.625000
1335,140.625000
1336,140.625000
1337,140.625000
1338,140.625000
1339,140.625000
1340,140.625000
1341,136.718750
1342,136.718750
1343,140.625000
1344,140.625000
1345,140.625000
1346,136.718750
1347,136.718750
1348,136.718750
1349,136.718750
1350,136.718750
1351,136.718750
1352,136.718750
1353,136.718750
1354,136.718750
1355,136.718750
1356,136.718750
1357,136.718750
1358,136.718750
1359,136.718750
1360,136.718750
1361,136.718750
1362,132.812500
1363,132.812500
1364,132.812500
1365,132.812500
1366,132.812500
1367,132.812500
1368,132.812500
1369,132.812500
1370,132.812500
1371,132.812500
1372,132.812500
1373,132.812500
1374,132.812500
1375,132.812500
1376,132.812500
1377,132.812500
1378,132.812500
1379,128.906250
1380,128.906250
1381,128.906250
1382,128.906250
1383,128.906250
1384,128.906250
1385,128.906250
1386,128.906250
1387,128.906250
1388,128.906250
1389,125.000000
1390,125.000000
1391,125.000000
1392,125.000000
1393,125.000000
1394,128.906250
1395,125.000000
1396,125.000000
1397,121.093750
1398,121.093750
1399,121.093750
1400,121.093750
1401,121.093750
1402,121.093750
1403,121.093750
1404,121.093750
1405,121.093750
1406,121.093750
1407,117.187500
1408,117.187500
1409,117.187500
1410,117.187500
1411,117.187500
1412,117.187500
1413,117.187500
1414,117.187500
1415,113.281250
1416,113.281250
1417,113.281250
1418,113.281250
1419,113.281250
1420,113.281250
1421,113.281250
1422,113.281250
1423,109.375000
1424,109.375000
1425,109.375000
1426,109.375000
1427,109.375000
1428,109.375000
1429,109.375000
1430,105.468750
1431,105.468750
1432,105.468750
1433,105.468750
1434,105.468750
1435,105.468750
1436,105.468750
1437,101.562500
1438,101.562500
1439,101.562500
1440,101.562500
1441,101.562500
1442,97.656250
1443,97.656250
1444,97.656250
1445,97.656250
1446,97.656250
1447,97.656250
1448,97.656250
1449,93.750000
1450,93.750000
1451,93.750000
1452,93.750000
1453,89.843750
1454,89.843750
1455,89.843750
1456,89.843750
1457,89.843750
1458,89.843750
1459,89.843750
1460,85.937500
1461,85.937500
1462,85.937500
1463,85.937500
1464,85.937500
1465,82.031250
1466,82.031250
1467,82.031250
1468,82.031250
1469,82.031250
1470,78.125000
1471,78.125000
1472,78.125000
1473,78.125000
1474,78.125000
1475,74.218750
1476,74.218750
1477,74.218750
1478,74.218750
1479,74.218750
1480,74.218750
1481,70.312500
1482,70.312500
1483,70.312500
1484,70.312500
1485,66.406250
1486,66.406250
1487,66.406250
1488,66.406250
1489,62.500000
1490,62.500000
1491,62.500000
1492,62.500000
1493,58.593750
1494,58.593750
1495,58.593750
1496,58.593750
1497,58.593750
1498,54.687500
1499,54.687500
1500,54.687500
1501,54.687500
1502,54.687500
1503,50.781250
1504,50.781250
1505,50.781250
1506,46.875000
1507,46.875000
1508,46.875000
1509,46.875000
1510,46.875000
1511,42.968750
1512,42.968750
1513,42.968750
1514,42.968750
1515,39.062500
1516,39.062500
1517,39.062500
1518,39.062500
1519,39.062500
1520,35.156250
1521,35.156250
1522,35.156250
1523,31.250000
1524,31.250000
1525,31.250000
1526,31.250000
1527,31.250000
1528,27.343750
1529,27.343750
1530,27.343750
1531,23.437500
1532,23.437500
1533,23.437500
1534,23.437500
1535,23.437500
1536,19.531250
1537,19.531250
1538,19.531250
1539,15.625000
1540,15.625000
1541,15.625000
1542,15.625000
1543,11.718750
1544,11.718750
1545,11.718750
1546,11.718750
1547,11.718750
1548,7.812500
1549,7.812500
1550,7.812500
1551,3.906250
1552,3.906250
1553,3.906250
1554,3.906250
1555,0.000000
1556,0.000000
1557,0.000000
1558,0.000000
1559,-3.906250
1560,-3.906250
1561,-3.906250
1562,-7.812500
1563,-7.812500
1564,-7.812500
1565,-7.812500
1566,-11.718750
1567,-11.718750
1568,-11.718750
1569,-15.625000
1570,-15.625000
1571,-15.625000
1572,-15.625000
1573,-19.531250
1574,-19.531250
1575,-19.531250
1576,-19.531250
1577,-23.437500
1578,-23.437500
1579,-23.437500
1580,-23.437500
1581,-27.343750
1582,-27.343750
1583,-27.343750
1584,-27.343750
1585,-31.250000
1586,-31.250000
1587,-31.250000
1588,-35.156250
1589,-35.156250
1590,-35.156250
1591,-39.062500
1592,-39.062500
1593,-39.062500
1594,-39.062500
1595,-39.062500
1596,-42.968750
1597,-42.968750
1598,-42.968750
1599,-46.875000
1600,-46.875000
1601,-46.875000
1602,-46.875000
1603,-50.781250
1604,-50.781250
1605,-50.781250
1606,-54.687500
1607,-54.687500
1608,-54.687500
1609,-54.687500
1610,-58.593750
1611,-58.593750
1612,-58.593750
1613,-58.593750
1614,-58.593750
1615,-62.500000
1616,-62.500000
1617,-66.406250
1618,-66.406250
1619,-66.406250
1620,-66.406250
1621,-70.312500
1622,-70.312500
1623,-70.312500
1624,-70.312500
1625,-74.218750
1626,-74.218750
1627,-74.218750
1628,-74.218750
1629,-78.125000
1630,-78.125000
1631,-78.125000
1632,-78.125000
1633,-82.031250
1634,-82.031250
1635,-82.031250
1636,-82.031250
1637,-85.937500
1638,-85.937500
1639,-85.937500
1640,-85.937500
1641,-89.843750
1642,-89.843750
1643,-89.843750
1644,-89.843750
1645,-93.750000
1646,-93.750000
1647,-93.750000
1648,-97.656250
1649,-97.656250
1650,-97.656250
1651,-97.656250
1652,-97.656250
1653,-101.562500
1654,-101.562500
1655,-101.562500
1656,-101.562500
1657,-105.468750
1658,-105.468750
1659,-105.468750
1660,-105.468750
1661,-105.468750
1662,-109.375000
1663,-109.375000
1664,-109.375000
1665,-109.375000
1666,-113.281250
1667,-113.281250
1668,-113.281250
1669,-113.281250
1670,-117.187500
1671,-117.187500
1672,-117.187500
1673,-117.187500
1674,-117.187500
1675,-121.093750
1676,-121.093750
1677,-121.093750
1678,-121.093750
1679,-121.093750
1680,-125.000000
1681,-125.000000
1682,-125.000000
1683,-125.000000
1684,-128.906250
1685,-128.906250
1686,-128.906250
1687,-128.906250
1688,-128.906250
1689,-128.906250
1690,-132.812500
1691,-132.812500
1692,-132.812500
1693,-132.812500
1694,-136.718750
1695,-136.718750
1696,-136.718750
1697,-136.718750
1698,-136.718750
1699,-136.718750
1700,-140.625000
1701,-140.625000
1702,-140.625000
1703,-140.625000
1704,-144.531250
1705,-144.531250
1706,-144.531250
1707,-144.531250
1708,-144.531250
1709,-144.531250
1710,-148.437500
1711,-148.437500
1712,-148.437500
1713,-148.437500
1714,-148.437500
1715,-148.437500
1716,-152.343750
1717,-152.343750
1718,-152.343750
1719,-152.343750
1720,-152.343750
1721,-152.343750
1722,-152.343750
1723,-156.250000
1724,-156.250000
1725,-156.250000
1726,-156.250000
1727,-156.250000
1728,-156.250000
1729,-156.250000
1730,-160.156250
1731,-160.156250
1732,-160.156250
1733,-160.156250
1734,-160.156250
1735,-164.062500
1736,-164.062500
1737,-160.156250
1738,-164.062500
1739,-164.062500
1740,-164.062500
1741,-164.062500
1742,-164.062500
1743,-164.062500
1744,-164.062500
1745,-167.968750
1746,-167.968750
1747,-167.968750
1748,-167.968750
1749,-167.968750
1750,-167.968750
1751,-167.968750
1752,-167.968750
1753,-171.875000
1754,-167.968750
1755,-171.875000
1756,-171.875000
1757,-171.875000
1758,-171.875000
1759,-171.875000
1760,-171.875000
1761,-171.875000
1762,-171.875000
1763,-171.875000
1764,-171.875000
1765,-175.781250
1766,-175.781250
1767,-175.781250
1768,-175.781250
1769,-175.781250
1770,-175.781250
1771,-175.781250
1772,-175.781250
1773,-175.781250
1774,-175.781250
1775,-175.781250
1776,-175.781250
1777,-175.781250
1778,-175.781250
1779,-175.781250
1780,-175.781250
1781,-175.781250
1782,-179.687500
1783,-179.687500
1784,-179.687500
1785,-179.687500
1786,-179.687500
1787,-179.687500
1788,-179.687500
1789,-179.687500
1790,-179.687500
1791,-179.687500
1792,-179.687500
1793,-179.687500
1794,-179.687500
1795,-179.687500
1796,-179.687500
1797,-179.687500
1798,-179.687500
1799,-179.687500
1800,-179.687500
1801,-179.687500
1802,-179.687500
1803,-179.687500
1804,-179.687500
1805,-179.687500
1806,-179.687500
1807,-179.687500
1808,-179.687500
1809,-179.687500
1810,-179.687500
1811,-179.687500
1812,-179.687500
1813,-179.687500
1814,-179.687500
1815,-179.687500
1816,-179.687500
1817,-179.687500
1818,-179.687500
1819,-179.687500
1820,-179.687500
1821,-179.687500
1822,-179.687500
1823,-179.687500
1824,-179.687500
1825,-179.687500
1826,-179.687500
1827,-179.687500
1828,-179.687500
1829,-175.781250
1830,-179.687500
1831,-179.687500
1832,-175.781250
1833,-175.781250
1834,-175.781250
1835,-175.781250
1836,-175.781250
1837,-175.781250
1838,-175.781250
1839,-175.781250
1840,-175.781250
1841,-175.781250
1842,-175.781250
1843,-175.781250
1844,-175.781250
1845,-175.781250
1846,-175.781250
1847,-175.781250
1848,-175.781250
1849,-175.781250
1850,-171.875000
1851,-171.875000
1852,-171.875000
1853,-171.875000
1854,-171.875000
1855,-171.875000
1856,-171.875000
1857,-171.875000
1858,-171.875000
1859,-171.875000
1860,-171.875000
1861,-171.875000
1862,-167.968750
1863,-167.968750
1864,-167.968750
1865,-167.968750
1866,-167.968750
1867,-167.968750
1868,-167.968750
1869,-167.968750
1870,-164.062500
1871,-164.062500
1872,-164.062500
1873,-164.062500
1874,-164.062500
1875,-164.062500
1876,-164.062500
1877,-160.156250
1878,-160.156250
1879,-160.156250
1880,-160.156250
1881,-160.156250
1882,-160.156250
1883,-160.156250
1884,-156.250000
1885,-156.250000
1886,-156.250000
1887,-156.250000
1888,-156.250000
1889,-156.250000
1890,-156.250000
1891,-156.250000
1892,-152.343750
1893,-152.343750
1894,-152.343750
1895,-152.343750
1896,-152.343750
1897,-152.343750
1898,-148.437500
1899,-148.437500
1900,-148.437500
1901,-148.437500
1902,-148.437500
1903,-148.437500
1904,-144.531250
1905,-144.531250
1906,-144.531250
1907,-144.531250
1908,-140.625000
1909,-140.625000
1910,-140.625000
1911,-140.625000
1912,-140.625000
1913,-140.625000
1914,-136.718750
1915,-136.718750
1916,-136.718750
1917,-136.718750
1918,-136.718750
1919,-136.718750
1920,-132.812500
1921,-132.812500
1922,-132.812500
1923,-132.812500
1924,-128.906250
1925,-128.906250
1926,-128.906250
1927,-128.906250
1928,-128.906250
1929,-125.000000
1930,-125.000000
1931,-125.000000
1932,-125.000000
1933,-125.000000
1934,-121.093750
1935,-121.093750
1936,-121.093750
1937,-121.093750
1938,-117.187500
1939,-117.187500
1940,-117.187500
1941,-117.187500
1942,-117.187500
1943,-113.281250
1944,-113.281250
1945,-113.281250
1946,-113.281250
1947,-109.375000
1948,-109.375000
1949,-109.375000
1950,-109.375000
1951,-105.468750
1952,-105.468750
1953,-105.468750
1954,-105.468750
1955,-105.468750
1956,-101.562500
1957,-101.562500
1958,-101.562500
1959,-101.562500
1960,-97.656250
1961,-97.656250
1962,-97.656250
1963,-97.656250
1964,-93.750000
1965,-93.750000
1966,-93.750000
1967,-93.750000
1968,-89.843750
1969,-89.843750
1970,-89.843750
1971,-89.843750
1972,-85.937500
1973,-85.937500
1974,-85.937500
1975,-85.937500
1976,-82.031250
1977,-82.031250
1978,-82.031250
1979,-82.031250
1980,-78.125000
1981,-78.125000
1982,-78.125000
1983,-78.125000
1984,-74.218750
1985,-74.218750
1986,-74.218750
1987,-74.218750
1988,-70.312500
1989,-70.312500
1990,-70.312500
1991,-70.312500
1992,-66.406250
1993,-66.406250
1994,-66.406250
1995,-62.500000
1996,-62.500000
1997,-62.500000
1998,-62.500000
1999,-58.593750
2000,-58.593750
2001,-58.593750
2002,-58.593750
2003,-54.687500
2004,-54.687500
2005,-54.687500
2006,-50.781250
2007,-50.781250
2008,-50.781250
2009,-50.781250
2010,-46.875000
2011,-46.875000
2012,-46.875000
2013,-46.875000
2014,-42.968750
2015,-42.968750
2016,-42.968750
2017,-42.968750
2018,-39.062500
2019,-39.062500
2020,-39.062500
2021,-35.156250
2022,-35.156250
2023,-35.156250
2024,-35.156250
2025,-31.250000
2026,-31.250000
2027,-31.250000
2028,-31.250000
2029,-27.343750
2030,-27.343750
2031,-27.343750
2032,-27.343750
2033,-23.437500
2034,-23.437500
2035,-23.437500
2036,-19.531250
2037,-19.531250
2038,-19.531250
2039,-19.531250
2040,-15.625000
2041,-15.625000
2042,-15.625000
2043,-11.718750
2044,-11.718750
2045,-11.718750
2046,-11.718750
2047,-7.812500
2048,-7.812500
2049,-7.812500
2050,-7.812500
2051,-3.906250
2052,-3.906250
2053,-3.906250
2054,0.000000
2055,0.000000
2056,0.000000
2057,0.000000
2058,0.000000
2059,3.906250
2060,3.906250
2061,3.906250
2062,7.812500
2063,7.812500
2064,7.812500
2065,7.812500
2066,11.718750
2067,11.718750
2068,11.718750
2069,11.718750
2070,15.625000
2071,15.625000
2072,15.625000
2073,19.531250
2074,19.531250
2075,19.531250
2076,19.531250
2077,19.531250
2078,23.437500
2079,23.437500
2080,23.437500
2081,27.343750
2082,27.343750
2083,27.343750
2084,27.343750
2085,31.250000
2086,31.250000
2087,31.250000
2088,31.250000
2089,31.250000
2090,35.156250
2091,35.156250
2092,35.156250
2093,39.062500
2094,39.062500
2095,39.062500
2096,39.062500
2097,42.968750
2098,42.968750
2099,42.968750
2100,42.968750
2101,42.968750
2102,46.875000
2103,46.875000
2104,46.875000
2105,46.875000
2106,50.781250
2107,50.781250
2108,50.781250
2109,50.781250
2110,54.687500
2111,54.687500
2112,54.687500
2113,54.687500
2114,54.687500
2115,58.593750
2116,58.593750
2117,58.593750
2118,58.593750
2119,58.593750
2120,62.500000
2121,62.500000
2122,62.500000
2123,62.500000
2124,66.406250
2125,66.406250
2126,66.406250
2127,66.406250
2128,70.312500
2129,66.406250
2130,70.312500
2131,70.312500
2132,70.312500
2133,70.312500
2134,74.218750
2135,74.218750
2136,74.218750
2137,74.218750
2138,74.218750
2139,78.125000
2140,78.125000
2141,78.125000
2142,78.125000
2143,82.031250
2144,82.031250
2145,82.031250
2146,82.031250
2147,82.031250
2148,82.031250
2149,85.937500
2150,85.937500
2151,85.937500
2152,85.937500
2153,85.937500
2154,89.843750
2155,89.843750
2156,89.843750
2157,89.843750
2158,89.843750
2159,93.750000
2160,93.750000
2161,93.750000
2162,93.750000
2163,93.750000
2164,93.750000
2165,97.656250
2166,97.656250
2167,97.656250
2168,97.656250
2169,97.656250
2170,97.656250
2171,101.562500
2172,101.562500
2173,101.562500
2174,101.562500
2175,101.562500
2176,101.562500
2177,105.468750
2178,105.468750
2179,105.468750
2180,105.468750
2181,105.468750
2182,105.468750
2183,109.375000
2184,109.375000
2185,109.375000
2186,109.375000
2187,109.375000
2188,109.375000
2189,109.375000
2190,113.281250
2191,113.281250
2192,113.281250
2193,113.281250
2194,113.281250
2195,113.281250
2196,113.281250
2197,113.281250
2198,117.187500
2199,117.187500
2200,117.187500
2201,117.187500
2202,117.187500
2203,117.187500
2204,117.187500
2205,117.187500
2206,121.093750
2207,121.093750
2208,121.093750
2209,121.093750
2210,121.093750
2211,121.093750
2212,121.093750
2213,121.093750
2214,125.000000
2215,125.000000
2216,125.000000
2217,125.000000
2218,125.000000
2219,125.000000
2220,125.000000
2221,125.000000
2222,125.000000
2223,125.000000
2224,128.906250
2225,128.906250
2226,128.906250
2227,128.906250
2228,128.906250
2229,128.906250
2230,128.906250
2231,128.906250
2232,128.906250
2233,128.906250
2234,128.906250
2235,132.812500
2236,132.812500
2237,132.812500
2238,132.812500
2239,132.812500
2240,132.812500
2241,132.812500
2242,132.812500
2243,132.812500
2244,132.812500
2245,132.812500
2246,132.812500
2247,136.718750
2248,132.812500
2249,132.812500
2250,136.718750
2251,136.718750
2252,136.718750
2253,136.718750
2254,136.718750
2255,136.718750
2256,136.718750
2257,136.718750
2258,136.718750
2259,136.718750
2260,136.718750
2261,136.718750
2262,136.718750
2263,136.718750
2264,136.718750
2265,136.718750
2266,136.718750
2267,140.625000
2268,140.625000
2269,140.625000
2270,136.718750
2271,140.625000
2272,140.625000
2273,140.625000
2274,140.625000
2275,136.718750
2276,140.625000
2277,140.625000
2278,140.625000
2279,140.625000
2280,140.625000
2281,140.625000
2282,140.625000
2283,140.625000
2284,140.625000
2285,140.625000
2286,140.625000
2287,140.625000
2288,140.625000
2289,140.625000
2290,140.625000
2291,140.625000
2292,140.625000
2293,140.625000
2294,140.625000
2295,140.625000
2296,140.625000
2297,140.625000
2298,140.625000
2299,140.625000
2300,140.625000
2301,140.625000
2302,140.625000
2303,140.625000
2304,140.625000
2305,140.625000
2306,140.625000
2307,140.625000
2308,140.625000
2309,140.625000
2310,140.625000
2311,140.625000
2312,140.625000
2313,140.625000
2314,140.625000
2315,140.625000
2316,140.625000
2317,140.625000
2318,140.625000
2319,140.625000
2320,140.625000
2321,140.625000
2322,140.625000
2323,140.625000
2324,140.625000
2325,140.625000
2326,140.625000
2327,140.625000
2328,140.625000
2329,140.625000
2330,140.625000
2331,140.625000
2332,140.625000
2333,140.625000
2334,136.718750
2335,140.625000
2336,140.625000
2337,136.718750
2338,136.718750
2339,136.718750
2340,136.718750
2341,136.718750
2342,136.718750
2343,136.718750
2344,136.718750
2345,136.718750
2346,136.718750
2347,136.718750
2348,136.718750
2349,136.718750
2350,136.718750
2351,136.718750
2352,136.718750
2353,136.718750
2354,132.812500
2355,132.812500
2356,132.812500
2357,132.812500
2358,132.812500
2359,132.812500
2360,132.812500
2361,132.812500
2362,132.812500
2363,132.812500
2364,132.812500
2365,132.812500
2366,132.812500
2367,128.906250
2368,132.812500
2369,128.906250
2370,128.906250
2371,128.906250
2372,128.906250
2373,128.906250
2374,128.906250
2375,128.906250
2376,128.906250
2377,128.906250
2378,128.906250
2379,125.000000
2380,125.000000
2381,125.000000
2382,125.000000
2383,125.000000
2384,125.000000
2385,125.000000
2386,125.000000
2387,121.093750
2388,125.000000
2389,125.000000
2390,121.093750
2391,121.093750
2392,121.093750
2393,121.093750
2394,121.093750
2395,121.093750
2396,121.093750
2397,121.093750
2398,117.187500
2399,117.187500
2400,117.187500
2401,117.187500
2402,117.187500
2403,117.187500
2404,117.187500
2405,117.187500
2406,113.281250
2407,113.281250
2408,113.281250
2409,113.281250
2410,113.281250
2411,113.281250
2412,109.375000
2413,109.375000
2414,109.375000
2415,109.375000
2416,109.375000
2417,109.375000
2418,109.375000
2419,105.468750
2420,105.468750
2421,105.468750
2422,105.468750
2423,105.468750
2424,105.468750
2425,105.468750
2426,105.468750
2427,101.562500
2428,101.562500
2429,101.562500
2430,101.562500
2431,101.562500
2432,97.656250
2433,97.656250
2434,97.656250
2435,97.656250
2436,97.656250
2437,97.656250
2438,97.656250
2439,93.750000
2440,93.750000
2441,93.750000
2442,93.750000
2443,93.750000
2444,89.843750
2445,89.843750
2446,89.843750
2447,89.843750
2448,89.843750
2449,89.843750
2450,89.843750
2451,85.937500
2452,85.937500
2453,85.937500
2454,85.937500
2455,82.031250
2456,82.031250
2457,82.031250
2458,82.031250
2459,82.031250
2460,82.031250
2461,78.125000
2462,78.125000
2463,78.125000
2464,78.125000
2465,74.218750
2466,74.218750
2467,74.218750
2468,74.218750
2469,74.218750
2470,70.312500
2471,70.312500
2472,70.312500
2473,70.312500
2474,70.312500
2475,66.406250
2476,66.406250
2477,66.406250
2478,66.406250
2479,66.406250
2480,62.500000
2481,62.500000
2482,62.500000
2483,62.500000
2484,62.500000
2485,58.593750
2486,58.593750
2487,58.593750
2488,54.687500
2489,54.687500
2490,54.687500
2491,54.687500
2492,50.781250
2493,50.781250
2494,50.781250
2495,50.781250
2496,50.781250
2497,46.875000
2498,46.875000
2499,46.875000
2500,46.875000
2501,42.968750
2502,42.968750
2503,42.968750
2504,42.968750
2505,42.968750
2506,42.968750
2507,39.062500
2508,39.062500
2509,35.156250
2510,35.156250
2511,35.156250
2512,35.156250
2513,31.250000
2514,31.250000
2515,31.250000
2516,31.250000
2517,27.343750
2518,27.343750
2519,27.343750
2520,27.343750
2521,23.437500
2522,23.437500
2523,23.437500
2524,23.437500
2525,19.531250
2526,19.531250
2527,19.531250
2528,19.531250
2529,15.625000
2530,15.625000
2531,15.625000
2532,15.625000
2533,11.718750
2534,11.718750
2535,11.718750
2536,11.718750
2537,7.812500
2538,7.812500
2539,7.812500
2540,7.812500
2541,3.906250
2542,3.906250
2543,3.906250
2544,3.906250
2545,0.000000
2546,0.000000
2547,0.000000
2548,-3.906250
2549,-3.906250
2550,-3.906250
2551,-3.906250
2552,-7.812500
2553,-7.812500
2554,-7.812500
2555,-7.812500
2556,-11.718750
2557,-11.718750
2558,-11.718750
2559,-11.718750
2560,-15.625000
2561,-15.625000
2562,-15.625000
2563,-19.531250
2564,-19.531250
2565,-19.531250
2566,-19.531250
2567,-23.437500
2568,-23.437500
2569,-23.437500
2570,-23.437500
2571,-27.343750
2572,-27.343750
2573,-27.343750
2574,-31.250000
2575,-31.250000
2576,-31.250000
2577,-31.250000
2578,-35.156250
2579,-35.156250
2580,-35.156250
2581,-35.156250
2582,-39.062500
2583,-39.062500
2584,-39.062500
2585,-39.062500
2586,-42.968750
2587,-42.968750
2588,-42.968750
2589,-46.875000
2590,-46.875000
2591,-46.875000
2592,-46.875000
2593,-50.781250
2594,-50.781250
2595,-50.781250
2596,-50.781250
2597,-54.687500
2598,-54.687500
2599,-54.687500
2600,-54.687500
2601,-58.593750
2602,-58.593750
2603,-58.593750
2604,-58.593750
2605,-62.500000
2606,-62.500000
2607,-62.500000
2608,-66.406250
2609,-66.406250
2610,-66.406250
2611,-70.312500
2612,-70.312500
2613,-70.312500
2614,-70.312500
2615,-70.312500
2616,-74.218750
2617,-74.218750
2618,-74.218750
2619,-74.218750
2620,-78.125000
2621,-78.125000
2622,-78.125000
2623,-82.031250
2624,-82.031250
2625,-82.031250
2626,-82.031250
2627,-85.937500
2628,-85.937500
2629,-85.937500
2630,-85.937500
2631,-89.843750
2632,-89.843750
2633,-89.843750
2634,-89.843750
2635,-93.750000
2636,-93.750000
2637,-93.750000
2638,-93.750000
2639,-97.656250
2640,-97.656250
2641,-97.656250
2642,-97.656250
2643,-101.562500
2644,-101.562500
2645,-101.562500
2646,-101.562500
2647,-105.468750
2648,-105.468750
2649,-105.468750
2650,-105.468750
2651,-109.375000
2652,-109.375000
2653,-109.375000
2654,-109.375000
2655,-109.375000
2656,-113.281250
2657,-113.281250
2658,-113.281250
2659,-117.187500
2660,-117.187500
2661,-117.187500
2662,-117.187500
2663,-117.187500
2664,-121.093750
2665,-121.093750
2666,-121.093750
2667,-121.093750
2668,-121.093750
2669,-121.093750
2670,-125.000000
2671,-125.000000
2672,-125.000000
2673,-125.000000
2674,-128.906250
2675,-128.906250
2676,-128.906250
2677,-128.906250
2678,-128.906250
2679,-128.906250
2680,-132.812500
2681,-132.812500
2682,-132.812500
2683,-136.718750
2684,-136.718750
2685,-136.718750
2686,-136.718750
2687,-136.718750
2688,-136.718750
2689,-140.625000
2690,-140.625000
2691,-140.625000
2692,-140.625000
2693,-140.625000
2694,-140.625000
2695,-144.531250
2696,-144.531250
2697,-144.531250
2698,-144.531250
2699,-144.531250
2700,-144.531250
2701,-148.437500
2702,-148.437500
2703,-148.437500
2704,-148.437500
2705,-148.437500
2706,-148.437500
2707,-152.343750
2708,-152.343750
2709,-152.343750
2710,-152.343750
2711,-152.343750
2712,-152.343750
2713,-152.343750
2714,-156.250000
2715,-156.250000
2716,-156.250000
2717,-156.250000
2718,-156.250000
2719,-156.250000
2720,-160.156250
2721,-160.156250
2722,-160.156250
2723,-160.156250
2724,-160.156250
2725,-160.156250
2726,-160.156250
2727,-164.062500
2728,-164.062500
2729,-164.062500
2730,-164.062500
2731,-164.062500
2732,-164.062500
2733,-164.062500
2734,-164.062500
2735,-164.062500
2736,-167.968750
2737,-167.968750
2738,-167.968750
2739,-167.968750
2740,-167.968750
2741,-167.968750
2742,-167.968750
2743,-167.968750
2744,-167.968750
2745,-167.968750
2746,-171.875000
2747,-171.875000
2748,-171.875000
2749,-171.875000
2750,-171.875000
2751,-171.875000
2752,-171.875000
2753,-171.875000
2754,-171.875000
2755,-171.875000
2756,-171.875000
2757,-171.875000
2758,-175.781250
2759,-175.781250
2760,-175.781250
2761,-175.781250
2762,-175.781250
2763,-175.781250
2764,-175.781250
2765,-175.781250
2766,-175.781250
2767,-175.781250
2768,-175.781250
2769,-175.781250
2770,-175.781250
2771,-175.781250
2772,-175.781250
2773,-175.781250
2774,-175.781250
2775,-175.781250
2776,-179.687500
2777,-179.687500
2778,-179.687500
2779,-179.687500
2780,-179.687500
2781,-179.687500
2782,-179.687500
2783,-179.687500
2784,-179.687500
2785,-179.687500
2786,-179.687500
2787,-179.687500
2788,-179.687500
2789,-179.687500
2790,-179.687500
2791,-179.687500
2792,-179.687500
2793,-179.687500
2794,-179.687500
2795,-179.687500
2796,-179.687500
2797,-179.687500
2798,-179.687500
2799,-179.687500
2800,-179.687500
2801,-179.687500
2802,-179.687500
2803,-179.687500
2804,-179.687500
2805,-179.687500
2806,-179.687500
2807,-179.687500
2808,-179.687500
2809,-179.687500
2810,-179.687500
2811,-179.687500
2812,-179.687500
2813,-179.687500
2814,-179.687500
2815,-179.687500
2816,-179.687500
2817,-179.687500
2818,-179.687500
2819,-175.781250
2820,-175.781250
2821,-175.781250
2822,-175.781250
2823,-175.781250
2824,-175.781250
2825,-175.781250
2826,-175.781250
2827,-175.781250
2828,-175.781250
2829,-175.781250
2830,-171.875000
2831,-171.875000
2832,-175.781250
2833,-175.781250
2834,-171.875000
2835,-171.875000
2836,-171.875000
2837,-171.875000
2838,-171.875000
2839,-171.875000
2840,-171.875000
2841,-171.875000
2842,-171.875000
2843,-167.968750
2844,-171.875000
2845,-171.875000
2846,-171.875000
2847,-167.968750
2848,-167.968750
2849,-167.968750
2850,-167.968750
2851,-167.968750
2852,-167.968750
2853,-167.968750
2854,-167.968750
2855,-167.968750
2856,-164.062500
2857,-164.062500
2858,-164.062500
2859,-164.062500
2860,-164.062500
2861,-164.062500
2862,-164.062500
2863,-164.062500
2864,-160.156250
2865,-160.156250
2866,-160.156250
2867,-160.156250
2868,-160.156250
2869,-160.156250
2870,-160.156250
2871,-160.156250
2872,-156.250000
2873,-156.250000
2874,-156.250000
2875,-156.250000
2876,-156.250000
2877,-156.250000
2878,-152.343750
2879,-156.250000
2880,-152.343750
2881,-152.343750
2882,-152.343750
2883,-152.343750
2884,-152.343750
2885,-148.437500
2886,-148.437500
2887,-148.437500
2888,-148.437500
2889,-148.437500
2890,-148.437500
2891,-148.437500
2892,-144.531250
2893,-144.531250
2894,-144.531250
2895,-144.531250
2896,-144.531250
2897,-140.625000
2898,-140.625000
2899,-140.625000
2900,-140.625000
2901,-140.625000
2902,-140.625000
2903,-136.718750
2904,-136.718750
2905,-136.718750
2906,-136.718750
2907,-136.718750
2908,-132.812500
2909,-132.812500
2910,-132.812500
2911,-132.812500
2912,-132.812500
2913,-128.906250
2914,-128.906250
2915,-128.906250
2916,-128.906250
2917,-128.906250
2918,-125.000000
2919,-125.000000
2920,-125.000000
2921,-125.000000
2922,-125.000000
2923,-121.093750
2924,-121.093750
2925,-121.093750
2926,-121.093750
2927,-117.187500
2928,-117.187500
2929,-117.187500
2930,-117.187500
2931,-113.281250
2932,-113.281250
2933,-113.281250
2934,-113.281250
2935,-113.281250
2936,-109.375000
2937,-109.375000
2938,-109.375000
2939,-109.375000
2940,-105.468750
2941,-105.468750
2942,-105.468750
2943,-109.375000
2944,-105.468750
2945,-101.562500
2946,-101.562500
2947,-101.562500
2948,-101.562500
2949,-97.656250
2950,-97.656250
2951,-97.656250
2952,-97.656250
2953,-93.750000
2954,-93.750000
2955,-93.750000
2956,-93.750000
2957,-89.843750
2958,-89.843750
2959,-89.843750
2960,-85.937500
2961,-85.937500
2962,-85.937500
2963,-85.937500
2964,-82.031250
2965,-82.031250
2966,-82.031250
2967,-82.031250
2968,-82.031250
2969,-78.125000
2970,-78.125000
2971,-78.125000
2972,-74.218750
2973,-74.218750
2974,-74.218750
2975,-74.218750
2976,-70.312500
2977,-70.312500
2978,-70.312500
2979,-70.312500
2980,-70.312500
2981,-66.406250
2982,-66.406250
2983,-62.500000
2984,-62.500000
2985,-62.500000
2986,-62.500000
2987,-62.500000
2988,-62.500000
2989,-58.593750
2990,-58.593750
2991,-58.593750
2992,-54.687500
2993,-50.781250
2994,-54.687500
2995,-50.781250
2996,-50.781250
2997,-50.781250
2998,-50.781250
2999,-46.875000
3000,-46.875000
3001,-46.875000
3002,-46.875000
3003,-42.968750
3004,-42.968750
3005,-42.968750
3006,-39.062500
3007,-39.062500
3008,-39.062500
3009,-39.062500
3010,-35.156250
3011,-35.156250
3012,-35.156250
3013,-35.156250
3014,-31.250000
3015,-31.250000
3016,-31.250000
3017,-31.250000
3018,-27.343750
3019,-27.343750
3020,-27.343750
3021,-23.437500
3022,-23.437500
3023,-23.437500
3024,-23.437500
3025,-23.437500
3026,-19.531250
3027,-19.531250
3028,-19.531250
3029,-15.625000
3030,-15.625000
3031,-15.625000
3032,-15.625000
3033,-11.718750
3034,-11.718750
3035,-11.718750
3036,-7.812500
3037,-7.812500
3038,-7.812500
3039,-7.812500
3040,-3.906250
3041,-3.906250
3042,-3.906250
3043,-3.906250
3044,0.000000
3045,0.000000
3046,0.000000
3047,0.000000
3048,3.906250
3049,3.906250
3050,3.906250
3051,3.906250
3052,7.812500
3053,7.812500
3054,7.812500
3055,7.812500
3056,11.718750
3057,11.718750
3058,11.718750
3059,15.625000
3060,15.625000
3061,15.625000
3062,15.625000
3063,19.531250
3064,19.531250
3065,19.531250
3066,19.531250
3067,23.437500
3068,23.437500
3069,23.437500
3070,23.437500
3071,27.343750
3072,27.343750
3073,27.343750
3074,27.343750
3075,31.250000
3076,31.250000
3077,31.250000
3078,35.156250
3079,35.156250
3080,35.156250
3081,35.156250
3082,35.156250
3083,35.156250
3084,39.062500
3085,39.062500
3086,39.062500
3087,42.968750
3088,42.968750
3089,42.968750
3090,42.968750
3091,42.968750
3092,46.875000
3093,46.875000
3094,46.875000
3095,50.781250
3096,50.781250
3097,50.781250
3098,54.687500
3099,54.687500
3100,54.687500
3101,54.687500
3102,54.687500
3103,58.593750
3104,58.593750
3105,58.593750
3106,58.593750
3107,58.593750
3108,58.593750
3109,62.500000
3110,62.500000
3111,62.500000
3112,62.500000
3113,66.406250
3114,66.406250
3115,66.406250
3116,66.406250
3117,70.312500
3118,70.312500
3119,70.312500
3120,70.312500
3121,70.312500
3122,70.312500
3123,74.218750
3124,74.218750
3125,74.218750
3126,74.218750
3127,78.125000
3128,78.125000
3129,78.125000
3130,78.125000
3131,78.125000
3132,78.125000
3133,82.031250
3134,82.031250
3135,82.031250
3136,82.031250
3137,85.937500
3138,85.937500
3139,85.937500
3140,85.937500
3141,85.937500
3142,85.937500
3143,89.843750
3144,89.843750
3145,89.843750
3146,89.843750
3147,89.843750
3148,89.843750
3149,93.750000
3150,93.750000
3151,93.750000
3152,93.750000
3153,93.750000
3154,97.656250
3155,97.656250
3156,97.656250
3157,97.656250
3158,97.656250
3159,97.656250
3160,97.656250
3161,101.562500
3162,101.562500
3163,101.562500
3164,101.562500
3165,101.562500
3166,105.468750
3167,105.468750
3168,105.468750
3169,105.468750
3170,105.468750
3171,105.468750
3172,105.468750
3173,105.468750
3174,109.375000
3175,109.375000
3176,109.375000
3177,109.375000
3178,109.375000
3179,113.281250
3180,109.375000
3181,113.281250
3182,113.281250
3183,113.281250
3184,113.281250
3185,113.281250
3186,113.281250
3187,113.281250
3188,117.187500
3189,117.187500
3190,117.187500
3191,117.187500
3192,117.187500
3193,117.187500
3194,117.187500
3195,121.093750
3196,121.093750
3197,121.093750
3198,121.093750
3199,121.093750
3200,121.093750
3201,121.093750
3202,121.093750
3203,125.000000
3204,125.000000
3205,125.000000
3206,125.000000
3207,125.000000
3208,125.000000
3209,125.000000
3210,125.000000
3211,125.000000
3212,125.000000
3213,125.000000
3214,128.906250
3215,128.906250
3216,128.906250
3217,128.906250
3218,128.906250
3219,128.906250
3220,128.906250
3221,128.906250
3222,128.906250
3223,128.906250
3224,128.906250
3225,132.812500
3226,132.812500
3227,132.812500
3228,132.812500
3229,132.812500
3230,132.812500
3231,132.812500
3232,132.812500
3233,132.812500
3234,132.812500
3235,132.812500
3236,136.718750
3237,132.812500
3238,136.718750
3239,136.718750
3240,136.718750
3241,136.718750
3242,136.718750
3243,136.718750
3244,136.718750
3245,136.718750
3246,136.718750
3247,136.718750
3248,136.718750
3249,136.718750
3250,140.625000
3251,136.718750
3252,136.718750
3253,136.718750
3254,136.718750
3255,140.625000
3256,140.625000
3257,140.625000
3258,140.625000
3259,140.625000
3260,140.625000
3261,140.625000
3262,140.625000
3263,140.625000
3264,140.625000
3265,140.625000
3266,140.625000
3267,140.625000
3268,140.625000
3269,140.625000
3270,140.625000
3271,140.625000
3272,140.625000
3273,140.625000
3274,140.625000
3275,140.625000
3276,140.625000
3277,140.625000
3278,140.625000
3279,140.625000
3280,140.625000
3281,140.625000
3282,140.625000
3283,140.625000
3284,140.625000
3285,140.625000
3286,140.625000
3287,140.625000
3288,140.625000
3289,140.625000
3290,140.625000
3291,140.625000
3292,140.625000
3293,140.625000
3294,140.625000
3295,140.625000
3296,140.625000
3297,140.625000
3298,140.625000
3299,140.625000
3300,140.625000
3301,140.625000
3302,140.625000
3303,140.625000
3304,140.625000
3305,140.625000
3306,140.625000
3307,140.625000
3308,140.625000
3309,140.625000
3310,140.625000
3311,140.625000
3312,140.625000
3313,140.625000
3314,140.625000
3315,140.625000
3316,140.625000
3317,140.625000
3318,140.625000
3319,140.625000
3320,140.625000
3321,140.625000
3322,140.625000
3323,136.718750
3324,140.625000
3325,136.718750
3326,140.625000
3327,140.625000
3328,140.625000
3329,136.718750
3330,136.718750
3331,136.718750
3332,136.718750
3333,136.718750
3334,136.718750
3335,136.718750
3336,136.718750
3337,136.718750
3338,136.718750
3339,136.718750
3340,136.718750
3341,136.718750
3342,136.718750
3343,136.718750
3344,132.812500
3345,136.718750
3346,132.812500
3347,132.812500
3348,132.812500
3349,132.812500
3350,132.812500
3351,132.812500
3352,132.812500
3353,132.812500
3354,132.812500
3355,132.812500
3356,132.812500
3357,132.812500
3358,132.812500
3359,128.906250
3360,128.906250
3361,128.906250
3362,128.906250
3363,128.906250
3364,128.906250
3365,128.906250
3366,128.906250
3367,125.000000
3368,125.000000
3369,128.906250
3370,128.906250
3371,125.000000
3372,125.000000
3373,125.000000
3374,125.000000
3375,125.000000
3376,125.000000
3377,125.000000
3378,121.093750
3379,125.000000
3380,121.093750
3381,121.093750
3382,121.093750
3383,121.093750
3384,121.093750
3385,121.093750
3386,121.093750
3387,121.093750
3388,121.093750
3389,117.187500
3390,117.187500
3391,117.187500
3392,117.187500
3393,117.187500
3394,117.187500
3395,117.187500
3396,117.187500
3397,113.281250
3398,113.281250
3399,113.281250
3400,113.281250
3401,113.281250
3402,109.375000
3403,109.375000
3404,109.375000
3405,109.375000
3406,109.375000
3407,109.375000
3408,109.375000
3409,105.468750
3410,105.468750
3411,105.468750
3412,105.468750
3413,105.468750
3414,105.468750
3415,105.468750
3416,101.562500
3417,101.562500
3418,101.562500
3419,101.562500
3420,101.562500
3421,101.562500
3422,101.562500
3423,97.656250
3424,97.656250
3425,97.656250
3426,97.656250
3427,97.656250
3428,97.656250
3429,93.750000
3430,93.750000
3431,93.750000
3432,93.750000
3433,89.843750
3434,89.843750
3435,89.843750
3436,89.843750
3437,89.843750
3438,89.843750
3439,85.937500
3440,85.937500
3441,85.937500
3442,85.937500
3443,85.937500
3444,85.937500
3445,82.031250
3446,85.937500
3447,82.031250
3448,82.031250
3449,82.031250
3450,78.125000
3451,78.125000
3452,78.125000
3453,78.125000
3454,78.125000
3455,74.218750
3456,74.218750
3457,74.218750
3458,74.218750
3459,74.218750
3460,70.312500
3461,70.312500
3462,70.312500
3463,70.312500
3464,66.406250
3465,66.406250
3466,66.406250
3467,66.406250
3468,66.406250
3469,62.500000
3470,62.500000
3471,62.500000
3472,62.500000
3473,58.593750
3474,58.593750
3475,58.593750
3476,58.593750
3477,58.593750
3478,58.593750
3479,54.687500
3480,54.687500
3481,54.687500
3482,54.687500
3483,50.781250
3484,50.781250
3485,50.781250
3486,50.781250
3487,46.875000
3488,46.875000
3489,46.875000
3490,46.875000
3491,46.875000
3492,42.968750
3493,42.968750
3494,42.968750
3495,39.062500
3496,39.062500
3497,39.062500
3498,39.062500
3499,39.062500
3500,35.156250
3501,35.156250
3502,35.156250
3503,35.156250
3504,31.250000
3505,31.250000
3506,31.250000
3507,27.343750
3508,27.343750
3509,27.343750
3510,27.343750
3511,27.343750
3512,23.437500
3513,23.437500
3514,23.437500
3515,23.437500
3516,19.531250
3517,19.531250
3518,19.531250
3519,19.531250
3520,15.625000
3521,15.625000
3522,15.625000
3523,11.718750
3524,11.718750
3525,11.718750
3526,11.718750
3527,11.718750
3528,7.812500
3529,7.812500
3530,7.812500
3531,3.906250
3532,3.906250
3533,3.906250
3534,3.906250
3535,0.000000
3536,0.000000
3537,0.000000
3538,-3.906250
3539,-3.906250
3540,-3.906250
3541,-3.906250
3542,-7.812500
3543,-7.812500
3544,-7.812500
3545,-7.812500
3546,-11.718750
3547,-11.718750
3548,-11.718750
3549,-11.718750
3550,-15.625000
3551,-15.625000
3552,-15.625000
3553,-19.531250
3554,-19.531250
3555,-19.531250
3556,-19.531250
3557,-19.531250
3558,-23.437500
3559,-23.437500
3560,-27.343750
3561,-27.343750
3562,-27.343750
3563,-27.343750
3564,-31.250000
3565,-31.250000
3566,-31.250000
3567,-31.250000
3568,-35.156250
3569,-35.156250
3570,-35.156250
3571,-39.062500
3572,-39.062500
3573,-39.062500
3574,-39.062500
3575,-39.062500
3576,-42.968750
3577,-42.968750
3578,-42.968750
3579,-46.875000
3580,-46.875000
3581,-46.875000
3582,-46.875000
3583,-50.781250
3584,-50.781250
3585,-50.781250
3586,-54.687500
3587,-54.687500
3588,-54.687500
3589,-54.687500
3590,-54.687500
3591,-58.593750
3592,-58.593750
3593,-58.593750
3594,-62.500000
3595,-62.500000
3596,-62.500000
3597,-62.500000
3598,-66.406250
3599,-66.406250
3600,-66.406250
3601,-70.312500
3602,-70.312500
3603,-70.312500
3604,-70.312500
3605,-70.312500
3606,-74.218750
3607,-74.218750
3608,-74.218750
3609,-74.218750
3610,-78.125000
3611,-78.125000
3612,-78.125000
3613,-78.125000
3614,-82.031250
3615,-82.031250
3616,-82.031250
3617,-82.031250
3618,-85.937500
3619,-85.937500
3620,-85.937500
3621,-89.843750
3622,-89.843750
3623,-89.843750
3624,-89.843750
3625,-89.843750
3626,-93.750000
3627,-93.750000
3628,-93.750000
3629,-93.750000
3630,-97.656250
3631,-97.656250
3632,-97.656250
3633,-97.656250
3634,-101.562500
3635,-101.562500
3636,-101.562500
3637,-101.562500
3638,-105.468750
3639,-105.468750
3640,-105.468750
3641,-105.468750
3642,-109.375000
3643,-109.375000
3644,-109.375000
3645,-109.375000
3646,-113.281250
3647,-113.281250
3648,-113.281250
3649,-113.281250
3650,-117.187500
3651,-117.187500
3652,-117.187500
3653,-117.187500
3654,-117.187500
3655,-117.187500
3656,-121.093750
3657,-121.093750
3658,-121.093750
3659,-121.093750
3660,-125.000000
3661,-125.000000
3662,-125.000000
3663,-125.000000
3664,-125.000000
3665,-128.906250
3666,-128.906250
3667,-128.906250
3668,-128.906250
3669,-128.906250
3670,-132.812500
3671,-132.812500
3672,-132.812500
3673,-132.812500
3674,-132.812500
3675,-136.718750
3676,-136.718750
3677,-136.718750
3678,-136.718750
3679,-140.625000
3680,-140.625000
3681,-140.625000
3682,-140.625000
3683,-140.625000
3684,-140.625000
3685,-144.531250
3686,-144.531250
3687,-144.531250
3688,-144.531250
3689,-144.531250
3690,-148.437500
3691,-148.437500
3692,-148.437500
3693,-148.437500
3694,-148.437500
3695,-148.437500
3696,-152.343750
3697,-152.343750
3698,-152.343750
3699,-152.343750
3700,-152.343750
3701,-152.343750
3702,-152.343750
3703,-156.250000
3704,-156.250000
3705,-156.250000
3706,-156.250000
3707,-156.250000
3708,-156.250000
3709,-156.250000
3710,-160.156250
3711,-160.156250
3712,-160.156250
3713,-160.156250
3714,-164.062500
3715,-164.062500
3716,-160.156250
3717,-160.156250
3718,-164.062500
3719,-164.062500
3720,-164.062500
3721,-164.062500
3722,-164.062500
3723,-164.062500
3724,-164.062500
3725,-164.062500
3726,-164.062500
3727,-167.968750
3728,-167.968750
3729,-167.968750
3730,-167.968750
3731,-167.968750
3732,-167.968750
3733,-167.968750
3734,-167.968750
3735,-167.968750
3736,-167.968750
3737,-171.875000
3738,-171.875000
3739,-171.875000
3740,-171.875000
3741,-171.875000
3742,-171.875000
3743,-171.875000
3744,-171.875000
3745,-171.875000
3746,-171.875000
3747,-171.875000
3748,-171.875000
3749,-171.875000
3750,-175.781250
3751,-175.781250
3752,-175.781250
3753,-175.781250
3754,-175.781250
3755,-175.781250
3756,-175.781250
3757,-175.781250
3758,-175.781250
3759,-175.781250
3760,-175.781250
3761,-175.781250
3762,-175.781250
3763,-175.781250
3764,-175.781250
3765,-179.687500
3766,-179.687500
3767,-175.781250
3768,-175.781250
3769,-175.781250
3770,-179.687500
3771,-179.687500
3772,-179.687500
3773,-179.687500
3774,-179.687500
3775,-179.687500
3776,-179.687500
3777,-179.687500
3778,-179.687500
3779,-179.687500
3780,-179.687500
3781,-179.687500
3782,-179.687500
3783,-179.687500
3784,-179.687500
3785,-179.687500
3786,-179.687500
3787,-179.687500
3788,-179.687500
3789,-179.687500
3790,-179.687500
3791,-179.687500
3792,-179.687500
3793,-179.687500
3794,-179.687500
3795,-179.687500
3796,-175.781250
3797,-179.687500
3798,-179.687500
3799,-179.687500
3800,-179.687500
3801,-179.687500
3802,-179.687500
3803,-179.687500
3804,-179.687500
3805,-179.687500
3806,-175.781250
3807,-175.781250
3808,-175.781250
3809,-175.781250
3810,-175.781250
3811,-175.781250
3812,-175.781250
3813,-175.781250
3814,-175.781250
3815,-175.781250
3816,-175.781250
3817,-175.781250
3818,-175.781250
3819,-175.781250
3820,-175.781250
3821,-171.875000
3822,-175.781250
3823,-175.781250
3824,-171.875000
3825,-171.875000
3826,-175.781250
3827,-171.875000
3828,-171.875000
3829,-171.875000
3830,-171.875000
3831,-171.875000
3832,-171.875000
3833,-171.875000
3834,-171.875000
3835,-171.875000
3836,-167.968750
3837,-167.968750
3838,-167.968750
3839,-167.968750
3840,-167.968750
3841,-167.968750
3842,-167.968750
3843,-167.968750
3844,-167.968750
3845,-167.968750
3846,-164.062500
3847,-164.062500
3848,-164.062500
3849,-164.062500
3850,-164.062500
3851,-164.062500
3852,-164.062500
3853,-164.062500
3854,-164.062500
3855,-160.156250
3856,-160.156250
3857,-160.156250
3858,-160.156250
3859,-160.156250
3860,-160.156250
3861,-156.250000
3862,-156.250000
3863,-156.250000
3864,-156.250000
3865,-156.250000
3866,-156.250000
3867,-156.250000
3868,-152.343750
3869,-152.343750
3870,-152.343750
3871,-152.343750
3872,-152.343750
3873,-152.343750
3874,-152.343750
3875,-148.437500
3876,-148.437500
3877,-148.437500
3878,-148.437500
3879,-148.437500
3880,-144.531250
3881,-144.531250
3882,-144.531250
3883,-144.531250
3884,-144.531250
3885,-144.531250
3886,-144.531250
3887,-140.625000
3888,-140.625000
3889,-140.625000
3890,-140.625000
3891,-140.625000
3892,-136.718750
3893,-136.718750
3894,-136.718750
3895,-136.718750
3896,-136.718750
3897,-132.812500
3898,-132.812500
3899,-132.812500
3900,-132.812500
3901,-132.812500
3902,-128.906250
3903,-128.906250
3904,-128.906250
3905,-128.906250
3906,-128.906250
3907,-125.000000
3908,-125.000000
3909,-125.000000
3910,-125.000000
3911,-125.000000
3912,-121.093750
3913,-121.093750
3914,-121.093750
3915,-121.093750
3916,-117.187500
3917,-117.187500
3918,-117.187500
3919,-117.187500
3920,-113.281250
3921,-113.281250
3922,-113.281250
3923,-113.281250
3924,-113.281250
3925,-113.281250
3926,-109.375000
3927,-109.375000
3928,-109.375000
3929,-105.468750
3930,-105.468750
3931,-105.468750
3932,-105.468750
3933,-105.468750
3934,-105.468750
3935,-101.562500
3936,-101.562500
3937,-101.562500
3938,-97.656250
3939,-97.656250
3940,-97.656250
3941,-97.656250
3942,-97.656250
3943,-93.750000
3944,-93.750000
3945,-93.750000
3946,-89.843750
3947,-89.843750
3948,-89.843750
3949,-89.843750
3950,-89.843750
3951,-85.937500
3952,-85.937500
3953,-85.937500
3954,-82.031250
3955,-82.031250
3956,-82.031250
3957,-82.031250
3958,-82.031250
3959,-78.125000
3960,-78.125000
3961,-78.125000
3962,-74.218750
3963,-74.218750
3964,-74.218750
3965,-74.218750
3966,-70.312500
3967,-70.312500
3968,-70.312500
3969,-70.312500
3970,-66.406250
3971,-66.406250
3972,-66.406250
3973,-66.406250
3974,-62.500000
3975,-62.500000
3976,-62.500000
3977,-58.593750
3978,-58.593750
3979,-58.593750
3980,-58.593750
3981,-54.687500
3982,-54.687500
3983,-54.687500
3984,-50.781250
3985,-50.781250
3986,-50.781250
3987,-50.781250
3988,-50.781250
3989,-46.875000
3990,-46.875000
3991,-46.875000
3992,-42.968750
3993,-42.968750
3994,-42.968750
3995,-42.968750
3996,-39.062500
3997,-39.062500
3998,-39.062500
3999,-35.156250
4000,-35.156250
4001,-35.156250
4002,-35.156250
4003,-31.250000
4004,-31.250000
4005,-31.250000
4006,-27.343750
4007,-27.343750
4008,-27.343750
4009,-27.343750
4010,-27.343750
4011,-23.437500
4012,-23.437500
4013,-19.531250
4014,-19.531250
4015,-19.531250
4016,-19.531250
4017,-15.625000
4018,-15.625000
4019,-15.625000
4020,-15.625000
4021,-11.718750
4022,-11.718750
4023,-11.718750
4024,-11.718750
4025,-11.718750
4026,-7.812500
4027,-7.812500
4028,-7.812500
4029,-3.906250
4030,-3.906250
4031,-3.906250
4032,-3.906250
4033,0.000000
4034,0.000000
4035,0.000000
4036,3.906250
4037,3.906250
4038,3.906250
4039,3.906250
4040,7.812500
4041,7.812500
4042,7.812500
4043,7.812500
4044,7.812500
4045,11.718750
4046,11.718750
4047,11.718750
4048,15.625000
4049,15.625000
4050,15.625000
4051,15.625000
4052,19.531250
4053,19.531250
4054,19.531250
4055,19.531250
4056,23.437500
4057,23.437500
4058,23.437500
4059,23.437500
4060,27.343750
4061,27.343750
4062,27.343750
4063,31.250000
4064,31.250000
4065,31.250000
4066,31.250000
4067,31.250000
4068,35.156250
4069,35.156250
4070,35.156250
4071,35.156250
4072,35.156250
4073,39.062500
4074,39.062500
4075,39.062500
4076,39.062500
4077,42.968750
4078,42.968750
4079,42.968750
4080,42.968750
4081,46.875000
4082,46.875000
4083,46.875000
4084,46.875000
4085,50.781250
4086,50.781250
4087,50.781250
4088,50.781250
4089,50.781250
4090,54.687500
4091,54.687500
4092,54.687500
4093,54.687500
4094,58.593750
4095,58.593750
4096,58.593750
4097,58.593750
4098,62.500000
4099,62.500000
4100,62.500000
4101,62.500000
4102,66.406250
4103,66.406250
4104,66.406250
4105,66.406250
4106,66.406250
4107,70.312500
4108,70.312500
4109,70.312500
4110,70.312500
4111,70.312500
4112,70.312500
4113,74.218750
4114,74.218750
4115,74.218750
4116,74.218750
4117,78.125000
4118,78.125000
4119,78.125000
4120,78.125000
4121,82.031250
4122,82.031250
4123,82.031250
4124,82.031250
4125,82.031250
4126,82.031250
4127,89.843750
4128,85.937500
4129,85.937500
4130,85.937500
4131,85.937500
4132,85.937500
4133,93.750000
4134,89.843750
4135,89.843750
4136,89.843750
4137,89.843750
4138,93.750000
4139,93.750000
4140,93.750000
4141,93.750000
4142,93.750000
4143,93.750000
4144,97.656250
4145,97.656250
4146,97.656250
4147,97.656250
4148,97.656250
4149,97.656250
4150,101.562500
4151,101.562500
4152,101.562500
4153,101.562500
4154,101.562500
4155,105.468750
4156,105.468750
4157,105.468750
4158,105.468750
4159,105.468750
4160,105.468750
4161,105.468750
4162,109.375000
4163,109.375000
4164,109.375000
4165,109.375000
4166,109.375000
4167,109.375000
4168,109.375000
4169,113.281250
4170,113.281250
4171,113.281250
4172,113.281250
4173,113.281250
4174,113.281250
4175,113.281250
4176,117.187500
4177,113.281250
4178,117.187500
4179,117.187500
4180,117.187500
4181,117.187500
4182,117.187500
4183,121.093750
4184,117.187500
4185,121.093750
4186,121.093750
4187,121.093750
4188,121.093750
4189,121.093750
4190,121.093750
4191,121.093750
4192,121.093750
4193,125.000000
4194,125.000000
4195,125.000000
4196,125.000000
4197,125.000000
4198,125.000000
4199,125.000000
4200,125.000000
4201,125.000000
4202,125.000000
4203,125.000000
4204,128.906250
4205,128.906250
4206,128.906250
4207,128.906250
4208,128.906250
4209,128.906250
4210,128.906250
4211,128.906250
4212,128.906250
4213,128.906250
4214,132.812500
4215,128.906250
4216,132.812500
4217,132.812500
4218,132.812500
4219,132.812500
4220,132.812500
4221,132.812500
4222,132.812500
4223,132.812500
4224,132.812500
4225,132.812500
4226,132.812500
4227,132.812500
4228,132.812500
4229,136.718750
4230,136.718750
4231,136.718750
4232,136.718750
4233,136.718750
4234,136.718750
4235,136.718750
4236,136.718750
4237,136.718750
4238,136.718750
4239,136.718750
4240,136.718750
4241,136.718750
4242,136.718750
4243,136.718750
4244,136.718750
4245,136.718750
4246,136.718750
4247,140.625000
4248,140.625000
4249,140.625000
4250,140.625000
4251,140.625000
4252,140.625000
4253,140.625000
4254,140.625000
4255,140.625000
4256,140.625000
4257,140.625000
4258,140.625000
4259,140.625000
4260,140.625000
4261,140.625000
4262,140.625000
4263,140.625000
4264,140.625000
4265,140.625000
4266,140.625000
4267,140.625000
4268,140.625000
4269,140.625000
4270,140.625000
4271,140.625000
4272,140.625000
4273,140.625000
4274,140.625000
4275,140.625000
4276,140.625000
4277,140.625000
4278,140.625000
4279,140.625000
4280,140.625000
4281,140.625000
4282,140.625000
4283,140.625000
4284,140.625000
4285,140.625000
4286,140.625000
4287,140.625000
4288,140.625000
4289,140.625000
4290,140.625000
4291,140.625000
4292,140.625000
4293,140.625000
4294,140.625000
4295,140.625000
4296,140.625000
4297,140.625000
4298,140.625000
4299,140.625000
4300,140.625000
4301,140.625000
4302,140.625000
4303,140.625000
4304,140.625000
4305,140.625000
4306,140.625000
4307,140.625000
4308,140.625000
4309,140.625000
4310,140.625000
4311,140.625000
4312,140.625000
4313,140.625000
4314,140.625000
4315,140.625000
4316,140.625000
4317,136.718750
4318,140.625000
4319,136.718750
4320,136.718750
4321,136.718750
4322,136.718750
4323,136.718750
4324,136.718750
4325,136.718750
4326,136.718750
4327,136.718750
4328,136.718750
4329,136.718750
4330,136.718750
4331,132.812500
4332,136.718750
4333,132.812500
4334,132.812500
4335,132.812500
4336,132.812500
4337,132.812500
4338,132.812500
4339,132.812500
4340,132.812500
4341,132.812500
4342,132.812500
4343,132.812500
4344,132.812500
4345,132.812500
4346,132.812500
4347,128.906250
4348,128.906250
4349,128.906250
4350,128.906250
4351,128.906250
4352,128.906250
4353,128.906250
4354,128.906250
4355,128.906250
4356,128.906250
4357,128.906250
4358,128.906250
4359,125.000000
4360,125.000000
4361,125.000000
4362,125.000000
4363,125.000000
4364,125.000000
4365,125.000000
4366,125.000000
4367,121.093750
4368,121.093750
4369,121.093750
4370,121.093750
4371,121.093750
4372,121.093750
4373,121.093750
4374,121.093750
4375,121.093750
4376,117.187500
4377,117.187500
4378,117.187500
4379,117.187500
4380,117.187500
4381,117.187500
4382,117.187500
4383,117.187500
4384,117.187500
4385,113.281250
4386,113.281250
4387,113.281250
4388,113.281250
4389,113.281250
4390,109.375000
4391,113.281250
4392,109.375000
4393,109.375000
4394,109.375000
4395,109.375000
4396,109.375000
4397,109.375000
4398,109.375000
4399,105.468750
4400,105.468750
4401,105.468750
4402,105.468750
4403,105.468750
4404,105.468750
4405,101.562500
4406,105.468750
4407,101.562500
4408,101.562500
4409,101.562500
4410,101.562500
4411,101.562500
4412,97.656250
4413,97.656250
4414,97.656250
4415,97.656250
4416,97.656250
4417,93.750000
4418,93.750000
4419,93.750000
4420,93.750000
4421,89.843750
4422,93.750000
4423,89.843750
4424,89.843750
4425,93.750000
4426,89.843750
4427,89.843750
4428,89.843750
4429,85.937500
4430,85.937500
4431,85.937500
4432,85.937500
4433,85.937500
4434,85.937500
4435,82.031250
4436,82.031250
4437,82.031250
4438,82.031250
4439,78.125000
4440,78.125000
4441,78.125000
4442,78.125000
4443,78.125000
4444,74.218750
4445,74.218750
4446,74.218750
4447,74.218750
4448,74.218750
4449,70.312500
4450,70.312500
4451,70.312500
4452,70.312500
4453,70.312500
4454,66.406250
4455,66.406250
4456,66.406250
4457,66.406250
4458,66.406250
4459,62.500000
4460,62.500000
4461,62.500000
4462,58.593750
4463,58.593750
4464,58.593750
4465,58.593750
4466,58.593750
4467,58.593750
4468,54.687500
4469,54.687500
4470,54.687500
4471,50.781250
4472,50.781250
4473,50.781250
4474,50.781250
4475,46.875000
4476,46.875000
4477,46.875000
4478,46.875000
4479,46.875000
4480,42.968750
4481,42.968750
4482,42.968750
4483,42.968750
4484,39.062500
4485,39.062500
4486,39.062500
4487,39.062500
4488,35.156250
4489,35.156250
4490,35.156250
4491,35.156250
4492,31.250000
4493,31.250000
4494,31.250000
4495,31.250000
4496,31.250000
4497,27.343750
4498,27.343750
4499,27.343750
4500,23.437500
4501,23.437500
4502,23.437500
4503,27.343750
4504,19.531250
4505,19.531250
4506,15.625000
4507,19.531250
4508,15.625000
4509,15.625000
4510,15.625000
4511,15.625000
4512,11.718750
4513,11.718750
4514,11.718750
4515,11.718750
4516,7.812500
4517,7.812500
4518,7.812500
4519,7.812500
4520,3.906250
4521,3.906250
4522,3.906250
4523,0.000000
4524,0.000000
4525,0.000000
4526,0.000000
4527,0.000000
4528,-3.906250
4529,-3.906250
4530,-3.906250
4531,-7.812500
4532,-7.812500
4533,-7.812500
4534,-7.812500
4535,-7.812500
4536,-11.718750
4537,-11.718750
4538,-11.718750
4539,-15.625000
4540,-15.625000
4541,-15.625000
4542,-19.531250
4543,-19.531250
4544,-19.531250
4545,-19.531250
4546,-19.531250
4547,-23.437500
4548,-23.437500
4549,-23.437500
4550,-27.343750
4551,-27.343750
4552,-27.343750
4553,-27.343750
4554,-31.250000
4555,-31.250000
4556,-31.250000
4557,-35.156250
4558,-35.156250
4559,-35.156250
4560,-35.156250
4561,-39.062500
4562,-39.062500
4563,-39.062500
4564,-42.968750
4565,-42.968750
4566,-42.968750
4567,-42.968750
4568,-46.875000
4569,-46.875000
4570,-46.875000
4571,-46.875000
4572,-50.781250
4573,-50.781250
4574,-50.781250
4575,-50.781250
4576,-54.687500
4577,-54.687500
4578,-58.593750
4579,-58.593750
4580,-58.593750
4581,-58.593750
4582,-58.593750
4583,-62.500000
4584,-62.500000
4585,-62.500000
4586,-62.500000
4587,-66.406250
4588,-66.406250
4589,-66.406250
4590,-70.312500
4591,-70.312500
4592,-70.312500
4593,-70.312500
4594,-74.218750
4595,-74.218750
4596,-74.218750
4597,-74.218750
4598,-74.218750
4599,-78.125000
4600,-78.125000
4601,-78.125000
4602,-82.031250
4603,-82.031250
4604,-82.031250
4605,-85.937500
4606,-85.937500
4607,-85.937500
4608,-85.937500
4609,-85.937500
4610,-89.843750
4611,-89.843750
4612,-89.843750
4613,-89.843750
4614,-93.750000
4615,-93.750000
4616,-93.750000
4617,-93.750000
4618,-97.656250
4619,-93.750000
4620,-97.656250
4621,-97.656250
4622,-101.562500
4623,-101.562500
4624,-101.562500
4625,-101.562500
4626,-101.562500
4627,-105.468750
4628,-105.468750
4629,-105.468750
4630,-109.375000
4631,-109.375000
4632,-109.375000
4633,-109.375000
4634,-109.375000
4635,-113.281250
4636,-113.281250
4637,-113.281250
4638,-113.281250
4639,-113.281250
4640,-117.187500
4641,-117.187500
4642,-117.187500
4643,-117.187500
4644,-121.093750
4645,-121.093750
4646,-121.093750
4647,-125.000000
4648,-125.000000
4649,-125.000000
4650,-125.000000
4651,-125.000000
4652,-125.000000
4653,-128.906250
4654,-128.906250
4655,-128.906250
4656,-128.906250
4657,-128.906250
4658,-132.812500
4659,-132.812500
4660,-132.812500
4661,-132.812500
4662,-132.812500
4663,-136.718750
4664,-136.718750
4665,-136.718750
4666,-136.718750
4667,-136.718750
4668,-140.625000
4669,-140.625000
4670,-140.625000
4671,-140.625000
4672,-140.625000
4673,-140.625000
4674,-144.531250
4675,-144.531250
4676,-144.531250
4677,-144.531250
4678,-144.531250
4679,-148.437500
4680,-148.437500
4681,-148.437500
4682,-148.437500
4683,-148.437500
4684,-148.437500
4685,-148.437500
4686,-152.343750
4687,-152.343750
4688,-152.343750
4689,-152.343750
4690,-152.343750
4691,-152.343750
4692,-152.343750
4693,-156.250000
4694,-156.250000
4695,-156.250000
4696,-156.250000
4697,-156.250000
4698,-160.156250
4699,-160.156250
4700,-160.156250
4701,-160.156250
4702,-160.156250
4703,-160.156250
4704,-160.156250
4705,-160.156250
4706,-164.062500
4707,-164.062500
4708,-164.062500
4709,-164.062500
4710,-164.062500
4711,-164.062500
4712,-164.062500
4713,-164.062500
4714,-167.968750
4715,-167.968750
4716,-167.968750
4717,-167.968750
4718,-167.968750
4719,-167.968750
4720,-167.968750
4721,-167.968750
4722,-167.968750
4723,-171.875000
4724,-171.875000
4725,-171.875000
4726,-171.875000
4727,-171.875000
4728,-171.875000
4729,-171.875000
4730,-171.875000
4731,-171.875000
4732,-171.875000
4733,-171.875000
4734,-171.875000
4735,-171.875000
4736,-175.781250
4737,-175.781250
4738,-175.781250
4739,-175.781250
4740,-175.781250
4741,-175.781250
4742,-175.781250
4743,-175.781250
4744,-175.781250
4745,-175.781250
4746,-175.781250
4747,-175.781250
4748,-179.687500
4749,-179.687500
4750,-179.687500
4751,-179.687500
4752,-179.687500
4753,-179.687500
4754,-175.781250
4755,-179.687500
4756,-179.687500
4757,-179.687500
4758,-179.687500
4759,-179.687500
4760,-179.687500
4761,-179.687500
4762,-179.687500
4763,-179.687500
4764,-179.687500
4765,-179.687500
4766,-179.687500
4767,-179.687500
4768,-179.687500
4769,-179.687500
4770,-179.687500
4771,-179.687500
4772,-179.687500
4773,-179.687500
4774,-179.687500
4775,-179.687500
4776,-179.687500
4777,-179.687500
4778,-179.687500
4779,-179.687500
4780,-179.687500
4781,-179.687500
4782,-179.687500
4783,-179.687500
4784,-179.687500
4785,-179.687500
4786,-179.687500
4787,-179.687500
4788,-179.687500
4789,-179.687500
4790,-179.687500
4791,-179.687500
4792,-179.687500
4793,-175.781250
4794,-175.781250
4795,-179.687500
4796,-175.781250
4797,-175.781250
4798,-175.781250
4799,-179.687500
4800,-175.781250
4801,-175.781250
4802,-175.781250
4803,-175.781250
4804,-175.781250
4805,-175.781250
4806,-175.781250
4807,-175.781250
4808,-175.781250
4809,-175.781250
4810,-175.781250
4811,-175.781250
4812,-175.781250
4813,-175.781250
4814,-171.875000
4815,-171.875000
4816,-171.875000
4817,-171.875000
4818,-171.875000
4819,-171.875000
4820,-171.875000
4821,-171.875000
4822,-171.875000
4823,-171.875000
4824,-171.875000
4825,-171.875000
4826,-167.968750
4827,-167.968750
4828,-167.968750
4829,-167.968750
4830,-167.968750
4831,-167.968750
4832,-167.968750
4833,-167.968750
4834,-167.968750
4835,-164.062500
4836,-164.062500
4837,-164.062500
4838,-164.062500
4839,-164.062500
4840,-164.062500
4841,-164.062500
4842,-164.062500
4843,-164.062500
4844,-160.156250
4845,-160.156250
4846,-160.156250
4847,-160.156250
4848,-160.156250
4849,-160.156250
4850,-160.156250
4851,-160.156250
4852,-156.250000
4853,-156.250000
4854,-156.250000
4855,-156.250000
4856,-156.250000
4857,-156.250000
4858,-156.250000
4859,-156.250000
4860,-152.343750
4861,-152.343750
4862,-152.343750
4863,-152.343750
4864,-152.343750
4865,-148.437500
4866,-148.437500
4867,-148.437500
4868,-148.437500
4869,-148.437500
4870,-148.437500
4871,-148.437500
4872,-144.531250
4873,-144.531250
4874,-144.531250
4875,-144.531250
4876,-144.531250
4877,-140.625000
4878,-140.625000
4879,-140.625000
4880,-144.531250
4881,-140.625000
4882,-140.625000
4883,-136.718750
4884,-136.718750
4885,-136.718750
4886,-136.718750
4887,-132.812500
4888,-132.812500
4889,-132.812500
4890,-132.812500
4891,-132.812500
4892,-132.812500
4893,-128.906250
4894,-128.906250
4895,-128.906250
4896,-128.906250
4897,-128.906250
4898,-128.906250
4899,-125.000000
4900,-125.000000
4901,-125.000000
4902,-125.000000
4903,-121.093750
4904,-125.000000
4905,-121.093750
4906,-121.093750
4907,-121.093750
4908,-117.187500
4909,-117.187500
4910,-117.187500
4911,-113.281250
4912,-113.281250
4913,-113.281250
4914,-113.281250
4915,-113.281250
4916,-109.375000
4917,-109.375000
4918,-109.375000
4919,-105.468750
4920,-105.468750
4921,-105.468750
4922,-105.468750
4923,-105.468750
4924,-101.562500
4925,-101.562500
4926,-101.562500
4927,-97.656250
4928,-97.656250
4929,-97.656250
4930,-97.656250
4931,-97.656250
4932,-93.750000
4933,-93.750000
4934,-93.750000
4935,-89.843750
4936,-89.843750
4937,-89.843750
4938,-89.843750
4939,-89.843750
4940,-85.937500
4941,-85.937500
4942,-85.937500
4943,-85.937500
4944,-82.031250
4945,-82.031250
4946,-82.031250
4947,-82.031250
4948,-82.031250
4949,-78.125000
4950,-78.125000
4951,-78.125000
4952,-74.218750
4953,-74.218750
4954,-74.218750
4955,-74.218750
4956,-70.312500
4957,-70.312500
4958,-70.312500
4959,-66.406250
4960,-66.406250
4961,-66.406250
4962,-66.406250
4963,-66.406250
4964,-62.500000
4965,-62.500000
4966,-62.500000
4967,-62.500000
4968,-58.593750
4969,-58.593750
4970,-58.593750
4971,-54.687500
4972,-54.687500
4973,-54.687500
4974,-54.687500
4975,-50.781250
4976,-50.781250
4977,-50.781250
4978,-46.875000
4979,-46.875000
4980,-46.875000
4981,-46.875000
4982,-42.968750
4983,-42.968750
4984,-42.968750
4985,-42.968750
4986,-39.062500
4987,-39.062500
4988,-39.062500
4989,-39.062500
4990,-35.156250
4991,-39.062500
4992,-35.156250
4993,-35.156250
4994,-31.250000
4995,-31.250000
4996,-31.250000
4997,-27.343750
4998,-27.343750
4999,-27.343750
5000,-27.343750
5001,-27.343750
5002,-23.437500
5003,-23.437500
5004,-23.437500
5005,-23.437500
5006,-19.531250
5007,-19.531250
5008,-15.625000
5009,-15.625000
5010,-15.625000
5011,-15.625000
5012,-11.718750
5013,-11.718750
5014,-11.718750
5015,-11.718750
5016,-7.812500
5017,-7.812500
5018,-7.812500
5019,-3.906250
5020,-3.906250
5021,-3.906250
5022,-3.906250
5023,0.000000
5024,0.000000
5025,0.000000
5026,0.000000
5027,3.906250
5028,3.906250
5029,3.906250
5030,3.906250
5031,7.812500
5032,7.812500
5033,7.812500
5034,11.718750
5035,11.718750
5036,11.718750
5037,11.718750
5038,15.625000
5039,15.625000
5040,15.625000
5041,15.625000
5042,19.531250
5043,19.531250
5044,19.531250
5045,19.531250
5046,23.437500
5047,23.437500
5048,23.437500
5049,23.437500
5050,27.343750
5051,27.343750
5052,27.343750
5053,27.343750
5054,31.250000
5055,31.250000
5056,31.250000
5057,31.250000
5058,35.156250
5059,35.156250
5060,35.156250
5061,35.156250
5062,35.156250
5063,39.062500
5064,39.062500
5065,39.062500
5066,42.968750
5067,42.968750
5068,42.968750
5069,42.968750
5070,42.968750
5071,46.875000
5072,46.875000
5073,46.875000
5074,46.875000
5075,50.781250
5076,50.781250
5077,50.781250
5078,50.781250
5079,54.687500
5080,54.687500
5081,54.687500
5082,54.687500
5083,58.593750
5084,58.593750
5085,58.593750
5086,58.593750
5087,58.593750
5088,62.500000
5089,62.500000
5090,62.500000
5091,62.500000
5092,62.500000
5093,66.406250
5094,66.406250
5095,66.406250
5096,66.406250
5097,70.312500
5098,70.312500
5099,70.312500
5100,70.312500
5101,70.312500
5102,74.218750
5103,74.218750
5104,74.218750
5105,74.218750
5106,74.218750
5107,78.125000
5108,78.125000
5109,78.125000
5110,78.125000
5111,78.125000
5112,82.031250
5113,82.031250
5114,82.031250
5115,82.031250
5116,82.031250
5117,82.031250
5118,85.937500
5119,85.937500
5120,85.937500
5121,85.937500
5122,85.937500
5123,89.843750
5124,89.843750
5125,89.843750
5126,89.843750
5127,89.843750
5128,93.750000
5129,89.843750
5130,93.750000
5131,93.750000
5132,93.750000
5133,93.750000
5134,93.750000
5135,97.656250
5136,97.656250
5137,97.656250
5138,97.656250
5139,101.562500
5140,101.562500
5141,101.562500
5142,101.562500
5143,101.562500
5144,101.562500
5145,101.562500
5146,105.468750
5147,105.468750
5148,105.468750
5149,105.468750
5150,105.468750
5151,105.468750
5152,105.468750
5153,109.375000
5154,109.375000
5155,109.375000
5156,109.375000
5157,109.375000
5158,109.375000
5159,109.375000
5160,113.281250
5161,113.281250
5162,113.281250
5163,113.281250
5164,113.281250
5165,113.281250
5166,113.281250
5167,113.281250
5168,117.187500
5169,117.187500
5170,117.187500
5171,117.187500
5172,117.187500
5173,117.187500
5174,117.187500
5175,117.187500
5176,121.093750
5177,121.093750
5178,121.093750
5179,121.093750
5180,121.093750
5181,121.093750
5182,121.093750
5183,121.093750
5184,121.093750
5185,125.000000
5186,125.000000
5187,125.000000
5188,125.000000
5189,125.000000
5190,125.000000
5191,125.000000
5192,125.000000
5193,128.906250
5194,128.906250
5195,128.906250
5196,128.906250
5197,128.906250
5198,128.906250
5199,128.906250
5200,128.906250
5201,128.906250
5202,128.906250
5203,128.906250
5204,132.812500
5205,132.812500
5206,132.812500
5207,132.812500
5208,132.812500
5209,132.812500
5210,132.812500
5211,132.812500
5212,132.812500
5213,132.812500
5214,132.812500
5215,136.718750
5216,132.812500
5217,132.812500
5218,132.812500
5219,132.812500
5220,136.718750
5221,136.718750
5222,136.718750
5223,136.718750
5224,136.718750
5225,136.718750
5226,136.718750
5227,136.718750
5228,136.718750
5229,136.718750
5230,136.718750
5231,136.718750
5232,136.718750
5233,136.718750
5234,136.718750
5235,136.718750
5236,136.718750
5237,136.718750
5238,136.718750
5239,136.718750
5240,140.625000
5241,140.625000
5242,136.718750
5243,140.625000
5244,140.625000
5245,140.625000
5246,140.625000
5247,140.625000
5248,140.625000
5249,140.625000
5250,140.625000
5251,140.625000
5252,140.625000
5253,140.625000
5254,140.625000
5255,140.625000
5256,140.625000
5257,140.625000
5258,140.625000
5259,140.625000
5260,140.625000
5261,140.625000
5262,140.625000
5263,140.625000
5264,140.625000
5265,140.625000
5266,140.625000
5267,140.625000
5268,140.625000
5269,140.625000
5270,140.625000
5271,140.625000
5272,140.625000
5273,140.625000
5274,140.625000
5275,140.625000
5276,140.625000
5277,140.625000
5278,140.625000
5279,140.625000
5280,140.625000
5281,140.625000
5282,140.625000
5283,140.625000
5284,140.625000
5285,140.625000
5286,140.625000
5287,140.625000
5288,140.625000
5289,140.625000
5290,140.625000
5291,140.625000
5292,140.625000
5293,140.625000
5294,140.625000
5295,140.625000
5296,140.625000
5297,140.625000
5298,140.625000
5299,140.625000
5300,140.625000
5301,136.718750
5302,140.625000
5303,136.718750
5304,140.625000
5305,136.718750
5306,136.718750
5307,136.718750
5308,136.718750
5309,136.718750
5310,136.718750
5311,136.718750
5312,136.718750
5313,136.718750
5314,136.718750
5315,136.718750
5316,136.718750
5317,136.718750
5318,136.718750
5319,136.718750
5320,136.718750
5321,136.718750
5322,136.718750
5323,132.812500
5324,132.812500
5325,132.812500
5326,132.812500
5327,132.812500
5328,132.812500
5329,132.812500
5330,132.812500
5331,132.812500
5332,132.812500
5333,132.812500
5334,132.812500
5335,132.812500
5336,132.812500
5337,128.906250
5338,128.906250
5339,128.906250
5340,128.906250
5341,128.906250
5342,128.906250
5343,128.906250
5344,128.906250
5345,128.906250
5346,128.906250
5347,125.000000
5348,125.000000
5349,128.906250
5350,125.000000
5351,125.000000
5352,125.000000
5353,125.000000
5354,125.000000
5355,121.093750
5356,125.000000
5357,121.093750
5358,121.093750
5359,121.093750
5360,121.093750
5361,121.093750
5362,121.093750
5363,121.093750
5364,117.187500
5365,117.187500
5366,117.187500
5367,117.187500
5368,117.187500
5369,117.187500
5370,117.187500
5371,117.187500
5372,113.281250
5373,113.281250
5374,113.281250
5375,113.281250
5376,113.281250
5377,113.281250
5378,113.281250
5379,113.281250
5380,109.375000
5381,109.375000
5382,109.375000
5383,109.375000
5384,109.375000
5385,109.375000
5386,109.375000
5387,105.468750
5388,105.468750
5389,105.468750
5390,105.468750
5391,105.468750
5392,105.468750
5393,105.468750
5394,101.562500
5395,101.562500
5396,101.562500
5397,101.562500
5398,101.562500
5399,101.562500
5400,97.656250
5401,97.656250
5402,97.656250
5403,97.656250
5404,97.656250
5405,97.656250
5406,97.656250
5407,93.750000
5408,93.750000
5409,93.750000
5410,93.750000
5411,93.750000
5412,93.750000
5413,93.750000
5414,89.843750
5415,89.843750
5416,89.843750
5417,89.843750
5418,85.937500
5419,85.937500
5420,85.937500
5421,85.937500
5422,85.937500
5423,82.031250
5424,82.031250
5425,82.031250
5426,82.031250
5427,82.031250
5428,82.031250
5429,78.125000
5430,78.125000
5431,78.125000
5432,78.125000
5433,78.125000
5434,74.218750
5435,74.218750
5436,74.218750
5437,74.218750
5438,70.312500
5439,70.312500
5440,70.312500
5441,70.312500
5442,70.312500
5443,70.312500
5444,66.406250
5445,66.406250
5446,66.406250
5447,66.406250
5448,62.500000
5449,62.500000
5450,62.500000
5451,62.500000
5452,62.500000
5453,58.593750
5454,58.593750
5455,58.593750
5456,58.593750
5457,54.687500
5458,54.687500
5459,54.687500
5460,54.687500
5461,50.781250
5462,50.781250
5463,50.781250
5464,50.781250
5465,50.781250
5466,46.875000
5467,46.875000
5468,46.875000
5469,46.875000
5470,42.968750
5471,42.968750
5472,42.968750
5473,42.968750
5474,39.062500
5475,39.062500
5476,39.062500
5477,35.156250
5478,35.156250
5479,35.156250
5480,35.156250
5481,35.156250
5482,35.156250
5483,31.250000
5484,31.250000
5485,27.343750
5486,27.343750
5487,27.343750
5488,27.343750
5489,27.343750
5490,23.437500
5491,23.437500
5492,23.437500
5493,19.531250
5494,19.531250
5495,19.531250
5496,19.531250
5497,19.531250
5498,15.625000
5499,15.625000
5500,15.625000
5501,15.625000
5502,11.718750
5503,11.718750
5504,11.718750
5505,11.718750
5506,7.812500
5507,7.812500
5508,7.812500
5509,3.906250
5510,3.906250
5511,3.906250
5512,3.906250
5513,0.000000
5514,0.000000
5515,0.000000
5516,0.000000
5517,-3.906250
5518,-3.906250
5519,-3.906250
5520,-7.812500
5521,-7.812500
5522,-7.812500
5523,-7.812500
5524,-11.718750
5525,-11.718750
5526,-11.718750
5527,-15.625000
5528,-15.625000
5529,-15.625000
5530,-15.625000
5531,-15.625000
5532,-19.531250
5533,-19.531250
5534,-19.531250
5535,-23.437500
5536,-23.437500
5537,-23.437500
5538,-23.437500
5539,-27.343750
5540,-27.343750
5541,-27.343750
5542,-27.343750
5543,-31.250000
5544,-31.250000
5545,-31.250000
5546,-35.156250
5547,-35.156250
5548,-35.156250
5549,-35.156250
5550,-39.062500
5551,-39.062500
5552,-39.062500
5553,-39.062500
5554,-42.968750
5555,-42.968750
5556,-42.968750
5557,-46.875000
5558,-46.875000
5559,-46.875000
5560,-46.875000
5561,-50.781250
5562,-50.781250
5563,-50.781250
5564,-50.781250
5565,-54.687500
5566,-54.687500
5567,-54.687500
5568,-54.687500
5569,-58.593750
5570,-58.593750
5571,-58.593750
5572,-62.500000
5573,-62.500000
5574,-62.500000
5575,-62.500000
5576,-62.500000
5577,-66.406250
5578,-66.406250
5579,-66.406250
5580,-70.312500
5581,-70.312500
5582,-70.312500
5583,-70.312500
5584,-74.218750
5585,-74.218750
5586,-74.218750
5587,-74.218750
5588,-78.125000
5589,-78.125000
5590,-78.125000
5591,-82.031250
5592,-82.031250
5593,-82.031250
5594,-82.031250
5595,-82.031250
5596,-85.937500
5597,-85.937500
5598,-85.937500
5599,-85.937500
5600,-89.843750
5601,-89.843750
5602,-89.843750
5603,-93.750000
5604,-93.750000
5605,-93.750000
5606,-93.750000
5607,-97.656250
5608,-97.656250
5609,-97.656250
5610,-97.656250
5611,-97.656250
5612,-101.562500
5613,-101.562500
5614,-101.562500
5615,-105.468750
5616,-105.468750
5617,-105.468750
5618,-105.468750
5619,-109.375000
5620,-109.375000
5621,-109.375000
5622,-109.375000
5623,-109.375000
5624,-113.281250
5625,-113.281250
5626,-113.281250
5627,-113.281250
5628,-117.187500
5629,-117.187500
5630,-117.187500
5631,-117.187500
5632,-117.187500
5633,-121.093750
5634,-121.093750
5635,-121.093750
5636,-121.093750
5637,-125.000000
5638,-125.000000
5639,-125.000000
5640,-125.000000
5641,-125.000000
5642,-125.000000
5643,-128.906250
5644,-128.906250
5645,-128.906250
5646,-128.906250
5647,-132.812500
5648,-132.812500
5649,-132.812500
5650,-132.812500
5651,-132.812500
5652,-136.718750
5653,-136.718750
5654,-136.718750
5655,-136.718750
5656,-136.718750
5657,-136.718750
5658,-140.625000
5659,-140.625000
5660,-140.625000
5661,-140.625000
5662,-140.625000
5663,-144.531250
5664,-144.531250
5665,-144.531250
5666,-144.531250
5667,-144.531250
5668,-144.531250
5669,-148.437500
5670,-148.437500
5671,-148.437500
5672,-148.437500
5673,-148.437500
5674,-148.437500
5675,-152.343750
5676,-152.343750
5677,-152.343750
5678,-152.343750
5679,-152.343750
5680,-152.343750
5681,-156.250000
5682,-156.250000
5683,-156.250000
5684,-156.250000
5685,-156.250000
5686,-156.250000
5687,-156.250000
5688,-160.156250
5689,-160.156250
5690,-160.156250
5691,-160.156250
5692,-160.156250
5693,-160.156250
5694,-160.156250
5695,-160.156250
5696,-164.062500
5697,-164.062500
5698,-164.062500
5699,-164.062500
5700,-164.062500
5701,-164.062500
5702,-164.062500
5703,-164.062500
5704,-167.968750
5705,-167.968750
5706,-167.968750
5707,-167.968750
5708,-167.968750
5709,-167.968750
5710,-167.968750
5711,-167.968750
5712,-167.968750
5713,-167.968750
5714,-171.875000
5715,-171.875000
5716,-171.875000
5717,-171.875000
5718,-171.875000
5719,-171.875000
5720,-171.875000
5721,-171.875000
5722,-171.875000
5723,-171.875000
5724,-175.781250
5725,-175.781250
5726,-175.781250
5727,-175.781250
5728,-175.781250
5729,-175.781250
5730,-175.781250
5731,-175.781250
5732,-175.781250
5733,-175.781250
5734,-175.781250
5735,-175.781250
5736,-175.781250
5737,-179.687500
5738,-179.687500
5739,-175.781250
5740,-175.781250
5741,-175.781250
5742,-179.687500
5743,-179.687500
5744,-179.687500
5745,-179.687500
5746,-179.687500
5747,-179.687500
5748,-179.687500
5749,-179.687500
5750,-179.687500
5751,-179.687500
5752,-179.687500
5753,-179.687500
5754,-179.687500
5755,-179.687500
5756,-179.687500
5757,-179.687500
5758,-179.687500
5759,-179.687500
5760,-179.687500
5761,-179.687500
5762,-179.687500
5763,-179.687500
5764,-179.687500
5765,-179.687500
5766,-179.687500
5767,-179.687500
5768,-179.687500
5769,-179.687500
5770,-179.687500
5771,-179.687500
5772,-179.687500
5773,-179.687500
5774,-179.687500
5775,-179.687500
5776,-179.687500
5777,-179.687500
5778,-179.687500
5779,-179.687500
5780,-179.687500
5781,-179.687500
5782,-179.687500
5783,-179.687500
5784,-179.687500
5785,-179.687500
5786,-175.781250
5787,-179.687500
5788,-179.687500
5789,-179.687500
5790,-179.687500
5791,-175.781250
5792,-175.781250
5793,-175.781250
5794,-175.781250
5795,-175.781250
5796,-175.781250
5797,-175.781250
5798,-175.781250
5799,-175.781250
5800,-175.781250
5801,-175.781250
5802,-175.781250
5803,-175.781250
5804,-175.781250
5805,-171.875000
5806,-171.875000
5807,-171.875000
5808,-171.875000
5809,-171.875000
5810,-171.875000
5811,-171.875000
5812,-171.875000
5813,-171.875000
5814,-171.875000
5815,-171.875000
5816,-171.875000
5817,-167.968750
5818,-167.968750
5819,-167.968750
5820,-167.968750
5821,-167.968750
5822,-167.968750
5823,-167.968750
5824,-167.968750
5825,-164.062500
5826,-164.062500
5827,-164.062500
5828,-164.062500
5829,-164.062500
5830,-164.062500
5831,-164.062500
5832,-160.156250
5833,-164.062500
5834,-164.062500
5835,-160.156250
5836,-160.156250
5837,-160.156250
5838,-160.156250
5839,-160.156250
5840,-160.156250
5841,-160.156250
5842,-156.250000
5843,-156.250000
5844,-156.250000
5845,-156.250000
5846,-156.250000
5847,-156.250000
5848,-152.343750
5849,-152.343750
5850,-152.343750
5851,-152.343750
5852,-152.343750
5853,-152.343750
5854,-148.437500
5855,-148.437500
5856,-148.437500
5857,-148.437500
5858,-148.437500
5859,-148.437500
5860,-148.437500
5861,-144.531250
5862,-144.531250
5863,-144.531250
5864,-144.531250
5865,-140.625000
5866,-140.625000
5867,-140.625000
5868,-140.625000
5869,-140.625000
5870,-140.625000
5871,-140.625000
5872,-136.718750
5873,-136.718750
5874,-136.718750
5875,-136.718750
5876,-132.812500
5877,-132.812500
5878,-132.812500
5879,-132.812500
5880,-132.812500
5881,-132.812500
5882,-132.812500
5883,-128.906250
5884,-128.906250
5885,-128.906250
5886,-128.906250
5887,-125.000000
5888,-125.000000
5889,-125.000000
5890,-125.000000
5891,-125.000000
5892,-121.093750
5893,-121.093750
5894,-121.093750
5895,-121.093750
5896,-121.093750
5897,-117.187500
5898,-117.187500
5899,-117.187500
5900,-117.187500
5901,-117.187500
5902,-113.281250
5903,-113.281250
5904,-113.281250
5905,-113.281250
5906,-109.375000
5907,-109.375000
5908,-109.375000
5909,-109.375000
5910,-105.468750
5911,-105.468750
5912,-105.468750
5913,-105.468750
5914,-101.562500
5915,-101.562500
5916,-101.562500
5917,-101.562500
5918,-97.656250
5919,-97.656250
5920,-97.656250
5921,-97.656250
5922,-97.656250
5923,-93.750000
5924,-93.750000
5925,-93.750000
5926,-93.750000
5927,-89.843750
5928,-89.843750
5929,-89.843750
5930,-85.937500
5931,-85.937500
5932,-85.937500
5933,-85.937500
5934,-82.031250
5935,-82.031250
5936,-82.031250
5937,-82.031250
5938,-82.031250
5939,-78.125000
5940,-78.125000
5941,-78.125000
5942,-74.218750
5943,-74.218750
5944,-74.218750
5945,-70.312500
5946,-70.312500
5947,-70.312500
5948,-70.312500
5949,-70.312500
5950,-66.406250
5951,-66.406250
5952,-66.406250
5953,-62.500000
5954,-62.500000
5955,-62.500000
5956,-62.500000
5957,-58.593750
5958,-58.593750
5959,-58.593750
5960,-58.593750
5961,-54.687500
5962,-54.687500
5963,-54.687500
5964,-50.781250
5965,-50.781250
5966,-50.781250
5967,-50.781250
5968,-46.875000
5969,-46.875000
5970,-46.875000
5971,-46.875000
5972,-42.968750
5973,-42.968750
5974,-42.968750
5975,-42.968750
5976,-39.062500
5977,-39.062500
5978,-39.062500
5979,-35.156250
5980,-35.156250
5981,-35.156250
5982,-35.156250
5983,-31.250000
5984,-35.156250
5985,-31.250000
5986,-31.250000
5987,-27.343750
5988,-27.343750
5989,-27.343750
5990,-27.343750
5991,-23.437500
5992,-23.437500
5993,-23.437500
5994,-23.437500
5995,-19.531250
5996,-19.531250
5997,-19.531250
5998,-15.625000
5999,-15.625000
6000,-15.625000
6001,-11.718750
6002,-11.718750
6003,-11.718750
6004,-11.718750
6005,-11.718750
6006,-7.812500
6007,-7.812500
6008,-7.812500
6009,-7.812500
6010,-3.906250
6011,-3.906250
6012,-3.906250
6013,-3.906250
6014,0.000000
6015,0.000000
6016,3.906250
6017,3.906250
6018,3.906250
6019,3.906250
6020,7.812500
6021,7.812500
6022,7.812500
6023,7.812500
6024,11.718750
6025,11.718750
6026,11.718750
6027,11.718750
6028,11.718750
6029,15.625000
6030,15.625000
6031,15.625000
6032,15.625000
6033,19.531250
6034,19.531250
6035,19.531250
6036,23.437500
6037,23.437500
6038,23.437500
6039,23.437500
6040,23.437500
6041,27.343750
6042,31.250000
6043,31.250000
6044,31.250000
6045,31.250000
6046,31.250000
6047,31.250000
6048,35.156250
6049,35.156250
6050,35.156250
6051,35.156250
6052,35.156250
6053,39.062500
6054,39.062500
6055,39.062500
6056,42.968750
6057,42.968750
6058,42.968750
6059,42.968750
6060,42.968750
6061,46.875000
6062,46.875000
6063,46.875000
6064,46.875000
6065,50.781250
6066,50.781250
6067,50.781250
6068,50.781250
6069,54.687500
6070,54.687500
6071,50.781250
6072,58.593750
6073,58.593750
6074,58.593750
6075,58.593750
6076,58.593750
6077,62.500000
6078,62.500000
6079,62.500000
6080,62.500000
6081,66.406250
6082,62.500000
6083,62.500000
6084,66.406250
6085,66.406250
6086,66.406250
6087,70.312500
6088,70.312500
6089,70.312500
6090,70.312500
6091,70.312500
6092,74.218750
6093,74.218750
6094,74.218750
6095,74.218750
6096,74.218750
6097,78.125000
6098,78.125000
6099,78.125000
6100,78.125000
6101,78.125000
6102,82.031250
6103,82.031250
6104,82.031250
6105,82.031250
6106,82.031250
6107,85.937500
6108,85.937500
6109,85.937500
6110,85.937500
6111,89.843750
6112,89.843750
6113,89.843750
6114,89.843750
6115,89.843750
6116,89.843750
6117,89.843750
6118,93.750000
6119,93.750000
6120,93.750000
6121,93.750000
6122,93.750000
6123,93.750000
6124,93.750000
6125,97.656250
6126,97.656250
6127,97.656250
6128,97.656250
6129,97.656250
6130,101.562500
6131,101.562500
6132,101.562500
6133,101.562500
6134,101.562500
6135,105.468750
6136,101.562500
6137,105.468750
6138,105.468750
6139,105.468750
6140,105.468750
6141,105.468750
6142,105.468750
6143,105.468750
6144,109.375000
6145,109.375000
6146,109.375000
6147,109.375000
6148,109.375000
6149,109.375000
6150,113.281250
6151,113.281250
6152,113.281250
6153,113.281250
6154,113.281250
6155,113.281250
6156,113.281250
6157,113.281250
6158,117.187500
6159,117.187500
6160,117.187500
6161,117.187500
6162,117.187500
6163,117.187500
6164,117.187500
6165,117.187500
6166,121.093750
6167,121.093750
6168,121.093750
6169,121.093750
6170,121.093750
6171,121.093750
6172,121.093750
6173,121.093750
6174,121.093750
6175,125.000000
6176,125.000000
6177,125.000000
6178,125.000000
6179,125.000000
6180,125.000000
6181,125.000000
6182,125.000000
6183,125.000000
6184,125.000000
6185,128.906250
6186,128.906250
6187,128.906250
6188,128.906250
6189,128.906250
6190,128.906250
6191,128.906250
6192,128.906250
6193,128.906250
6194,128.906250
6195,128.906250
6196,132.812500
6197,132.812500
6198,132.812500
6199,132.812500
6200,132.812500
6201,132.812500
6202,132.812500
6203,132.812500
6204,132.812500
6205,132.812500
6206,132.812500
6207,132.812500
6208,132.812500
6209,136.718750
6210,136.718750
6211,136.718750
6212,136.718750
6213,136.718750
6214,136.718750
6215,136.718750
6216,136.718750
6217,136.718750
6218,136.718750
6219,136.718750
6220,136.718750
6221,136.718750
6222,136.718750
6223,136.718750
6224,136.718750
6225,136.718750
6226,136.718750
6227,136.718750
6228,140.625000
6229,140.625000
6230,140.625000
6231,140.625000
6232,140.625000
6233,140.625000
6234,140.625000
6235,140.625000
6236,140.625000
6237,140.625000
6238,140.625000
6239,140.625000
6240,140.625000
6241,140.625000
6242,140.625000
6243,140.625000
6244,140.625000
6245,140.625000
6246,140.625000
6247,140.625000
6248,140.625000
6249,140.625000
6250,140.625000
6251,140.625000
6252,140.625000
6253,140.625000
6254,140.625000
6255,140.625000
6256,140.625000
6257,140.625000
6258,140.625000
6259,140.625000
6260,140.625000
6261,140.625000
6262,140.625000
6263,140.625000
6264,140.625000
6265,140.625000
6266,140.625000
6267,140.625000
6268,140.625000
6269,140.625000
6270,140.625000
6271,140.625000
6272,140.625000
6273,140.625000
6274,140.625000
6275,140.625000
6276,140.625000
6277,140.625000
6278,140.625000
6279,140.625000
6280,140.625000
6281,140.625000
6282,140.625000
6283,140.625000
6284,140.625000
6285,140.625000
6286,140.625000
6287,136.718750
6288,136.718750
6289,140.625000
6290,136.718750
6291,136.718750
6292,136.718750
6293,136.718750
6294,136.718750
6295,136.718750
6296,136.718750
6297,136.718750
6298,136.718750
6299,136.718750
6300,136.718750
6301,136.718750
6302,136.718750
6303,136.718750
6304,136.718750
6305,136.718750
6306,136.718750
6307,136.718750
6308,136.718750
6309,132.812500
6310,132.812500
6311,132.812500
6312,132.812500
6313,132.812500
6314,132.812500
6315,132.812500
6316,132.812500
6317,132.812500
6318,132.812500
6319,132.812500
6320,132.812500
6321,132.812500
6322,132.812500
6323,132.812500
6324,132.812500
6325,128.906250
6326,132.812500
6327,128.906250
6328,128.906250
6329,128.906250
6330,128.906250
6331,128.906250
6332,128.906250
6333,128.906250
6334,128.906250
6335,128.906250
6336,128.906250
6337,125.000000
6338,125.000000
6339,125.000000
6340,125.000000
6341,125.000000
6342,125.000000
6343,125.000000
6344,125.000000
6345,125.000000
6346,121.093750
6347,121.093750
6348,121.093750
6349,121.093750
6350,121.093750
6351,121.093750
6352,121.093750
6353,121.093750
6354,121.093750
6355,117.187500
6356,117.187500
6357,117.187500
6358,117.187500
6359,117.187500
6360,117.187500
6361,117.187500
6362,117.187500
6363,113.281250
6364,113.281250
6365,113.281250
6366,113.281250
6367,113.281250
6368,113.281250
6369,113.281250
6370,109.375000
6371,109.375000
6372,109.375000
6373,109.375000
6374,109.375000
6375,109.375000
6376,109.375000
6377,105.468750
6378,105.468750
6379,105.468750
6380,105.468750
6381,105.468750
6382,105.468750
6383,105.468750
6384,101.562500
6385,101.562500
6386,101.562500
6387,101.562500
6388,101.562500
6389,97.656250
6390,97.656250
6391,97.656250
6392,97.656250
6393,97.656250
6394,97.656250
6395,97.656250
6396,93.750000
6397,93.750000
6398,93.750000
6399,93.750000
6400,93.750000
6401,93.750000
6402,89.843750
6403,89.843750
6404,89.843750
6405,89.843750
6406,85.937500
6407,85.937500
6408,85.937500
6409,85.937500
6410,85.937500
6411,82.031250
6412,82.031250
6413,82.031250
6414,82.031250
6415,82.031250
6416,78.125000
6417,78.125000
6418,78.125000
6419,78.125000
6420,74.218750
6421,78.125000
6422,78.125000
6423,74.218750
6424,74.218750
6425,74.218750
6426,74.218750
6427,74.218750
6428,70.312500
6429,70.312500
6430,70.312500
6431,70.312500
6432,66.406250
6433,66.406250
6434,66.406250
6435,66.406250
6436,62.500000
6437,62.500000
6438,62.500000
6439,62.500000
6440,62.500000
6441,58.593750
6442,58.593750
6443,58.593750
6444,58.593750
6445,58.593750
6446,54.687500
6447,54.687500
6448,54.687500
6449,54.687500
6450,50.781250
6451,50.781250
6452,50.781250
6453,50.781250
6454,50.781250
6455,46.875000
6456,46.875000
6457,46.875000
6458,46.875000
6459,42.968750
6460,42.968750
6461,42.968750
6462,42.968750
6463,39.062500
6464,39.062500
6465,39.062500
6466,35.156250
6467,35.156250
6468,35.156250
6469,35.156250
6470,35.156250
6471,35.156250
6472,31.250000
6473,31.250000
6474,31.250000
6475,27.343750
6476,27.343750
6477,27.343750
6478,27.343750
6479,23.437500
6480,23.437500
6481,23.437500
6482,23.437500
6483,19.531250
6484,19.531250
6485,19.531250
6486,19.531250
6487,15.625000
6488,15.625000
6489,15.625000
6490,15.625000
6491,11.718750
6492,11.718750
6493,11.718750
6494,11.718750
6495,7.812500
6496,7.812500
6497,7.812500
6498,3.906250
6499,3.906250
6500,3.906250
6501,3.906250
6502,0.000000
6503,0.000000
6504,0.000000
6505,0.000000
6506,-3.906250
6507,-3.906250
6508,-3.906250
6509,-3.906250
6510,-7.812500
6511,-7.812500
6512,-7.812500
6513,-11.718750
6514,-11.718750
6515,-11.718750
6516,-15.625000
6517,-15.625000
6518,-15.625000
6519,-15.625000
6520,-15.625000
6521,-19.531250
6522,-19.531250
6523,-19.531250
6524,-19.531250
6525,-23.437500
6526,-23.437500
6527,-27.343750
6528,-27.343750
6529,-27.343750
6530,-27.343750
6531,-27.343750
6532,-31.250000
6533,-31.250000
6534,-31.250000
6535,-35.156250
6536,-35.156250
6537,-35.156250
6538,-35.156250
6539,-39.062500
6540,-39.062500
6541,-39.062500
6542,-42.968750
6543,-42.968750
6544,-42.968750
6545,-42.968750
6546,-46.875000
6547,-42.968750
6548,-46.875000
6549,-46.875000
6550,-46.875000
6551,-50.781250
6552,-50.781250
6553,-50.781250
6554,-54.687500
6555,-54.687500
6556,-54.687500
6557,-58.593750
6558,-58.593750
6559,-58.593750
6560,-58.593750
6561,-62.500000
6562,-62.500000
6563,-62.500000
6564,-62.500000
6565,-66.406250
6566,-66.406250
6567,-66.406250
6568,-70.312500
6569,-70.312500
6570,-70.312500
6571,-70.312500
6572,-70.312500
6573,-74.218750
6574,-74.218750
6575,-74.218750
6576,-78.125000
6577,-78.125000
6578,-78.125000
6579,-78.125000
6580,-82.031250
6581,-82.031250
6582,-82.031250
6583,-82.031250
6584,-85.937500
6585,-85.937500
6586,-85.937500
6587,-85.937500
6588,-89.843750
6589,-89.843750
6590,-89.843750
6591,-89.843750
6592,-89.843750
6593,-93.750000
6594,-93.750000
6595,-93.750000
6596,-97.656250
6597,-97.656250
6598,-97.656250
6599,-97.656250
6600,-97.656250
6601,-101.562500
6602,-101.562500
6603,-101.562500
6604,-105.468750
6605,-105.468750
6606,-105.468750
6607,-105.468750
6608,-105.468750
6609,-109.375000
6610,-109.375000
6611,-109.375000
6612,-109.375000
6613,-113.281250
6614,-113.281250
6615,-113.281250
6616,-113.281250
6617,-113.281250
6618,-117.187500
6619,-117.187500
6620,-117.187500
6621,-117.187500
6622,-121.093750
6623,-121.093750
6624,-121.093750
6625,-121.093750
6626,-121.093750
6627,-125.000000
6628,-125.000000
6629,-125.000000
6630,-125.000000
6631,-128.906250
6632,-128.906250
6633,-128.906250
6634,-128.906250
6635,-128.906250
6636,-132.812500
6637,-132.812500
6638,-132.812500
6639,-132.812500
6640,-132.812500
6641,-136.718750
6642,-136.718750
6643,-136.718750
6644,-136.718750
6645,-140.625000
6646,-140.625000
6647,-140.625000
6648,-140.625000
6649,-140.625000
6650,-140.625000
6651,-140.625000
6652,-144.531250
6653,-144.531250
6654,-144.531250
6655,-144.531250
6656,-144.531250
6657,-148.437500
6658,-148.437500
6659,-148.437500
6660,-148.437500
6661,-148.437500
6662,-148.437500
6663,-152.343750
6664,-152.343750
6665,-152.343750
6666,-152.343750
6667,-152.343750
6668,-152.343750
6669,-156.250000
6670,-156.250000
6671,-156.250000
6672,-156.250000
6673,-156.250000
6674,-156.250000
6675,-156.250000
6676,-156.250000
6677,-160.156250
6678,-160.156250
6679,-160.156250
6680,-160.156250
6681,-160.156250
6682,-160.156250
6683,-160.156250
6684,-164.062500
6685,-164.062500
6686,-164.062500
6687,-164.062500
6688,-164.062500
6689,-164.062500
6690,-164.062500
6691,-167.968750
6692,-167.968750
6693,-167.968750
6694,-167.968750
6695,-167.968750
6696,-167.968750
6697,-167.968750
6698,-167.968750
6699,-171.875000
6700,-167.968750
6701,-171.875000
6702,-171.875000
6703,-171.875000
6704,-171.875000
6705,-171.875000
6706,-171.875000
6707,-171.875000
6708,-171.875000
6709,-171.875000
6710,-171.875000
6711,-171.875000
6712,-171.875000
6713,-171.875000
6714,-175.781250
6715,-175.781250
6716,-175.781250
6717,-175.781250
6718,-175.781250
6719,-175.781250
6720,-175.781250
6721,-175.781250
6722,-175.781250
6723,-175.781250
6724,-175.781250
6725,-175.781250
6726,-175.781250
6727,-179.687500
6728,-179.687500
6729,-179.687500
6730,-179.687500
6731,-179.687500
6732,-179.687500
6733,-179.687500
6734,-179.687500
6735,-179.687500
6736,-179.687500
6737,-179.687500
6738,-179.687500
6739,-179.687500
6740,-179.687500
6741,-179.687500
6742,-179.687500
6743,-179.687500
6744,-179.687500
6745,-179.687500
6746,-179.687500
6747,-179.687500
6748,-179.687500
6749,-179.687500
6750,-179.687500
6751,-179.687500
6752,-179.687500
6753,-179.687500
6754,-179.687500
6755,-179.687500
6756,-179.687500
6757,-179.687500
6758,-179.687500
6759,-179.687500
6760,-179.687500
6761,-179.687500
6762,-179.687500
6763,-179.687500
6764,-179.687500
6765,-179.687500
6766,-179.687500
6767,-179.687500
6768,-179.687500
6769,-179.687500
6770,-179.687500
6771,-179.687500
6772,-179.687500
6773,-179.687500
6774,-179.687500
6775,-179.687500
6776,-179.687500
6777,-179.687500
6778,-179.687500
6779,-179.687500
6780,-179.687500
6781,-179.687500
6782,-179.687500
6783,-175.781250
6784,-175.781250
6785,-175.781250
6786,-175.781250
6787,-175.781250
6788,-175.781250
6789,-175.781250
6790,-175.781250
6791,-175.781250
6792,-175.781250
6793,-175.781250
6794,-175.781250
6795,-175.781250
6796,-175.781250
6797,-171.875000
6798,-171.875000
6799,-171.875000
6800,-171.875000
6801,-171.875000
6802,-171.875000
6803,-171.875000
6804,-171.875000
6805,-171.875000
6806,-171.875000
6807,-167.968750
6808,-171.875000
6809,-167.968750
6810,-167.968750
6811,-167.968750
6812,-167.968750
6813,-167.968750
6814,-167.968750
6815,-167.968750
6816,-167.968750
6817,-164.062500
6818,-164.062500
6819,-164.062500
6820,-164.062500
6821,-164.062500
6822,-164.062500
6823,-164.062500
6824,-164.062500
6825,-164.062500
6826,-160.156250
6827,-160.156250
6828,-156.250000
6829,-160.156250
6830,-160.156250
6831,-156.250000
6832,-156.250000
6833,-156.250000
6834,-156.250000
6835,-156.250000
6836,-156.250000
6837,-156.250000
6838,-156.250000
6839,-156.250000
6840,-152.343750
6841,-152.343750
6842,-152.343750
6843,-152.343750
6844,-152.343750
6845,-152.343750
6846,-148.437500
6847,-148.437500
6848,-148.437500
6849,-148.437500
6850,-148.437500
6851,-144.531250
6852,-144.531250
6853,-144.531250
6854,-144.531250
6855,-144.531250
6856,-144.531250
6857,-140.625000
6858,-140.625000
6859,-140.625000
6860,-140.625000
6861,-140.625000
6862,-136.718750
6863,-136.718750
6864,-136.718750
6865,-136.718750
6866,-136.718750
6867,-132.812500
6868,-132.812500
6869,-132.812500
6870,-132.812500
6871,-132.812500
6872,-128.906250
6873,-128.906250
6874,-128.906250
6875,-128.906250
6876,-128.906250
6877,-125.000000
6878,-125.000000
6879,-125.000000
6880,-125.000000
6881,-121.093750
6882,-121.093750
6883,-121.093750
6884,-121.093750
6885,-121.093750
6886,-121.093750
6887,-117.187500
6888,-117.187500
6889,-117.187500
6890,-117.187500
6891,-113.281250
6892,-113.281250
6893,-113.281250
6894,-113.281250
6895,-113.281250
6896,-109.375000
6897,-109.375000
6898,-109.375000
6899,-109.375000
6900,-105.468750
6901,-105.468750
6902,-105.468750
6903,-105.468750
6904,-101.562500
6905,-101.562500
6906,-101.562500
6907,-101.562500
6908,-97.656250
6909,-97.656250
6910,-97.656250
6911,-97.656250
6912,-93.750000
6913,-93.750000
6914,-93.750000
6915,-93.750000
6916,-89.843750
6917,-89.843750
6918,-89.843750
6919,-89.843750
6920,-85.937500
6921,-85.937500
6922,-85.937500
6923,-85.937500
6924,-85.937500
6925,-82.031250
6926,-82.031250
6927,-82.031250
6928,-78.125000
6929,-78.125000
6930,-78.125000
6931,-78.125000
6932,-74.218750
6933,-74.218750
6934,-74.218750
6935,-74.218750
6936,-70.312500
6937,-70.312500
6938,-70.312500
6939,-70.312500
6940,-66.406250
6941,-66.406250
6942,-66.406250
6943,-66.406250
6944,-62.500000
6945,-62.500000
6946,-62.500000
6947,-62.500000
6948,-58.593750
6949,-58.593750
6950,-58.593750
6951,-54.687500
6952,-54.687500
6953,-54.687500
6954,-54.687500
6955,-50.781250
6956,-50.781250
6957,-50.781250
6958,-46.875000
6959,-46.875000
6960,-46.875000
6961,-46.875000
6962,-46.875000
6963,-42.968750
6964,-42.968750
6965,-42.968750
6966,-39.062500
6967,-39.062500
6968,-39.062500
6969,-39.062500
6970,-35.156250
6971,-35.156250
6972,-31.250000
6973,-31.250000
6974,-31.250000
6975,-31.250000
6976,-31.250000
6977,-27.343750
6978,-27.343750
6979,-27.343750
6980,-23.437500
6981,-23.437500
6982,-23.437500
6983,-23.437500
6984,-19.531250
6985,-19.531250
6986,-19.531250
6987,-19.531250
6988,-19.531250
6989,-15.625000
6990,-15.625000
6991,-11.718750
6992,-11.718750
6993,-11.718750
6994,-11.718750
6995,-7.812500
6996,-7.812500
6997,-7.812500
6998,-7.812500
6999,-3.906250
7000,-3.906250
7001,-3.906250
7002,0.000000
7003,0.000000
7004,0.000000
7005,0.000000
7006,0.000000
7007,3.906250
7008,3.906250
7009,3.906250
7010,7.812500
7011,7.812500
7012,7.812500
7013,7.812500
7014,11.718750
7015,11.718750
7016,11.718750
7017,11.718750
7018,15.625000
7019,15.625000
7020,15.625000
7021,15.625000
7022,19.531250
7023,19.531250
7024,19.531250
7025,19.531250
7026,23.437500
7027,23.437500
7028,23.437500
7029,23.437500
7030,27.343750
7031,27.343750
7032,27.343750
7033,27.343750
7034,31.250000
7035,31.250000
7036,31.250000
7037,31.250000
7038,35.156250
7039,35.156250
7040,35.156250
7041,35.156250
7042,39.062500
7043,39.062500
7044,39.062500
7045,39.062500
7046,42.968750
7047,42.968750
7048,42.968750
7049,42.968750
7050,46.875000
7051,46.875000
7052,46.875000
7053,46.875000
7054,46.875000
7055,50.781250
7056,50.781250
7057,50.781250
7058,50.781250
7059,54.687500
7060,54.687500
7061,54.687500
7062,54.687500
7063,54.687500
7064,58.593750
7065,58.593750
7066,58.593750
7067,58.593750
7068,62.500000
7069,62.500000
7070,62.500000
7071,62.500000
7072,66.406250
7073,66.406250
7074,66.406250
7075,66.406250
7076,66.406250
7077,70.312500
7078,70.312500
7079,70.312500
7080,70.312500
7081,70.312500
7082,74.218750
7083,74.218750
7084,74.218750
7085,74.218750
7086,74.218750
7087,74.218750
7088,78.125000
7089,78.125000
7090,78.125000
7091,78.125000
7092,82.031250
7093,82.031250
7094,82.031250
7095,82.031250
7096,82.031250
7097,82.031250
7098,85.937500
7099,85.937500
7100,85.937500
7101,89.843750
7102,89.843750
7103,89.843750
7104,89.843750
7105,89.843750
7106,89.843750
7107,89.843750
7108,93.750000
7109,93.750000
7110,93.750000
7111,93.750000
7112,97.656250
7113,97.656250
7114,97.656250
7115,97.656250
7116,97.656250
7117,97.656250
7118,97.656250
7119,97.656250
7120,101.562500
7121,101.562500
7122,101.562500
7123,101.562500
7124,101.562500
7125,105.468750
7126,105.468750
7127,105.468750
7128,105.468750
7129,105.468750
7130,105.468750
7131,105.468750
7132,109.375000
7133,109.375000
7134,109.375000
7135,109.375000
7136,109.375000
7137,109.375000
7138,109.375000
7139,109.375000
7140,113.281250
7141,113.281250
7142,113.281250
7143,113.281250
7144,113.281250
7145,113.281250
7146,117.187500
7147,117.187500
7148,117.187500
7149,117.187500
7150,117.187500
7151,117.187500
7152,117.187500
7153,117.187500
7154,121.093750
7155,121.093750
7156,121.093750
7157,121.093750
7158,121.093750
7159,121.093750
7160,121.093750
7161,121.093750
7162,121.093750
7163,121.093750
7164,125.000000
7165,125.000000
7166,125.000000
7167,125.000000
7168,125.000000
7169,125.000000
7170,125.000000
7171,125.000000
7172,125.000000
7173,125.000000
7174,128.906250
7175,128.906250
7176,128.906250
7177,128.906250
7178,128.906250
7179,128.906250
7180,128.906250
7181,128.906250
7182,128.906250
7183,128.906250
7184,128.906250
7185,128.906250
7186,132.812500
7187,132.812500
7188,132.812500
7189,132.812500
7190,132.812500
7191,132.812500
7192,132.812500
7193,132.812500
7194,132.812500
7195,132.812500
7196,132.812500
7197,132.812500
7198,132.812500
7199,132.812500
7200,136.718750
7201,136.718750
7202,136.718750
7203,136.718750
7204,136.718750
7205,136.718750
7206,136.718750
7207,136.718750
7208,136.718750
7209,136.718750
7210,136.718750
7211,136.718750
7212,136.718750
7213,136.718750
7214,136.718750
7215,136.718750
7216,136.718750
7217,136.718750
7218,140.625000
7219,140.625000
7220,140.625000
7221,140.625000
7222,140.625000
7223,140.625000
7224,140.625000
7225,140.625000
7226,140.625000
7227,140.625000
7228,140.625000
7229,140.625000
7230,140.625000
7231,140.625000
7232,140.625000
7233,140.625000
7234,144.531250
7235,140.625000
7236,140.625000
7237,140.625000
7238,140.625000
7239,140.625000
7240,140.625000
7241,140.625000
7242,140.625000
7243,140.625000
7244,140.625000
7245,140.625000
7246,140.625000
7247,140.625000
7248,140.625000
7249,140.625000
7250,140.625000
7251,140.625000
7252,140.625000
7253,140.625000
7254,140.625000
7255,140.625000
7256,140.625000
7257,140.625000
7258,140.625000
7259,140.625000
7260,140.625000
7261,140.625000
7262,140.625000
7263,140.625000
7264,140.625000
7265,140.625000
7266,140.625000
7267,140.625000
7268,140.625000
7269,140.625000
7270,140.625000
7271,140.625000
7272,140.625000
7273,140.625000
7274,140.625000
7275,140.625000
7276,140.625000
7277,140.625000
7278,140.625000
7279,140.625000
7280,136.718750
7281,136.718750
7282,136.718750
7283,136.718750
7284,136.718750
7285,136.718750
7286,136.718750
7287,136.718750
7288,136.718750
7289,136.718750
7290,136.718750
7291,136.718750
7292,136.718750
7293,136.718750
7294,136.718750
7295,136.718750
7296,136.718750
7297,136.718750
7298,136.718750
7299,136.718750
7300,132.812500
7301,136.718750
7302,132.812500
7303,132.812500
7304,132.812500
7305,132.812500
7306,132.812500
7307,132.812500
7308,132.812500
7309,132.812500
7310,132.812500
7311,132.812500
7312,132.812500
7313,128.906250
7314,132.812500
7315,128.906250
7316,128.906250
7317,128.906250
7318,128.906250
7319,128.906250
7320,128.906250
7321,128.906250
7322,128.906250
7323,128.906250
7324,128.906250
7325,128.906250
7326,125.000000
7327,125.000000
7328,125.000000
7329,125.000000
7330,125.000000
7331,125.000000
7332,125.000000
7333,121.093750
7334,121.093750
7335,121.093750
7336,121.093750
7337,121.093750
7338,121.093750
7339,121.093750
7340,121.093750
7341,121.093750
7342,121.093750
7343,117.187500
7344,117.187500
7345,117.187500
7346,117.187500
7347,117.187500
7348,117.187500
7349,117.187500
7350,117.187500
7351,117.187500
7352,117.187500
7353,113.281250
7354,113.281250
7355,113.281250
7356,113.281250
7357,109.375000
7358,113.281250
7359,109.375000
7360,109.375000
7361,109.375000
7362,109.375000
7363,109.375000
7364,109.375000
7365,109.375000
7366,109.375000
7367,105.468750
7368,105.468750
7369,105.468750
7370,105.468750
7371,105.468750
7372,105.468750
7373,101.562500
7374,105.468750
7375,101.562500
7376,101.562500
7377,101.562500
7378,101.562500
7379,97.656250
7380,97.656250
7381,97.656250
7382,97.656250
7383,97.656250
7384,97.656250
7385,97.656250
7386,97.656250
7387,93.750000
7388,93.750000
7389,93.750000
7390,93.750000
7391,93.750000
7392,89.843750
7393,89.843750
7394,89.843750
7395,89.843750
7396,89.843750
7397,85.937500
7398,85.937500
7399,85.937500
7400,85.937500
7401,85.937500
7402,85.937500
7403,82.031250
7404,82.031250
7405,82.031250
7406,82.031250
7407,78.125000
7408,78.125000
7409,78.125000
7410,78.125000
7411,78.125000
7412,78.125000
7413,74.218750
7414,74.218750
7415,74.218750
7416,74.218750
7417,74.218750
7418,70.312500
7419,70.312500
7420,70.312500
7421,66.406250
7422,66.406250
7423,66.406250
7424,66.406250
7425,66.406250
7426,66.406250
7427,66.406250
7428,62.500000
7429,62.500000
7430,62.500000
7431,58.593750
7432,58.593750
7433,58.593750
7434,58.593750
7435,54.687500
7436,54.687500
7437,54.687500
7438,54.687500
7439,54.687500
7440,54.687500
7441,50.781250
7442,50.781250
7443,50.781250
7444,46.875000
7445,46.875000
7446,46.875000
7447,46.875000
7448,46.875000
7449,42.968750
7450,42.968750
7451,42.968750
7452,39.062500
7453,39.062500
7454,39.062500
7455,39.062500
7456,39.062500
7457,35.156250
7458,35.156250
7459,35.156250
7460,35.156250
7461,31.250000
7462,31.250000
7463,31.250000
7464,31.250000
7465,31.250000
7466,27.343750
7467,27.343750
7468,23.437500
7469,23.437500
7470,23.437500
7471,23.437500
7472,19.531250
7473,19.531250
7474,19.531250
7475,19.531250
7476,19.531250
7477,15.625000
7478,15.625000
7479,15.625000
7480,15.625000
7481,15.625000
7482,11.718750
7483,11.718750
7484,7.812500
7485,7.812500
7486,7.812500
7487,3.906250
7488,3.906250
7489,3.906250
7490,3.906250
7491,3.906250
7492,3.906250
7493,0.000000
7494,0.000000
7495,0.000000
7496,-3.906250
7497,-3.906250
7498,-3.906250
7499,-7.812500
7500,-7.812500
7501,-7.812500
7502,-7.812500
7503,-7.812500
7504,-11.718750
7505,-11.718750
7506,-11.718750
7507,-15.625000
7508,-15.625000
7509,-15.625000
7510,-15.625000
7511,-19.531250
7512,-19.531250
7513,-19.531250
7514,-23.437500
7515,-23.437500
7516,-23.437500
7517,-23.437500
7518,-23.437500
7519,-23.437500
7520,-27.343750
7521,-27.343750
7522,-31.250000
7523,-31.250000
7524,-31.250000
7525,-31.250000
7526,-35.156250
7527,-35.156250
7528,-35.156250
7529,-39.062500
7530,-39.062500
7531,-39.062500
7532,-39.062500
7533,-42.968750
7534,-42.968750
7535,-42.968750
7536,-42.968750
7537,-46.875000
7538,-46.875000
7539,-46.875000
7540,-46.875000
7541,-50.781250
7542,-50.781250
7543,-50.781250
7544,-54.687500
7545,-54.687500
7546,-54.687500
7547,-54.687500
7548,-58.593750
7549,-58.593750
7550,-58.593750
7551,-58.593750
7552,-62.500000
7553,-62.500000
7554,-62.500000
7555,-62.500000
7556,-66.406250
7557,-66.406250
7558,-66.406250
7559,-70.312500
7560,-70.312500
7561,-70.312500
7562,-70.312500
7563,-70.312500
7564,-74.218750
7565,-74.218750
7566,-74.218750
7567,-78.125000
7568,-78.125000
7569,-78.125000
7570,-78.125000
7571,-82.031250
7572,-82.031250
7573,-82.031250
7574,-82.031250
7575,-85.937500
7576,-85.937500
7577,-85.937500
7578,-85.937500
7579,-89.843750
7580,-89.843750
7581,-89.843750
7582,-93.750000
7583,-93.750000
7584,-93.750000
7585,-93.750000
7586,-97.656250
7587,-97.656250
7588,-97.656250
7589,-97.656250
7590,-101.562500
7591,-97.656250
7592,-101.562500
7593,-101.562500
7594,-101.562500
7595,-105.468750
7596,-105.468750
7597,-105.468750
7598,-109.375000
7599,-109.375000
7600,-109.375000
7601,-113.281250
7602,-109.375000
7603,-109.375000
7604,-113.281250
7605,-113.281250
7606,-113.281250
7607,-113.281250
7608,-113.281250
7609,-117.187500
7610,-117.187500
7611,-117.187500
7612,-117.187500
7613,-121.093750
7614,-121.093750
7615,-121.093750
7616,-121.093750
7617,-125.000000
7618,-125.000000
7619,-125.000000
7620,-125.000000
7621,-125.000000
7622,-128.906250
7623,-125.000000
7624,-128.906250
7625,-128.906250
7626,-128.906250
7627,-132.812500
7628,-132.812500
7629,-132.812500
7630,-132.812500
7631,-132.812500
7632,-136.718750
7633,-136.718750
7634,-136.718750
7635,-136.718750
7636,-136.718750
7637,-136.718750
7638,-140.625000
7639,-140.625000
7640,-140.625000
7641,-140.625000
7642,-140.625000
7643,-140.625000
7644,-144.531250
7645,-144.531250
7646,-144.531250
7647,-144.531250
7648,-148.437500
7649,-148.437500
7650,-148.437500
7651,-148.437500
7652,-148.437500
7653,-148.437500
7654,-148.437500
7655,-148.437500
7656,-152.343750
7657,-152.343750
7658,-152.343750
7659,-152.343750
7660,-152.343750
7661,-156.250000
7662,-156.250000
7663,-156.250000
7664,-156.250000
7665,-160.156250
7666,-156.250000
7667,-156.250000
7668,-160.156250
7669,-160.156250
7670,-160.156250
7671,-160.156250
7672,-160.156250
7673,-160.156250
7674,-160.156250
7675,-164.062500
7676,-164.062500
7677,-164.062500
7678,-164.062500
7679,-164.062500
7680,-164.062500
7681,-164.062500
7682,-164.062500
7683,-167.968750
7684,-167.968750
7685,-167.968750
7686,-167.968750
7687,-167.968750
7688,-167.968750
7689,-167.968750
7690,-167.968750
7691,-167.968750
7692,-167.968750
7693,-171.875000
7694,-171.875000
7695,-171.875000
7696,-171.875000
7697,-171.875000
7698,-171.875000
7699,-171.875000
7700,-171.875000
7701,-171.875000
7702,-171.875000
7703,-175.781250
7704,-175.781250
7705,-175.781250
7706,-175.781250
7707,-171.875000
7708,-175.781250
7709,-175.781250
7710,-175.781250
7711,-175.781250
7712,-175.781250
7713,-175.781250
7714,-175.781250
7715,-179.687500
7716,-175.781250
7717,-175.781250
7718,-175.781250
7719,-179.687500
7720,-179.687500
7721,-179.687500
7722,-179.687500
7723,-179.687500
7724,-179.687500
7725,-179.687500
7726,-179.687500
7727,-179.687500
7728,-179.687500
7729,-179.687500
7730,-179.687500
7731,-179.687500
7732,-179.687500
7733,-179.687500
7734,-179.687500
7735,-179.687500
7736,-179.687500
7737,-179.687500
7738,-179.687500
7739,-179.687500
7740,-179.687500
7741,-179.687500
7742,-179.687500
7743,-179.687500
7744,-179.687500
7745,-179.687500
7746,-179.687500
7747,-179.687500
7748,-179.687500
7749,-179.687500
7750,-179.687500
7751,-179.687500
7752,-179.687500
7753,-179.687500
7754,-179.687500
7755,-179.687500
7756,-179.687500
7757,-179.687500
7758,-179.687500
7759,-179.687500
7760,-179.687500
7761,-179.687500
7762,-179.687500
7763,-179.687500
7764,-179.687500
7765,-175.781250
7766,-175.781250
7767,-175.781250
7768,-175.781250
7769,-175.781250
7770,-175.781250
7771,-175.781250
7772,-175.781250
7773,-175.781250
7774,-175.781250
7775,-175.781250
7776,-175.781250
7777,-175.781250
7778,-175.781250
7779,-175.781250
7780,-175.781250
7781,-175.781250
7782,-175.781250
7783,-171.875000
7784,-171.875000
7785,-171.875000
7786,-171.875000
7787,-171.875000
7788,-171.875000
7789,-171.875000
7790,-171.875000
7791,-171.875000
7792,-171.875000
7793,-171.875000
7794,-171.875000
7795,-171.875000
7796,-167.968750
7797,-167.968750
7798,-167.968750
7799,-167.968750
7800,-167.968750
7801,-167.968750
7802,-167.968750
7803,-164.062500
7804,-167.968750
7805,-167.968750
7806,-164.062500
7807,-164.062500
7808,-164.062500
7809,-164.062500
7810,-164.062500
7811,-164.062500
7812,-164.062500
7813,-164.062500
7814,-160.156250
7815,-160.156250
7816,-160.156250
7817,-160.156250
7818,-160.156250
7819,-160.156250
7820,-156.250000
7821,-156.250000
7822,-156.250000
7823,-156.250000
7824,-156.250000
7825,-156.250000
7826,-156.250000
7827,-152.343750
7828,-152.343750
7829,-152.343750
7830,-152.343750
7831,-152.343750
7832,-152.343750
7833,-148.437500
7834,-148.437500
7835,-148.437500
7836,-148.437500
7837,-148.437500
7838,-148.437500
7839,-148.437500
7840,-144.531250
7841,-144.531250
7842,-144.531250
7843,-144.531250
7844,-144.531250
7845,-144.531250
7846,-140.625000
7847,-140.625000
7848,-140.625000
7849,-140.625000
7850,-136.718750
7851,-136.718750
7852,-136.718750
7853,-136.718750
7854,-136.718750
7855,-136.718750
7856,-132.812500
7857,-132.812500
7858,-132.812500
7859,-132.812500
7860,-128.906250
7861,-128.906250
7862,-128.906250
7863,-128.906250
7864,-128.906250
7865,-128.906250
7866,-125.000000
7867,-125.000000
7868,-125.000000
7869,-125.000000
7870,-121.093750
7871,-121.093750
7872,-121.093750
7873,-121.093750
7874,-121.093750
7875,-117.187500
7876,-117.187500
7877,-117.187500
7878,-117.187500
7879,-113.281250
7880,-113.281250
7881,-113.281250
7882,-113.281250
7883,-113.281250
7884,-109.375000
7885,-109.375000
7886,-109.375000
7887,-109.375000
7888,-105.468750
7889,-105.468750
7890,-105.468750
7891,-105.468750
7892,-101.562500
7893,-101.562500
7894,-101.562500
7895,-101.562500
7896,-97.656250
7897,-97.656250
7898,-97.656250
7899,-97.656250
7900,-97.656250
7901,-93.750000
7902,-93.750000
7903,-93.750000
7904,-93.750000
7905,-89.843750
7906,-89.843750
7907,-89.843750
7908,-85.937500
7909,-85.937500
7910,-85.937500
7911,-85.937500
7912,-85.937500
7913,-82.031250
7914,-82.031250
7915,-82.031250
7916,-82.031250
7917,-78.125000
7918,-78.125000
7919,-78.125000
7920,-74.218750
7921,-74.218750
7922,-74.218750
7923,-74.218750
7924,-70.312500
7925,-70.312500
7926,-70.312500
7927,-70.312500
7928,-66.406250
7929,-66.406250
7930,-66.406250
7931,-62.500000
7932,-62.500000
7933,-62.500000
7934,-62.500000
7935,-58.593750
7936,-58.593750
7937,-58.593750
7938,-58.593750
7939,-54.687500
7940,-54.687500
7941,-54.687500
7942,-54.687500
7943,-50.781250
7944,-50.781250
7945,-50.781250
7946,-50.781250
7947,-46.875000
7948,-46.875000
7949,-46.875000
7950,-46.875000
7951,-42.968750
7952,-42.968750
7953,-42.968750
7954,-39.062500
7955,-39.062500
7956,-39.062500
7957,-39.062500
7958,-39.062500
7959,-35.156250
7960,-35.156250
7961,-35.156250
7962,-31.250000
7963,-31.250000
7964,-31.250000
7965,-27.343750
7966,-27.343750
7967,-27.343750
7968,-27.343750
7969,-27.343750
7970,-23.437500
7971,-23.437500
7972,-19.531250
7973,-19.531250
7974,-19.531250
7975,-19.531250
7976,-19.531250
7977,-15.625000
7978,-15.625000
7979,-15.625000
7980,-11.718750
7981,-11.718750
7982,-11.718750
7983,-11.718750
7984,-7.812500
7985,-7.812500
7986,-7.812500
7987,-7.812500
7988,-3.906250
7989,-7.812500
7990,-3.906250
7991,0.000000
7992,-3.906250
7993,0.000000
7994,0.000000
7995,0.000000
7996,3.906250
7997,3.906250
7998,3.906250
7999,7.812500
8000,7.812500
8001,3.906250
8002,7.812500
8003,11.718750
8004,11.718750
8005,11.718750
8006,11.718750
8007,15.625000
8008,15.625000
8009,15.625000
8010,15.625000
8011,19.531250
8012,19.531250
8013,19.531250
8014,23.437500
8015,23.437500
8016,23.437500
8017,23.437500
8018,27.343750
8019,27.343750
8020,27.343750
8021,27.343750
8022,31.250000
8023,31.250000
8024,31.250000
8025,31.250000
8026,31.250000
8027,35.156250
8028,35.156250
8029,35.156250
8030,35.156250
8031,39.062500
8032,39.062500
8033,39.062500
8034,39.062500
8035,42.968750
8036,42.968750
8037,46.875000
8038,42.968750
8039,46.875000
8040,46.875000
8041,46.875000
8042,46.875000
8043,50.781250
8044,50.781250
8045,50.781250
8046,50.781250
8047,54.687500
8048,54.687500
8049,54.687500
8050,54.687500
8051,54.687500
8052,58.593750
8053,58.593750
8054,58.593750
8055,58.593750
8056,62.500000
8057,62.500000
8058,62.500000
8059,62.500000
8060,62.500000
8061,66.406250
8062,66.406250
8063,66.406250
8064,66.406250
8065,66.406250
8066,70.312500
8067,70.312500
8068,70.312500
8069,70.312500
8070,74.218750
8071,74.218750
8072,74.218750
8073,74.218750
8074,74.218750
8075,78.125000
8076,78.125000
8077,78.125000
8078,78.125000
8079,78.125000
8080,78.125000
8081,82.031250
8082,82.031250
8083,82.031250
8084,82.031250
8085,82.031250
8086,85.937500
8087,85.937500
8088,85.937500
8089,85.937500
8090,85.937500
8091,89.843750
8092,89.843750
8093,89.843750
8094,89.843750
8095,89.843750
8096,89.843750
8097,93.750000
8098,93.750000
8099,93.750000
8100,93.750000
8101,93.750000
8102,93.750000
8103,97.656250
8104,97.656250
8105,97.656250
8106,97.656250
8107,97.656250
8108,101.562500
8109,101.562500
8110,101.562500
8111,101.562500
8112,101.562500
8113,101.562500
8114,101.562500
8115,101.562500
8116,105.468750
8117,105.468750
8118,105.468750
8119,105.468750
8120,105.468750
8121,109.375000
8122,109.375000
8123,109.375000
8124,109.375000
8125,109.375000
8126,109.375000
8127,109.375000
8128,109.375000
8129,113.281250
8130,113.281250
8131,113.281250
8132,113.281250
8133,113.281250
8134,113.281250
8135,117.187500
8136,117.187500
8137,117.187500
8138,117.187500
8139,117.187500
8140,117.187500
8141,117.187500
8142,117.187500
8143,117.187500
8144,121.093750
8145,121.093750
8146,121.093750
8147,121.093750
8148,121.093750
8149,121.093750
8150,121.093750
8151,121.093750
8152,125.000000
8153,125.000000
8154,125.000000
8155,125.000000
8156,125.000000
8157,125.000000
8158,125.000000
8159,125.000000
8160,128.906250
8161,128.906250
8162,128.906250
8163,128.906250
8164,128.906250
8165,128.906250
8166,128.906250
8167,128.906250
8168,128.906250
8169,128.906250
8170,128.906250
8171,128.906250
8172,132.812500
8173,132.812500
8174,132.812500
8175,132.812500
8176,132.812500
8177,132.812500
8178,132.812500
8179,132.812500
8180,132.812500
8181,132.812500
8182,132.812500
8183,132.812500
8184,132.812500
8185,136.718750
8186,136.718750
8187,136.718750
8188,136.718750
8189,136.718750
8190,136.718750
8191,136.718750
8192,136.718750
8193,136.718750
8194,136.718750
8195,136.718750
8196,136.718750
8197,136.718750
8198,136.718750
8199,136.718750
8200,136.718750
8201,136.718750
8202,136.718750
8203,136.718750
8204,140.625000
8205,140.625000
8206,140.625000
8207,140.625000
8208,140.625000
8209,140.625000
8210,140.625000
8211,140.625000
8212,140.625000
8213,140.625000
8214,140.625000
8215,140.625000
8216,140.625000
8217,140.625000
8218,140.625000
8219,140.625000
8220,140.625000
8221,140.625000
8222,140.625000
8223,140.625000
8224,140.625000
8225,140.625000
8226,140.625000
8227,140.625000
8228,140.625000
8229,140.625000
8230,140.625000
8231,140.625000
8232,140.625000
8233,140.625000
8234,140.625000
8235,140.625000
8236,140.625000
8237,140.625000
8238,140.625000
8239,140.625000
8240,140.625000
8241,140.625000
8242,140.625000
8243,140.625000
8244,140.625000
8245,140.625000
8246,140.625000
8247,140.625000
8248,140.625000
8249,140.625000
8250,140.625000
8251,140.625000
8252,140.625000
8253,140.625000
8254,140.625000
8255,140.625000
8256,140.625000
8257,140.625000
8258,140.625000
8259,140.625000
8260,140.625000
8261,140.625000
8262,140.625000
8263,140.625000
8264,140.625000
8265,140.625000
8266,140.625000
8267,140.625000
8268,140.625000
8269,140.625000
8270,136.718750
8271,140.625000
8272,140.625000
8273,140.625000
8274,140.625000
8275,140.625000
8276,140.625000
8277,140.625000
8278,136.718750
8279,136.718750
8280,136.718750
8281,136.718750
8282,136.718750
8283,136.718750
8284,136.718750
8285,136.718750
8286,136.718750
8287,136.718750
8288,136.718750
8289,136.718750
8290,136.718750
8291,136.718750
8292,136.718750
8293,136.718750
8294,132.812500
8295,132.812500
8296,132.812500
8297,132.812500
8298,132.812500
8299,132.812500
8300,132.812500
8301,132.812500
8302,132.812500
8303,132.812500
8304,132.812500
8305,128.906250
8306,128.906250
8307,128.906250
8308,128.906250
8309,128.906250
8310,128.906250
8311,128.906250
8312,128.906250
8313,128.906250
8314,128.906250
8315,125.000000
8316,125.000000
8317,125.000000
8318,128.906250
8319,125.000000
8320,125.000000
8321,125.000000
8322,125.000000
8323,125.000000
8324,125.000000
8325,125.000000
8326,121.093750
8327,121.093750
8328,121.093750
8329,121.093750
8330,121.093750
8331,121.093750
8332,121.093750
8333,121.093750
8334,121.093750
8335,117.187500
8336,117.187500
8337,117.187500
8338,117.187500
8339,117.187500
8340,117.187500
8341,117.187500
8342,113.281250
8343,113.281250
8344,113.281250
8345,113.281250
8346,113.281250
8347,113.281250
8348,113.281250
8349,113.281250
8350,109.375000
8351,109.375000
8352,109.375000
8353,109.375000
8354,109.375000
8355,109.375000
8356,109.375000
8357,105.468750
8358,105.468750
8359,105.468750
8360,105.468750
8361,105.468750
8362,105.468750
8363,101.562500
8364,101.562500
8365,101.562500
8366,101.562500
8367,101.562500
8368,97.656250
8369,97.656250
8370,97.656250
8371,97.656250
8372,97.656250
8373,97.656250
8374,97.656250
8375,97.656250
8376,93.750000
8377,93.750000
8378,93.750000
8379,93.750000
8380,89.843750
8381,89.843750
8382,89.843750
8383,89.843750
8384,89.843750
8385,89.843750
8386,85.937500
8387,85.937500
8388,85.937500
8389,85.937500
8390,85.937500
8391,82.031250
8392,82.031250
8393,82.031250
8394,82.031250
8395,82.031250
8396,82.031250
8397,78.125000
8398,78.125000
8399,78.125000
8400,78.125000
8401,78.125000
8402,74.218750
8403,74.218750
8404,74.218750
8405,74.218750
8406,74.218750
8407,74.218750
8408,70.312500
8409,70.312500
8410,70.312500
8411,70.312500
8412,66.406250
8413,66.406250
8414,66.406250
8415,66.406250
8416,62.500000
8417,62.500000
8418,62.500000
8419,62.500000
8420,62.500000
8421,58.593750
8422,58.593750
8423,58.593750
8424,58.593750
8425,58.593750
8426,54.687500
8427,54.687500
8428,54.687500
8429,54.687500
8430,50.781250
8431,50.781250
8432,50.781250
8433,50.781250
8434,50.781250
8435,46.875000
8436,46.875000
8437,46.875000
8438,42.968750
8439,42.968750
8440,42.968750
8441,42.968750
8442,42.968750
8443,39.062500
8444,39.062500
8445,39.062500
8446,35.156250
8447,39.062500
8448,35.156250
8449,35.156250
8450,35.156250
8451,31.250000
8452,31.250000
8453,31.250000
8454,31.250000
8455,27.343750
8456,27.343750
8457,27.343750
8458,27.343750
8459,23.437500
8460,23.437500
8461,23.437500
8462,23.437500
8463,19.531250
8464,19.531250
8465,19.531250
8466,19.531250
8467,15.625000
8468,15.625000
8469,15.625000
8470,11.718750
8471,11.718750
8472,11.718750
8473,11.718750
8474,7.812500
8475,7.812500
8476,3.906250
8477,7.812500
8478,3.906250
8479,3.906250
8480,3.906250
8481,0.000000
8482,0.000000
8483,0.000000
8484,0.000000
8485,-3.906250
8486,-3.906250
8487,-3.906250
8488,-3.906250
8489,-7.812500
8490,-7.812500
8491,-7.812500
8492,-7.812500
8493,-11.718750
8494,-11.718750
8495,-11.718750
8496,-15.625000
8497,-15.625000
8498,-15.625000
8499,-15.625000
8500,-19.531250
8501,-19.531250
8502,-19.531250
8503,-19.531250
8504,-23.437500
8505,-23.437500
8506,-23.437500
8507,-23.437500
8508,-27.343750
8509,-27.343750
8510,-27.343750
8511,-31.250000
8512,-31.250000
8513,-31.250000
8514,-31.250000
8515,-35.156250
8516,-35.156250
8517,-35.156250
8518,-35.156250
8519,-39.062500
8520,-39.062500
8521,-39.062500
8522,-42.968750
8523,-42.968750
8524,-42.968750
8525,-42.968750
8526,-46.875000
8527,-46.875000
8528,-46.875000
8529,-46.875000
8530,-50.781250
8531,-50.781250
8532,-50.781250
8533,-54.687500
8534,-54.687500
8535,-54.687500
8536,-54.687500
8537,-58.593750
8538,-58.593750
8539,-58.593750
8540,-58.593750
8541,-58.593750
8542,-62.500000
8543,-62.500000
8544,-62.500000
8545,-66.406250
8546,-66.406250
8547,-66.406250
8548,-70.312500
8549,-70.312500
8550,-70.312500
8551,-70.312500
8552,-70.312500
8553,-74.218750
8554,-74.218750
8555,-74.218750
8556,-78.125000
8557,-78.125000
8558,-78.125000
8559,-78.125000
8560,-82.031250
8561,-82.031250
8562,-82.031250
8563,-82.031250
8564,-85.937500
8565,-85.937500
8566,-85.937500
8567,-85.937500
8568,-89.843750
8569,-89.843750
8570,-89.843750
8571,-89.843750
8572,-93.750000
8573,-93.750000
8574,-93.750000
8575,-93.750000
8576,-97.656250
8577,-97.656250
8578,-97.656250
8579,-97.656250
8580,-97.656250
8581,-101.562500
8582,-101.562500
8583,-101.562500
8584,-101.562500
8585,-105.468750
8586,-105.468750
8587,-105.468750
8588,-109.375000
8589,-109.375000
8590,-109.375000
8591,-109.375000
8592,-109.375000
8593,-113.281250
8594,-113.281250
8595,-113.281250
8596,-113.281250
8597,-113.281250
8598,-117.187500
8599,-117.187500
8600,-117.187500
8601,-117.187500
8602,-121.093750
8603,-121.093750
8604,-121.093750
8605,-121.093750
8606,-121.093750
8607,-125.000000
8608,-125.000000
8609,-125.000000
8610,-125.000000
8611,-128.906250
8612,-128.906250
8613,-128.906250
8614,-128.906250
8615,-128.906250
8616,-132.812500
8617,-132.812500
8618,-132.812500
8619,-132.812500
8620,-132.812500
8621,-136.718750
8622,-136.718750
8623,-136.718750
8624,-136.718750
8625,-140.625000
8626,-136.718750
8627,-140.625000
8628,-140.625000
8629,-140.625000
8630,-140.625000
8631,-140.625000
8632,-144.531250
8633,-144.531250
8634,-144.531250
8635,-144.531250
8636,-144.531250
8637,-144.531250
8638,-148.437500
8639,-148.437500
8640,-148.437500
8641,-152.343750
8642,-148.437500
8643,-152.343750
8644,-152.343750
8645,-152.343750
8646,-152.343750
8647,-152.343750
8648,-152.343750
8649,-152.343750
8650,-152.343750
8651,-156.250000
8652,-156.250000
8653,-156.250000
8654,-156.250000
8655,-156.250000
8656,-160.156250
8657,-160.156250
8658,-160.156250
8659,-160.156250
8660,-160.156250
8661,-160.156250
8662,-160.156250
8663,-160.156250
8664,-164.062500
8665,-164.062500
8666,-164.062500
8667,-164.062500
8668,-164.062500
8669,-164.062500
8670,-164.062500
8671,-164.062500
8672,-167.968750
8673,-167.968750
8674,-167.968750
8675,-167.968750
8676,-167.968750
8677,-167.968750
8678,-167.968750
8679,-167.968750
8680,-167.968750
8681,-167.968750
8682,-167.968750
8683,-171.875000
8684,-171.875000
8685,-171.875000
8686,-171.875000
8687,-171.875000
8688,-171.875000
8689,-171.875000
8690,-171.875000
8691,-171.875000
8692,-171.875000
8693,-171.875000
8694,-175.781250
8695,-175.781250
8696,-175.781250
8697,-175.781250
8698,-175.781250
8699,-175.781250
8700,-175.781250
8701,-175.781250
8702,-175.781250
8703,-175.781250
8704,-175.781250
8705,-175.781250
8706,-175.781250
8707,-175.781250
8708,-179.687500
8709,-175.781250
8710,-179.687500
8711,-175.781250
8712,-179.687500
8713,-179.687500
8714,-179.687500
8715,-179.687500
8716,-179.687500
8717,-179.687500
8718,-179.687500
8719,-179.687500
8720,-179.687500
8721,-179.687500
8722,-179.687500
8723,-179.687500
8724,-179.687500
8725,-179.687500
8726,-179.687500
8727,-179.687500
8728,-179.687500
8729,-179.687500
8730,-179.687500
8731,-179.687500
8732,-179.687500
8733,-179.687500
8734,-179.687500
8735,-179.687500
8736,-179.687500
8737,-179.687500
8738,-179.687500
8739,-179.687500
8740,-179.687500
8741,-179.687500
8742,-179.687500
8743,-179.687500
8744,-179.687500
8745,-179.687500
8746,-179.687500
8747,-179.687500
8748,-179.687500
8749,-179.687500
8750,-179.687500
8751,-179.687500
8752,-179.687500
8753,-179.687500
8754,-179.687500
8755,-179.687500
8756,-179.687500
8757,-179.687500
8758,-179.687500
8759,-175.781250
8760,-179.687500
8761,-175.781250
8762,-175.781250
8763,-175.781250
8764,-175.781250
8765,-175.781250
8766,-175.781250
8767,-175.781250
8768,-175.781250
8769,-175.781250
8770,-175.781250
8771,-175.781250
8772,-175.781250
8773,-175.781250
8774,-175.781250
8775,-171.875000
8776,-171.875000
8777,-171.875000
8778,-171.875000
8779,-171.875000
8780,-171.875000
8781,-171.875000
8782,-171.875000
8783,-171.875000
8784,-171.875000
8785,-167.968750
8786,-167.968750
8787,-167.968750
8788,-167.968750
8789,-167.968750
8790,-167.968750
8791,-167.968750
8792,-167.968750
8793,-167.968750
8794,-164.062500
8795,-164.062500
8796,-164.062500
8797,-164.062500
8798,-164.062500
8799,-164.062500
8800,-164.062500
8801,-164.062500
8802,-160.156250
8803,-160.156250
8804,-160.156250
8805,-160.156250
8806,-160.156250
8807,-160.156250
8808,-160.156250
8809,-160.156250
8810,-160.156250
8811,-156.250000
8812,-156.250000
8813,-156.250000
8814,-156.250000
8815,-156.250000
8816,-156.250000
8817,-152.343750
8818,-152.343750
8819,-152.343750
8820,-152.343750
8821,-152.343750
8822,-152.343750
8823,-152.343750
8824,-152.343750
8825,-148.437500
8826,-148.437500
8827,-148.437500
8828,-148.437500
8829,-148.437500
8830,-144.531250
8831,-144.531250
8832,-144.531250
8833,-144.531250
8834,-144.531250
8835,-144.531250
8836,-140.625000
8837,-140.625000
8838,-140.625000
8839,-140.625000
8840,-140.625000
8841,-136.718750
8842,-136.718750
8843,-136.718750
8844,-136.718750
8845,-132.812500
8846,-132.812500
8847,-132.812500
8848,-132.812500
8849,-132.812500
8850,-132.812500
8851,-128.906250
8852,-128.906250
8853,-128.906250
8854,-128.906250
8855,-128.906250
8856,-125.000000
8857,-125.000000
8858,-125.000000
8859,-125.000000
8860,-125.000000
8861,-121.093750
8862,-121.093750
8863,-121.093750
8864,-117.187500
8865,-121.093750
8866,-117.187500
8867,-117.187500
8868,-117.187500
8869,-117.187500
8870,-113.281250
8871,-113.281250
8872,-113.281250
8873,-113.281250
8874,-109.375000
8875,-109.375000
8876,-105.468750
8877,-109.375000
8878,-109.375000
8879,-105.468750
8880,-105.468750
8881,-105.468750
8882,-105.468750
8883,-101.562500
8884,-101.562500
8885,-101.562500
8886,-101.562500
8887,-97.656250
8888,-97.656250
8889,-97.656250
8890,-97.656250
8891,-93.750000
8892,-93.750000
8893,-93.750000
8894,-93.750000
8895,-89.843750
8896,-89.843750
8897,-89.843750
8898,-89.843750
8899,-85.937500
8900,-85.937500
8901,-85.937500
8902,-85.937500
8903,-85.937500
8904,-82.031250
8905,-82.031250
8906,-82.031250
8907,-78.125000
8908,-78.125000
8909,-78.125000
8910,-78.125000
8911,-74.218750
8912,-74.218750
8913,-74.218750
8914,-70.312500
8915,-70.312500
8916,-70.312500
8917,-70.312500
8918,-66.406250
8919,-66.406250
8920,-66.406250
8921,-66.406250
8922,-62.500000
8923,-62.500000
8924,-62.500000
8925,-62.500000
8926,-58.593750
8927,-58.593750
8928,-58.593750
8929,-54.687500
8930,-54.687500
8931,-54.687500
8932,-54.687500
8933,-50.781250
8934,-50.781250
8935,-50.781250
8936,-46.875000
8937,-46.875000
8938,-46.875000
8939,-46.875000
8940,-42.968750
8941,-42.968750
8942,-42.968750
8943,-42.968750
8944,-42.968750
8945,-39.062500
8946,-39.062500
8947,-35.156250
8948,-35.156250
8949,-35.156250
8950,-35.156250
8951,-35.156250
8952,-31.250000
8953,-31.250000
8954,-31.250000
8955,-27.343750
8956,-27.343750
8957,-27.343750
8958,-27.343750
8959,-23.437500
8960,-23.437500
8961,-23.437500
8962,-23.437500
8963,-19.531250
8964,-19.531250
8965,-19.531250
8966,-19.531250
8967,-15.625000
8968,-15.625000
8969,-15.625000
8970,-11.718750
8971,-11.718750
8972,-11.718750
8973,-11.718750
8974,-7.812500
8975,-7.812500
8976,-7.812500
8977,-7.812500
8978,-3.906250
8979,-3.906250
8980,-3.906250
8981,0.000000
8982,0.000000
8983,0.000000
8984,0.000000
8985,0.000000
8986,3.906250
8987,3.906250
8988,3.906250
8989,7.812500
8990,7.812500
8991,7.812500
8992,7.812500
8993,11.718750
8994,11.718750
8995,11.718750
8996,11.718750
8997,15.625000
8998,15.625000
8999,15.625000
9000,19.531250
9001,19.531250
9002,19.531250
9003,19.531250
9004,19.531250
9005,23.437500
9006,23.437500
9007,23.437500
9008,23.437500
9009,27.343750
9010,27.343750
9011,27.343750
9012,27.343750
9013,31.250000
9014,31.250000
9015,31.250000
9016,31.250000
9017,35.156250
9018,35.156250
9019,35.156250
9020,35.156250
9021,39.062500
9022,39.062500
9023,39.062500
9024,39.062500
9025,42.968750
9026,42.968750
9027,42.968750
9028,42.968750
9029,46.875000
9030,46.875000
9031,46.875000
9032,46.875000
9033,46.875000
9034,50.781250
9035,50.781250
9036,50.781250
9037,50.781250
9038,54.687500
9039,54.687500
9040,54.687500
9041,54.687500
9042,58.593750
9043,58.593750
9044,58.593750
9045,58.593750
9046,58.593750
9047,62.500000
9048,62.500000
9049,62.500000
9050,62.500000
9051,66.406250
9052,66.406250
9053,66.406250
9054,66.406250
9055,66.406250
9056,70.312500
9057,70.312500
9058,70.312500
9059,70.312500
9060,74.218750
9061,74.218750
9062,74.218750
9063,74.218750
9064,74.218750
9065,74.218750
9066,78.125000
9067,78.125000
9068,78.125000
9069,82.031250
9070,78.125000
9071,82.031250
9072,82.031250
9073,82.031250
9074,82.031250
9075,85.937500
9076,85.937500
9077,85.937500
9078,85.937500
9079,85.937500
9080,89.843750
9081,89.843750
9082,89.843750
9083,89.843750
9084,89.843750
9085,89.843750
9086,93.750000
9087,93.750000
9088,93.750000
9089,93.750000
9090,93.750000
9091,93.750000
9092,97.656250
9093,97.656250
9094,97.656250
9095,97.656250
9096,97.656250
9097,97.656250
9098,97.656250
9099,101.562500
9100,101.562500
9101,101.562500
9102,101.562500
9103,101.562500
9104,101.562500
9105,105.468750
9106,105.468750
9107,105.468750
9108,105.468750
9109,105.468750
9110,105.468750
9111,109.375000
9112,109.375000
9113,109.375000
9114,109.375000
9115,109.375000
9116,109.375000
9117,109.375000
9118,109.375000
9119,113.281250
9120,113.281250
9121,113.281250
9122,113.281250
9123,113.281250
9124,113.281250
9125,113.281250
9126,117.187500
9127,117.187500
9128,117.187500
9129,117.187500
9130,117.187500
9131,117.187500
9132,117.187500
9133,117.187500
9134,117.187500
9135,121.093750
9136,121.093750
9137,121.093750
9138,121.093750
9139,121.093750
9140,121.093750
9141,121.093750
9142,121.093750
9143,125.000000
9144,125.000000
9145,125.000000
9146,125.000000
9147,125.000000
9148,125.000000
9149,125.000000
9150,125.000000
9151,125.000000
9152,125.000000
9153,125.000000
9154,128.906250
9155,128.906250
9156,128.906250
9157,128.906250
9158,128.906250
9159,128.906250
9160,128.906250
9161,128.906250
9162,132.812500
9163,125.000000
9164,132.812500
9165,132.812500
9166,132.812500
9167,132.812500
9168,132.812500
9169,136.718750
9170,132.812500
9171,132.812500
9172,132.812500
9173,132.812500
9174,132.812500
9175,132.812500
9176,132.812500
9177,132.812500
9178,136.718750
9179,136.718750
9180,136.718750
9181,136.718750
9182,136.718750
9183,136.718750
9184,136.718750
9185,136.718750
9186,136.718750
9187,136.718750
9188,136.718750
9189,136.718750
9190,140.625000
9191,136.718750
9192,136.718750
9193,136.718750
9194,140.625000
9195,136.718750
9196,140.625000
9197,140.625000
9198,136.718750
9199,140.625000
9200,140.625000
9201,140.625000
9202,140.625000
9203,140.625000
9204,140.625000
9205,140.625000
9206,140.625000
9207,140.625000
9208,140.625000
9209,140.625000
9210,140.625000
9211,140.625000
9212,140.625000
9213,140.625000
9214,140.625000
9215,140.625000
9216,140.625000
9217,140.625000
9218,140.625000
9219,140.625000
9220,140.625000
9221,140.625000
9222,140.625000
9223,140.625000
9224,140.625000
9225,140.625000
9226,140.625000
9227,140.625000
9228,140.625000
9229,140.625000
9230,140.625000
9231,140.625000
9232,140.625000
9233,140.625000
9234,140.625000
9235,140.625000
9236,140.625000
9237,140.625000
9238,140.625000
9239,144.531250
9240,136.718750
9241,140.625000
9242,140.625000
9243,136.718750
9244,140.625000
9245,140.625000
9246,140.625000
9247,140.625000
9248,140.625000
9249,140.625000
9250,140.625000
9251,140.625000
9252,140.625000
9253,140.625000
9254,140.625000
9255,140.625000
9256,140.625000
9257,140.625000
9258,136.718750
9259,136.718750
9260,140.625000
9261,140.625000
9262,136.718750
9263,136.718750
9264,136.718750
9265,136.718750
9266,136.718750
9267,136.718750
9268,136.718750
9269,136.718750
9270,136.718750
9271,136.718750
9272,136.718750
9273,136.718750
9274,136.718750
9275,136.718750
9276,136.718750
9277,136.718750
9278,136.718750
9279,132.812500
9280,132.812500
9281,132.812500
9282,132.812500
9283,132.812500
9284,132.812500
9285,132.812500
9286,132.812500
9287,132.812500
9288,132.812500
9289,132.812500
9290,132.812500
9291,132.812500
9292,128.906250
9293,132.812500
9294,128.906250
9295,128.906250
9296,128.906250
9297,128.906250
9298,128.906250
9299,128.906250
9300,128.906250
9301,128.906250
9302,128.906250
9303,128.906250
9304,125.000000
9305,128.906250
9306,128.906250
9307,125.000000
9308,125.000000
9309,125.000000
9310,125.000000
9311,125.000000
9312,125.000000
9313,121.093750
9314,121.093750
9315,125.000000
9316,121.093750
9317,121.093750
9318,121.093750
9319,121.093750
9320,121.093750
9321,121.093750
9322,121.093750
9323,117.187500
9324,121.093750
9325,117.187500
9326,117.187500
9327,117.187500
9328,117.187500
9329,117.187500
9330,117.187500
9331,117.187500
9332,113.281250
9333,113.281250
9334,113.281250
9335,113.281250
9336,113.281250
9337,113.281250
9338,113.281250
9339,109.375000
9340,109.375000
9341,109.375000
9342,109.375000
9343,109.375000
9344,109.375000
9345,109.375000
9346,109.375000
9347,105.468750
9348,105.468750
9349,105.468750
9350,105.468750
9351,105.468750
9352,105.468750
9353,101.562500
9354,101.562500
9355,101.562500
9356,101.562500
9357,101.562500
9358,101.562500
9359,97.656250
9360,97.656250
9361,97.656250
9362,97.656250
9363,97.656250
9364,97.656250
9365,97.656250
9366,93.750000
9367,93.750000
9368,93.750000
9369,93.750000
9370,89.843750
9371,89.843750
9372,89.843750
9373,89.843750
9374,89.843750
9375,89.843750
9376,89.843750
9377,85.937500
9378,85.937500
9379,85.937500
9380,85.937500
9381,82.031250
9382,82.031250
9383,82.031250
9384,82.031250
9385,82.031250
9386,78.125000
9387,78.125000
9388,78.125000
9389,78.125000
9390,78.125000
9391,74.218750
9392,74.218750
9393,74.218750
9394,74.218750
9395,74.218750
9396,74.218750
9397,70.312500
9398,70.312500
9399,70.312500
9400,70.312500
9401,66.406250
9402,66.406250
9403,66.406250
9404,66.406250
9405,62.500000
9406,62.500000
9407,62.500000
9408,62.500000
9409,62.500000
9410,62.500000
9411,58.593750
9412,58.593750
9413,58.593750
9414,58.593750
9415,54.687500
9416,54.687500
9417,54.687500
9418,54.687500
9419,54.687500
9420,50.781250
9421,50.781250
9422,50.781250
9423,50.781250
9424,46.875000
9425,46.875000
9426,46.875000
9427,46.875000
9428,42.968750
9429,42.968750
9430,42.968750
9431,42.968750
9432,39.062500
9433,39.062500
9434,39.062500
9435,39.062500
9436,35.156250
9437,35.156250
9438,35.156250
9439,35.156250
9440,35.156250
9441,31.250000
9442,31.250000
9443,31.250000
9444,27.343750
9445,27.343750
9446,27.343750
9447,27.343750
9448,23.437500
9449,23.437500
9450,23.437500
9451,23.437500
9452,19.531250
9453,19.531250
9454,19.531250
9455,19.531250
9456,15.625000
9457,15.625000
9458,15.625000
9459,15.625000
9460,11.718750
9461,11.718750
9462,11.718750
9463,11.718750
9464,7.812500
9465,7.812500
9466,7.812500
9467,7.812500
9468,3.906250
9469,3.906250
9470,3.906250
9471,3.906250
9472,0.000000
9473,0.000000
9474,0.000000
9475,0.000000
9476,-3.906250
9477,-3.906250
9478,-7.812500
9479,-7.812500
9480,-7.812500
9481,-7.812500
9482,-7.812500
9483,-11.718750
9484,-11.718750
9485,-11.718750
9486,-11.718750
9487,-15.625000
9488,-15.625000
9489,-15.625000
9490,-19.531250
9491,-19.531250
9492,-19.531250
9493,-19.531250
9494,-23.437500
9495,-23.437500
9496,-23.437500
9497,-27.343750
9498,-27.343750
9499,-27.343750
9500,-27.343750
9501,-31.250000
9502,-31.250000
9503,-31.250000
9504,-31.250000
9505,-35.156250
9506,-35.156250
9507,-35.156250
9508,-35.156250
9509,-39.062500
9510,-39.062500
9511,-39.062500
9512,-42.968750
9513,-42.968750
9514,-42.968750
9515,-46.875000
9516,-46.875000
9517,-46.875000
9518,-46.875000
9519,-50.781250
9520,-50.781250
9521,-50.781250
9522,-50.781250
9523,-54.687500
9524,-54.687500
9525,-54.687500
9526,-54.687500
9527,-58.593750
9528,-58.593750
9529,-58.593750
9530,-62.500000
9531,-62.500000
9532,-62.500000
9533,-62.500000
9534,-66.406250
9535,-66.406250
9536,-66.406250
9537,-70.312500
9538,-70.312500
9539,-70.312500
9540,-70.312500
9541,-70.312500
9542,-74.218750
9543,-74.218750
9544,-74.218750
9545,-74.218750
9546,-78.125000
9547,-78.125000
9548,-78.125000
9549,-78.125000
9550,-82.031250
9551,-82.031250
9552,-82.031250
9553,-82.031250
9554,-85.937500
9555,-85.937500
9556,-85.937500
9557,-89.843750
9558,-89.843750
9559,-89.843750
9560,-89.843750
9561,-93.750000
9562,-93.750000
9563,-93.750000
9564,-93.750000
9565,-93.750000
9566,-93.750000
9567,-97.656250
9568,-97.656250
9569,-97.656250
9570,-101.562500
9571,-101.562500
9572,-101.562500
9573,-105.468750
9574,-105.468750
9575,-105.468750
9576,-105.468750
9577,-105.468750
9578,-105.468750
9579,-109.375000
9580,-109.375000
9581,-109.375000
9582,-109.375000
9583,-113.281250
9584,-113.281250
9585,-113.281250
9586,-113.281250
9587,-113.281250
9588,-117.187500
9589,-117.187500
9590,-117.187500
9591,-117.187500
9592,-121.093750
9593,-121.093750
9594,-121.093750
9595,-125.000000
9596,-125.000000
9597,-125.000000
9598,-125.000000
9599,-125.000000
9600,-125.000000
9601,-128.906250
9602,-128.906250
9603,-128.906250
9604,-128.906250
9605,-128.906250
9606,-132.812500
9607,-132.812500
9608,-132.812500
9609,-132.812500
9610,-132.812500
9611,-132.812500
9612,-136.718750
9613,-136.718750
9614,-136.718750
9615,-136.718750
9616,-140.625000
9617,-140.625000
9618,-140.625000
9619,-140.625000
9620,-140.625000
9621,-140.625000
9622,-144.531250
9623,-144.531250
9624,-144.531250
9625,-144.531250
9626,-144.531250
9627,-144.531250
9628,-148.437500
9629,-148.437500
9630,-148.437500
9631,-148.437500
9632,-148.437500
9633,-148.437500
9634,-152.343750
9635,-152.343750
9636,-152.343750
9637,-152.343750
9638,-152.343750
9639,-152.343750
9640,-156.250000
9641,-156.250000
9642,-156.250000
9643,-156.250000
9644,-156.250000
9645,-156.250000
9646,-160.156250
9647,-160.156250
9648,-160.156250
9649,-160.156250
9650,-160.156250
9651,-160.156250
9652,-160.156250
9653,-164.062500
9654,-164.062500
9655,-164.062500
9656,-164.062500
9657,-164.062500
9658,-164.062500
9659,-164.062500
9660,-167.968750
9661,-167.968750
9662,-167.968750
9663,-167.968750
9664,-167.968750
9665,-167.968750
9666,-167.968750
9667,-167.968750
9668,-167.968750
9669,-167.968750
9670,-171.875000
9671,-171.875000
9672,-171.875000
9673,-171.875000
9674,-171.875000
9675,-171.875000
9676,-171.875000
9677,-171.875000
9678,-171.875000
9679,-171.875000
9680,-171.875000
9681,-171.875000
9682,-171.875000
9683,-175.781250
9684,-175.781250
9685,-175.781250
9686,-175.781250
9687,-175.781250
9688,-175.781250
9689,-175.781250
9690,-175.781250
9691,-175.781250
9692,-175.781250
9693,-175.781250
9694,-175.781250
9695,-175.781250
9696,-175.781250
9697,-175.781250
9698,-179.687500
9699,-175.781250
9700,-179.687500
9701,-179.687500
9702,-179.687500
9703,-179.687500
9704,-179.687500
9705,-179.687500
9706,-179.687500
9707,-179.687500
9708,-179.687500
9709,-179.687500
9710,-179.687500
9711,-179.687500
9712,-179.687500
9713,-179.687500
9714,-179.687500
9715,-179.687500
9716,-179.687500
9717,-179.687500
9718,-179.687500
9719,-179.687500
9720,-179.687500
9721,-179.687500
9722,-179.687500
9723,-179.687500
9724,-179.687500
9725,-179.687500
9726,-179.687500
9727,-179.687500
9728,-179.687500
9729,-179.687500
9730,-179.687500
9731,-179.687500
9732,-179.687500
9733,-179.687500
9734,-179.687500
9735,-179.687500
9736,-179.687500
9737,-179.687500
9738,-179.687500
9739,-179.687500
9740,-179.687500
9741,-179.687500
9742,-179.687500
9743,-179.687500
9744,-179.687500
9745,-179.687500
9746,-179.687500
9747,-175.781250
9748,-175.781250
9749,-175.781250
9750,-175.781250
9751,-175.781250
9752,-175.781250
9753,-175.781250
9754,-175.781250
9755,-175.781250
9756,-175.781250
9757,-175.781250
9758,-175.781250
9759,-175.781250
9760,-175.781250
9761,-175.781250
9762,-175.781250
9763,-171.875000
9764,-171.875000
9765,-171.875000
9766,-171.875000
9767,-171.875000
9768,-171.875000
9769,-171.875000
9770,-171.875000
9771,-171.875000
9772,-171.875000
9773,-167.968750
9774,-171.875000
9775,-167.968750
9776,-167.968750
9777,-167.968750
9778,-167.968750
9779,-167.968750
9780,-167.968750
9781,-167.968750
9782,-167.968750
9783,-167.968750
9784,-164.062500
9785,-164.062500
9786,-164.062500
9787,-164.062500
9788,-164.062500
9789,-164.062500
9790,-164.062500
9791,-164.062500
9792,-164.062500
9793,-160.156250
9794,-160.156250
9795,-160.156250
9796,-160.156250
9797,-160.156250
9798,-160.156250
9799,-160.156250
9800,-156.250000
9801,-156.250000
9802,-156.250000
9803,-156.250000
9804,-156.250000
9805,-156.250000
9806,-152.343750
9807,-152.343750
9808,-152.343750
9809,-152.343750
9810,-152.343750
9811,-152.343750
9812,-152.343750
9813,-148.437500
9814,-148.437500
9815,-148.437500
9816,-148.437500
9817,-148.437500
9818,-148.437500
9819,-144.531250
9820,-144.531250
9821,-144.531250
9822,-144.531250
9823,-144.531250
9824,-140.625000
9825,-140.625000
9826,-140.625000
9827,-140.625000
9828,-140.625000
9829,-136.718750
9830,-136.718750
9831,-136.718750
9832,-136.718750
9833,-136.718750
9834,-136.718750
9835,-132.812500
9836,-132.812500
9837,-132.812500
9838,-132.812500
9839,-132.812500
9840,-128.906250
9841,-128.906250
9842,-128.906250
9843,-128.906250
9844,-128.906250
9845,-125.000000
9846,-125.000000
9847,-125.000000
9848,-125.000000
9849,-121.093750
9850,-121.093750
9851,-121.093750
9852,-121.093750
9853,-121.093750
9854,-117.187500
9855,-117.187500
9856,-117.187500
9857,-117.187500
9858,-117.187500
9859,-113.281250
9860,-113.281250
9861,-113.281250
9862,-113.281250
9863,-109.375000
9864,-109.375000
9865,-109.375000
9866,-109.375000
9867,-109.375000
9868,-105.468750
9869,-105.468750
9870,-105.468750
9871,-101.562500
9872,-101.562500
9873,-101.562500
9874,-101.562500
9875,-101.562500
9876,-97.656250
9877,-97.656250
9878,-97.656250
9879,-97.656250
9880,-93.750000
9881,-93.750000
9882,-93.750000
9883,-93.750000
9884,-89.843750
9885,-89.843750
9886,-89.843750
9887,-89.843750
9888,-85.937500
9889,-85.937500
9890,-85.937500
9891,-85.937500
9892,-82.031250
9893,-82.031250
9894,-82.031250
9895,-82.031250
9896,-78.125000
9897,-78.125000
9898,-78.125000
9899,-78.125000
9900,-74.218750
9901,-74.218750
9902,-74.218750
9903,-74.218750
9904,-70.312500
9905,-70.312500
9906,-70.312500
9907,-66.406250
9908,-66.406250
9909,-66.406250
9910,-66.406250
9911,-66.406250
9912,-62.500000
9913,-62.500000
9914,-62.500000
9915,-58.593750
9916,-58.593750
9917,-58.593750
9918,-58.593750
9919,-54.687500
9920,-54.687500
9921,-54.687500
9922,-54.687500
9923,-50.781250
9924,-50.781250
9925,-50.781250
9926,-50.781250
9927,-46.875000
9928,-46.875000
9929,-46.875000
9930,-42.968750
9931,-42.968750
9932,-42.968750
9933,-42.968750
9934,-39.062500
9935,-39.062500
9936,-39.062500
9937,-39.062500
9938,-35.156250
9939,-35.156250
9940,-35.156250
9941,-31.250000
9942,-31.250000
9943,-31.250000
9944,-31.250000
9945,-27.343750
9946,-27.343750
9947,-27.343750
9948,-23.437500
9949,-23.437500
9950,-23.437500
9951,-23.437500
9952,-19.531250
9953,-19.531250
9954,-19.531250
9955,-19.531250
9956,-15.625000
9957,-15.625000
9958,-15.625000
9959,-11.718750
9960,-11.718750
9961,-11.718750
9962,-11.718750
9963,-7.812500
9964,-7.812500
9965,-7.812500
9966,-7.812500
9967,-3.906250
9968,-3.906250
9969,-3.906250
9970,0.000000
9971,0.000000
9972,0.000000
9973,0.000000
9974,3.906250
9975,3.906250
9976,3.906250
9977,3.906250
9978,7.812500
9979,7.812500
9980,7.812500
9981,11.718750
9982,11.718750
9983,11.718750
9984,11.718750
9985,15.625000
9986,15.625000
9987,15.625000
9988,15.625000
9989,19.531250
9990,19.531250
9991,19.531250
9992,19.531250
9993,19.531250
9994,23.437500
9995,23.437500
9996,23.437500
9997,27.343750
9998,27.343750
9999,27.343750
10000,27.343750
