Channel              :,CH1
Frequency            :,1.012kHz
Period               :,0.989ms
PK-PK                :,312.5mV
Probe attenuation    :,1X
Voltage per ADC value:,0.244141mV
Time interval        :,1.00000us

index,CH1_Voltage(mV)
1,-78.125000
2,-78.125000
3,-78.125000
4,-74.218750
5,-74.218750
6,-74.218750
7,-74.218750
8,-70.312500
9,-70.312500
10,-70.312500
11,-70.312500
12,-66.406250
13,-66.406250
14,-66.406250
15,-66.406250
16,-62.500000
17,-62.500000
18,-62.500000
19,-62.500000
20,-58.593750
21,-58.593750
22,-58.593750
23,-58.593750
24,-54.687500
25,-54.687500
26,-54.687500
27,-50.781250
28,-50.781250
29,-50.781250
30,-50.781250
31,-46.875000
32,-46.875000
33,-46.875000
34,-42.968750
35,-42.968750
36,-42.968750
37,-42.968750
38,-42.968750
39,-39.062500
40,-39.062500
41,-39.062500
42,-39.062500
43,-35.156250
44,-35.156250
45,-35.156250
46,-31.250000
47,-31.250000
48,-31.250000
49,-31.250000
50,-27.343750
51,-27.343750
52,-27.343750
53,-27.343750
54,-23.437500
55,-23.437500
56,-23.437500
57,-23.437500
58,-19.531250
59,-19.531250
60,-19.531250
61,-15.625000
62,-15.625000
63,-15.625000
64,-15.625000
65,-11.718750
66,-11.718750
67,-11.718750
68,-11.718750
69,-7.812500
70,-7.812500
71,-7.812500
72,-7.812500
73,-3.906250
74,-3.906250
75,-3.906250
76,-3.906250
77,0.000000
78,0.000000
79,0.000000
80,0.000000
81,3.906250
82,3.906250
83,3.906250
84,3.906250
85,3.906250
86,7.812500
87,7.812500
88,7.812500
89,7.812500
90,11.718750
91,11.718750
92,11.718750
93,15.625000
94,15.625000
95,15.625000
96,15.625000
97,15.625000
98,19.531250
99,19.531250
100,19.531250
101,19.531250
102,23.437500
103,23.437500
104,23.437500
105,23.437500
106,27.343750
107,27.343750
108,27.343750
109,27.343750
110,31.250000
111,31.250000
112,31.250000
113,31.250000
114,31.250000
115,35.156250
116,35.156250
117,35.156250
118,35.156250
119,39.062500
120,39.062500
121,39.062500
122,39.062500
123,42.968750
124,42.968750
125,42.968750
126,42.968750
127,42.968750
128,46.875000
129,46.875000
130,46.875000
131,46.875000
132,46.875000
133,50.781250
134,50.781250
135,50.781250
136,50.781250
137,54.687500
138,54.687500
139,54.687500
140,54.687500
141,54.687500
142,58.593750
143,58.593750
144,58.593750
145,62.500000
146,58.593750
147,62.500000
148,62.500000
149,62.500000
150,62.500000
151,66.406250
152,66.406250
153,66.406250
154,66.406250
155,66.406250
156,66.406250
157,70.312500
158,70.312500
159,70.312500
160,70.312500
161,70.312500
162,74.218750
163,74.218750
164,74.218750
165,74.218750
166,78.125000
167,78.125000
168,78.125000
169,78.125000
170,78.125000
171,78.125000
172,82.031250
173,82.031250
174,82.031250
175,82.031250
176,82.031250
177,82.031250
178,82.031250
179,82.031250
180,85.937500
181,85.937500
182,85.937500
183,85.937500
184,89.843750
185,89.843750
186,89.843750
187,89.843750
188,89.843750
189,89.843750
190,93.750000
191,93.750000
192,93.750000
193,93.750000
194,93.750000
195,93.750000
196,97.656250
197,97.656250
198,97.656250
199,97.656250
200,97.656250
201,97.656250
202,97.656250
203,97.656250
204,101.562500
205,101.562500
206,101.562500
207,101.562500
208,101.562500
209,101.562500
210,101.562500
211,105.468750
212,105.468750
213,105.468750
214,105.468750
215,105.468750
216,105.468750
217,105.468750
218,105.468750
219,105.468750
220,109.375000
221,109.375000
222,109.375000
223,109.375000
224,109.375000
225,109.375000
226,113.281250
227,109.375000
228,113.281250
229,113.281250
230,113.281250
231,113.281250
232,113.281250
233,113.281250
234,113.281250
235,117.187500
236,117.187500
237,113.281250
238,117.187500
239,117.187500
240,117.187500
241,117.187500
242,117.187500
243,117.187500
244,117.187500
245,117.187500
246,117.187500
247,117.187500
248,121.093750
249,121.093750
250,121.093750
251,121.093750
252,121.093750
253,121.093750
254,121.093750
255,121.093750
256,121.093750
257,121.093750
258,121.093750
259,121.093750
260,125.000000
261,121.093750
262,121.093750
263,121.093750
264,125.000000
265,125.000000
266,125.000000
267,125.000000
268,125.000000
269,125.000000
270,125.000000
271,125.000000
272,125.000000
273,125.000000
274,125.000000
275,125.000000
276,125.000000
277,125.000000
278,128.906250
279,128.906250
280,128.906250
281,128.906250
282,128.906250
283,128.906250
284,128.906250
285,128.906250
286,128.906250
287,128.906250
288,128.906250
289,128.906250
290,128.906250
291,128.906250
292,128.906250
293,128.906250
294,128.906250
295,128.906250
296,132.812500
297,128.906250
298,132.812500
299,128.906250
300,132.812500
301,128.906250
302,132.812500
303,128.906250
304,132.812500
305,128.906250
306,132.812500
307,132.812500
308,132.812500
309,132.812500
310,132.812500
311,132.812500
312,132.812500
313,132.812500
314,132.812500
315,128.906250
316,132.812500
317,132.812500
318,132.812500
319,132.812500
320,132.812500
321,132.812500
322,132.812500
323,132.812500
324,132.812500
325,132.812500
326,132.812500
327,132.812500
328,132.812500
329,132.812500
330,132.812500
331,128.906250
332,132.812500
333,132.812500
334,132.812500
335,132.812500
336,132.812500
337,128.906250
338,132.812500
339,128.906250
340,128.906250
341,128.906250
342,128.906250
343,128.906250
344,132.812500
345,132.812500
346,128.906250
347,128.906250
348,128.906250
349,128.906250
350,128.906250
351,128.906250
352,128.906250
353,128.906250
354,128.906250
355,128.906250
356,128.906250
357,128.906250
358,128.906250
359,128.906250
360,128.906250
361,125.000000
362,125.000000
363,125.000000
364,125.000000
365,128.906250
366,128.906250
367,125.000000
368,125.000000
369,125.000000
370,125.000000
371,125.000000
372,125.000000
373,125.000000
374,125.000000
375,125.000000
376,125.000000
377,125.000000
378,125.000000
379,121.093750
380,121.093750
381,121.093750
382,121.093750
383,121.093750
384,121.093750
385,121.093750
386,121.093750
387,121.093750
388,121.093750
389,117.187500
390,117.187500
391,121.093750
392,117.187500
393,117.187500
394,117.187500
395,117.187500
396,117.187500
397,117.187500
398,117.187500
399,117.187500
400,117.187500
401,113.281250
402,113.281250
403,113.281250
404,113.281250
405,113.281250
406,113.281250
407,113.281250
408,113.281250
409,113.281250
410,113.281250
411,109.375000
412,109.375000
413,109.375000
414,113.281250
415,109.375000
416,109.375000
417,109.375000
418,109.375000
419,105.468750
420,105.468750
421,109.375000
422,105.468750
423,105.468750
424,105.468750
425,105.468750
426,105.468750
427,105.468750
428,105.468750
429,101.562500
430,101.562500
431,101.562500
432,101.562500
433,101.562500
434,101.562500
435,101.562500
436,101.562500
437,97.656250
438,97.656250
439,97.656250
440,97.656250
441,97.656250
442,97.656250
443,97.656250
444,93.750000
445,93.750000
446,93.750000
447,93.750000
448,93.750000
449,93.750000
450,93.750000
451,89.843750
452,89.843750
453,89.843750
454,89.843750
455,85.937500
456,85.937500
457,85.937500
458,85.937500
459,85.937500
460,85.937500
461,85.937500
462,82.031250
463,82.031250
464,82.031250
465,82.031250
466,82.031250
467,82.031250
468,82.031250
469,78.125000
470,78.125000
471,78.125000
472,78.125000
473,74.218750
474,74.218750
475,74.218750
476,74.218750
477,74.218750
478,70.312500
479,70.312500
480,70.312500
481,70.312500
482,70.312500
483,66.406250
484,66.406250
485,66.406250
486,66.406250
487,62.500000
488,62.500000
489,62.500000
490,62.500000
491,62.500000
492,62.500000
493,58.593750
494,58.593750
495,58.593750
496,58.593750
497,54.687500
498,54.687500
499,54.687500
500,54.687500
501,54.687500
502,54.687500
503,50.781250
504,50.781250
505,50.781250
506,50.781250
507,46.875000
508,46.875000
509,46.875000
510,46.875000
511,42.968750
512,42.968750
513,42.968750
514,42.968750
515,42.968750
516,39.062500
517,39.062500
518,39.062500
519,39.062500
520,39.062500
521,35.156250
522,35.156250
523,35.156250
524,35.156250
525,31.250000
526,31.250000
527,31.250000
528,31.250000
529,27.343750
530,27.343750
531,27.343750
532,27.343750
533,23.437500
534,23.437500
535,23.437500
536,23.437500
537,19.531250
538,19.531250
539,19.531250
540,19.531250
541,15.625000
542,15.625000
543,15.625000
544,15.625000
545,11.718750
546,11.718750
547,11.718750
548,11.718750
549,7.812500
550,7.812500
551,7.812500
552,7.812500
553,3.906250
554,3.906250
555,3.906250
556,3.906250
557,0.000000
558,3.906250
559,0.000000
560,0.000000
561,-3.906250
562,-3.906250
563,-3.906250
564,-3.906250
565,-7.812500
566,-7.812500
567,-7.812500
568,-7.812500
569,-11.718750
570,-11.718750
571,-11.718750
572,-11.718750
573,-15.625000
574,-15.625000
575,-15.625000
576,-19.531250
577,-15.625000
578,-19.531250
579,-19.531250
580,-19.531250
581,-23.437500
582,-23.437500
583,-23.437500
584,-23.437500
585,-27.343750
586,-27.343750
587,-27.343750
588,-27.343750
589,-31.250000
590,-31.250000
591,-31.250000
592,-31.250000
593,-35.156250
594,-35.156250
595,-35.156250
596,-35.156250
597,-39.062500
598,-39.062500
599,-39.062500
600,-39.062500
601,-42.968750
602,-42.968750
603,-42.968750
604,-46.875000
605,-46.875000
606,-46.875000
607,-46.875000
608,-50.781250
609,-50.781250
610,-50.781250
611,-50.781250
612,-54.687500
613,-54.687500
614,-54.687500
615,-54.687500
616,-58.593750
617,-58.593750
618,-58.593750
619,-58.593750
620,-62.500000
621,-62.500000
622,-62.500000
623,-62.500000
624,-66.406250
625,-66.406250
626,-66.406250
627,-70.312500
628,-70.312500
629,-70.312500
630,-70.312500
631,-74.218750
632,-74.218750
633,-74.218750
634,-74.218750
635,-78.125000
636,-78.125000
637,-78.125000
638,-82.031250
639,-82.031250
640,-82.031250
641,-82.031250
642,-82.031250
643,-82.031250
644,-85.937500
645,-85.937500
646,-89.843750
647,-89.843750
648,-89.843750
649,-89.843750
650,-89.843750
651,-93.750000
652,-93.750000
653,-93.750000
654,-93.750000
655,-97.656250
656,-97.656250
657,-97.656250
658,-97.656250
659,-101.562500
660,-97.656250
661,-101.562500
662,-101.562500
663,-101.562500
664,-105.468750
665,-105.468750
666,-105.468750
667,-105.468750
668,-105.468750
669,-109.375000
670,-109.375000
671,-109.375000
672,-109.375000
673,-113.281250
674,-113.281250
675,-113.281250
676,-113.281250
677,-113.281250
678,-113.281250
679,-117.187500
680,-117.187500
681,-117.187500
682,-121.093750
683,-121.093750
684,-121.093750
685,-121.093750
686,-121.093750
687,-121.093750
688,-125.000000
689,-125.000000
690,-125.000000
691,-125.000000
692,-125.000000
693,-128.906250
694,-128.906250
695,-128.906250
696,-128.906250
697,-128.906250
698,-132.812500
699,-132.812500
700,-132.812500
701,-132.812500
702,-132.812500
703,-136.718750
704,-136.718750
705,-136.718750
706,-136.718750
707,-136.718750
708,-140.625000
709,-140.625000
710,-140.625000
711,-140.625000
712,-140.625000
713,-140.625000
714,-140.625000
715,-144.531250
716,-144.531250
717,-144.531250
718,-144.531250
719,-144.531250
720,-148.437500
721,-148.437500
722,-148.437500
723,-148.437500
724,-148.437500
725,-148.437500
726,-152.343750
727,-152.343750
728,-152.343750
729,-152.343750
730,-152.343750
731,-152.343750
732,-156.250000
733,-152.343750
734,-156.250000
735,-156.250000
736,-156.250000
737,-156.250000
738,-156.250000
739,-156.250000
740,-160.156250
741,-156.250000
742,-160.156250
743,-160.156250
744,-160.156250
745,-160.156250
746,-160.156250
747,-164.062500
748,-164.062500
749,-164.062500
750,-164.062500
751,-164.062500
752,-164.062500
753,-164.062500
754,-164.062500
755,-164.062500
756,-164.062500
757,-167.968750
758,-167.968750
759,-167.968750
760,-167.968750
761,-167.968750
762,-167.968750
763,-167.968750
764,-167.968750
765,-167.968750
766,-167.968750
767,-171.875000
768,-171.875000
769,-171.875000
770,-171.875000
771,-171.875000
772,-171.875000
773,-171.875000
774,-171.875000
775,-171.875000
776,-171.875000
777,-171.875000
778,-171.875000
779,-171.875000
780,-175.781250
781,-175.781250
782,-175.781250
783,-175.781250
784,-175.781250
785,-175.781250
786,-175.781250
787,-175.781250
788,-175.781250
789,-175.781250
790,-175.781250
791,-175.781250
792,-175.781250
793,-175.781250
794,-175.781250
795,-175.781250
796,-175.781250
797,-175.781250
798,-175.781250
799,-175.781250
800,-175.781250
801,-175.781250
802,-175.781250
803,-175.781250
804,-175.781250
805,-179.687500
806,-179.687500
807,-179.687500
808,-175.781250
809,-179.687500
810,-175.781250
811,-179.687500
812,-179.687500
813,-179.687500
814,-175.781250
815,-175.781250
816,-175.781250
817,-175.781250
818,-179.687500
819,-175.781250
820,-175.781250
821,-175.781250
822,-175.781250
823,-175.781250
824,-175.781250
825,-175.781250
826,-175.781250
827,-175.781250
828,-175.781250
829,-175.781250
830,-175.781250
831,-175.781250
832,-175.781250
833,-175.781250
834,-175.781250
835,-175.781250
836,-175.781250
837,-175.781250
838,-175.781250
839,-175.781250
840,-175.781250
841,-175.781250
842,-175.781250
843,-175.781250
844,-171.875000
845,-171.875000
846,-171.875000
847,-175.781250
848,-175.781250
849,-171.875000
850,-171.875000
851,-171.875000
852,-171.875000
853,-171.875000
854,-171.875000
855,-171.875000
856,-171.875000
857,-171.875000
858,-171.875000
859,-171.875000
860,-167.968750
861,-167.968750
862,-167.968750
863,-167.968750
864,-167.968750
865,-167.968750
866,-167.968750
867,-167.968750
868,-167.968750
869,-164.062500
870,-164.062500
871,-164.062500
872,-164.062500
873,-164.062500
874,-164.062500
875,-164.062500
876,-164.062500
877,-164.062500
878,-164.062500
879,-164.062500
880,-160.156250
881,-164.062500
882,-160.156250
883,-160.156250
884,-160.156250
885,-160.156250
886,-160.156250
887,-160.156250
888,-160.156250
889,-156.250000
890,-156.250000
891,-156.250000
892,-156.250000
893,-156.250000
894,-156.250000
895,-156.250000
896,-152.343750
897,-152.343750
898,-152.343750
899,-152.343750
900,-152.343750
901,-152.343750
902,-152.343750
903,-152.343750
904,-148.437500
905,-148.437500
906,-148.437500
907,-148.437500
908,-148.437500
909,-148.437500
910,-144.531250
911,-144.531250
912,-144.531250
913,-144.531250
914,-144.531250
915,-144.531250
916,-140.625000
917,-140.625000
918,-140.625000
919,-140.625000
920,-140.625000
921,-136.718750
922,-136.718750
923,-136.718750
924,-136.718750
925,-136.718750
926,-132.812500
927,-132.812500
928,-132.812500
929,-132.812500
930,-132.812500
931,-128.906250
932,-128.906250
933,-128.906250
934,-128.906250
935,-128.906250
936,-128.906250
937,-125.000000
938,-125.000000
939,-125.000000
940,-125.000000
941,-125.000000
942,-121.093750
943,-121.093750
944,-121.093750
945,-117.187500
946,-117.187500
947,-117.187500
948,-117.187500
949,-117.187500
950,-117.187500
951,-113.281250
952,-113.281250
953,-113.281250
954,-113.281250
955,-113.281250
956,-109.375000
957,-109.375000
958,-109.375000
959,-109.375000
960,-105.468750
961,-105.468750
962,-105.468750
963,-105.468750
964,-105.468750
965,-101.562500
966,-101.562500
967,-101.562500
968,-97.656250
969,-97.656250
970,-97.656250
971,-97.656250
972,-93.750000
973,-93.750000
974,-93.750000
975,-93.750000
976,-93.750000
977,-89.843750
978,-89.843750
979,-89.843750
980,-85.937500
981,-85.937500
982,-85.937500
983,-85.937500
984,-85.937500
985,-82.031250
986,-82.031250
987,-82.031250
988,-82.031250
989,-78.125000
990,-78.125000
991,-78.125000
992,-78.125000
993,-78.125000
994,-74.218750
995,-74.218750
996,-74.218750
997,-70.312500
998,-70.312500
999,-70.312500
1000,-70.312500
1001,-66.406250
1002,-66.406250
1003,-66.406250
1004,-66.406250
1005,-62.500000
1006,-62.500000
1007,-62.500000
1008,-62.500000
1009,-58.593750
1010,-58.593750
1011,-58.593750
1012,-58.593750
1013,-54.687500
1014,-54.687500
1015,-54.687500
1016,-50.781250
1017,-50.781250
1018,-50.781250
1019,-50.781250
1020,-46.875000
1021,-46.875000
1022,-46.875000
1023,-46.875000
1024,-46.875000
1025,-46.875000
1026,-42.968750
1027,-42.968750
1028,-39.062500
1029,-39.062500
1030,-39.062500
1031,-39.062500
1032,-39.062500
1033,-35.156250
1034,-35.156250
1035,-35.156250
1036,-31.250000
1037,-31.250000
1038,-31.250000
1039,-31.250000
1040,-27.343750
1041,-27.343750
1042,-27.343750
1043,-27.343750
1044,-23.437500
1045,-23.437500
1046,-23.437500
1047,-19.531250
1048,-19.531250
1049,-19.531250
1050,-19.531250
1051,-19.531250
1052,-15.625000
1053,-15.625000
1054,-15.625000
1055,-15.625000
1056,-11.718750
1057,-11.718750
1058,-11.718750
1059,-11.718750
1060,-7.812500
1061,-7.812500
1062,-7.812500
1063,-3.906250
1064,-3.906250
1065,-3.906250
1066,-3.906250
1067,0.000000
1068,0.000000
1069,0.000000
1070,0.000000
1071,3.906250
1072,3.906250
1073,3.906250
1074,3.906250
1075,3.906250
1076,7.812500
1077,7.812500
1078,11.718750
1079,11.718750
1080,11.718750
1081,11.718750
1082,15.625000
1083,15.625000
1084,15.625000
1085,15.625000
1086,15.625000
1087,19.531250
1088,19.531250
1089,19.531250
1090,19.531250
1091,23.437500
1092,23.437500
1093,23.437500
1094,23.437500
1095,27.343750
1096,27.343750
1097,27.343750
1098,27.343750
1099,27.343750
1100,31.250000
1101,31.250000
1102,31.250000
1103,31.250000
1104,35.156250
1105,35.156250
1106,35.156250
1107,35.156250
1108,39.062500
1109,39.062500
1110,39.062500
1111,39.062500
1112,39.062500
1113,42.968750
1114,42.968750
1115,42.968750
1116,42.968750
1117,42.968750
1118,46.875000
1119,46.875000
1120,46.875000
1121,46.875000
1122,50.781250
1123,50.781250
1124,50.781250
1125,50.781250
1126,50.781250
1127,54.687500
1128,54.687500
1129,54.687500
1130,54.687500
1131,58.593750
1132,58.593750
1133,58.593750
1134,58.593750
1135,58.593750
1136,62.500000
1137,62.500000
1138,62.500000
1139,62.500000
1140,66.406250
1141,66.406250
1142,66.406250
1143,66.406250
1144,66.406250
1145,66.406250
1146,70.312500
1147,70.312500
1148,70.312500
1149,70.312500
1150,70.312500
1151,74.218750
1152,74.218750
1153,74.218750
1154,74.218750
1155,74.218750
1156,78.125000
1157,78.125000
1158,78.125000
1159,78.125000
1160,78.125000
1161,78.125000
1162,82.031250
1163,82.031250
1164,82.031250
1165,82.031250
1166,82.031250
1167,82.031250
1168,82.031250
1169,82.031250
1170,85.937500
1171,85.937500
1172,85.937500
1173,85.937500
1174,89.843750
1175,89.843750
1176,89.843750
1177,89.843750
1178,89.843750
1179,89.843750
1180,89.843750
1181,89.843750
1182,93.750000
1183,93.750000
1184,93.750000
1185,93.750000
1186,93.750000
1187,93.750000
1188,97.656250
1189,97.656250
1190,97.656250
1191,97.656250
1192,97.656250
1193,97.656250
1194,101.562500
1195,101.562500
1196,101.562500
1197,101.562500
1198,101.562500
1199,101.562500
1200,105.468750
1201,105.468750
1202,105.468750
1203,105.468750
1204,105.468750
1205,105.468750
1206,105.468750
1207,105.468750
1208,105.468750
1209,109.375000
1210,109.375000
1211,109.375000
1212,109.375000
1213,109.375000
1214,109.375000
1215,109.375000
1216,113.281250
1217,113.281250
1218,113.281250
1219,113.281250
1220,113.281250
1221,113.281250
1222,113.281250
1223,113.281250
1224,113.281250
1225,113.281250
1226,117.187500
1227,117.187500
1228,117.187500
1229,117.187500
1230,117.187500
1231,117.187500
1232,117.187500
1233,117.187500
1234,117.187500
1235,117.187500
1236,121.093750
1237,117.187500
1238,117.187500
1239,121.093750
1240,121.093750
1241,121.093750
1242,121.093750
1243,121.093750
1244,121.093750
1245,121.093750
1246,125.000000
1247,121.093750
1248,121.093750
1249,121.093750
1250,121.093750
1251,125.000000
1252,125.000000
1253,125.000000
1254,125.000000
1255,125.000000
1256,125.000000
1257,125.000000
1258,125.000000
1259,125.000000
1260,125.000000
1261,125.000000
1262,125.000000
1263,125.000000
1264,128.906250
1265,128.906250
1266,128.906250
1267,125.000000
1268,128.906250
1269,125.000000
1270,128.906250
1271,128.906250
1272,128.906250
1273,128.906250
1274,128.906250
1275,128.906250
1276,128.906250
1277,128.906250
1278,128.906250
1279,128.906250
1280,128.906250
1281,128.906250
1282,128.906250
1283,128.906250
1284,132.812500
1285,128.906250
1286,128.906250
1287,128.906250
1288,128.906250
1289,128.906250
1290,132.812500
1291,128.906250
1292,132.812500
1293,128.906250
1294,132.812500
1295,128.906250
1296,132.812500
1297,128.906250
1298,132.812500
1299,132.812500
1300,132.812500
1301,132.812500
1302,132.812500
1303,128.906250
1304,132.812500
1305,132.812500
1306,128.906250
1307,132.812500
1308,132.812500
1309,132.812500
1310,132.812500
1311,132.812500
1312,132.812500
1313,132.812500
1314,132.812500
1315,128.906250
1316,132.812500
1317,132.812500
1318,132.812500
1319,128.906250
1320,132.812500
1321,132.812500
1322,128.906250
1323,128.906250
1324,132.812500
1325,128.906250
1326,132.812500
1327,128.906250
1328,128.906250
1329,128.906250
1330,128.906250
1331,128.906250
1332,132.812500
1333,132.812500
1334,128.906250
1335,128.906250
1336,128.906250
1337,128.906250
1338,128.906250
1339,128.906250
1340,128.906250
1341,128.906250
1342,128.906250
1343,128.906250
1344,128.906250
1345,128.906250
1346,128.906250
1347,128.906250
1348,128.906250
1349,128.906250
1350,128.906250
1351,128.906250
1352,128.906250
1353,128.906250
1354,128.906250
1355,125.000000
1356,125.000000
1357,125.000000
1358,125.000000
1359,125.000000
1360,125.000000
1361,125.000000
1362,125.000000
1363,125.000000
1364,125.000000
1365,121.093750
1366,125.000000
1367,125.000000
1368,125.000000
1369,125.000000
1370,121.093750
1371,125.000000
1372,121.093750
1373,121.093750
1374,121.093750
1375,121.093750
1376,121.093750
1377,121.093750
1378,121.093750
1379,121.093750
1380,121.093750
1381,121.093750
1382,117.187500
1383,117.187500
1384,117.187500
1385,117.187500
1386,117.187500
1387,117.187500
1388,117.187500
1389,117.187500
1390,117.187500
1391,113.281250
1392,117.187500
1393,113.281250
1394,113.281250
1395,113.281250
1396,113.281250
1397,113.281250
1398,113.281250
1399,109.375000
1400,113.281250
1401,109.375000
1402,109.375000
1403,109.375000
1404,109.375000
1405,109.375000
1406,109.375000
1407,109.375000
1408,105.468750
1409,109.375000
1410,105.468750
1411,105.468750
1412,105.468750
1413,105.468750
1414,105.468750
1415,105.468750
1416,105.468750
1417,105.468750
1418,101.562500
1419,101.562500
1420,101.562500
1421,101.562500
1422,101.562500
1423,101.562500
1424,101.562500
1425,97.656250
1426,97.656250
1427,97.656250
1428,97.656250
1429,97.656250
1430,97.656250
1431,97.656250
1432,93.750000
1433,93.750000
1434,93.750000
1435,93.750000
1436,93.750000
1437,93.750000
1438,93.750000
1439,93.750000
1440,89.843750
1441,89.843750
1442,89.843750
1443,85.937500
1444,89.843750
1445,85.937500
1446,85.937500
1447,85.937500
1448,85.937500
1449,85.937500
1450,82.031250
1451,82.031250
1452,82.031250
1453,82.031250
1454,82.031250
1455,82.031250
1456,82.031250
1457,78.125000
1458,78.125000
1459,78.125000
1460,78.125000
1461,78.125000
1462,74.218750
1463,74.218750
1464,74.218750
1465,74.218750
1466,74.218750
1467,74.218750
1468,70.312500
1469,70.312500
1470,70.312500
1471,70.312500
1472,70.312500
1473,66.406250
1474,66.406250
1475,66.406250
1476,66.406250
1477,66.406250
1478,62.500000
1479,62.500000
1480,62.500000
1481,62.500000
1482,62.500000
1483,58.593750
1484,58.593750
1485,58.593750
1486,58.593750
1487,54.687500
1488,54.687500
1489,54.687500
1490,54.687500
1491,54.687500
1492,54.687500
1493,50.781250
1494,50.781250
1495,50.781250
1496,50.781250
1497,46.875000
1498,46.875000
1499,46.875000
1500,46.875000
1501,46.875000
1502,42.968750
1503,42.968750
1504,42.968750
1505,42.968750
1506,39.062500
1507,39.062500
1508,39.062500
1509,39.062500
1510,35.156250
1511,35.156250
1512,35.156250
1513,35.156250
1514,35.156250
1515,31.250000
1516,31.250000
1517,31.250000
1518,31.250000
1519,27.343750
1520,27.343750
1521,27.343750
1522,23.437500
1523,23.437500
1524,23.437500
1525,23.437500
1526,23.437500
1527,19.531250
1528,19.531250
1529,19.531250
1530,19.531250
1531,15.625000
1532,15.625000
1533,15.625000
1534,15.625000
1535,11.718750
1536,11.718750
1537,11.718750
1538,11.718750
1539,11.718750
1540,7.812500
1541,7.812500
1542,7.812500
1543,3.906250
1544,3.906250
1545,3.906250
1546,3.906250
1547,0.000000
1548,0.000000
1549,0.000000
1550,-3.906250
1551,-3.906250
1552,-3.906250
1553,-3.906250
1554,-3.906250
1555,-3.906250
1556,-7.812500
1557,-7.812500
1558,-7.812500
1559,-11.718750
1560,-11.718750
1561,-11.718750
1562,-11.718750
1563,-15.625000
1564,-15.625000
1565,-15.625000
1566,-15.625000
1567,-19.531250
1568,-19.531250
1569,-19.531250
1570,-19.531250
1571,-23.437500
1572,-23.437500
1573,-23.437500
1574,-27.343750
1575,-27.343750
1576,-27.343750
1577,-31.250000
1578,-27.343750
1579,-31.250000
1580,-31.250000
1581,-31.250000
1582,-31.250000
1583,-35.156250
1584,-35.156250
1585,-35.156250
1586,-39.062500
1587,-39.062500
1588,-39.062500
1589,-42.968750
1590,-42.968750
1591,-42.968750
1592,-42.968750
1593,-46.875000
1594,-46.875000
1595,-46.875000
1596,-46.875000
1597,-46.875000
1598,-50.781250
1599,-50.781250
1600,-50.781250
1601,-54.687500
1602,-54.687500
1603,-54.687500
1604,-54.687500
1605,-58.593750
1606,-58.593750
1607,-58.593750
1608,-58.593750
1609,-62.500000
1610,-62.500000
1611,-62.500000
1612,-62.500000
1613,-66.406250
1614,-66.406250
1615,-66.406250
1616,-66.406250
1617,-66.406250
1618,-70.312500
1619,-70.312500
1620,-74.218750
1621,-74.218750
1622,-74.218750
1623,-74.218750
1624,-74.218750
1625,-78.125000
1626,-78.125000
1627,-78.125000
1628,-78.125000
1629,-82.031250
1630,-82.031250
1631,-82.031250
1632,-82.031250
1633,-85.937500
1634,-85.937500
1635,-85.937500
1636,-85.937500
1637,-85.937500
1638,-89.843750
1639,-89.843750
1640,-89.843750
1641,-89.843750
1642,-93.750000
1643,-93.750000
1644,-93.750000
1645,-93.750000
1646,-97.656250
1647,-97.656250
1648,-97.656250
1649,-97.656250
1650,-101.562500
1651,-101.562500
1652,-101.562500
1653,-105.468750
1654,-105.468750
1655,-105.468750
1656,-105.468750
1657,-105.468750
1658,-105.468750
1659,-109.375000
1660,-109.375000
1661,-109.375000
1662,-109.375000
1663,-109.375000
1664,-113.281250
1665,-113.281250
1666,-113.281250
1667,-117.187500
1668,-117.187500
1669,-117.187500
1670,-117.187500
1671,-121.093750
1672,-121.093750
1673,-121.093750
1674,-121.093750
1675,-121.093750
1676,-121.093750
1677,-125.000000
1678,-125.000000
1679,-125.000000
1680,-125.000000
1681,-128.906250
1682,-128.906250
1683,-128.906250
1684,-128.906250
1685,-128.906250
1686,-128.906250
1687,-132.812500
1688,-132.812500
1689,-132.812500
1690,-132.812500
1691,-132.812500
1692,-136.718750
1693,-136.718750
1694,-136.718750
1695,-136.718750
1696,-136.718750
1697,-140.625000
1698,-140.625000
1699,-140.625000
1700,-140.625000
1701,-140.625000
1702,-140.625000
1703,-140.625000
1704,-144.531250
1705,-144.531250
1706,-144.531250
1707,-144.531250
1708,-148.437500
1709,-148.437500
1710,-148.437500
1711,-148.437500
1712,-148.437500
1713,-148.437500
1714,-148.437500
1715,-148.437500
1716,-152.343750
1717,-152.343750
1718,-152.343750
1719,-152.343750
1720,-152.343750
1721,-152.343750
1722,-156.250000
1723,-156.250000
1724,-156.250000
1725,-156.250000
1726,-156.250000
1727,-156.250000
1728,-156.250000
1729,-156.250000
1730,-160.156250
1731,-160.156250
1732,-160.156250
1733,-160.156250
1734,-160.156250
1735,-160.156250
1736,-164.062500
1737,-164.062500
1738,-164.062500
1739,-164.062500
1740,-164.062500
1741,-164.062500
1742,-164.062500
1743,-164.062500
1744,-164.062500
1745,-164.062500
1746,-167.968750
1747,-167.968750
1748,-167.968750
1749,-167.968750
1750,-167.968750
1751,-167.968750
1752,-167.968750
1753,-167.968750
1754,-167.968750
1755,-167.968750
1756,-167.968750
1757,-167.968750
1758,-171.875000
1759,-171.875000
1760,-171.875000
1761,-171.875000
1762,-171.875000
1763,-171.875000
1764,-171.875000
1765,-171.875000
1766,-171.875000
1767,-171.875000
1768,-171.875000
1769,-171.875000
1770,-171.875000
1771,-175.781250
1772,-175.781250
1773,-175.781250
1774,-175.781250
1775,-175.781250
1776,-175.781250
1777,-175.781250
1778,-175.781250
1779,-175.781250
1780,-175.781250
1781,-175.781250
1782,-175.781250
1783,-175.781250
1784,-175.781250
1785,-175.781250
1786,-175.781250
1787,-175.781250
1788,-175.781250
1789,-175.781250
1790,-175.781250
1791,-175.781250
1792,-175.781250
1793,-179.687500
1794,-175.781250
1795,-179.687500
1796,-179.687500
1797,-179.687500
1798,-175.781250
1799,-175.781250
1800,-175.781250
1801,-179.687500
1802,-179.687500
1803,-179.687500
1804,-179.687500
1805,-179.687500
1806,-179.687500
1807,-179.687500
1808,-179.687500
1809,-175.781250
1810,-175.781250
1811,-175.781250
1812,-175.781250
1813,-179.687500
1814,-179.687500
1815,-179.687500
1816,-175.781250
1817,-179.687500
1818,-179.687500
1819,-175.781250
1820,-175.781250
1821,-175.781250
1822,-175.781250
1823,-175.781250
1824,-175.781250
1825,-175.781250
1826,-175.781250
1827,-175.781250
1828,-175.781250
1829,-175.781250
1830,-175.781250
1831,-175.781250
1832,-175.781250
1833,-175.781250
1834,-175.781250
1835,-175.781250
1836,-175.781250
1837,-175.781250
1838,-171.875000
1839,-171.875000
1840,-171.875000
1841,-171.875000
1842,-171.875000
1843,-171.875000
1844,-171.875000
1845,-171.875000
1846,-171.875000
1847,-171.875000
1848,-171.875000
1849,-171.875000
1850,-167.968750
1851,-167.968750
1852,-167.968750
1853,-167.968750
1854,-167.968750
1855,-167.968750
1856,-167.968750
1857,-167.968750
1858,-167.968750
1859,-167.968750
1860,-167.968750
1861,-167.968750
1862,-164.062500
1863,-164.062500
1864,-164.062500
1865,-164.062500
1866,-164.062500
1867,-164.062500
1868,-164.062500
1869,-164.062500
1870,-164.062500
1871,-164.062500
1872,-160.156250
1873,-160.156250
1874,-160.156250
1875,-160.156250
1876,-160.156250
1877,-160.156250
1878,-160.156250
1879,-156.250000
1880,-156.250000
1881,-156.250000
1882,-156.250000
1883,-156.250000
1884,-152.343750
1885,-152.343750
1886,-152.343750
1887,-152.343750
1888,-152.343750
1889,-152.343750
1890,-152.343750
1891,-152.343750
1892,-148.437500
1893,-148.437500
1894,-148.437500
1895,-148.437500
1896,-148.437500
1897,-148.437500
1898,-144.531250
1899,-144.531250
1900,-144.531250
1901,-144.531250
1902,-144.531250
1903,-144.531250
1904,-140.625000
1905,-140.625000
1906,-140.625000
1907,-140.625000
1908,-140.625000
1909,-140.625000
1910,-136.718750
1911,-136.718750
1912,-136.718750
1913,-136.718750
1914,-136.718750
1915,-136.718750
1916,-132.812500
1917,-132.812500
1918,-132.812500
1919,-132.812500
1920,-128.906250
1921,-128.906250
1922,-128.906250
1923,-128.906250
1924,-128.906250
1925,-128.906250
1926,-125.000000
1927,-125.000000
1928,-125.000000
1929,-125.000000
1930,-121.093750
1931,-121.093750
1932,-121.093750
1933,-121.093750
1934,-121.093750
1935,-121.093750
1936,-117.187500
1937,-117.187500
1938,-117.187500
1939,-117.187500
1940,-117.187500
1941,-113.281250
1942,-113.281250
1943,-113.281250
1944,-109.375000
1945,-113.281250
1946,-109.375000
1947,-109.375000
1948,-109.375000
1949,-109.375000
1950,-105.468750
1951,-105.468750
1952,-105.468750
1953,-105.468750
1954,-101.562500
1955,-101.562500
1956,-101.562500
1957,-101.562500
1958,-97.656250
1959,-97.656250
1960,-97.656250
1961,-97.656250
1962,-93.750000
1963,-93.750000
1964,-93.750000
1965,-93.750000
1966,-89.843750
1967,-89.843750
1968,-89.843750
1969,-89.843750
1970,-89.843750
1971,-85.937500
1972,-85.937500
1973,-85.937500
1974,-82.031250
1975,-82.031250
1976,-82.031250
1977,-82.031250
1978,-82.031250
1979,-82.031250
1980,-78.125000
1981,-78.125000
1982,-78.125000
1983,-74.218750
1984,-74.218750
1985,-74.218750
1986,-70.312500
1987,-70.312500
1988,-70.312500
1989,-70.312500
1990,-70.312500
1991,-66.406250
1992,-66.406250
1993,-66.406250
1994,-62.500000
1995,-62.500000
1996,-62.500000
1997,-62.500000
1998,-62.500000
1999,-58.593750
2000,-58.593750
2001,-54.687500
2002,-54.687500
2003,-54.687500
2004,-54.687500
2005,-54.687500
2006,-50.781250
2007,-50.781250
2008,-50.781250
2009,-50.781250
2010,-46.875000
2011,-46.875000
2012,-46.875000
2013,-46.875000
2014,-42.968750
2015,-42.968750
2016,-42.968750
2017,-42.968750
2018,-39.062500
2019,-39.062500
2020,-39.062500
2021,-39.062500
2022,-35.156250
2023,-35.156250
2024,-35.156250
2025,-35.156250
2026,-31.250000
2027,-31.250000
2028,-31.250000
2029,-27.343750
2030,-27.343750
2031,-27.343750
2032,-27.343750
2033,-23.437500
2034,-23.437500
2035,-23.437500
2036,-23.437500
2037,-19.531250
2038,-19.531250
2039,-19.531250
2040,-19.531250
2041,-15.625000
2042,-15.625000
2043,-15.625000
2044,-15.625000
2045,-15.625000
2046,-11.718750
2047,-11.718750
2048,-11.718750
2049,-7.812500
2050,-7.812500
2051,-7.812500
2052,-7.812500
2053,-3.906250
2054,-3.906250
2055,-3.906250
2056,-3.906250
2057,0.000000
2058,0.000000
2059,0.000000
2060,0.000000
2061,3.906250
2062,3.906250
2063,3.906250
2064,3.906250
2065,7.812500
2066,7.812500
2067,7.812500
2068,7.812500
2069,11.718750
2070,11.718750
2071,11.718750
2072,11.718750
2073,15.625000
2074,15.625000
2075,15.625000
2076,15.625000
2077,19.531250
2078,19.531250
2079,19.531250
2080,19.531250
2081,23.437500
2082,23.437500
2083,23.437500
2084,23.437500
2085,23.437500
2086,27.343750
2087,27.343750
2088,27.343750
2089,27.343750
2090,31.250000
2091,31.250000
2092,31.250000
2093,31.250000
2094,35.156250
2095,35.156250
2096,35.156250
2097,35.156250
2098,39.062500
2099,39.062500
2100,39.062500
2101,39.062500
2102,39.062500
2103,42.968750
2104,42.968750
2105,42.968750
2106,42.968750
2107,46.875000
2108,46.875000
2109,46.875000
2110,46.875000
2111,46.875000
2112,50.781250
2113,50.781250
2114,50.781250
2115,50.781250
2116,54.687500
2117,54.687500
2118,54.687500
2119,54.687500
2120,58.593750
2121,58.593750
2122,58.593750
2123,58.593750
2124,58.593750
2125,58.593750
2126,62.500000
2127,62.500000
2128,62.500000
2129,62.500000
2130,62.500000
2131,62.500000
2132,66.406250
2133,66.406250
2134,66.406250
2135,66.406250
2136,70.312500
2137,70.312500
2138,70.312500
2139,70.312500
2140,70.312500
2141,74.218750
2142,74.218750
2143,74.218750
2144,74.218750
2145,74.218750
2146,78.125000
2147,78.125000
2148,78.125000
2149,78.125000
2150,78.125000
2151,78.125000
2152,82.031250
2153,82.031250
2154,82.031250
2155,82.031250
2156,82.031250
2157,82.031250
2158,85.937500
2159,85.937500
2160,85.937500
2161,85.937500
2162,85.937500
2163,85.937500
2164,89.843750
2165,89.843750
2166,89.843750
2167,89.843750
2168,89.843750
2169,89.843750
2170,93.750000
2171,93.750000
2172,93.750000
2173,93.750000
2174,93.750000
2175,93.750000
2176,97.656250
2177,97.656250
2178,97.656250
2179,97.656250
2180,97.656250
2181,97.656250
2182,97.656250
2183,97.656250
2184,101.562500
2185,101.562500
2186,101.562500
2187,101.562500
2188,101.562500
2189,101.562500
2190,101.562500
2191,105.468750
2192,105.468750
2193,105.468750
2194,105.468750
2195,105.468750
2196,105.468750
2197,105.468750
2198,105.468750
2199,105.468750
2200,109.375000
2201,109.375000
2202,109.375000
2203,109.375000
2204,109.375000
2205,109.375000
2206,109.375000
2207,109.375000
2208,113.281250
2209,113.281250
2210,113.281250
2211,113.281250
2212,113.281250
2213,113.281250
2214,113.281250
2215,113.281250
2216,113.281250
2217,113.281250
2218,117.187500
2219,117.187500
2220,117.187500
2221,117.187500
2222,117.187500
2223,117.187500
2224,117.187500
2225,117.187500
2226,117.187500
2227,117.187500
2228,117.187500
2229,121.093750
2230,121.093750
2231,121.093750
2232,121.093750
2233,121.093750
2234,121.093750
2235,121.093750
2236,121.093750
2237,121.093750
2238,121.093750
2239,125.000000
2240,125.000000
2241,125.000000
2242,125.000000
2243,121.093750
2244,125.000000
2245,125.000000
2246,125.000000
2247,125.000000
2248,125.000000
2249,125.000000
2250,125.000000
2251,125.000000
2252,125.000000
2253,125.000000
2254,128.906250
2255,128.906250
2256,128.906250
2257,128.906250
2258,128.906250
2259,128.906250
2260,128.906250
2261,128.906250
2262,128.906250
2263,128.906250
2264,128.906250
2265,128.906250
2266,128.906250
2267,128.906250
2268,128.906250
2269,128.906250
2270,128.906250
2271,128.906250
2272,128.906250
2273,128.906250
2274,128.906250
2275,128.906250
2276,128.906250
2277,128.906250
2278,128.906250
2279,128.906250
2280,132.812500
2281,128.906250
2282,132.812500
2283,132.812500
2284,132.812500
2285,128.906250
2286,128.906250
2287,128.906250
2288,132.812500
2289,132.812500
2290,132.812500
2291,128.906250
2292,132.812500
2293,132.812500
2294,132.812500
2295,128.906250
2296,132.812500
2297,132.812500
2298,132.812500
2299,132.812500
2300,132.812500
2301,132.812500
2302,132.812500
2303,132.812500
2304,132.812500
2305,132.812500
2306,128.906250
2307,128.906250
2308,132.812500
2309,132.812500
2310,132.812500
2311,128.906250
2312,128.906250
2313,128.906250
2314,128.906250
2315,128.906250
2316,132.812500
2317,132.812500
2318,132.812500
2319,128.906250
2320,128.906250
2321,128.906250
2322,128.906250
2323,128.906250
2324,128.906250
2325,128.906250
2326,128.906250
2327,128.906250
2328,128.906250
2329,128.906250
2330,128.906250
2331,128.906250
2332,128.906250
2333,128.906250
2334,128.906250
2335,125.000000
2336,128.906250
2337,128.906250
2338,128.906250
2339,128.906250
2340,128.906250
2341,125.000000
2342,128.906250
2343,125.000000
2344,125.000000
2345,125.000000
2346,125.000000
2347,125.000000
2348,125.000000
2349,125.000000
2350,125.000000
2351,125.000000
2352,125.000000
2353,125.000000
2354,125.000000
2355,125.000000
2356,125.000000
2357,121.093750
2358,121.093750
2359,125.000000
2360,125.000000
2361,121.093750
2362,121.093750
2363,121.093750
2364,121.093750
2365,121.093750
2366,121.093750
2367,121.093750
2368,121.093750
2369,121.093750
2370,121.093750
2371,121.093750
2372,121.093750
2373,117.187500
2374,117.187500
2375,117.187500
2376,117.187500
2377,117.187500
2378,117.187500
2379,117.187500
2380,117.187500
2381,113.281250
2382,113.281250
2383,113.281250
2384,113.281250
2385,113.281250
2386,113.281250
2387,113.281250
2388,113.281250
2389,113.281250
2390,113.281250
2391,109.375000
2392,109.375000
2393,109.375000
2394,109.375000
2395,109.375000
2396,109.375000
2397,109.375000
2398,109.375000
2399,109.375000
2400,109.375000
2401,105.468750
2402,105.468750
2403,105.468750
2404,105.468750
2405,105.468750
2406,105.468750
2407,105.468750
2408,105.468750
2409,101.562500
2410,101.562500
2411,101.562500
2412,101.562500
2413,101.562500
2414,101.562500
2415,101.562500
2416,101.562500
2417,97.656250
2418,97.656250
2419,97.656250
2420,97.656250
2421,93.750000
2422,93.750000
2423,93.750000
2424,93.750000
2425,93.750000
2426,93.750000
2427,93.750000
2428,93.750000
2429,89.843750
2430,89.843750
2431,89.843750
2432,89.843750
2433,89.843750
2434,89.843750
2435,85.937500
2436,85.937500
2437,85.937500
2438,85.937500
2439,85.937500
2440,82.031250
2441,82.031250
2442,82.031250
2443,82.031250
2444,82.031250
2445,78.125000
2446,78.125000
2447,78.125000
2448,78.125000
2449,78.125000
2450,78.125000
2451,78.125000
2452,74.218750
2453,74.218750
2454,74.218750
2455,74.218750
2456,74.218750
2457,70.312500
2458,70.312500
2459,70.312500
2460,70.312500
2461,70.312500
2462,66.406250
2463,66.406250
2464,66.406250
2465,66.406250
2466,66.406250
2467,62.500000
2468,62.500000
2469,62.500000
2470,62.500000
2471,58.593750
2472,58.593750
2473,58.593750
2474,58.593750
2475,58.593750
2476,58.593750
2477,54.687500
2478,54.687500
2479,54.687500
2480,54.687500
2481,50.781250
2482,50.781250
2483,50.781250
2484,50.781250
2485,50.781250
2486,46.875000
2487,46.875000
2488,46.875000
2489,46.875000
2490,46.875000
2491,42.968750
2492,42.968750
2493,42.968750
2494,42.968750
2495,39.062500
2496,39.062500
2497,39.062500
2498,39.062500
2499,35.156250
2500,35.156250
2501,35.156250
2502,35.156250
2503,35.156250
2504,31.250000
2505,31.250000
2506,31.250000
2507,31.250000
2508,27.343750
2509,27.343750
2510,27.343750
2511,27.343750
2512,23.437500
2513,23.437500
2514,23.437500
2515,23.437500
2516,23.437500
2517,19.531250
2518,19.531250
2519,19.531250
2520,19.531250
2521,15.625000
2522,15.625000
2523,15.625000
2524,15.625000
2525,11.718750
2526,11.718750
2527,11.718750
2528,11.718750
2529,11.718750
2530,7.812500
2531,7.812500
2532,7.812500
2533,3.906250
2534,3.906250
2535,3.906250
2536,3.906250
2537,0.000000
2538,0.000000
2539,0.000000
2540,0.000000
2541,0.000000
2542,-3.906250
2543,-3.906250
2544,-3.906250
2545,-7.812500
2546,-7.812500
2547,-7.812500
2548,-11.718750
2549,-11.718750
2550,-11.718750
2551,-11.718750
2552,-11.718750
2553,-15.625000
2554,-15.625000
2555,-15.625000
2556,-15.625000
2557,-19.531250
2558,-19.531250
2559,-19.531250
2560,-23.437500
2561,-23.437500
2562,-23.437500
2563,-27.343750
2564,-27.343750
2565,-27.343750
2566,-27.343750
2567,-31.250000
2568,-31.250000
2569,-31.250000
2570,-31.250000
2571,-35.156250
2572,-35.156250
2573,-35.156250
2574,-35.156250
2575,-35.156250
2576,-39.062500
2577,-39.062500
2578,-39.062500
2579,-42.968750
2580,-42.968750
2581,-42.968750
2582,-42.968750
2583,-46.875000
2584,-46.875000
2585,-46.875000
2586,-46.875000
2587,-50.781250
2588,-50.781250
2589,-50.781250
2590,-54.687500
2591,-54.687500
2592,-54.687500
2593,-54.687500
2594,-54.687500
2595,-58.593750
2596,-58.593750
2597,-58.593750
2598,-62.500000
2599,-62.500000
2600,-62.500000
2601,-66.406250
2602,-62.500000
2603,-66.406250
2604,-66.406250
2605,-66.406250
2606,-70.312500
2607,-70.312500
2608,-70.312500
2609,-70.312500
2610,-74.218750
2611,-74.218750
2612,-74.218750
2613,-74.218750
2614,-78.125000
2615,-78.125000
2616,-78.125000
2617,-78.125000
2618,-78.125000
2619,-82.031250
2620,-82.031250
2621,-82.031250
2622,-82.031250
2623,-85.937500
2624,-85.937500
2625,-85.937500
2626,-89.843750
2627,-89.843750
2628,-89.843750
2629,-89.843750
2630,-89.843750
2631,-93.750000
2632,-93.750000
2633,-93.750000
2634,-93.750000
2635,-97.656250
2636,-97.656250
2637,-97.656250
2638,-97.656250
2639,-97.656250
2640,-101.562500
2641,-101.562500
2642,-101.562500
2643,-105.468750
2644,-105.468750
2645,-105.468750
2646,-105.468750
2647,-105.468750
2648,-105.468750
2649,-109.375000
2650,-109.375000
2651,-109.375000
2652,-109.375000
2653,-113.281250
2654,-113.281250
2655,-113.281250
2656,-113.281250
2657,-117.187500
2658,-117.187500
2659,-117.187500
2660,-117.187500
2661,-117.187500
2662,-121.093750
2663,-121.093750
2664,-121.093750
2665,-121.093750
2666,-121.093750
2667,-125.000000
2668,-125.000000
2669,-125.000000
2670,-125.000000
2671,-125.000000
2672,-128.906250
2673,-128.906250
2674,-128.906250
2675,-128.906250
2676,-128.906250
2677,-132.812500
2678,-132.812500
2679,-132.812500
2680,-132.812500
2681,-132.812500
2682,-136.718750
2683,-136.718750
2684,-136.718750
2685,-136.718750
2686,-136.718750
2687,-140.625000
2688,-140.625000
2689,-140.625000
2690,-140.625000
2691,-140.625000
2692,-140.625000
2693,-140.625000
2694,-144.531250
2695,-144.531250
2696,-144.531250
2697,-144.531250
2698,-148.437500
2699,-148.437500
2700,-148.437500
2701,-148.437500
2702,-148.437500
2703,-148.437500
2704,-148.437500
2705,-152.343750
2706,-152.343750
2707,-152.343750
2708,-152.343750
2709,-152.343750
2710,-152.343750
2711,-156.250000
2712,-156.250000
2713,-156.250000
2714,-156.250000
2715,-156.250000
2716,-156.250000
2717,-156.250000
2718,-156.250000
2719,-160.156250
2720,-160.156250
2721,-160.156250
2722,-160.156250
2723,-160.156250
2724,-160.156250
2725,-160.156250
2726,-160.156250
2727,-164.062500
2728,-164.062500
2729,-164.062500
2730,-164.062500
2731,-164.062500
2732,-164.062500
2733,-164.062500
2734,-167.968750
2735,-167.968750
2736,-167.968750
2737,-167.968750
2738,-167.968750
2739,-167.968750
2740,-167.968750
2741,-167.968750
2742,-167.968750
2743,-167.968750
2744,-167.968750
2745,-167.968750
2746,-167.968750
2747,-171.875000
2748,-171.875000
2749,-171.875000
2750,-171.875000
2751,-171.875000
2752,-171.875000
2753,-171.875000
2754,-171.875000
2755,-171.875000
2756,-171.875000
2757,-171.875000
2758,-171.875000
2759,-171.875000
2760,-175.781250
2761,-175.781250
2762,-171.875000
2763,-171.875000
2764,-175.781250
2765,-175.781250
2766,-175.781250
2767,-175.781250
2768,-175.781250
2769,-175.781250
2770,-175.781250
2771,-175.781250
2772,-175.781250
2773,-175.781250
2774,-175.781250
2775,-175.781250
2776,-175.781250
2777,-175.781250
2778,-175.781250
2779,-175.781250
2780,-175.781250
2781,-175.781250
2782,-175.781250
2783,-179.687500
2784,-175.781250
2785,-175.781250
2786,-175.781250
2787,-175.781250
2788,-175.781250
2789,-175.781250
2790,-179.687500
2791,-175.781250
2792,-179.687500
2793,-175.781250
2794,-175.781250
2795,-175.781250
2796,-175.781250
2797,-175.781250
2798,-175.781250
2799,-179.687500
2800,-179.687500
2801,-179.687500
2802,-175.781250
2803,-175.781250
2804,-175.781250
2805,-175.781250
2806,-175.781250
2807,-175.781250
2808,-175.781250
2809,-175.781250
2810,-175.781250
2811,-175.781250
2812,-175.781250
2813,-175.781250
2814,-175.781250
2815,-175.781250
2816,-175.781250
2817,-175.781250
2818,-175.781250
2819,-175.781250
2820,-175.781250
2821,-175.781250
2822,-175.781250
2823,-175.781250
2824,-175.781250
2825,-171.875000
2826,-175.781250
2827,-175.781250
2828,-175.781250
2829,-171.875000
2830,-171.875000
2831,-171.875000
2832,-171.875000
2833,-171.875000
2834,-171.875000
2835,-171.875000
2836,-171.875000
2837,-171.875000
2838,-171.875000
2839,-171.875000
2840,-171.875000
2841,-171.875000
2842,-167.968750
2843,-167.968750
2844,-167.968750
2845,-167.968750
2846,-167.968750
2847,-167.968750
2848,-167.968750
2849,-167.968750
2850,-167.968750
2851,-164.062500
2852,-164.062500
2853,-164.062500
2854,-164.062500
2855,-164.062500
2856,-164.062500
2857,-164.062500
2858,-164.062500
2859,-164.062500
2860,-164.062500
2861,-160.156250
2862,-160.156250
2863,-160.156250
2864,-160.156250
2865,-160.156250
2866,-160.156250
2867,-160.156250
2868,-160.156250
2869,-156.250000
2870,-156.250000
2871,-156.250000
2872,-156.250000
2873,-160.156250
2874,-156.250000
2875,-152.343750
2876,-152.343750
2877,-152.343750
2878,-156.250000
2879,-152.343750
2880,-152.343750
2881,-152.343750
2882,-148.437500
2883,-148.437500
2884,-148.437500
2885,-148.437500
2886,-148.437500
2887,-148.437500
2888,-148.437500
2889,-144.531250
2890,-144.531250
2891,-144.531250
2892,-144.531250
2893,-144.531250
2894,-140.625000
2895,-140.625000
2896,-140.625000
2897,-140.625000
2898,-140.625000
2899,-140.625000
2900,-136.718750
2901,-136.718750
2902,-136.718750
2903,-136.718750
2904,-136.718750
2905,-136.718750
2906,-132.812500
2907,-132.812500
2908,-132.812500
2909,-132.812500
2910,-132.812500
2911,-128.906250
2912,-128.906250
2913,-128.906250
2914,-128.906250
2915,-128.906250
2916,-125.000000
2917,-125.000000
2918,-125.000000
2919,-125.000000
2920,-125.000000
2921,-121.093750
2922,-121.093750
2923,-121.093750
2924,-121.093750
2925,-121.093750
2926,-117.187500
2927,-117.187500
2928,-117.187500
2929,-117.187500
2930,-113.281250
2931,-113.281250
2932,-113.281250
2933,-113.281250
2934,-113.281250
2935,-109.375000
2936,-109.375000
2937,-109.375000
2938,-109.375000
2939,-109.375000
2940,-105.468750
2941,-105.468750
2942,-105.468750
2943,-101.562500
2944,-101.562500
2945,-101.562500
2946,-101.562500
2947,-101.562500
2948,-97.656250
2949,-97.656250
2950,-97.656250
2951,-97.656250
2952,-97.656250
2953,-93.750000
2954,-93.750000
2955,-93.750000
2956,-93.750000
2957,-89.843750
2958,-89.843750
2959,-89.843750
2960,-85.937500
2961,-85.937500
2962,-85.937500
2963,-85.937500
2964,-85.937500
2965,-85.937500
2966,-82.031250
2967,-82.031250
2968,-82.031250
2969,-78.125000
2970,-78.125000
2971,-78.125000
2972,-78.125000
2973,-78.125000
2974,-74.218750
2975,-74.218750
2976,-74.218750
2977,-74.218750
2978,-70.312500
2979,-70.312500
2980,-70.312500
2981,-66.406250
2982,-66.406250
2983,-66.406250
2984,-66.406250
2985,-62.500000
2986,-62.500000
2987,-62.500000
2988,-62.500000
2989,-58.593750
2990,-58.593750
2991,-58.593750
2992,-58.593750
2993,-54.687500
2994,-54.687500
2995,-54.687500
2996,-54.687500
2997,-50.781250
2998,-50.781250
2999,-50.781250
3000,-50.781250
3001,-46.875000
3002,-46.875000
3003,-46.875000
3004,-46.875000
3005,-42.968750
3006,-42.968750
3007,-42.968750
3008,-42.968750
3009,-39.062500
3010,-39.062500
3011,-35.156250
3012,-35.156250
3013,-35.156250
3014,-35.156250
3015,-35.156250
3016,-31.250000
3017,-31.250000
3018,-31.250000
3019,-27.343750
3020,-27.343750
3021,-27.343750
3022,-27.343750
3023,-27.343750
3024,-23.437500
3025,-23.437500
3026,-23.437500
3027,-19.531250
3028,-19.531250
3029,-19.531250
3030,-19.531250
3031,-15.625000
3032,-15.625000
3033,-15.625000
3034,-15.625000
3035,-11.718750
3036,-11.718750
3037,-11.718750
3038,-7.812500
3039,-7.812500
3040,-7.812500
3041,-7.812500
3042,-3.906250
3043,-3.906250
3044,-3.906250
3045,-3.906250
3046,0.000000
3047,0.000000
3048,0.000000
3049,0.000000
3050,0.000000
3051,3.906250
3052,3.906250
3053,3.906250
3054,7.812500
3055,7.812500
3056,7.812500
3057,7.812500
3058,7.812500
3059,11.718750
3060,11.718750
3061,11.718750
3062,15.625000
3063,15.625000
3064,15.625000
3065,15.625000
3066,19.531250
3067,19.531250
3068,19.531250
3069,19.531250
3070,19.531250
3071,23.437500
3072,23.437500
3073,23.437500
3074,23.437500
3075,23.437500
3076,27.343750
3077,27.343750
3078,27.343750
3079,31.250000
3080,31.250000
3081,31.250000
3082,31.250000
3083,31.250000
3084,35.156250
3085,35.156250
3086,35.156250
3087,35.156250
3088,39.062500
3089,39.062500
3090,39.062500
3091,39.062500
3092,42.968750
3093,42.968750
3094,42.968750
3095,42.968750
3096,42.968750
3097,46.875000
3098,46.875000
3099,46.875000
3100,46.875000
3101,50.781250
3102,50.781250
3103,50.781250
3104,50.781250
3105,50.781250
3106,54.687500
3107,54.687500
3108,54.687500
3109,54.687500
3110,54.687500
3111,54.687500
3112,58.593750
3113,58.593750
3114,58.593750
3115,58.593750
3116,62.500000
3117,62.500000
3118,62.500000
3119,62.500000
3120,62.500000
3121,62.500000
3122,66.406250
3123,66.406250
3124,66.406250
3125,70.312500
3126,70.312500
3127,70.312500
3128,70.312500
3129,70.312500
3130,70.312500
3131,74.218750
3132,74.218750
3133,74.218750
3134,74.218750
3135,74.218750
3136,78.125000
3137,78.125000
3138,78.125000
3139,78.125000
3140,78.125000
3141,78.125000
3142,82.031250
3143,82.031250
3144,82.031250
3145,82.031250
3146,82.031250
3147,82.031250
3148,85.937500
3149,85.937500
3150,85.937500
3151,85.937500
3152,85.937500
3153,89.843750
3154,89.843750
3155,89.843750
3156,89.843750
3157,89.843750
3158,89.843750
3159,89.843750
3160,93.750000
3161,93.750000
3162,93.750000
3163,93.750000
3164,93.750000
3165,93.750000
3166,97.656250
3167,97.656250
3168,97.656250
3169,97.656250
3170,97.656250
3171,97.656250
3172,101.562500
3173,101.562500
3174,101.562500
3175,101.562500
3176,101.562500
3177,101.562500
3178,101.562500
3179,101.562500
3180,105.468750
3181,105.468750
3182,105.468750
3183,105.468750
3184,105.468750
3185,105.468750
3186,105.468750
3187,105.468750
3188,109.375000
3189,109.375000
3190,109.375000
3191,109.375000
3192,109.375000
3193,105.468750
3194,109.375000
3195,109.375000
3196,113.281250
3197,113.281250
3198,113.281250
3199,113.281250
3200,113.281250
3201,113.281250
3202,113.281250
3203,113.281250
3204,113.281250
3205,113.281250
3206,117.187500
3207,113.281250
3208,117.187500
3209,117.187500
3210,117.187500
3211,117.187500
3212,117.187500
3213,117.187500
3214,117.187500
3215,117.187500
3216,117.187500
3217,121.093750
3218,121.093750
3219,121.093750
3220,121.093750
3221,121.093750
3222,121.093750
3223,121.093750
3224,121.093750
3225,121.093750
3226,121.093750
3227,121.093750
3228,121.093750
3229,121.093750
3230,121.093750
3231,125.000000
3232,125.000000
3233,125.000000
3234,125.000000
3235,125.000000
3236,125.000000
3237,125.000000
3238,125.000000
3239,125.000000
3240,125.000000
3241,125.000000
3242,125.000000
3243,125.000000
3244,125.000000
3245,125.000000
3246,125.000000
3247,128.906250
3248,125.000000
3249,128.906250
3250,128.906250
3251,128.906250
3252,128.906250
3253,128.906250
3254,128.906250
3255,128.906250
3256,128.906250
3257,128.906250
3258,128.906250
3259,128.906250
3260,128.906250
3261,132.812500
3262,128.906250
3263,128.906250
3264,128.906250
3265,128.906250
3266,128.906250
3267,128.906250
3268,128.906250
3269,128.906250
3270,128.906250
3271,128.906250
3272,132.812500
3273,132.812500
3274,132.812500
3275,128.906250
3276,128.906250
3277,128.906250
3278,132.812500
3279,128.906250
3280,128.906250
3281,132.812500
3282,132.812500
3283,132.812500
3284,132.812500
3285,132.812500
3286,132.812500
3287,128.906250
3288,132.812500
3289,132.812500
3290,132.812500
3291,132.812500
3292,128.906250
3293,128.906250
3294,132.812500
3295,132.812500
3296,132.812500
3297,132.812500
3298,132.812500
3299,128.906250
3300,132.812500
3301,128.906250
3302,132.812500
3303,128.906250
3304,132.812500
3305,128.906250
3306,132.812500
3307,132.812500
3308,132.812500
3309,132.812500
3310,128.906250
3311,128.906250
3312,128.906250
3313,128.906250
3314,132.812500
3315,128.906250
3316,128.906250
3317,128.906250
3318,128.906250
3319,128.906250
3320,128.906250
3321,128.906250
3322,128.906250
3323,128.906250
3324,128.906250
3325,128.906250
3326,128.906250
3327,128.906250
3328,128.906250
3329,128.906250
3330,128.906250
3331,125.000000
3332,125.000000
3333,125.000000
3334,125.000000
3335,125.000000
3336,128.906250
3337,125.000000
3338,125.000000
3339,125.000000
3340,125.000000
3341,125.000000
3342,125.000000
3343,125.000000
3344,125.000000
3345,125.000000
3346,125.000000
3347,125.000000
3348,121.093750
3349,121.093750
3350,121.093750
3351,121.093750
3352,121.093750
3353,121.093750
3354,121.093750
3355,121.093750
3356,121.093750
3357,121.093750
3358,121.093750
3359,121.093750
3360,117.187500
3361,117.187500
3362,117.187500
3363,117.187500
3364,117.187500
3365,117.187500
3366,117.187500
3367,117.187500
3368,117.187500
3369,117.187500
3370,117.187500
3371,113.281250
3372,113.281250
3373,113.281250
3374,113.281250
3375,113.281250
3376,113.281250
3377,113.281250
3378,113.281250
3379,113.281250
3380,113.281250
3381,109.375000
3382,109.375000
3383,109.375000
3384,109.375000
3385,109.375000
3386,109.375000
3387,109.375000
3388,109.375000
3389,105.468750
3390,105.468750
3391,105.468750
3392,105.468750
3393,105.468750
3394,105.468750
3395,105.468750
3396,105.468750
3397,105.468750
3398,105.468750
3399,101.562500
3400,101.562500
3401,101.562500
3402,101.562500
3403,101.562500
3404,101.562500
3405,101.562500
3406,101.562500
3407,97.656250
3408,97.656250
3409,97.656250
3410,97.656250
3411,93.750000
3412,93.750000
3413,93.750000
3414,93.750000
3415,93.750000
3416,93.750000
3417,93.750000
3418,89.843750
3419,89.843750
3420,89.843750
3421,89.843750
3422,89.843750
3423,89.843750
3424,89.843750
3425,85.937500
3426,85.937500
3427,85.937500
3428,85.937500
3429,85.937500
3430,82.031250
3431,82.031250
3432,82.031250
3433,82.031250
3434,82.031250
3435,82.031250
3436,78.125000
3437,78.125000
3438,78.125000
3439,78.125000
3440,78.125000
3441,74.218750
3442,74.218750
3443,74.218750
3444,74.218750
3445,74.218750
3446,74.218750
3447,70.312500
3448,70.312500
3449,70.312500
3450,70.312500
3451,70.312500
3452,66.406250
3453,66.406250
3454,66.406250
3455,66.406250
3456,62.500000
3457,62.500000
3458,62.500000
3459,62.500000
3460,62.500000
3461,62.500000
3462,58.593750
3463,58.593750
3464,58.593750
3465,58.593750
3466,58.593750
3467,54.687500
3468,54.687500
3469,54.687500
3470,54.687500
3471,50.781250
3472,50.781250
3473,50.781250
3474,50.781250
3475,50.781250
3476,46.875000
3477,46.875000
3478,46.875000
3479,46.875000
3480,46.875000
3481,42.968750
3482,42.968750
3483,42.968750
3484,42.968750
3485,39.062500
3486,39.062500
3487,39.062500
3488,39.062500
3489,35.156250
3490,35.156250
3491,35.156250
3492,35.156250
3493,35.156250
3494,31.250000
3495,31.250000
3496,31.250000
3497,27.343750
3498,27.343750
3499,27.343750
3500,27.343750
3501,27.343750
3502,23.437500
3503,23.437500
3504,23.437500
3505,23.437500
3506,19.531250
3507,19.531250
3508,19.531250
3509,19.531250
3510,15.625000
3511,15.625000
3512,15.625000
3513,15.625000
3514,11.718750
3515,11.718750
3516,11.718750
3517,11.718750
3518,11.718750
3519,7.812500
3520,7.812500
3521,7.812500
3522,3.906250
3523,3.906250
3524,3.906250
3525,3.906250
3526,3.906250
3527,0.000000
3528,0.000000
3529,0.000000
3530,-3.906250
3531,-3.906250
3532,-3.906250
3533,-3.906250
3534,-7.812500
3535,-7.812500
3536,-7.812500
3537,-7.812500
3538,-11.718750
3539,-11.718750
3540,-11.718750
3541,-15.625000
3542,-15.625000
3543,-15.625000
3544,-15.625000
3545,-15.625000
3546,-19.531250
3547,-19.531250
3548,-19.531250
3549,-19.531250
3550,-19.531250
3551,-23.437500
3552,-23.437500
3553,-23.437500
3554,-27.343750
3555,-27.343750
3556,-27.343750
3557,-27.343750
3558,-31.250000
3559,-31.250000
3560,-31.250000
3561,-35.156250
3562,-35.156250
3563,-35.156250
3564,-35.156250
3565,-35.156250
3566,-39.062500
3567,-39.062500
3568,-39.062500
3569,-42.968750
3570,-42.968750
3571,-42.968750
3572,-42.968750
3573,-46.875000
3574,-46.875000
3575,-46.875000
3576,-46.875000
3577,-50.781250
3578,-50.781250
3579,-50.781250
3580,-50.781250
3581,-54.687500
3582,-54.687500
3583,-54.687500
3584,-58.593750
3585,-58.593750
3586,-58.593750
3587,-58.593750
3588,-58.593750
3589,-62.500000
3590,-62.500000
3591,-62.500000
3592,-66.406250
3593,-66.406250
3594,-66.406250
3595,-70.312500
3596,-70.312500
3597,-70.312500
3598,-70.312500
3599,-70.312500
3600,-74.218750
3601,-74.218750
3602,-74.218750
3603,-74.218750
3604,-78.125000
3605,-78.125000
3606,-78.125000
3607,-78.125000
3608,-82.031250
3609,-82.031250
3610,-82.031250
3611,-85.937500
3612,-85.937500
3613,-85.937500
3614,-85.937500
3615,-85.937500
3616,-89.843750
3617,-89.843750
3618,-89.843750
3619,-89.843750
3620,-93.750000
3621,-93.750000
3622,-93.750000
3623,-93.750000
3624,-93.750000
3625,-97.656250
3626,-97.656250
3627,-97.656250
3628,-101.562500
3629,-101.562500
3630,-101.562500
3631,-101.562500
3632,-101.562500
3633,-105.468750
3634,-105.468750
3635,-105.468750
3636,-105.468750
3637,-109.375000
3638,-109.375000
3639,-109.375000
3640,-109.375000
3641,-109.375000
3642,-113.281250
3643,-113.281250
3644,-113.281250
3645,-113.281250
3646,-113.281250
3647,-117.187500
3648,-117.187500
3649,-117.187500
3650,-117.187500
3651,-121.093750
3652,-121.093750
3653,-121.093750
3654,-121.093750
3655,-125.000000
3656,-125.000000
3657,-125.000000
3658,-125.000000
3659,-125.000000
3660,-125.000000
3661,-128.906250
3662,-128.906250
3663,-128.906250
3664,-128.906250
3665,-128.906250
3666,-128.906250
3667,-132.812500
3668,-132.812500
3669,-132.812500
3670,-132.812500
3671,-136.718750
3672,-136.718750
3673,-136.718750
3674,-136.718750
3675,-136.718750
3676,-136.718750
3677,-140.625000
3678,-140.625000
3679,-140.625000
3680,-140.625000
3681,-140.625000
3682,-140.625000
3683,-144.531250
3684,-144.531250
3685,-144.531250
3686,-144.531250
3687,-144.531250
3688,-144.531250
3689,-148.437500
3690,-148.437500
3691,-148.437500
3692,-148.437500
3693,-148.437500
3694,-148.437500
3695,-152.343750
3696,-152.343750
3697,-152.343750
3698,-152.343750
3699,-152.343750
3700,-152.343750
3701,-156.250000
3702,-156.250000
3703,-156.250000
3704,-156.250000
3705,-156.250000
3706,-156.250000
3707,-156.250000
3708,-160.156250
3709,-160.156250
3710,-160.156250
3711,-160.156250
3712,-160.156250
3713,-160.156250
3714,-160.156250
3715,-160.156250
3716,-164.062500
3717,-164.062500
3718,-164.062500
3719,-164.062500
3720,-164.062500
3721,-164.062500
3722,-164.062500
3723,-164.062500
3724,-164.062500
3725,-164.062500
3726,-164.062500
3727,-167.968750
3728,-167.968750
3729,-167.968750
3730,-167.968750
3731,-167.968750
3732,-167.968750
3733,-167.968750
3734,-167.968750
3735,-171.875000
3736,-171.875000
3737,-171.875000
3738,-171.875000
3739,-171.875000
3740,-171.875000
3741,-171.875000
3742,-171.875000
3743,-171.875000
3744,-171.875000
3745,-171.875000
3746,-171.875000
3747,-171.875000
3748,-171.875000
3749,-171.875000
3750,-175.781250
3751,-175.781250
3752,-175.781250
3753,-175.781250
3754,-175.781250
3755,-175.781250
3756,-175.781250
3757,-175.781250
3758,-175.781250
3759,-175.781250
3760,-175.781250
3761,-175.781250
3762,-175.781250
3763,-175.781250
3764,-175.781250
3765,-179.687500
3766,-179.687500
3767,-179.687500
3768,-175.781250
3769,-179.687500
3770,-179.687500
3771,-175.781250
3772,-175.781250
3773,-175.781250
3774,-175.781250
3775,-175.781250
3776,-179.687500
3777,-179.687500
3778,-179.687500
3779,-179.687500
3780,-179.687500
3781,-179.687500
3782,-179.687500
3783,-175.781250
3784,-175.781250
3785,-175.781250
3786,-179.687500
3787,-179.687500
3788,-179.687500
3789,-179.687500
3790,-179.687500
3791,-175.781250
3792,-175.781250
3793,-175.781250
3794,-175.781250
3795,-175.781250
3796,-175.781250
3797,-175.781250
3798,-175.781250
3799,-179.687500
3800,-175.781250
3801,-175.781250
3802,-175.781250
3803,-175.781250
3804,-175.781250
3805,-175.781250
3806,-175.781250
3807,-175.781250
3808,-175.781250
3809,-175.781250
3810,-175.781250
3811,-175.781250
3812,-175.781250
3813,-171.875000
3814,-175.781250
3815,-171.875000
3816,-171.875000
3817,-175.781250
3818,-171.875000
3819,-171.875000
3820,-171.875000
3821,-171.875000
3822,-171.875000
3823,-171.875000
3824,-171.875000
3825,-171.875000
3826,-171.875000
3827,-171.875000
3828,-167.968750
3829,-167.968750
3830,-167.968750
3831,-167.968750
3832,-167.968750
3833,-167.968750
3834,-167.968750
3835,-167.968750
3836,-167.968750
3837,-167.968750
3838,-164.062500
3839,-164.062500
3840,-164.062500
3841,-164.062500
3842,-164.062500
3843,-164.062500
3844,-164.062500
3845,-164.062500
3846,-164.062500
3847,-164.062500
3848,-164.062500
3849,-164.062500
3850,-160.156250
3851,-160.156250
3852,-160.156250
3853,-160.156250
3854,-160.156250
3855,-160.156250
3856,-160.156250
3857,-160.156250
3858,-160.156250
3859,-156.250000
3860,-156.250000
3861,-156.250000
3862,-156.250000
3863,-152.343750
3864,-156.250000
3865,-156.250000
3866,-156.250000
3867,-152.343750
3868,-152.343750
3869,-152.343750
3870,-152.343750
3871,-152.343750
3872,-148.437500
3873,-148.437500
3874,-148.437500
3875,-148.437500
3876,-148.437500
3877,-148.437500
3878,-148.437500
3879,-144.531250
3880,-144.531250
3881,-144.531250
3882,-144.531250
3883,-144.531250
3884,-140.625000
3885,-140.625000
3886,-140.625000
3887,-140.625000
3888,-140.625000
3889,-140.625000
3890,-136.718750
3891,-136.718750
3892,-136.718750
3893,-136.718750
3894,-136.718750
3895,-132.812500
3896,-132.812500
3897,-132.812500
3898,-132.812500
3899,-132.812500
3900,-132.812500
3901,-132.812500
3902,-128.906250
3903,-128.906250
3904,-128.906250
3905,-128.906250
3906,-125.000000
3907,-125.000000
3908,-125.000000
3909,-125.000000
3910,-121.093750
3911,-121.093750
3912,-121.093750
3913,-121.093750
3914,-121.093750
3915,-117.187500
3916,-117.187500
3917,-117.187500
3918,-117.187500
3919,-113.281250
3920,-113.281250
3921,-113.281250
3922,-113.281250
3923,-113.281250
3924,-113.281250
3925,-109.375000
3926,-109.375000
3927,-109.375000
3928,-105.468750
3929,-105.468750
3930,-105.468750
3931,-105.468750
3932,-101.562500
3933,-101.562500
3934,-101.562500
3935,-101.562500
3936,-101.562500
3937,-101.562500
3938,-97.656250
3939,-97.656250
3940,-97.656250
3941,-97.656250
3942,-93.750000
3943,-93.750000
3944,-93.750000
3945,-93.750000
3946,-93.750000
3947,-89.843750
3948,-89.843750
3949,-89.843750
3950,-85.937500
3951,-85.937500
3952,-85.937500
3953,-85.937500
3954,-82.031250
3955,-82.031250
3956,-82.031250
3957,-82.031250
3958,-82.031250
3959,-78.125000
3960,-78.125000
3961,-78.125000
3962,-74.218750
3963,-74.218750
3964,-74.218750
3965,-74.218750
3966,-70.312500
3967,-70.312500
3968,-70.312500
3969,-70.312500
3970,-70.312500
3971,-66.406250
3972,-66.406250
3973,-66.406250
3974,-62.500000
3975,-62.500000
3976,-62.500000
3977,-62.500000
3978,-58.593750
3979,-58.593750
3980,-58.593750
3981,-58.593750
3982,-54.687500
3983,-54.687500
3984,-54.687500
3985,-50.781250
3986,-50.781250
3987,-50.781250
3988,-50.781250
3989,-46.875000
3990,-46.875000
3991,-46.875000
3992,-46.875000
3993,-46.875000
3994,-42.968750
3995,-42.968750
3996,-42.968750
3997,-42.968750
3998,-39.062500
3999,-39.062500
4000,-39.062500
4001,-39.062500
4002,-35.156250
4003,-35.156250
4004,-35.156250
4005,-35.156250
4006,-31.250000
4007,-31.250000
4008,-27.343750
4009,-27.343750
4010,-27.343750
4011,-27.343750
4012,-27.343750
4013,-27.343750
4014,-23.437500
4015,-23.437500
4016,-23.437500
4017,-19.531250
4018,-19.531250
4019,-19.531250
4020,-15.625000
4021,-15.625000
4022,-15.625000
4023,-15.625000
4024,-15.625000
4025,-11.718750
4026,-11.718750
4027,-11.718750
4028,-11.718750
4029,-7.812500
4030,-7.812500
4031,-7.812500
4032,-3.906250
4033,-3.906250
4034,-3.906250
4035,-3.906250
4036,0.000000
4037,0.000000
4038,0.000000
4039,0.000000
4040,3.906250
4041,3.906250
4042,3.906250
4043,3.906250
4044,7.812500
4045,7.812500
4046,7.812500
4047,7.812500
4048,11.718750
4049,11.718750
4050,11.718750
4051,11.718750
4052,15.625000
4053,15.625000
4054,15.625000
4055,15.625000
4056,19.531250
4057,19.531250
4058,19.531250
4059,19.531250
4060,23.437500
4061,23.437500
4062,23.437500
4063,23.437500
4064,23.437500
4065,27.343750
4066,27.343750
4067,27.343750
4068,27.343750
4069,31.250000
4070,31.250000
4071,31.250000
4072,31.250000
4073,35.156250
4074,35.156250
4075,35.156250
4076,35.156250
4077,39.062500
4078,39.062500
4079,39.062500
4080,39.062500
4081,42.968750
4082,42.968750
4083,42.968750
4084,42.968750
4085,42.968750
4086,46.875000
4087,46.875000
4088,46.875000
4089,46.875000
4090,46.875000
4091,50.781250
4092,50.781250
4093,50.781250
4094,50.781250
4095,54.687500
4096,54.687500
4097,54.687500
4098,54.687500
4099,54.687500
4100,58.593750
4101,58.593750
4102,58.593750
4103,58.593750
4104,62.500000
4105,62.500000
4106,62.500000
4107,62.500000
4108,62.500000
4109,62.500000
4110,62.500000
4111,66.406250
4112,66.406250
4113,66.406250
4114,70.312500
4115,70.312500
4116,70.312500
4117,70.312500
4118,70.312500
4119,70.312500
4120,74.218750
4121,74.218750
4122,74.218750
4123,74.218750
4124,74.218750
4125,74.218750
4126,78.125000
4127,78.125000
4128,78.125000
4129,78.125000
4130,78.125000
4131,78.125000
4132,82.031250
4133,82.031250
4134,82.031250
4135,82.031250
4136,82.031250
4137,85.937500
4138,85.937500
4139,85.937500
4140,85.937500
4141,85.937500
4142,85.937500
4143,85.937500
4144,89.843750
4145,89.843750
4146,89.843750
4147,89.843750
4148,89.843750
4149,89.843750
4150,93.750000
4151,93.750000
4152,93.750000
4153,93.750000
4154,93.750000
4155,93.750000
4156,93.750000
4157,97.656250
4158,97.656250
4159,97.656250
4160,97.656250
4161,97.656250
4162,97.656250
4163,97.656250
4164,101.562500
4165,101.562500
4166,101.562500
4167,101.562500
4168,101.562500
4169,101.562500
4170,105.468750
4171,101.562500
4172,105.468750
4173,105.468750
4174,105.468750
4175,105.468750
4176,105.468750
4177,105.468750
4178,109.375000
4179,109.375000
4180,109.375000
4181,109.375000
4182,109.375000
4183,109.375000
4184,109.375000
4185,109.375000
4186,109.375000
4187,109.375000
4188,113.281250
4189,113.281250
4190,113.281250
4191,113.281250
4192,113.281250
4193,113.281250
4194,113.281250
4195,113.281250
4196,113.281250
4197,117.187500
4198,117.187500
4199,117.187500
4200,117.187500
4201,117.187500
4202,117.187500
4203,117.187500
4204,117.187500
4205,117.187500
4206,117.187500
4207,121.093750
4208,121.093750
4209,121.093750
4210,121.093750
4211,121.093750
4212,121.093750
4213,121.093750
4214,121.093750
4215,121.093750
4216,121.093750
4217,121.093750
4218,121.093750
4219,125.000000
4220,125.000000
4221,125.000000
4222,125.000000
4223,125.000000
4224,125.000000
4225,125.000000
4226,125.000000
4227,125.000000
4228,125.000000
4229,125.000000
4230,125.000000
4231,125.000000
4232,125.000000
4233,125.000000
4234,128.906250
4235,125.000000
4236,128.906250
4237,128.906250
4238,128.906250
4239,128.906250
4240,128.906250
4241,128.906250
4242,128.906250
4243,128.906250
4244,128.906250
4245,128.906250
4246,128.906250
4247,128.906250
4248,128.906250
4249,128.906250
4250,128.906250
4251,128.906250
4252,128.906250
4253,128.906250
4254,128.906250
4255,128.906250
4256,128.906250
4257,128.906250
4258,128.906250
4259,128.906250
4260,128.906250
4261,128.906250
4262,132.812500
4263,128.906250
4264,128.906250
4265,128.906250
4266,132.812500
4267,132.812500
4268,132.812500
4269,128.906250
4270,132.812500
4271,128.906250
4272,132.812500
4273,132.812500
4274,132.812500
4275,128.906250
4276,132.812500
4277,128.906250
4278,132.812500
4279,132.812500
4280,132.812500
4281,128.906250
4282,132.812500
4283,132.812500
4284,132.812500
4285,128.906250
4286,132.812500
4287,128.906250
4288,128.906250
4289,128.906250
4290,132.812500
4291,132.812500
4292,132.812500
4293,128.906250
4294,128.906250
4295,128.906250
4296,132.812500
4297,128.906250
4298,128.906250
4299,128.906250
4300,128.906250
4301,128.906250
4302,128.906250
4303,128.906250
4304,128.906250
4305,128.906250
4306,128.906250
4307,128.906250
4308,128.906250
4309,128.906250
4310,128.906250
4311,128.906250
4312,128.906250
4313,128.906250
4314,128.906250
4315,128.906250
4316,128.906250
4317,128.906250
4318,128.906250
4319,128.906250
4320,128.906250
4321,128.906250
4322,128.906250
4323,128.906250
4324,125.000000
4325,125.000000
4326,125.000000
4327,125.000000
4328,125.000000
4329,125.000000
4330,125.000000
4331,125.000000
4332,125.000000
4333,125.000000
4334,125.000000
4335,125.000000
4336,125.000000
4337,125.000000
4338,125.000000
4339,125.000000
4340,121.093750
4341,121.093750
4342,121.093750
4343,121.093750
4344,121.093750
4345,121.093750
4346,121.093750
4347,121.093750
4348,121.093750
4349,121.093750
4350,121.093750
4351,117.187500
4352,117.187500
4353,117.187500
4354,117.187500
4355,117.187500
4356,117.187500
4357,117.187500
4358,117.187500
4359,117.187500
4360,113.281250
4361,113.281250
4362,113.281250
4363,113.281250
4364,113.281250
4365,113.281250
4366,113.281250
4367,113.281250
4368,113.281250
4369,109.375000
4370,109.375000
4371,109.375000
4372,109.375000
4373,109.375000
4374,109.375000
4375,109.375000
4376,109.375000
4377,109.375000
4378,109.375000
4379,105.468750
4380,105.468750
4381,105.468750
4382,105.468750
4383,105.468750
4384,105.468750
4385,105.468750
4386,105.468750
4387,105.468750
4388,101.562500
4389,101.562500
4390,101.562500
4391,101.562500
4392,101.562500
4393,101.562500
4394,97.656250
4395,97.656250
4396,97.656250
4397,97.656250
4398,97.656250
4399,97.656250
4400,97.656250
4401,93.750000
4402,93.750000
4403,93.750000
4404,93.750000
4405,89.843750
4406,93.750000
4407,89.843750
4408,89.843750
4409,89.843750
4410,89.843750
4411,89.843750
4412,89.843750
4413,85.937500
4414,85.937500
4415,85.937500
4416,85.937500
4417,85.937500
4418,85.937500
4419,85.937500
4420,85.937500
4421,82.031250
4422,82.031250
4423,82.031250
4424,82.031250
4425,78.125000
4426,78.125000
4427,78.125000
4428,78.125000
4429,78.125000
4430,78.125000
4431,74.218750
4432,74.218750
4433,74.218750
4434,74.218750
4435,74.218750
4436,74.218750
4437,70.312500
4438,70.312500
4439,70.312500
4440,70.312500
4441,66.406250
4442,66.406250
4443,66.406250
4444,66.406250
4445,66.406250
4446,66.406250
4447,62.500000
4448,62.500000
4449,62.500000
4450,62.500000
4451,58.593750
4452,58.593750
4453,58.593750
4454,58.593750
4455,58.593750
4456,54.687500
4457,54.687500
4458,54.687500
4459,54.687500
4460,54.687500
4461,50.781250
4462,50.781250
4463,50.781250
4464,50.781250
4465,50.781250
4466,46.875000
4467,46.875000
4468,46.875000
4469,46.875000
4470,46.875000
4471,46.875000
4472,42.968750
4473,42.968750
4474,42.968750
4475,39.062500
4476,39.062500
4477,39.062500
4478,39.062500
4479,35.156250
4480,35.156250
4481,35.156250
4482,35.156250
4483,35.156250
4484,31.250000
4485,31.250000
4486,31.250000
4487,31.250000
4488,27.343750
4489,27.343750
4490,27.343750
4491,23.437500
4492,23.437500
4493,23.437500
4494,23.437500
4495,23.437500
4496,19.531250
4497,19.531250
4498,19.531250
4499,15.625000
4500,15.625000
4501,15.625000
4502,15.625000
4503,15.625000
4504,11.718750
4505,11.718750
4506,11.718750
4507,11.718750
4508,7.812500
4509,7.812500
4510,7.812500
4511,3.906250
4512,3.906250
4513,3.906250
4514,3.906250
4515,0.000000
4516,0.000000
4517,0.000000
4518,0.000000
4519,-3.906250
4520,-3.906250
4521,-3.906250
4522,-3.906250
4523,-7.812500
4524,-7.812500
4525,-7.812500
4526,-7.812500
4527,-11.718750
4528,-11.718750
4529,-11.718750
4530,-11.718750
4531,-11.718750
4532,-15.625000
4533,-15.625000
4534,-15.625000
4535,-19.531250
4536,-19.531250
4537,-19.531250
4538,-19.531250
4539,-23.437500
4540,-23.437500
4541,-23.437500
4542,-23.437500
4543,-27.343750
4544,-27.343750
4545,-27.343750
4546,-31.250000
4547,-31.250000
4548,-31.250000
4549,-31.250000
4550,-31.250000
4551,-35.156250
4552,-35.156250
4553,-39.062500
4554,-35.156250
4555,-39.062500
4556,-39.062500
4557,-39.062500
4558,-42.968750
4559,-42.968750
4560,-42.968750
4561,-42.968750
4562,-46.875000
4563,-46.875000
4564,-46.875000
4565,-46.875000
4566,-50.781250
4567,-50.781250
4568,-50.781250
4569,-50.781250
4570,-50.781250
4571,-54.687500
4572,-54.687500
4573,-58.593750
4574,-58.593750
4575,-58.593750
4576,-58.593750
4577,-62.500000
4578,-62.500000
4579,-62.500000
4580,-62.500000
4581,-62.500000
4582,-66.406250
4583,-66.406250
4584,-66.406250
4585,-70.312500
4586,-70.312500
4587,-70.312500
4588,-70.312500
4589,-70.312500
4590,-74.218750
4591,-74.218750
4592,-74.218750
4593,-74.218750
4594,-78.125000
4595,-78.125000
4596,-78.125000
4597,-78.125000
4598,-82.031250
4599,-82.031250
4600,-82.031250
4601,-82.031250
4602,-85.937500
4603,-85.937500
4604,-85.937500
4605,-85.937500
4606,-85.937500
4607,-89.843750
4608,-89.843750
4609,-89.843750
4610,-89.843750
4611,-93.750000
4612,-93.750000
4613,-93.750000
4614,-93.750000
4615,-93.750000
4616,-97.656250
4617,-97.656250
4618,-97.656250
4619,-101.562500
4620,-101.562500
4621,-101.562500
4622,-105.468750
4623,-105.468750
4624,-105.468750
4625,-105.468750
4626,-105.468750
4627,-109.375000
4628,-109.375000
4629,-109.375000
4630,-109.375000
4631,-109.375000
4632,-113.281250
4633,-113.281250
4634,-113.281250
4635,-113.281250
4636,-113.281250
4637,-117.187500
4638,-117.187500
4639,-117.187500
4640,-121.093750
4641,-121.093750
4642,-121.093750
4643,-121.093750
4644,-121.093750
4645,-121.093750
4646,-125.000000
4647,-125.000000
4648,-125.000000
4649,-125.000000
4650,-125.000000
4651,-128.906250
4652,-128.906250
4653,-128.906250
4654,-128.906250
4655,-128.906250
4656,-132.812500
4657,-132.812500
4658,-132.812500
4659,-132.812500
4660,-132.812500
4661,-136.718750
4662,-136.718750
4663,-136.718750
4664,-136.718750
4665,-136.718750
4666,-136.718750
4667,-140.625000
4668,-140.625000
4669,-140.625000
4670,-140.625000
4671,-140.625000
4672,-144.531250
4673,-144.531250
4674,-144.531250
4675,-144.531250
4676,-144.531250
4677,-148.437500
4678,-148.437500
4679,-148.437500
4680,-148.437500
4681,-148.437500
4682,-148.437500
4683,-148.437500
4684,-152.343750
4685,-152.343750
4686,-152.343750
4687,-152.343750
4688,-152.343750
4689,-152.343750
4690,-152.343750
4691,-156.250000
4692,-156.250000
4693,-156.250000
4694,-156.250000
4695,-156.250000
4696,-156.250000
4697,-156.250000
4698,-160.156250
4699,-156.250000
4700,-156.250000
4701,-160.156250
4702,-160.156250
4703,-160.156250
4704,-160.156250
4705,-160.156250
4706,-160.156250
4707,-160.156250
4708,-164.062500
4709,-164.062500
4710,-164.062500
4711,-164.062500
4712,-164.062500
4713,-164.062500
4714,-164.062500
4715,-164.062500
4716,-164.062500
4717,-167.968750
4718,-167.968750
4719,-167.968750
4720,-167.968750
4721,-167.968750
4722,-167.968750
4723,-167.968750
4724,-167.968750
4725,-167.968750
4726,-167.968750
4727,-171.875000
4728,-171.875000
4729,-167.968750
4730,-171.875000
4731,-171.875000
4732,-171.875000
4733,-171.875000
4734,-171.875000
4735,-171.875000
4736,-171.875000
4737,-171.875000
4738,-171.875000
4739,-171.875000
4740,-171.875000
4741,-171.875000
4742,-171.875000
4743,-175.781250
4744,-175.781250
4745,-171.875000
4746,-175.781250
4747,-175.781250
4748,-175.781250
4749,-175.781250
4750,-175.781250
4751,-175.781250
4752,-175.781250
4753,-175.781250
4754,-175.781250
4755,-175.781250
4756,-175.781250
4757,-175.781250
4758,-175.781250
4759,-175.781250
4760,-175.781250
4761,-175.781250
4762,-175.781250
4763,-179.687500
4764,-179.687500
4765,-175.781250
4766,-175.781250
4767,-175.781250
4768,-175.781250
4769,-179.687500
4770,-175.781250
4771,-175.781250
4772,-175.781250
4773,-179.687500
4774,-179.687500
4775,-179.687500
4776,-179.687500
4777,-179.687500
4778,-175.781250
4779,-175.781250
4780,-179.687500
4781,-179.687500
4782,-175.781250
4783,-175.781250
4784,-175.781250
4785,-175.781250
4786,-175.781250
4787,-175.781250
4788,-175.781250
4789,-175.781250
4790,-175.781250
4791,-175.781250
4792,-175.781250
4793,-175.781250
4794,-175.781250
4795,-175.781250
4796,-175.781250
4797,-175.781250
4798,-175.781250
4799,-175.781250
4800,-175.781250
4801,-175.781250
4802,-171.875000
4803,-171.875000
4804,-175.781250
4805,-171.875000
4806,-175.781250
4807,-175.781250
4808,-171.875000
4809,-171.875000
4810,-175.781250
4811,-171.875000
4812,-171.875000
4813,-171.875000
4814,-167.968750
4815,-171.875000
4816,-175.781250
4817,-171.875000
4818,-171.875000
4819,-171.875000
4820,-164.062500
4821,-167.968750
4822,-167.968750
4823,-167.968750
4824,-167.968750
4825,-167.968750
4826,-167.968750
4827,-167.968750
4828,-164.062500
4829,-167.968750
4830,-164.062500
4831,-164.062500
4832,-164.062500
4833,-164.062500
4834,-164.062500
4835,-164.062500
4836,-164.062500
4837,-164.062500
4838,-160.156250
4839,-160.156250
4840,-160.156250
4841,-160.156250
4842,-160.156250
4843,-160.156250
4844,-160.156250
4845,-160.156250
4846,-156.250000
4847,-156.250000
4848,-156.250000
4849,-156.250000
4850,-156.250000
4851,-156.250000
4852,-156.250000
4853,-156.250000
4854,-152.343750
4855,-152.343750
4856,-152.343750
4857,-152.343750
4858,-152.343750
4859,-152.343750
4860,-148.437500
4861,-148.437500
4862,-148.437500
4863,-148.437500
4864,-148.437500
4865,-148.437500
4866,-144.531250
4867,-144.531250
4868,-144.531250
4869,-144.531250
4870,-144.531250
4871,-144.531250
4872,-140.625000
4873,-140.625000
4874,-140.625000
4875,-140.625000
4876,-140.625000
4877,-136.718750
4878,-136.718750
4879,-136.718750
4880,-136.718750
4881,-136.718750
4882,-136.718750
4883,-136.718750
4884,-136.718750
4885,-132.812500
4886,-132.812500
4887,-132.812500
4888,-132.812500
4889,-128.906250
4890,-128.906250
4891,-128.906250
4892,-128.906250
4893,-128.906250
4894,-125.000000
4895,-125.000000
4896,-125.000000
4897,-125.000000
4898,-125.000000
4899,-125.000000
4900,-121.093750
4901,-121.093750
4902,-121.093750
4903,-121.093750
4904,-117.187500
4905,-117.187500
4906,-117.187500
4907,-117.187500
4908,-117.187500
4909,-113.281250
4910,-113.281250
4911,-113.281250
4912,-113.281250
4913,-113.281250
4914,-109.375000
4915,-109.375000
4916,-109.375000
4917,-109.375000
4918,-105.468750
4919,-105.468750
4920,-105.468750
4921,-105.468750
4922,-101.562500
4923,-101.562500
4924,-101.562500
4925,-101.562500
4926,-101.562500
4927,-97.656250
4928,-97.656250
4929,-97.656250
4930,-97.656250
4931,-97.656250
4932,-93.750000
4933,-93.750000
4934,-93.750000
4935,-89.843750
4936,-89.843750
4937,-89.843750
4938,-89.843750
4939,-89.843750
4940,-89.843750
4941,-85.937500
4942,-85.937500
4943,-85.937500
4944,-82.031250
4945,-82.031250
4946,-82.031250
4947,-82.031250
4948,-78.125000
4949,-78.125000
4950,-78.125000
4951,-78.125000
4952,-74.218750
4953,-74.218750
4954,-74.218750
4955,-74.218750
4956,-70.312500
4957,-70.312500
4958,-70.312500
4959,-66.406250
4960,-66.406250
4961,-66.406250
4962,-62.500000
4963,-62.500000
4964,-62.500000
4965,-62.500000
4966,-62.500000
4967,-62.500000
4968,-58.593750
4969,-58.593750
4970,-54.687500
4971,-54.687500
4972,-54.687500
4973,-54.687500
4974,-54.687500
4975,-50.781250
4976,-50.781250
4977,-50.781250
4978,-46.875000
4979,-46.875000
4980,-46.875000
4981,-46.875000
4982,-46.875000
4983,-42.968750
4984,-42.968750
4985,-42.968750
4986,-42.968750
4987,-39.062500
4988,-39.062500
4989,-39.062500
4990,-35.156250
4991,-35.156250
4992,-35.156250
4993,-35.156250
4994,-31.250000
4995,-31.250000
4996,-31.250000
4997,-31.250000
4998,-27.343750
4999,-27.343750
5000,-27.343750
5001,-27.343750
5002,-23.437500
5003,-23.437500
5004,-23.437500
5005,-23.437500
5006,-23.437500
5007,-19.531250
5008,-19.531250
5009,-15.625000
5010,-15.625000
5011,-15.625000
5012,-15.625000
5013,-15.625000
5014,-15.625000
5015,-11.718750
5016,-11.718750
5017,-11.718750
5018,-7.812500
5019,-7.812500
5020,-7.812500
5021,-7.812500
5022,-3.906250
5023,-3.906250
5024,-3.906250
5025,-3.906250
5026,0.000000
5027,0.000000
5028,0.000000
5029,3.906250
5030,3.906250
5031,3.906250
5032,3.906250
5033,7.812500
5034,7.812500
5035,7.812500
5036,7.812500
5037,7.812500
5038,11.718750
5039,11.718750
5040,11.718750
5041,11.718750
5042,15.625000
5043,15.625000
5044,15.625000
5045,19.531250
5046,19.531250
5047,19.531250
5048,19.531250
5049,19.531250
5050,23.437500
5051,23.437500
5052,23.437500
5053,23.437500
5054,27.343750
5055,27.343750
5056,27.343750
5057,27.343750
5058,31.250000
5059,31.250000
5060,31.250000
5061,31.250000
5062,31.250000
5063,35.156250
5064,35.156250
5065,35.156250
5066,35.156250
5067,39.062500
5068,39.062500
5069,39.062500
5070,39.062500
5071,42.968750
5072,42.968750
5073,42.968750
5074,42.968750
5075,46.875000
5076,46.875000
5077,46.875000
5078,46.875000
5079,46.875000
5080,50.781250
5081,50.781250
5082,50.781250
5083,50.781250
5084,50.781250
5085,54.687500
5086,54.687500
5087,54.687500
5088,54.687500
5089,54.687500
5090,58.593750
5091,58.593750
5092,58.593750
5093,58.593750
5094,62.500000
5095,62.500000
5096,62.500000
5097,62.500000
5098,62.500000
5099,66.406250
5100,66.406250
5101,66.406250
5102,66.406250
5103,70.312500
5104,70.312500
5105,70.312500
5106,70.312500
5107,70.312500
5108,70.312500
5109,74.218750
5110,74.218750
5111,74.218750
5112,74.218750
5113,74.218750
5114,78.125000
5115,78.125000
5116,78.125000
5117,78.125000
5118,78.125000
5119,78.125000
5120,82.031250
5121,82.031250
5122,82.031250
5123,82.031250
5124,82.031250
5125,82.031250
5126,85.937500
5127,85.937500
5128,85.937500
5129,85.937500
5130,85.937500
5131,85.937500
5132,89.843750
5133,89.843750
5134,89.843750
5135,89.843750
5136,89.843750
5137,89.843750
5138,93.750000
5139,93.750000
5140,93.750000
5141,93.750000
5142,93.750000
5143,93.750000
5144,93.750000
5145,93.750000
5146,97.656250
5147,97.656250
5148,97.656250
5149,97.656250
5150,97.656250
5151,97.656250
5152,97.656250
5153,101.562500
5154,101.562500
5155,101.562500
5156,101.562500
5157,101.562500
5158,101.562500
5159,101.562500
5160,105.468750
5161,105.468750
5162,105.468750
5163,105.468750
5164,105.468750
5165,105.468750
5166,105.468750
5167,105.468750
5168,109.375000
5169,109.375000
5170,109.375000
5171,109.375000
5172,109.375000
5173,109.375000
5174,109.375000
5175,109.375000
5176,113.281250
5177,113.281250
5178,113.281250
5179,113.281250
5180,113.281250
5181,113.281250
5182,113.281250
5183,113.281250
5184,113.281250
5185,113.281250
5186,117.187500
5187,117.187500
5188,117.187500
5189,117.187500
5190,117.187500
5191,117.187500
5192,117.187500
5193,117.187500
5194,117.187500
5195,117.187500
5196,117.187500
5197,121.093750
5198,121.093750
5199,121.093750
5200,121.093750
5201,121.093750
5202,121.093750
5203,121.093750
5204,121.093750
5205,121.093750
5206,125.000000
5207,121.093750
5208,125.000000
5209,125.000000
5210,125.000000
5211,125.000000
5212,125.000000
5213,125.000000
5214,125.000000
5215,125.000000
5216,125.000000
5217,125.000000
5218,125.000000
5219,125.000000
5220,125.000000
5221,125.000000
5222,125.000000
5223,125.000000
5224,125.000000
5225,128.906250
5226,128.906250
5227,128.906250
5228,128.906250
5229,128.906250
5230,128.906250
5231,128.906250
5232,128.906250
5233,128.906250
5234,128.906250
5235,128.906250
5236,128.906250
5237,128.906250
5238,128.906250
5239,128.906250
5240,128.906250
5241,128.906250
5242,128.906250
5243,128.906250
5244,132.812500
5245,132.812500
5246,132.812500
5247,128.906250
5248,132.812500
5249,132.812500
5250,132.812500
5251,128.906250
5252,132.812500
5253,128.906250
5254,132.812500
5255,132.812500
5256,132.812500
5257,132.812500
5258,132.812500
5259,132.812500
5260,132.812500
5261,132.812500
5262,132.812500
5263,132.812500
5264,132.812500
5265,132.812500
5266,132.812500
5267,132.812500
5268,132.812500
5269,132.812500
5270,132.812500
5271,132.812500
5272,132.812500
5273,132.812500
5274,132.812500
5275,132.812500
5276,132.812500
5277,132.812500
5278,132.812500
5279,128.906250
5280,132.812500
5281,132.812500
5282,132.812500
5283,128.906250
5284,128.906250
5285,128.906250
5286,132.812500
5287,128.906250
5288,128.906250
5289,128.906250
5290,128.906250
5291,128.906250
5292,128.906250
5293,128.906250
5294,128.906250
5295,128.906250
5296,128.906250
5297,128.906250
5298,128.906250
5299,128.906250
5300,128.906250
5301,128.906250
5302,128.906250
5303,128.906250
5304,128.906250
5305,128.906250
5306,128.906250
5307,128.906250
5308,128.906250
5309,128.906250
5310,128.906250
5311,128.906250
5312,128.906250
5313,125.000000
5314,125.000000
5315,125.000000
5316,125.000000
5317,125.000000
5318,125.000000
5319,125.000000
5320,125.000000
5321,125.000000
5322,125.000000
5323,125.000000
5324,125.000000
5325,125.000000
5326,125.000000
5327,121.093750
5328,121.093750
5329,121.093750
5330,125.000000
5331,121.093750
5332,121.093750
5333,121.093750
5334,121.093750
5335,121.093750
5336,121.093750
5337,121.093750
5338,121.093750
5339,121.093750
5340,117.187500
5341,117.187500
5342,121.093750
5343,117.187500
5344,117.187500
5345,117.187500
5346,117.187500
5347,117.187500
5348,117.187500
5349,117.187500
5350,117.187500
5351,113.281250
5352,113.281250
5353,113.281250
5354,113.281250
5355,113.281250
5356,113.281250
5357,113.281250
5358,113.281250
5359,113.281250
5360,113.281250
5361,109.375000
5362,109.375000
5363,109.375000
5364,109.375000
5365,109.375000
5366,109.375000
5367,109.375000
5368,109.375000
5369,105.468750
5370,105.468750
5371,105.468750
5372,105.468750
5373,105.468750
5374,105.468750
5375,105.468750
5376,105.468750
5377,105.468750
5378,101.562500
5379,101.562500
5380,101.562500
5381,101.562500
5382,101.562500
5383,101.562500
5384,97.656250
5385,97.656250
5386,97.656250
5387,97.656250
5388,97.656250
5389,97.656250
5390,97.656250
5391,93.750000
5392,93.750000
5393,93.750000
5394,93.750000
5395,93.750000
5396,93.750000
5397,89.843750
5398,89.843750
5399,89.843750
5400,89.843750
5401,89.843750
5402,89.843750
5403,89.843750
5404,85.937500
5405,85.937500
5406,85.937500
5407,85.937500
5408,85.937500
5409,85.937500
5410,85.937500
5411,82.031250
5412,82.031250
5413,82.031250
5414,82.031250
5415,78.125000
5416,78.125000
5417,78.125000
5418,78.125000
5419,78.125000
5420,78.125000
5421,74.218750
5422,74.218750
5423,74.218750
5424,74.218750
5425,74.218750
5426,70.312500
5427,70.312500
5428,70.312500
5429,70.312500
5430,70.312500
5431,66.406250
5432,66.406250
5433,66.406250
5434,66.406250
5435,66.406250
5436,62.500000
5437,62.500000
5438,62.500000
5439,62.500000
5440,62.500000
5441,58.593750
5442,58.593750
5443,58.593750
5444,58.593750
5445,58.593750
5446,58.593750
5447,54.687500
5448,54.687500
5449,54.687500
5450,54.687500
5451,50.781250
5452,50.781250
5453,50.781250
5454,50.781250
5455,46.875000
5456,46.875000
5457,46.875000
5458,46.875000
5459,46.875000
5460,42.968750
5461,42.968750
5462,42.968750
5463,42.968750
5464,42.968750
5465,39.062500
5466,39.062500
5467,39.062500
5468,35.156250
5469,35.156250
5470,35.156250
5471,35.156250
5472,35.156250
5473,35.156250
5474,31.250000
5475,31.250000
5476,31.250000
5477,27.343750
5478,27.343750
5479,27.343750
5480,27.343750
5481,23.437500
5482,23.437500
5483,23.437500
5484,23.437500
5485,23.437500
5486,19.531250
5487,19.531250
5488,19.531250
5489,19.531250
5490,15.625000
5491,15.625000
5492,15.625000
5493,15.625000
5494,11.718750
5495,11.718750
5496,11.718750
5497,7.812500
5498,7.812500
5499,7.812500
5500,7.812500
5501,7.812500
5502,7.812500
5503,3.906250
5504,3.906250
5505,3.906250
5506,3.906250
5507,0.000000
5508,0.000000
5509,-3.906250
5510,-3.906250
5511,-3.906250
5512,-3.906250
5513,-3.906250
5514,-3.906250
5515,-7.812500
5516,-7.812500
5517,-7.812500
5518,-11.718750
5519,-11.718750
5520,-11.718750
5521,-11.718750
5522,-15.625000
5523,-15.625000
5524,-15.625000
5525,-19.531250
5526,-19.531250
5527,-19.531250
5528,-19.531250
5529,-19.531250
5530,-23.437500
5531,-23.437500
5532,-23.437500
5533,-27.343750
5534,-27.343750
5535,-27.343750
5536,-27.343750
5537,-31.250000
5538,-31.250000
5539,-31.250000
5540,-35.156250
5541,-35.156250
5542,-35.156250
5543,-35.156250
5544,-35.156250
5545,-39.062500
5546,-39.062500
5547,-39.062500
5548,-39.062500
5549,-42.968750
5550,-42.968750
5551,-46.875000
5552,-46.875000
5553,-46.875000
5554,-46.875000
5555,-46.875000
5556,-46.875000
5557,-50.781250
5558,-50.781250
5559,-54.687500
5560,-54.687500
5561,-54.687500
5562,-54.687500
5563,-58.593750
5564,-58.593750
5565,-58.593750
5566,-58.593750
5567,-62.500000
5568,-62.500000
5569,-62.500000
5570,-62.500000
5571,-66.406250
5572,-66.406250
5573,-66.406250
5574,-66.406250
5575,-66.406250
5576,-70.312500
5577,-70.312500
5578,-70.312500
5579,-70.312500
5580,-74.218750
5581,-74.218750
5582,-74.218750
5583,-78.125000
5584,-78.125000
5585,-78.125000
5586,-78.125000
5587,-78.125000
5588,-82.031250
5589,-82.031250
5590,-82.031250
5591,-85.937500
5592,-85.937500
5593,-85.937500
5594,-85.937500
5595,-85.937500
5596,-89.843750
5597,-89.843750
5598,-89.843750
5599,-89.843750
5600,-93.750000
5601,-93.750000
5602,-93.750000
5603,-93.750000
5604,-97.656250
5605,-97.656250
5606,-97.656250
5607,-97.656250
5608,-97.656250
5609,-101.562500
5610,-101.562500
5611,-101.562500
5612,-105.468750
5613,-105.468750
5614,-105.468750
5615,-105.468750
5616,-105.468750
5617,-105.468750
5618,-109.375000
5619,-109.375000
5620,-109.375000
5621,-109.375000
5622,-113.281250
5623,-113.281250
5624,-113.281250
5625,-113.281250
5626,-117.187500
5627,-117.187500
5628,-117.187500
5629,-117.187500
5630,-117.187500
5631,-121.093750
5632,-121.093750
5633,-121.093750
5634,-121.093750
5635,-121.093750
5636,-125.000000
5637,-125.000000
5638,-125.000000
5639,-125.000000
5640,-125.000000
5641,-125.000000
5642,-128.906250
5643,-128.906250
5644,-128.906250
5645,-128.906250
5646,-132.812500
5647,-132.812500
5648,-132.812500
5649,-132.812500
5650,-132.812500
5651,-136.718750
5652,-136.718750
5653,-136.718750
5654,-136.718750
5655,-136.718750
5656,-136.718750
5657,-140.625000
5658,-140.625000
5659,-140.625000
5660,-140.625000
5661,-140.625000
5662,-144.531250
5663,-144.531250
5664,-144.531250
5665,-144.531250
5666,-144.531250
5667,-144.531250
5668,-144.531250
5669,-148.437500
5670,-148.437500
5671,-148.437500
5672,-148.437500
5673,-148.437500
5674,-148.437500
5675,-152.343750
5676,-152.343750
5677,-152.343750
5678,-152.343750
5679,-152.343750
5680,-152.343750
5681,-152.343750
5682,-156.250000
5683,-156.250000
5684,-156.250000
5685,-156.250000
5686,-156.250000
5687,-156.250000
5688,-156.250000
5689,-160.156250
5690,-156.250000
5691,-160.156250
5692,-160.156250
5693,-160.156250
5694,-160.156250
5695,-164.062500
5696,-160.156250
5697,-164.062500
5698,-164.062500
5699,-164.062500
5700,-164.062500
5701,-164.062500
5702,-164.062500
5703,-164.062500
5704,-164.062500
5705,-164.062500
5706,-167.968750
5707,-167.968750
5708,-167.968750
5709,-167.968750
5710,-167.968750
5711,-167.968750
5712,-167.968750
5713,-167.968750
5714,-167.968750
5715,-171.875000
5716,-167.968750
5717,-167.968750
5718,-171.875000
5719,-171.875000
5720,-171.875000
5721,-171.875000
5722,-171.875000
5723,-171.875000
5724,-171.875000
5725,-171.875000
5726,-171.875000
5727,-171.875000
5728,-171.875000
5729,-171.875000
5730,-175.781250
5731,-175.781250
5732,-175.781250
5733,-175.781250
5734,-175.781250
5735,-175.781250
5736,-175.781250
5737,-175.781250
5738,-175.781250
5739,-175.781250
5740,-175.781250
5741,-175.781250
5742,-175.781250
5743,-175.781250
5744,-175.781250
5745,-175.781250
5746,-175.781250
5747,-175.781250
5748,-175.781250
5749,-175.781250
5750,-175.781250
5751,-175.781250
5752,-175.781250
5753,-175.781250
5754,-175.781250
5755,-175.781250
5756,-175.781250
5757,-175.781250
5758,-175.781250
5759,-175.781250
5760,-175.781250
5761,-175.781250
5762,-175.781250
5763,-175.781250
5764,-179.687500
5765,-175.781250
5766,-175.781250
5767,-175.781250
5768,-179.687500
5769,-175.781250
5770,-175.781250
5771,-175.781250
5772,-175.781250
5773,-175.781250
5774,-175.781250
5775,-175.781250
5776,-175.781250
5777,-175.781250
5778,-175.781250
5779,-175.781250
5780,-175.781250
5781,-175.781250
5782,-175.781250
5783,-175.781250
5784,-175.781250
5785,-175.781250
5786,-175.781250
5787,-175.781250
5788,-175.781250
5789,-175.781250
5790,-175.781250
5791,-175.781250
5792,-175.781250
5793,-175.781250
5794,-171.875000
5795,-171.875000
5796,-171.875000
5797,-171.875000
5798,-171.875000
5799,-171.875000
5800,-171.875000
5801,-171.875000
5802,-171.875000
5803,-171.875000
5804,-171.875000
5805,-171.875000
5806,-171.875000
5807,-171.875000
5808,-167.968750
5809,-167.968750
5810,-167.968750
5811,-167.968750
5812,-167.968750
5813,-167.968750
5814,-167.968750
5815,-167.968750
5816,-167.968750
5817,-167.968750
5818,-164.062500
5819,-167.968750
5820,-164.062500
5821,-164.062500
5822,-164.062500
5823,-164.062500
5824,-164.062500
5825,-164.062500
5826,-164.062500
5827,-164.062500
5828,-160.156250
5829,-160.156250
5830,-160.156250
5831,-160.156250
5832,-160.156250
5833,-160.156250
5834,-160.156250
5835,-160.156250
5836,-156.250000
5837,-156.250000
5838,-156.250000
5839,-156.250000
5840,-156.250000
5841,-156.250000
5842,-156.250000
5843,-156.250000
5844,-156.250000
5845,-152.343750
5846,-152.343750
5847,-152.343750
5848,-152.343750
5849,-152.343750
5850,-148.437500
5851,-148.437500
5852,-148.437500
5853,-148.437500
5854,-148.437500
5855,-148.437500
5856,-144.531250
5857,-144.531250
5858,-144.531250
5859,-144.531250
5860,-144.531250
5861,-144.531250
5862,-140.625000
5863,-140.625000
5864,-140.625000
5865,-140.625000
5866,-140.625000
5867,-140.625000
5868,-140.625000
5869,-136.718750
5870,-136.718750
5871,-136.718750
5872,-136.718750
5873,-136.718750
5874,-136.718750
5875,-136.718750
5876,-132.812500
5877,-132.812500
5878,-128.906250
5879,-128.906250
5880,-128.906250
5881,-128.906250
5882,-128.906250
5883,-125.000000
5884,-125.000000
5885,-125.000000
5886,-125.000000
5887,-125.000000
5888,-121.093750
5889,-121.093750
5890,-121.093750
5891,-121.093750
5892,-121.093750
5893,-121.093750
5894,-117.187500
5895,-117.187500
5896,-117.187500
5897,-117.187500
5898,-113.281250
5899,-113.281250
5900,-113.281250
5901,-113.281250
5902,-109.375000
5903,-109.375000
5904,-109.375000
5905,-109.375000
5906,-109.375000
5907,-105.468750
5908,-105.468750
5909,-105.468750
5910,-105.468750
5911,-105.468750
5912,-101.562500
5913,-101.562500
5914,-101.562500
5915,-101.562500
5916,-97.656250
5917,-97.656250
5918,-97.656250
5919,-97.656250
5920,-97.656250
5921,-93.750000
5922,-93.750000
5923,-93.750000
5924,-93.750000
5925,-89.843750
5926,-89.843750
5927,-89.843750
5928,-89.843750
5929,-85.937500
5930,-85.937500
5931,-85.937500
5932,-82.031250
5933,-82.031250
5934,-82.031250
5935,-82.031250
5936,-82.031250
5937,-78.125000
5938,-78.125000
5939,-78.125000
5940,-78.125000
5941,-78.125000
5942,-74.218750
5943,-74.218750
5944,-74.218750
5945,-74.218750
5946,-70.312500
5947,-70.312500
5948,-70.312500
5949,-70.312500
5950,-66.406250
5951,-66.406250
5952,-66.406250
5953,-66.406250
5954,-62.500000
5955,-62.500000
5956,-62.500000
5957,-58.593750
5958,-58.593750
5959,-58.593750
5960,-58.593750
5961,-54.687500
5962,-54.687500
5963,-54.687500
5964,-54.687500
5965,-50.781250
5966,-50.781250
5967,-50.781250
5968,-50.781250
5969,-46.875000
5970,-46.875000
5971,-46.875000
5972,-46.875000
5973,-42.968750
5974,-42.968750
5975,-42.968750
5976,-42.968750
5977,-39.062500
5978,-39.062500
5979,-39.062500
5980,-35.156250
5981,-35.156250
5982,-35.156250
5983,-35.156250
5984,-31.250000
5985,-31.250000
5986,-31.250000
5987,-27.343750
5988,-27.343750
5989,-27.343750
5990,-23.437500
5991,-27.343750
5992,-23.437500
5993,-23.437500
5994,-23.437500
5995,-23.437500
5996,-19.531250
5997,-19.531250
5998,-19.531250
5999,-15.625000
6000,-15.625000
6001,-15.625000
6002,-15.625000
6003,-11.718750
6004,-15.625000
6005,-11.718750
6006,-11.718750
6007,-7.812500
6008,-7.812500
6009,-7.812500
6010,-7.812500
6011,-7.812500
6012,-3.906250
6013,-3.906250
6014,-3.906250
6015,0.000000
6016,0.000000
6017,0.000000
6018,3.906250
6019,3.906250
6020,3.906250
6021,3.906250
6022,7.812500
6023,7.812500
6024,7.812500
6025,7.812500
6026,11.718750
6027,11.718750
6028,11.718750
6029,11.718750
6030,11.718750
6031,15.625000
6032,15.625000
6033,15.625000
6034,15.625000
6035,19.531250
6036,19.531250
6037,19.531250
6038,19.531250
6039,23.437500
6040,23.437500
6041,23.437500
6042,23.437500
6043,27.343750
6044,27.343750
6045,27.343750
6046,27.343750
6047,31.250000
6048,31.250000
6049,31.250000
6050,31.250000
6051,31.250000
6052,35.156250
6053,35.156250
6054,35.156250
6055,35.156250
6056,39.062500
6057,39.062500
6058,39.062500
6059,39.062500
6060,42.968750
6061,39.062500
6062,42.968750
6063,42.968750
6064,42.968750
6065,46.875000
6066,46.875000
6067,50.781250
6068,46.875000
6069,50.781250
6070,50.781250
6071,50.781250
6072,50.781250
6073,50.781250
6074,54.687500
6075,54.687500
6076,54.687500
6077,54.687500
6078,54.687500
6079,54.687500
6080,58.593750
6081,58.593750
6082,58.593750
6083,58.593750
6084,62.500000
6085,62.500000
6086,62.500000
6087,62.500000
6088,66.406250
6089,66.406250
6090,66.406250
6091,66.406250
6092,66.406250
6093,70.312500
6094,70.312500
6095,70.312500
6096,70.312500
6097,70.312500
6098,70.312500
6099,70.312500
6100,74.218750
6101,74.218750
6102,74.218750
6103,78.125000
6104,74.218750
6105,78.125000
6106,78.125000
6107,78.125000
6108,78.125000
6109,78.125000
6110,82.031250
6111,82.031250
6112,82.031250
6113,82.031250
6114,82.031250
6115,82.031250
6116,85.937500
6117,82.031250
6118,85.937500
6119,85.937500
6120,85.937500
6121,85.937500
6122,89.843750
6123,89.843750
6124,89.843750
6125,89.843750
6126,89.843750
6127,89.843750
6128,93.750000
6129,93.750000
6130,93.750000
6131,93.750000
6132,93.750000
6133,93.750000
6134,97.656250
6135,97.656250
6136,97.656250
6137,97.656250
6138,97.656250
6139,97.656250
6140,97.656250
6141,97.656250
6142,101.562500
6143,101.562500
6144,101.562500
6145,101.562500
6146,101.562500
6147,105.468750
6148,105.468750
6149,105.468750
6150,105.468750
6151,105.468750
6152,105.468750
6153,105.468750
6154,105.468750
6155,105.468750
6156,105.468750
6157,109.375000
6158,109.375000
6159,109.375000
6160,109.375000
6161,109.375000
6162,109.375000
6163,109.375000
6164,113.281250
6165,113.281250
6166,113.281250
6167,113.281250
6168,113.281250
6169,113.281250
6170,113.281250
6171,113.281250
6172,113.281250
6173,113.281250
6174,117.187500
6175,113.281250
6176,117.187500
6177,117.187500
6178,117.187500
6179,117.187500
6180,117.187500
6181,117.187500
6182,117.187500
6183,117.187500
6184,117.187500
6185,117.187500
6186,117.187500
6187,121.093750
6188,121.093750
6189,121.093750
6190,121.093750
6191,121.093750
6192,121.093750
6193,121.093750
6194,121.093750
6195,121.093750
6196,121.093750
6197,121.093750
6198,121.093750
6199,121.093750
6200,125.000000
6201,125.000000
6202,125.000000
6203,125.000000
6204,125.000000
6205,125.000000
6206,125.000000
6207,125.000000
6208,125.000000
6209,125.000000
6210,125.000000
6211,125.000000
6212,125.000000
6213,125.000000
6214,128.906250
6215,128.906250
6216,128.906250
6217,128.906250
6218,128.906250
6219,128.906250
6220,128.906250
6221,128.906250
6222,128.906250
6223,128.906250
6224,128.906250
6225,128.906250
6226,128.906250
6227,128.906250
6228,128.906250
6229,128.906250
6230,128.906250
6231,128.906250
6232,128.906250
6233,128.906250
6234,132.812500
6235,128.906250
6236,128.906250
6237,128.906250
6238,132.812500
6239,128.906250
6240,128.906250
6241,128.906250
6242,128.906250
6243,128.906250
6244,132.812500
6245,128.906250
6246,132.812500
6247,132.812500
6248,132.812500
6249,132.812500
6250,132.812500
6251,132.812500
6252,132.812500
6253,132.812500
6254,132.812500
6255,132.812500
6256,132.812500
6257,132.812500
6258,132.812500
6259,132.812500
6260,132.812500
6261,132.812500
6262,132.812500
6263,132.812500
6264,132.812500
6265,132.812500
6266,132.812500
6267,132.812500
6268,132.812500
6269,132.812500
6270,132.812500
6271,128.906250
6272,132.812500
6273,132.812500
6274,132.812500
6275,128.906250
6276,132.812500
6277,128.906250
6278,128.906250
6279,128.906250
6280,132.812500
6281,128.906250
6282,132.812500
6283,128.906250
6284,132.812500
6285,128.906250
6286,128.906250
6287,128.906250
6288,128.906250
6289,128.906250
6290,128.906250
6291,128.906250
6292,128.906250
6293,128.906250
6294,128.906250
6295,128.906250
6296,128.906250
6297,128.906250
6298,128.906250
6299,128.906250
6300,128.906250
6301,128.906250
6302,125.000000
6303,125.000000
6304,125.000000
6305,125.000000
6306,125.000000
6307,125.000000
6308,125.000000
6309,125.000000
6310,125.000000
6311,125.000000
6312,125.000000
6313,125.000000
6314,125.000000
6315,121.093750
6316,121.093750
6317,121.093750
6318,121.093750
6319,125.000000
6320,121.093750
6321,121.093750
6322,121.093750
6323,121.093750
6324,121.093750
6325,121.093750
6326,121.093750
6327,121.093750
6328,121.093750
6329,117.187500
6330,117.187500
6331,117.187500
6332,117.187500
6333,117.187500
6334,117.187500
6335,113.281250
6336,117.187500
6337,117.187500
6338,117.187500
6339,117.187500
6340,117.187500
6341,113.281250
6342,113.281250
6343,113.281250
6344,113.281250
6345,113.281250
6346,113.281250
6347,113.281250
6348,113.281250
6349,109.375000
6350,109.375000
6351,109.375000
6352,109.375000
6353,109.375000
6354,109.375000
6355,109.375000
6356,109.375000
6357,109.375000
6358,109.375000
6359,105.468750
6360,105.468750
6361,105.468750
6362,105.468750
6363,105.468750
6364,105.468750
6365,105.468750
6366,101.562500
6367,101.562500
6368,101.562500
6369,101.562500
6370,101.562500
6371,101.562500
6372,101.562500
6373,101.562500
6374,101.562500
6375,97.656250
6376,97.656250
6377,97.656250
6378,97.656250
6379,97.656250
6380,93.750000
6381,93.750000
6382,93.750000
6383,93.750000
6384,93.750000
6385,93.750000
6386,93.750000
6387,89.843750
6388,93.750000
6389,89.843750
6390,89.843750
6391,85.937500
6392,89.843750
6393,85.937500
6394,85.937500
6395,85.937500
6396,85.937500
6397,85.937500
6398,85.937500
6399,85.937500
6400,82.031250
6401,82.031250
6402,82.031250
6403,82.031250
6404,82.031250
6405,78.125000
6406,78.125000
6407,78.125000
6408,78.125000
6409,78.125000
6410,78.125000
6411,74.218750
6412,74.218750
6413,74.218750
6414,74.218750
6415,74.218750
6416,70.312500
6417,70.312500
6418,70.312500
6419,70.312500
6420,70.312500
6421,66.406250
6422,66.406250
6423,66.406250
6424,66.406250
6425,66.406250
6426,66.406250
6427,62.500000
6428,62.500000
6429,62.500000
6430,62.500000
6431,58.593750
6432,58.593750
6433,58.593750
6434,58.593750
6435,58.593750
6436,54.687500
6437,54.687500
6438,54.687500
6439,54.687500
6440,50.781250
6441,54.687500
6442,50.781250
6443,50.781250
6444,50.781250
6445,46.875000
6446,46.875000
6447,46.875000
6448,46.875000
6449,46.875000
6450,42.968750
6451,42.968750
6452,42.968750
6453,39.062500
6454,39.062500
6455,39.062500
6456,39.062500
6457,35.156250
6458,35.156250
6459,39.062500
6460,35.156250
6461,35.156250
6462,35.156250
6463,27.343750
6464,31.250000
6465,31.250000
6466,27.343750
6467,27.343750
6468,27.343750
6469,27.343750
6470,27.343750
6471,23.437500
6472,23.437500
6473,23.437500
6474,23.437500
6475,23.437500
6476,19.531250
6477,19.531250
6478,19.531250
6479,19.531250
6480,15.625000
6481,15.625000
6482,15.625000
6483,11.718750
6484,11.718750
6485,11.718750
6486,11.718750
6487,11.718750
6488,7.812500
6489,7.812500
6490,7.812500
6491,3.906250
6492,3.906250
6493,3.906250
6494,3.906250
6495,0.000000
6496,0.000000
6497,0.000000
6498,0.000000
6499,-3.906250
6500,-3.906250
6501,-3.906250
6502,-3.906250
6503,-3.906250
6504,-7.812500
6505,-7.812500
6506,-7.812500
6507,-11.718750
6508,-11.718750
6509,-11.718750
6510,-11.718750
6511,-15.625000
6512,-15.625000
6513,-15.625000
6514,-15.625000
6515,-19.531250
6516,-19.531250
6517,-19.531250
6518,-19.531250
6519,-23.437500
6520,-23.437500
6521,-23.437500
6522,-27.343750
6523,-27.343750
6524,-27.343750
6525,-27.343750
6526,-31.250000
6527,-31.250000
6528,-31.250000
6529,-31.250000
6530,-31.250000
6531,-35.156250
6532,-35.156250
6533,-35.156250
6534,-35.156250
6535,-39.062500
6536,-39.062500
6537,-39.062500
6538,-42.968750
6539,-42.968750
6540,-42.968750
6541,-42.968750
6542,-42.968750
6543,-46.875000
6544,-46.875000
6545,-46.875000
6546,-50.781250
6547,-50.781250
6548,-50.781250
6549,-50.781250
6550,-54.687500
6551,-54.687500
6552,-54.687500
6553,-54.687500
6554,-58.593750
6555,-58.593750
6556,-58.593750
6557,-58.593750
6558,-62.500000
6559,-62.500000
6560,-62.500000
6561,-66.406250
6562,-66.406250
6563,-66.406250
6564,-66.406250
6565,-70.312500
6566,-70.312500
6567,-70.312500
6568,-70.312500
6569,-74.218750
6570,-74.218750
6571,-74.218750
6572,-74.218750
6573,-78.125000
6574,-78.125000
6575,-78.125000
6576,-78.125000
6577,-82.031250
6578,-82.031250
6579,-82.031250
6580,-82.031250
6581,-85.937500
6582,-85.937500
6583,-85.937500
6584,-89.843750
6585,-89.843750
6586,-89.843750
6587,-89.843750
6588,-89.843750
6589,-93.750000
6590,-93.750000
6591,-93.750000
6592,-93.750000
6593,-97.656250
6594,-97.656250
6595,-97.656250
6596,-97.656250
6597,-97.656250
6598,-101.562500
6599,-101.562500
6600,-101.562500
6601,-105.468750
6602,-105.468750
6603,-105.468750
6604,-105.468750
6605,-105.468750
6606,-109.375000
6607,-109.375000
6608,-109.375000
6609,-109.375000
6610,-109.375000
6611,-113.281250
6612,-113.281250
6613,-113.281250
6614,-113.281250
6615,-117.187500
6616,-117.187500
6617,-117.187500
6618,-117.187500
6619,-117.187500
6620,-117.187500
6621,-121.093750
6622,-121.093750
6623,-121.093750
6624,-121.093750
6625,-125.000000
6626,-125.000000
6627,-125.000000
6628,-125.000000
6629,-125.000000
6630,-125.000000
6631,-128.906250
6632,-128.906250
6633,-128.906250
6634,-132.812500
6635,-132.812500
6636,-132.812500
6637,-132.812500
6638,-132.812500
6639,-132.812500
6640,-132.812500
6641,-136.718750
6642,-136.718750
6643,-136.718750
6644,-136.718750
6645,-140.625000
6646,-140.625000
6647,-140.625000
6648,-140.625000
6649,-140.625000
6650,-140.625000
6651,-140.625000
6652,-144.531250
6653,-144.531250
6654,-144.531250
6655,-144.531250
6656,-144.531250
6657,-148.437500
6658,-148.437500
6659,-148.437500
6660,-148.437500
6661,-148.437500
6662,-148.437500
6663,-148.437500
6664,-152.343750
6665,-152.343750
6666,-152.343750
6667,-152.343750
6668,-152.343750
6669,-152.343750
6670,-152.343750
6671,-152.343750
6672,-156.250000
6673,-156.250000
6674,-156.250000
6675,-156.250000
6676,-156.250000
6677,-160.156250
6678,-160.156250
6679,-160.156250
6680,-160.156250
6681,-160.156250
6682,-160.156250
6683,-160.156250
6684,-160.156250
6685,-160.156250
6686,-160.156250
6687,-164.062500
6688,-164.062500
6689,-164.062500
6690,-164.062500
6691,-164.062500
6692,-164.062500
6693,-164.062500
6694,-164.062500
6695,-167.968750
6696,-164.062500
6697,-167.968750
6698,-167.968750
6699,-167.968750
6700,-167.968750
6701,-167.968750
6702,-167.968750
6703,-167.968750
6704,-167.968750
6705,-167.968750
6706,-171.875000
6707,-171.875000
6708,-171.875000
6709,-171.875000
6710,-171.875000
6711,-171.875000
6712,-171.875000
6713,-171.875000
6714,-171.875000
6715,-171.875000
6716,-171.875000
6717,-171.875000
6718,-171.875000
6719,-171.875000
6720,-175.781250
6721,-171.875000
6722,-175.781250
6723,-175.781250
6724,-175.781250
6725,-175.781250
6726,-175.781250
6727,-175.781250
6728,-175.781250
6729,-175.781250
6730,-175.781250
6731,-175.781250
6732,-175.781250
6733,-175.781250
6734,-175.781250
6735,-175.781250
6736,-175.781250
6737,-175.781250
6738,-175.781250
6739,-175.781250
6740,-175.781250
6741,-175.781250
6742,-175.781250
6743,-175.781250
6744,-175.781250
6745,-179.687500
6746,-179.687500
6747,-179.687500
6748,-179.687500
6749,-179.687500
6750,-175.781250
6751,-175.781250
6752,-175.781250
6753,-175.781250
6754,-175.781250
6755,-175.781250
6756,-179.687500
6757,-179.687500
6758,-179.687500
6759,-175.781250
6760,-179.687500
6761,-175.781250
6762,-175.781250
6763,-175.781250
6764,-175.781250
6765,-175.781250
6766,-175.781250
6767,-175.781250
6768,-175.781250
6769,-175.781250
6770,-175.781250
6771,-175.781250
6772,-179.687500
6773,-175.781250
6774,-175.781250
6775,-175.781250
6776,-175.781250
6777,-175.781250
6778,-175.781250
6779,-175.781250
6780,-175.781250
6781,-175.781250
6782,-175.781250
6783,-175.781250
6784,-171.875000
6785,-171.875000
6786,-171.875000
6787,-171.875000
6788,-171.875000
6789,-171.875000
6790,-171.875000
6791,-171.875000
6792,-171.875000
6793,-171.875000
6794,-171.875000
6795,-171.875000
6796,-171.875000
6797,-171.875000
6798,-171.875000
6799,-167.968750
6800,-167.968750
6801,-167.968750
6802,-167.968750
6803,-167.968750
6804,-167.968750
6805,-167.968750
6806,-167.968750
6807,-167.968750
6808,-164.062500
6809,-167.968750
6810,-164.062500
6811,-164.062500
6812,-164.062500
6813,-164.062500
6814,-164.062500
6815,-164.062500
6816,-164.062500
6817,-164.062500
6818,-160.156250
6819,-160.156250
6820,-160.156250
6821,-160.156250
6822,-160.156250
6823,-160.156250
6824,-160.156250
6825,-156.250000
6826,-156.250000
6827,-156.250000
6828,-156.250000
6829,-156.250000
6830,-156.250000
6831,-156.250000
6832,-156.250000
6833,-152.343750
6834,-152.343750
6835,-152.343750
6836,-152.343750
6837,-152.343750
6838,-152.343750
6839,-148.437500
6840,-152.343750
6841,-148.437500
6842,-148.437500
6843,-148.437500
6844,-148.437500
6845,-148.437500
6846,-148.437500
6847,-144.531250
6848,-144.531250
6849,-144.531250
6850,-144.531250
6851,-144.531250
6852,-144.531250
6853,-144.531250
6854,-140.625000
6855,-140.625000
6856,-140.625000
6857,-140.625000
6858,-140.625000
6859,-136.718750
6860,-136.718750
6861,-136.718750
6862,-136.718750
6863,-136.718750
6864,-132.812500
6865,-132.812500
6866,-132.812500
6867,-132.812500
6868,-132.812500
6869,-132.812500
6870,-128.906250
6871,-128.906250
6872,-128.906250
6873,-128.906250
6874,-125.000000
6875,-128.906250
6876,-125.000000
6877,-125.000000
6878,-125.000000
6879,-125.000000
6880,-121.093750
6881,-121.093750
6882,-121.093750
6883,-121.093750
6884,-117.187500
6885,-117.187500
6886,-117.187500
6887,-117.187500
6888,-117.187500
6889,-113.281250
6890,-113.281250
6891,-113.281250
6892,-113.281250
6893,-109.375000
6894,-109.375000
6895,-109.375000
6896,-109.375000
6897,-109.375000
6898,-105.468750
6899,-105.468750
6900,-105.468750
6901,-105.468750
6902,-101.562500
6903,-101.562500
6904,-101.562500
6905,-101.562500
6906,-101.562500
6907,-97.656250
6908,-97.656250
6909,-97.656250
6910,-97.656250
6911,-93.750000
6912,-93.750000
6913,-93.750000
6914,-89.843750
6915,-89.843750
6916,-89.843750
6917,-89.843750
6918,-89.843750
6919,-85.937500
6920,-85.937500
6921,-85.937500
6922,-85.937500
6923,-82.031250
6924,-82.031250
6925,-82.031250
6926,-82.031250
6927,-78.125000
6928,-78.125000
6929,-78.125000
6930,-78.125000
6931,-74.218750
6932,-74.218750
6933,-74.218750
6934,-70.312500
6935,-74.218750
6936,-70.312500
6937,-70.312500
6938,-66.406250
6939,-66.406250
6940,-66.406250
6941,-66.406250
6942,-66.406250
6943,-62.500000
6944,-62.500000
6945,-62.500000
6946,-62.500000
6947,-58.593750
6948,-58.593750
6949,-58.593750
6950,-58.593750
6951,-54.687500
6952,-54.687500
6953,-54.687500
6954,-54.687500
6955,-50.781250
6956,-50.781250
6957,-50.781250
6958,-46.875000
6959,-46.875000
6960,-46.875000
6961,-46.875000
6962,-46.875000
6963,-42.968750
6964,-42.968750
6965,-42.968750
6966,-42.968750
6967,-39.062500
6968,-39.062500
6969,-39.062500
6970,-35.156250
6971,-35.156250
6972,-35.156250
6973,-35.156250
6974,-31.250000
6975,-31.250000
6976,-31.250000
6977,-31.250000
6978,-27.343750
6979,-27.343750
6980,-27.343750
6981,-27.343750
6982,-23.437500
6983,-23.437500
6984,-23.437500
6985,-19.531250
6986,-19.531250
6987,-19.531250
6988,-19.531250
6989,-19.531250
6990,-15.625000
6991,-15.625000
6992,-15.625000
6993,-11.718750
6994,-11.718750
6995,-11.718750
6996,-11.718750
6997,-11.718750
6998,-7.812500
6999,-7.812500
7000,-7.812500
7001,-7.812500
7002,-3.906250
7003,-3.906250
7004,-3.906250
7005,0.000000
7006,0.000000
7007,0.000000
7008,0.000000
7009,0.000000
7010,3.906250
7011,3.906250
7012,3.906250
7013,7.812500
7014,7.812500
7015,7.812500
7016,7.812500
7017,11.718750
7018,11.718750
7019,11.718750
7020,11.718750
7021,15.625000
7022,15.625000
7023,15.625000
7024,15.625000
7025,19.531250
7026,19.531250
7027,19.531250
7028,19.531250
7029,19.531250
7030,23.437500
7031,23.437500
7032,23.437500
7033,27.343750
7034,27.343750
7035,27.343750
7036,27.343750
7037,31.250000
7038,31.250000
7039,31.250000
7040,31.250000
7041,31.250000
7042,35.156250
7043,35.156250
7044,35.156250
7045,35.156250
7046,39.062500
7047,39.062500
7048,39.062500
7049,39.062500
7050,39.062500
7051,42.968750
7052,42.968750
7053,42.968750
7054,46.875000
7055,46.875000
7056,46.875000
7057,46.875000
7058,46.875000
7059,50.781250
7060,50.781250
7061,50.781250
7062,50.781250
7063,50.781250
7064,54.687500
7065,54.687500
7066,54.687500
7067,54.687500
7068,54.687500
7069,58.593750
7070,58.593750
7071,58.593750
7072,62.500000
7073,58.593750
7074,62.500000
7075,62.500000
7076,62.500000
7077,62.500000
7078,62.500000
7079,66.406250
7080,66.406250
7081,66.406250
7082,66.406250
7083,70.312500
7084,70.312500
7085,70.312500
7086,70.312500
7087,70.312500
7088,70.312500
7089,70.312500
7090,74.218750
7091,74.218750
7092,74.218750
7093,74.218750
7094,74.218750
7095,78.125000
7096,78.125000
7097,78.125000
7098,78.125000
7099,78.125000
7100,82.031250
7101,82.031250
7102,82.031250
7103,82.031250
7104,82.031250
7105,82.031250
7106,82.031250
7107,85.937500
7108,85.937500
7109,85.937500
7110,85.937500
7111,85.937500
7112,89.843750
7113,89.843750
7114,89.843750
7115,89.843750
7116,89.843750
7117,89.843750
7118,93.750000
7119,93.750000
7120,93.750000
7121,93.750000
7122,93.750000
7123,93.750000
7124,93.750000
7125,93.750000
7126,97.656250
7127,97.656250
7128,97.656250
7129,97.656250
7130,97.656250
7131,101.562500
7132,101.562500
7133,101.562500
7134,101.562500
7135,101.562500
7136,101.562500
7137,101.562500
7138,101.562500
7139,105.468750
7140,105.468750
7141,105.468750
7142,105.468750
7143,105.468750
7144,105.468750
7145,109.375000
7146,105.468750
7147,105.468750
7148,109.375000
7149,109.375000
7150,109.375000
7151,109.375000
7152,109.375000
7153,109.375000
7154,109.375000
7155,109.375000
7156,113.281250
7157,113.281250
7158,113.281250
7159,113.281250
7160,113.281250
7161,113.281250
7162,113.281250
7163,113.281250
7164,117.187500
7165,117.187500
7166,117.187500
7167,117.187500
7168,117.187500
7169,117.187500
7170,117.187500
7171,117.187500
7172,117.187500
7173,117.187500
7174,117.187500
7175,121.093750
7176,121.093750
7177,121.093750
7178,121.093750
7179,121.093750
7180,121.093750
7181,121.093750
7182,121.093750
7183,121.093750
7184,121.093750
7185,121.093750
7186,121.093750
7187,121.093750
7188,125.000000
7189,121.093750
7190,125.000000
7191,125.000000
7192,125.000000
7193,125.000000
7194,125.000000
7195,125.000000
7196,125.000000
7197,125.000000
7198,125.000000
7199,125.000000
7200,125.000000
7201,125.000000
7202,128.906250
7203,128.906250
7204,128.906250
7205,128.906250
7206,128.906250
7207,128.906250
7208,128.906250
7209,128.906250
7210,128.906250
7211,128.906250
7212,128.906250
7213,128.906250
7214,128.906250
7215,128.906250
7216,128.906250
7217,128.906250
7218,128.906250
7219,128.906250
7220,128.906250
7221,128.906250
7222,128.906250
7223,128.906250
7224,128.906250
7225,128.906250
7226,128.906250
7227,128.906250
7228,132.812500
7229,128.906250
7230,128.906250
7231,128.906250
7232,128.906250
7233,128.906250
7234,132.812500
7235,128.906250
7236,128.906250
7237,128.906250
7238,132.812500
7239,132.812500
7240,132.812500
7241,132.812500
7242,132.812500
7243,132.812500
7244,132.812500
7245,132.812500
7246,128.906250
7247,128.906250
7248,132.812500
7249,128.906250
7250,132.812500
7251,132.812500
7252,132.812500
7253,132.812500
7254,132.812500
7255,128.906250
7256,128.906250
7257,128.906250
7258,128.906250
7259,128.906250
7260,132.812500
7261,128.906250
7262,128.906250
7263,128.906250
7264,128.906250
7265,128.906250
7266,128.906250
7267,128.906250
7268,128.906250
7269,128.906250
7270,128.906250
7271,128.906250
7272,128.906250
7273,128.906250
7274,128.906250
7275,128.906250
7276,128.906250
7277,128.906250
7278,128.906250
7279,128.906250
7280,128.906250
7281,128.906250
7282,128.906250
7283,128.906250
7284,128.906250
7285,128.906250
7286,128.906250
7287,128.906250
7288,128.906250
7289,125.000000
7290,128.906250
7291,125.000000
7292,125.000000
7293,125.000000
7294,125.000000
7295,125.000000
7296,125.000000
7297,125.000000
7298,125.000000
7299,125.000000
7300,125.000000
7301,125.000000
7302,125.000000
7303,125.000000
7304,125.000000
7305,121.093750
7306,121.093750
7307,121.093750
7308,121.093750
7309,121.093750
7310,121.093750
7311,121.093750
7312,121.093750
7313,121.093750
7314,121.093750
7315,121.093750
7316,121.093750
7317,121.093750
7318,121.093750
7319,121.093750
7320,121.093750
7321,117.187500
7322,117.187500
7323,117.187500
7324,117.187500
7325,117.187500
7326,117.187500
7327,117.187500
7328,117.187500
7329,117.187500
7330,117.187500
7331,113.281250
7332,113.281250
7333,113.281250
7334,113.281250
7335,113.281250
7336,113.281250
7337,113.281250
7338,113.281250
7339,113.281250
7340,109.375000
7341,109.375000
7342,109.375000
7343,109.375000
7344,109.375000
7345,109.375000
7346,109.375000
7347,109.375000
7348,109.375000
7349,105.468750
7350,105.468750
7351,105.468750
7352,105.468750
7353,105.468750
7354,101.562500
7355,101.562500
7356,101.562500
7357,101.562500
7358,101.562500
7359,101.562500
7360,101.562500
7361,101.562500
7362,97.656250
7363,97.656250
7364,97.656250
7365,97.656250
7366,97.656250
7367,97.656250
7368,97.656250
7369,97.656250
7370,93.750000
7371,93.750000
7372,93.750000
7373,93.750000
7374,93.750000
7375,89.843750
7376,89.843750
7377,89.843750
7378,89.843750
7379,89.843750
7380,89.843750
7381,89.843750
7382,85.937500
7383,85.937500
7384,85.937500
7385,85.937500
7386,85.937500
7387,85.937500
7388,82.031250
7389,82.031250
7390,82.031250
7391,82.031250
7392,82.031250
7393,82.031250
7394,78.125000
7395,78.125000
7396,78.125000
7397,78.125000
7398,78.125000
7399,78.125000
7400,74.218750
7401,74.218750
7402,74.218750
7403,74.218750
7404,74.218750
7405,70.312500
7406,70.312500
7407,70.312500
7408,70.312500
7409,70.312500
7410,70.312500
7411,66.406250
7412,66.406250
7413,66.406250
7414,62.500000
7415,66.406250
7416,62.500000
7417,62.500000
7418,62.500000
7419,62.500000
7420,62.500000
7421,58.593750
7422,58.593750
7423,58.593750
7424,58.593750
7425,58.593750
7426,54.687500
7427,54.687500
7428,54.687500
7429,54.687500
7430,54.687500
7431,50.781250
7432,50.781250
7433,50.781250
7434,50.781250
7435,50.781250
7436,46.875000
7437,46.875000
7438,46.875000
7439,46.875000
7440,42.968750
7441,42.968750
7442,42.968750
7443,42.968750
7444,39.062500
7445,39.062500
7446,39.062500
7447,39.062500
7448,35.156250
7449,35.156250
7450,35.156250
7451,35.156250
7452,35.156250
7453,31.250000
7454,31.250000
7455,31.250000
7456,27.343750
7457,27.343750
7458,27.343750
7459,27.343750
7460,27.343750
7461,23.437500
7462,23.437500
7463,23.437500
7464,23.437500
7465,19.531250
7466,19.531250
7467,19.531250
7468,19.531250
7469,15.625000
7470,15.625000
7471,15.625000
7472,15.625000
7473,15.625000
7474,11.718750
7475,11.718750
7476,11.718750
7477,7.812500
7478,7.812500
7479,7.812500
7480,7.812500
7481,3.906250
7482,3.906250
7483,3.906250
7484,3.906250
7485,0.000000
7486,0.000000
7487,0.000000
7488,0.000000
7489,-3.906250
7490,-3.906250
7491,-3.906250
7492,-3.906250
7493,-7.812500
7494,-7.812500
7495,-7.812500
7496,-7.812500
7497,-11.718750
7498,-11.718750
7499,-15.625000
7500,-15.625000
7501,-15.625000
7502,-15.625000
7503,-15.625000
7504,-19.531250
7505,-19.531250
7506,-19.531250
7507,-19.531250
7508,-23.437500
7509,-23.437500
7510,-23.437500
7511,-23.437500
7512,-27.343750
7513,-27.343750
7514,-27.343750
7515,-31.250000
7516,-31.250000
7517,-31.250000
7518,-31.250000
7519,-31.250000
7520,-35.156250
7521,-35.156250
7522,-35.156250
7523,-35.156250
7524,-39.062500
7525,-39.062500
7526,-39.062500
7527,-42.968750
7528,-42.968750
7529,-42.968750
7530,-46.875000
7531,-46.875000
7532,-46.875000
7533,-46.875000
7534,-46.875000
7535,-50.781250
7536,-50.781250
7537,-50.781250
7538,-54.687500
7539,-54.687500
7540,-54.687500
7541,-54.687500
7542,-54.687500
7543,-58.593750
7544,-58.593750
7545,-58.593750
7546,-58.593750
7547,-62.500000
7548,-62.500000
7549,-62.500000
7550,-62.500000
7551,-66.406250
7552,-66.406250
7553,-66.406250
7554,-70.312500
7555,-70.312500
7556,-70.312500
7557,-70.312500
7558,-74.218750
7559,-74.218750
7560,-74.218750
7561,-74.218750
7562,-74.218750
7563,-78.125000
7564,-78.125000
7565,-78.125000
7566,-82.031250
7567,-82.031250
7568,-82.031250
7569,-82.031250
7570,-82.031250
7571,-82.031250
7572,-85.937500
7573,-85.937500
7574,-85.937500
7575,-89.843750
7576,-89.843750
7577,-89.843750
7578,-89.843750
7579,-93.750000
7580,-93.750000
7581,-93.750000
7582,-93.750000
7583,-97.656250
7584,-97.656250
7585,-97.656250
7586,-97.656250
7587,-101.562500
7588,-101.562500
7589,-101.562500
7590,-101.562500
7591,-101.562500
7592,-105.468750
7593,-105.468750
7594,-105.468750
7595,-105.468750
7596,-105.468750
7597,-109.375000
7598,-109.375000
7599,-109.375000
7600,-113.281250
7601,-113.281250
7602,-113.281250
7603,-113.281250
7604,-113.281250
7605,-117.187500
7606,-117.187500
7607,-117.187500
7608,-117.187500
7609,-117.187500
7610,-121.093750
7611,-121.093750
7612,-121.093750
7613,-121.093750
7614,-125.000000
7615,-125.000000
7616,-125.000000
7617,-125.000000
7618,-125.000000
7619,-128.906250
7620,-128.906250
7621,-128.906250
7622,-128.906250
7623,-128.906250
7624,-132.812500
7625,-132.812500
7626,-132.812500
7627,-132.812500
7628,-132.812500
7629,-136.718750
7630,-132.812500
7631,-136.718750
7632,-136.718750
7633,-136.718750
7634,-140.625000
7635,-140.625000
7636,-140.625000
7637,-140.625000
7638,-140.625000
7639,-140.625000
7640,-140.625000
7641,-144.531250
7642,-144.531250
7643,-144.531250
7644,-144.531250
7645,-144.531250
7646,-148.437500
7647,-148.437500
7648,-148.437500
7649,-148.437500
7650,-148.437500
7651,-148.437500
7652,-148.437500
7653,-152.343750
7654,-152.343750
7655,-152.343750
7656,-152.343750
7657,-152.343750
7658,-152.343750
7659,-152.343750
7660,-156.250000
7661,-156.250000
7662,-156.250000
7663,-156.250000
7664,-156.250000
7665,-156.250000
7666,-156.250000
7667,-160.156250
7668,-160.156250
7669,-160.156250
7670,-160.156250
7671,-160.156250
7672,-160.156250
7673,-160.156250
7674,-164.062500
7675,-164.062500
7676,-164.062500
7677,-164.062500
7678,-164.062500
7679,-164.062500
7680,-164.062500
7681,-164.062500
7682,-164.062500
7683,-164.062500
7684,-167.968750
7685,-167.968750
7686,-167.968750
7687,-167.968750
7688,-167.968750
7689,-167.968750
7690,-167.968750
7691,-167.968750
7692,-167.968750
7693,-167.968750
7694,-167.968750
7695,-171.875000
7696,-167.968750
7697,-171.875000
7698,-171.875000
7699,-171.875000
7700,-171.875000
7701,-171.875000
7702,-171.875000
7703,-171.875000
7704,-171.875000
7705,-171.875000
7706,-175.781250
7707,-175.781250
7708,-175.781250
7709,-175.781250
7710,-171.875000
7711,-175.781250
7712,-175.781250
7713,-175.781250
7714,-175.781250
7715,-175.781250
7716,-175.781250
7717,-175.781250
7718,-175.781250
7719,-175.781250
7720,-175.781250
7721,-175.781250
7722,-175.781250
7723,-175.781250
7724,-175.781250
7725,-175.781250
7726,-175.781250
7727,-175.781250
7728,-175.781250
7729,-175.781250
7730,-175.781250
7731,-175.781250
7732,-175.781250
7733,-179.687500
7734,-179.687500
7735,-179.687500
7736,-179.687500
7737,-179.687500
7738,-175.781250
7739,-175.781250
7740,-175.781250
7741,-179.687500
7742,-175.781250
7743,-179.687500
7744,-175.781250
7745,-175.781250
7746,-179.687500
7747,-179.687500
7748,-179.687500
7749,-175.781250
7750,-175.781250
7751,-175.781250
7752,-175.781250
7753,-175.781250
7754,-175.781250
7755,-175.781250
7756,-179.687500
7757,-175.781250
7758,-175.781250
7759,-175.781250
7760,-175.781250
7761,-175.781250
7762,-175.781250
7763,-175.781250
7764,-175.781250
7765,-175.781250
7766,-175.781250
7767,-175.781250
7768,-175.781250
7769,-175.781250
7770,-175.781250
7771,-175.781250
7772,-175.781250
7773,-175.781250
7774,-175.781250
7775,-175.781250
7776,-175.781250
7777,-171.875000
7778,-171.875000
7779,-171.875000
7780,-171.875000
7781,-171.875000
7782,-171.875000
7783,-171.875000
7784,-171.875000
7785,-171.875000
7786,-171.875000
7787,-171.875000
7788,-167.968750
7789,-167.968750
7790,-167.968750
7791,-167.968750
7792,-167.968750
7793,-167.968750
7794,-167.968750
7795,-167.968750
7796,-167.968750
7797,-167.968750
7798,-164.062500
7799,-167.968750
7800,-167.968750
7801,-164.062500
7802,-164.062500
7803,-164.062500
7804,-164.062500
7805,-164.062500
7806,-164.062500
7807,-164.062500
7808,-160.156250
7809,-160.156250
7810,-160.156250
7811,-160.156250
7812,-160.156250
7813,-160.156250
7814,-160.156250
7815,-160.156250
7816,-156.250000
7817,-156.250000
7818,-156.250000
7819,-156.250000
7820,-156.250000
7821,-156.250000
7822,-156.250000
7823,-152.343750
7824,-152.343750
7825,-152.343750
7826,-152.343750
7827,-152.343750
7828,-152.343750
7829,-152.343750
7830,-148.437500
7831,-148.437500
7832,-148.437500
7833,-148.437500
7834,-148.437500
7835,-148.437500
7836,-144.531250
7837,-144.531250
7838,-144.531250
7839,-144.531250
7840,-144.531250
7841,-144.531250
7842,-140.625000
7843,-140.625000
7844,-140.625000
7845,-136.718750
7846,-140.625000
7847,-136.718750
7848,-136.718750
7849,-136.718750
7850,-136.718750
7851,-136.718750
7852,-136.718750
7853,-136.718750
7854,-132.812500
7855,-132.812500
7856,-132.812500
7857,-132.812500
7858,-132.812500
7859,-132.812500
7860,-128.906250
7861,-128.906250
7862,-128.906250
7863,-125.000000
7864,-125.000000
7865,-125.000000
7866,-125.000000
7867,-125.000000
7868,-121.093750
7869,-121.093750
7870,-121.093750
7871,-121.093750
7872,-121.093750
7873,-117.187500
7874,-117.187500
7875,-117.187500
7876,-117.187500
7877,-117.187500
7878,-117.187500
7879,-113.281250
7880,-113.281250
7881,-113.281250
7882,-109.375000
7883,-109.375000
7884,-109.375000
7885,-109.375000
7886,-109.375000
7887,-109.375000
7888,-105.468750
7889,-105.468750
7890,-105.468750
7891,-101.562500
7892,-101.562500
7893,-101.562500
7894,-101.562500
7895,-101.562500
7896,-97.656250
7897,-97.656250
7898,-97.656250
7899,-97.656250
7900,-97.656250
7901,-93.750000
7902,-93.750000
7903,-93.750000
7904,-93.750000
7905,-89.843750
7906,-89.843750
7907,-89.843750
7908,-89.843750
7909,-85.937500
7910,-85.937500
7911,-85.937500
7912,-85.937500
7913,-85.937500
7914,-82.031250
7915,-82.031250
7916,-82.031250
7917,-78.125000
7918,-78.125000
7919,-78.125000
7920,-78.125000
7921,-78.125000
7922,-74.218750
7923,-74.218750
7924,-74.218750
7925,-70.312500
7926,-70.312500
7927,-70.312500
7928,-70.312500
7929,-66.406250
7930,-66.406250
7931,-66.406250
7932,-66.406250
7933,-62.500000
7934,-62.500000
7935,-62.500000
7936,-62.500000
7937,-58.593750
7938,-58.593750
7939,-58.593750
7940,-54.687500
7941,-54.687500
7942,-54.687500
7943,-54.687500
7944,-50.781250
7945,-50.781250
7946,-50.781250
7947,-50.781250
7948,-50.781250
7949,-46.875000
7950,-46.875000
7951,-46.875000
7952,-42.968750
7953,-42.968750
7954,-42.968750
7955,-42.968750
7956,-39.062500
7957,-39.062500
7958,-39.062500
7959,-39.062500
7960,-35.156250
7961,-35.156250
7962,-35.156250
7963,-35.156250
7964,-31.250000
7965,-31.250000
7966,-31.250000
7967,-31.250000
7968,-27.343750
7969,-31.250000
7970,-27.343750
7971,-23.437500
7972,-23.437500
7973,-23.437500
7974,-23.437500
7975,-19.531250
7976,-19.531250
7977,-19.531250
7978,-19.531250
7979,-15.625000
7980,-15.625000
7981,-15.625000
7982,-11.718750
7983,-15.625000
7984,-11.718750
7985,-11.718750
7986,-7.812500
7987,-7.812500
7988,-7.812500
7989,-7.812500
7990,-7.812500
7991,-3.906250
7992,-3.906250
7993,-3.906250
7994,-3.906250
7995,0.000000
7996,0.000000
7997,0.000000
7998,0.000000
7999,3.906250
8000,3.906250
8001,3.906250
8002,3.906250
8003,7.812500
8004,7.812500
8005,7.812500
8006,7.812500
8007,11.718750
8008,11.718750
8009,11.718750
8010,11.718750
8011,11.718750
8012,15.625000
8013,15.625000
8014,15.625000
8015,19.531250
8016,19.531250
8017,19.531250
8018,19.531250
8019,19.531250
8020,23.437500
8021,23.437500
8022,23.437500
8023,27.343750
8024,27.343750
8025,27.343750
8026,27.343750
8027,27.343750
8028,31.250000
8029,31.250000
8030,31.250000
8031,31.250000
8032,35.156250
8033,35.156250
8034,35.156250
8035,35.156250
8036,39.062500
8037,39.062500
8038,39.062500
8039,39.062500
8040,42.968750
8041,42.968750
8042,42.968750
8043,42.968750
8044,42.968750
8045,42.968750
8046,46.875000
8047,46.875000
8048,46.875000
8049,50.781250
8050,50.781250
8051,50.781250
8052,50.781250
8053,50.781250
8054,54.687500
8055,54.687500
8056,54.687500
8057,54.687500
8058,54.687500
8059,58.593750
8060,58.593750
8061,58.593750
8062,58.593750
8063,62.500000
8064,62.500000
8065,62.500000
8066,62.500000
8067,62.500000
8068,62.500000
8069,66.406250
8070,66.406250
8071,66.406250
8072,66.406250
8073,70.312500
8074,70.312500
8075,70.312500
8076,70.312500
8077,70.312500
8078,74.218750
8079,74.218750
8080,74.218750
8081,74.218750
8082,74.218750
8083,74.218750
8084,78.125000
8085,78.125000
8086,78.125000
8087,78.125000
8088,78.125000
8089,82.031250
8090,82.031250
8091,82.031250
8092,82.031250
8093,82.031250
8094,82.031250
8095,82.031250
8096,85.937500
8097,85.937500
8098,85.937500
8099,85.937500
8100,85.937500
8101,85.937500
8102,89.843750
8103,89.843750
8104,89.843750
8105,89.843750
8106,89.843750
8107,89.843750
8108,93.750000
8109,93.750000
8110,93.750000
8111,93.750000
8112,93.750000
8113,93.750000
8114,97.656250
8115,97.656250
8116,97.656250
8117,97.656250
8118,97.656250
8119,97.656250
8120,101.562500
8121,101.562500
8122,101.562500
8123,101.562500
8124,101.562500
8125,101.562500
8126,101.562500
8127,101.562500
8128,101.562500
8129,105.468750
8130,105.468750
8131,105.468750
8132,105.468750
8133,105.468750
8134,105.468750
8135,105.468750
8136,109.375000
8137,109.375000
8138,109.375000
8139,109.375000
8140,109.375000
8141,109.375000
8142,109.375000
8143,109.375000
8144,109.375000
8145,109.375000
8146,113.281250
8147,113.281250
8148,113.281250
8149,113.281250
8150,113.281250
8151,113.281250
8152,113.281250
8153,113.281250
8154,113.281250
8155,113.281250
8156,113.281250
8157,113.281250
8158,117.187500
8159,117.187500
8160,117.187500
8161,117.187500
8162,117.187500
8163,117.187500
8164,117.187500
8165,117.187500
8166,121.093750
8167,121.093750
8168,121.093750
8169,121.093750
8170,121.093750
8171,121.093750
8172,121.093750
8173,121.093750
8174,121.093750
8175,121.093750
8176,121.093750
8177,121.093750
8178,125.000000
8179,121.093750
8180,125.000000
8181,125.000000
8182,121.093750
8183,125.000000
8184,125.000000
8185,125.000000
8186,125.000000
8187,125.000000
8188,125.000000
8189,125.000000
8190,125.000000
8191,125.000000
8192,125.000000
8193,125.000000
8194,128.906250
8195,128.906250
8196,128.906250
8197,128.906250
8198,128.906250
8199,128.906250
8200,128.906250
8201,128.906250
8202,128.906250
8203,128.906250
8204,128.906250
8205,128.906250
8206,128.906250
8207,128.906250
8208,128.906250
8209,128.906250
8210,128.906250
8211,128.906250
8212,132.812500
8213,128.906250
8214,128.906250
8215,128.906250
8216,128.906250
8217,128.906250
8218,132.812500
8219,128.906250
8220,132.812500
8221,132.812500
8222,132.812500
8223,132.812500
8224,128.906250
8225,128.906250
8226,132.812500
8227,132.812500
8228,132.812500
8229,132.812500
8230,132.812500
8231,132.812500
8232,132.812500
8233,128.906250
8234,132.812500
8235,132.812500
8236,132.812500
8237,132.812500
8238,128.906250
8239,132.812500
8240,132.812500
8241,132.812500
8242,132.812500
8243,132.812500
8244,128.906250
8245,132.812500
8246,132.812500
8247,128.906250
8248,128.906250
8249,128.906250
8250,132.812500
8251,128.906250
8252,128.906250
8253,128.906250
8254,132.812500
8255,128.906250
8256,128.906250
8257,128.906250
8258,128.906250
8259,128.906250
8260,128.906250
8261,128.906250
8262,128.906250
8263,128.906250
8264,128.906250
8265,128.906250
8266,128.906250
8267,128.906250
8268,128.906250
8269,128.906250
8270,128.906250
8271,128.906250
8272,128.906250
8273,128.906250
8274,128.906250
8275,128.906250
8276,128.906250
8277,128.906250
8278,128.906250
8279,125.000000
8280,125.000000
8281,128.906250
8282,128.906250
8283,125.000000
8284,125.000000
8285,125.000000
8286,125.000000
8287,125.000000
8288,125.000000
8289,125.000000
8290,125.000000
8291,125.000000
8292,125.000000
8293,121.093750
8294,125.000000
8295,121.093750
8296,125.000000
8297,125.000000
8298,125.000000
8299,121.093750
8300,121.093750
8301,121.093750
8302,121.093750
8303,121.093750
8304,121.093750
8305,117.187500
8306,121.093750
8307,117.187500
8308,121.093750
8309,117.187500
8310,117.187500
8311,117.187500
8312,117.187500
8313,117.187500
8314,117.187500
8315,117.187500
8316,117.187500
8317,117.187500
8318,117.187500
8319,113.281250
8320,113.281250
8321,113.281250
8322,113.281250
8323,113.281250
8324,113.281250
8325,113.281250
8326,113.281250
8327,113.281250
8328,109.375000
8329,109.375000
8330,109.375000
8331,109.375000
8332,109.375000
8333,109.375000
8334,109.375000
8335,109.375000
8336,109.375000
8337,109.375000
8338,105.468750
8339,105.468750
8340,105.468750
8341,105.468750
8342,105.468750
8343,105.468750
8344,105.468750
8345,101.562500
8346,101.562500
8347,101.562500
8348,101.562500
8349,101.562500
8350,101.562500
8351,101.562500
8352,101.562500
8353,97.656250
8354,97.656250
8355,97.656250
8356,97.656250
8357,97.656250
8358,97.656250
8359,93.750000
8360,97.656250
8361,93.750000
8362,93.750000
8363,93.750000
8364,93.750000
8365,93.750000
8366,89.843750
8367,89.843750
8368,89.843750
8369,89.843750
8370,89.843750
8371,89.843750
8372,85.937500
8373,85.937500
8374,85.937500
8375,85.937500
8376,85.937500
8377,82.031250
8378,82.031250
8379,82.031250
8380,82.031250
8381,82.031250
8382,82.031250
8383,82.031250
8384,78.125000
8385,78.125000
8386,78.125000
8387,78.125000
8388,78.125000
8389,74.218750
8390,78.125000
8391,74.218750
8392,74.218750
8393,74.218750
8394,70.312500
8395,70.312500
8396,70.312500
8397,70.312500
8398,70.312500
8399,66.406250
8400,66.406250
8401,66.406250
8402,66.406250
8403,66.406250
8404,66.406250
8405,66.406250
8406,62.500000
8407,62.500000
8408,62.500000
8409,58.593750
8410,58.593750
8411,58.593750
8412,58.593750
8413,58.593750
8414,54.687500
8415,54.687500
8416,54.687500
8417,54.687500
8418,54.687500
8419,50.781250
8420,50.781250
8421,50.781250
8422,50.781250
8423,46.875000
8424,46.875000
8425,46.875000
8426,46.875000
8427,46.875000
8428,46.875000
8429,42.968750
8430,42.968750
8431,42.968750
8432,42.968750
8433,39.062500
8434,39.062500
8435,39.062500
8436,39.062500
8437,39.062500
8438,35.156250
8439,35.156250
8440,35.156250
8441,31.250000
8442,31.250000
8443,31.250000
8444,31.250000
8445,27.343750
8446,31.250000
8447,27.343750
8448,27.343750
8449,27.343750
8450,23.437500
8451,23.437500
8452,23.437500
8453,23.437500
8454,19.531250
8455,19.531250
8456,19.531250
8457,19.531250
8458,19.531250
8459,15.625000
8460,15.625000
8461,15.625000
8462,15.625000
8463,11.718750
8464,11.718750
8465,7.812500
8466,11.718750
8467,7.812500
8468,7.812500
8469,7.812500
8470,7.812500
8471,3.906250
8472,3.906250
8473,3.906250
8474,3.906250
8475,0.000000
8476,0.000000
8477,0.000000
8478,0.000000
8479,-3.906250
8480,-3.906250
8481,-3.906250
8482,-7.812500
8483,-7.812500
8484,-7.812500
8485,-7.812500
8486,-7.812500
8487,-11.718750
8488,-11.718750
8489,-11.718750
8490,-15.625000
8491,-15.625000
8492,-15.625000
8493,-15.625000
8494,-19.531250
8495,-19.531250
8496,-19.531250
8497,-19.531250
8498,-19.531250
8499,-23.437500
8500,-23.437500
8501,-23.437500
8502,-27.343750
8503,-27.343750
8504,-27.343750
8505,-27.343750
8506,-31.250000
8507,-31.250000
8508,-31.250000
8509,-35.156250
8510,-35.156250
8511,-35.156250
8512,-35.156250
8513,-35.156250
8514,-39.062500
8515,-39.062500
8516,-39.062500
8517,-42.968750
8518,-42.968750
8519,-42.968750
8520,-42.968750
8521,-46.875000
8522,-46.875000
8523,-46.875000
8524,-46.875000
8525,-50.781250
8526,-50.781250
8527,-50.781250
8528,-50.781250
8529,-54.687500
8530,-54.687500
8531,-54.687500
8532,-58.593750
8533,-58.593750
8534,-58.593750
8535,-58.593750
8536,-58.593750
8537,-62.500000
8538,-62.500000
8539,-62.500000
8540,-66.406250
8541,-66.406250
8542,-66.406250
8543,-66.406250
8544,-66.406250
8545,-70.312500
8546,-70.312500
8547,-74.218750
8548,-74.218750
8549,-74.218750
8550,-74.218750
8551,-74.218750
8552,-78.125000
8553,-78.125000
8554,-78.125000
8555,-78.125000
8556,-82.031250
8557,-82.031250
8558,-82.031250
8559,-82.031250
8560,-85.937500
8561,-85.937500
8562,-85.937500
8563,-85.937500
8564,-89.843750
8565,-89.843750
8566,-89.843750
8567,-89.843750
8568,-89.843750
8569,-93.750000
8570,-93.750000
8571,-93.750000
8572,-93.750000
8573,-97.656250
8574,-97.656250
8575,-97.656250
8576,-97.656250
8577,-97.656250
8578,-101.562500
8579,-101.562500
8580,-101.562500
8581,-105.468750
8582,-105.468750
8583,-105.468750
8584,-105.468750
8585,-109.375000
8586,-109.375000
8587,-109.375000
8588,-109.375000
8589,-109.375000
8590,-109.375000
8591,-113.281250
8592,-113.281250
8593,-113.281250
8594,-113.281250
8595,-117.187500
8596,-117.187500
8597,-117.187500
8598,-117.187500
8599,-117.187500
8600,-121.093750
8601,-121.093750
8602,-121.093750
8603,-121.093750
8604,-121.093750
8605,-125.000000
8606,-125.000000
8607,-125.000000
8608,-125.000000
8609,-128.906250
8610,-128.906250
8611,-128.906250
8612,-128.906250
8613,-128.906250
8614,-132.812500
8615,-132.812500
8616,-132.812500
8617,-132.812500
8618,-132.812500
8619,-132.812500
8620,-136.718750
8621,-136.718750
8622,-136.718750
8623,-136.718750
8624,-136.718750
8625,-140.625000
8626,-140.625000
8627,-140.625000
8628,-140.625000
8629,-140.625000
8630,-140.625000
8631,-144.531250
8632,-144.531250
8633,-144.531250
8634,-144.531250
8635,-144.531250
8636,-144.531250
8637,-148.437500
8638,-148.437500
8639,-148.437500
8640,-148.437500
8641,-148.437500
8642,-148.437500
8643,-152.343750
8644,-152.343750
8645,-152.343750
8646,-152.343750
8647,-152.343750
8648,-152.343750
8649,-152.343750
8650,-156.250000
8651,-156.250000
8652,-156.250000
8653,-156.250000
8654,-156.250000
8655,-156.250000
8656,-156.250000
8657,-156.250000
8658,-160.156250
8659,-160.156250
8660,-160.156250
8661,-160.156250
8662,-160.156250
8663,-160.156250
8664,-160.156250
8665,-164.062500
8666,-164.062500
8667,-164.062500
8668,-164.062500
8669,-164.062500
8670,-164.062500
8671,-164.062500
8672,-167.968750
8673,-167.968750
8674,-167.968750
8675,-167.968750
8676,-167.968750
8677,-167.968750
8678,-167.968750
8679,-167.968750
8680,-167.968750
8681,-167.968750
8682,-167.968750
8683,-167.968750
8684,-171.875000
8685,-171.875000
8686,-171.875000
8687,-171.875000
8688,-171.875000
8689,-171.875000
8690,-171.875000
8691,-171.875000
8692,-171.875000
8693,-171.875000
8694,-171.875000
8695,-171.875000
8696,-175.781250
8697,-175.781250
8698,-175.781250
8699,-171.875000
8700,-175.781250
8701,-175.781250
8702,-175.781250
8703,-175.781250
8704,-175.781250
8705,-175.781250
8706,-175.781250
8707,-175.781250
8708,-175.781250
8709,-175.781250
8710,-175.781250
8711,-175.781250
8712,-175.781250
8713,-175.781250
8714,-175.781250
8715,-175.781250
8716,-175.781250
8717,-175.781250
8718,-175.781250
8719,-175.781250
8720,-175.781250
8721,-175.781250
8722,-175.781250
8723,-179.687500
8724,-175.781250
8725,-179.687500
8726,-179.687500
8727,-179.687500
8728,-175.781250
8729,-175.781250
8730,-179.687500
8731,-175.781250
8732,-175.781250
8733,-175.781250
8734,-175.781250
8735,-175.781250
8736,-179.687500
8737,-175.781250
8738,-175.781250
8739,-175.781250
8740,-175.781250
8741,-175.781250
8742,-175.781250
8743,-175.781250
8744,-175.781250
8745,-175.781250
8746,-175.781250
8747,-175.781250
8748,-175.781250
8749,-175.781250
8750,-175.781250
8751,-175.781250
8752,-175.781250
8753,-175.781250
8754,-175.781250
8755,-175.781250
8756,-175.781250
8757,-175.781250
8758,-175.781250
8759,-175.781250
8760,-175.781250
8761,-175.781250
8762,-171.875000
8763,-171.875000
8764,-175.781250
8765,-171.875000
8766,-171.875000
8767,-171.875000
8768,-171.875000
8769,-171.875000
8770,-171.875000
8771,-171.875000
8772,-171.875000
8773,-171.875000
8774,-171.875000
8775,-171.875000
8776,-171.875000
8777,-171.875000
8778,-167.968750
8779,-167.968750
8780,-167.968750
8781,-167.968750
8782,-167.968750
8783,-167.968750
8784,-167.968750
8785,-167.968750
8786,-167.968750
8787,-167.968750
8788,-167.968750
8789,-167.968750
8790,-167.968750
8791,-164.062500
8792,-164.062500
8793,-160.156250
8794,-164.062500
8795,-164.062500
8796,-164.062500
8797,-164.062500
8798,-160.156250
8799,-160.156250
8800,-160.156250
8801,-160.156250
8802,-160.156250
8803,-160.156250
8804,-160.156250
8805,-160.156250
8806,-156.250000
8807,-156.250000
8808,-156.250000
8809,-156.250000
8810,-156.250000
8811,-156.250000
8812,-156.250000
8813,-156.250000
8814,-152.343750
8815,-152.343750
8816,-152.343750
8817,-152.343750
8818,-152.343750
8819,-152.343750
8820,-148.437500
8821,-148.437500
8822,-148.437500
8823,-148.437500
8824,-148.437500
8825,-148.437500
8826,-148.437500
8827,-144.531250
8828,-144.531250
8829,-144.531250
8830,-144.531250
8831,-144.531250
8832,-140.625000
8833,-140.625000
8834,-140.625000
8835,-140.625000
8836,-136.718750
8837,-140.625000
8838,-136.718750
8839,-136.718750
8840,-136.718750
8841,-136.718750
8842,-136.718750
8843,-132.812500
8844,-132.812500
8845,-132.812500
8846,-132.812500
8847,-132.812500
8848,-128.906250
8849,-128.906250
8850,-128.906250
8851,-128.906250
8852,-128.906250
8853,-125.000000
8854,-125.000000
8855,-125.000000
8856,-125.000000
8857,-125.000000
8858,-121.093750
8859,-121.093750
8860,-121.093750
8861,-121.093750
8862,-121.093750
8863,-117.187500
8864,-117.187500
8865,-117.187500
8866,-117.187500
8867,-113.281250
8868,-113.281250
8869,-113.281250
8870,-113.281250
8871,-113.281250
8872,-109.375000
8873,-109.375000
8874,-109.375000
8875,-109.375000
8876,-109.375000
8877,-105.468750
8878,-105.468750
8879,-105.468750
8880,-105.468750
8881,-101.562500
8882,-101.562500
8883,-101.562500
8884,-101.562500
8885,-101.562500
8886,-97.656250
8887,-97.656250
8888,-97.656250
8889,-97.656250
8890,-93.750000
8891,-93.750000
8892,-93.750000
8893,-93.750000
8894,-89.843750
8895,-89.843750
8896,-89.843750
8897,-89.843750
8898,-85.937500
8899,-85.937500
8900,-85.937500
8901,-85.937500
8902,-82.031250
8903,-82.031250
8904,-82.031250
8905,-82.031250
8906,-82.031250
8907,-78.125000
8908,-78.125000
8909,-78.125000
8910,-74.218750
8911,-74.218750
8912,-74.218750
8913,-74.218750
8914,-74.218750
8915,-70.312500
8916,-70.312500
8917,-70.312500
8918,-66.406250
8919,-66.406250
8920,-66.406250
8921,-66.406250
8922,-62.500000
8923,-62.500000
8924,-62.500000
8925,-62.500000
8926,-58.593750
8927,-58.593750
8928,-58.593750
8929,-58.593750
8930,-54.687500
8931,-54.687500
8932,-54.687500
8933,-54.687500
8934,-50.781250
8935,-50.781250
8936,-50.781250
8937,-50.781250
8938,-46.875000
8939,-46.875000
8940,-46.875000
8941,-46.875000
8942,-42.968750
8943,-42.968750
8944,-42.968750
8945,-39.062500
8946,-39.062500
8947,-39.062500
8948,-39.062500
8949,-35.156250
8950,-35.156250
8951,-35.156250
8952,-35.156250
8953,-31.250000
8954,-31.250000
8955,-31.250000
8956,-31.250000
8957,-27.343750
8958,-27.343750
8959,-27.343750
8960,-27.343750
8961,-23.437500
8962,-23.437500
8963,-23.437500
8964,-23.437500
8965,-23.437500
8966,-19.531250
8967,-19.531250
8968,-15.625000
8969,-15.625000
8970,-15.625000
8971,-15.625000
8972,-11.718750
8973,-11.718750
8974,-11.718750
8975,-11.718750
8976,-11.718750
8977,-7.812500
8978,-7.812500
8979,-7.812500
8980,-3.906250
8981,-3.906250
8982,-3.906250
8983,-3.906250
8984,0.000000
8985,0.000000
8986,0.000000
8987,0.000000
8988,3.906250
8989,3.906250
8990,3.906250
8991,3.906250
8992,7.812500
8993,7.812500
8994,7.812500
8995,11.718750
8996,11.718750
8997,11.718750
8998,11.718750
8999,11.718750
9000,15.625000
9001,15.625000
9002,15.625000
9003,15.625000
9004,19.531250
9005,19.531250
9006,19.531250
9007,19.531250
9008,19.531250
9009,23.437500
9010,23.437500
9011,23.437500
9012,27.343750
9013,23.437500
9014,27.343750
9015,27.343750
9016,27.343750
9017,31.250000
9018,31.250000
9019,31.250000
9020,31.250000
9021,35.156250
9022,35.156250
9023,35.156250
9024,35.156250
9025,35.156250
9026,39.062500
9027,39.062500
9028,39.062500
9029,42.968750
9030,42.968750
9031,42.968750
9032,42.968750
9033,42.968750
9034,46.875000
9035,46.875000
9036,46.875000
9037,46.875000
9038,46.875000
9039,50.781250
9040,50.781250
9041,50.781250
9042,50.781250
9043,54.687500
9044,54.687500
9045,54.687500
9046,54.687500
9047,54.687500
9048,58.593750
9049,58.593750
9050,58.593750
9051,58.593750
9052,58.593750
9053,58.593750
9054,62.500000
9055,62.500000
9056,62.500000
9057,62.500000
9058,66.406250
9059,66.406250
9060,66.406250
9061,66.406250
9062,66.406250
9063,70.312500
9064,70.312500
9065,70.312500
9066,70.312500
9067,74.218750
9068,74.218750
9069,74.218750
9070,74.218750
9071,74.218750
9072,74.218750
9073,74.218750
9074,78.125000
9075,78.125000
9076,78.125000
9077,78.125000
9078,82.031250
9079,82.031250
9080,82.031250
9081,82.031250
9082,82.031250
9083,82.031250
9084,82.031250
9085,82.031250
9086,85.937500
9087,85.937500
9088,85.937500
9089,85.937500
9090,85.937500
9091,85.937500
9092,89.843750
9093,85.937500
9094,89.843750
9095,89.843750
9096,93.750000
9097,93.750000
9098,93.750000
9099,93.750000
9100,93.750000
9101,93.750000
9102,93.750000
9103,93.750000
9104,97.656250
9105,97.656250
9106,97.656250
9107,97.656250
9108,97.656250
9109,97.656250
9110,97.656250
9111,101.562500
9112,101.562500
9113,101.562500
9114,101.562500
9115,101.562500
9116,105.468750
9117,105.468750
9118,105.468750
9119,105.468750
9120,105.468750
9121,105.468750
9122,105.468750
9123,105.468750
9124,105.468750
9125,105.468750
9126,109.375000
9127,109.375000
9128,109.375000
9129,109.375000
9130,109.375000
9131,109.375000
9132,109.375000
9133,109.375000
9134,113.281250
9135,113.281250
9136,113.281250
9137,113.281250
9138,113.281250
9139,113.281250
9140,113.281250
9141,113.281250
9142,113.281250
9143,117.187500
9144,113.281250
9145,117.187500
9146,117.187500
9147,117.187500
9148,117.187500
9149,117.187500
9150,117.187500
9151,117.187500
9152,117.187500
9153,117.187500
9154,121.093750
9155,117.187500
9156,121.093750
9157,121.093750
9158,121.093750
9159,121.093750
9160,121.093750
9161,121.093750
9162,121.093750
9163,121.093750
9164,121.093750
9165,121.093750
9166,121.093750
9167,121.093750
9168,125.000000
9169,125.000000
9170,125.000000
9171,125.000000
9172,125.000000
9173,125.000000
9174,125.000000
9175,125.000000
9176,125.000000
9177,125.000000
9178,125.000000
9179,125.000000
9180,125.000000
9181,125.000000
9182,128.906250
9183,125.000000
9184,128.906250
9185,128.906250
9186,128.906250
9187,128.906250
9188,128.906250
9189,128.906250
9190,128.906250
9191,128.906250
9192,128.906250
9193,128.906250
9194,128.906250
9195,128.906250
9196,128.906250
9197,128.906250
9198,128.906250
9199,132.812500
9200,128.906250
9201,128.906250
9202,128.906250
9203,128.906250
9204,128.906250
9205,128.906250
9206,132.812500
9207,128.906250
9208,128.906250
9209,128.906250
9210,128.906250
9211,132.812500
9212,132.812500
9213,128.906250
9214,128.906250
9215,128.906250
9216,128.906250
9217,128.906250
9218,132.812500
9219,132.812500
9220,132.812500
9221,132.812500
9222,132.812500
9223,132.812500
9224,132.812500
9225,132.812500
9226,132.812500
9227,128.906250
9228,132.812500
9229,132.812500
9230,132.812500
9231,132.812500
9232,132.812500
9233,132.812500
9234,132.812500
9235,132.812500
9236,132.812500
9237,128.906250
9238,132.812500
9239,132.812500
9240,128.906250
9241,128.906250
9242,132.812500
9243,132.812500
9244,132.812500
9245,132.812500
9246,132.812500
9247,132.812500
9248,128.906250
9249,128.906250
9250,132.812500
9251,128.906250
9252,128.906250
9253,128.906250
9254,128.906250
9255,128.906250
9256,128.906250
9257,128.906250
9258,128.906250
9259,128.906250
9260,128.906250
9261,128.906250
9262,128.906250
9263,128.906250
9264,128.906250
9265,128.906250
9266,128.906250
9267,128.906250
9268,128.906250
9269,128.906250
9270,128.906250
9271,128.906250
9272,125.000000
9273,125.000000
9274,125.000000
9275,125.000000
9276,125.000000
9277,125.000000
9278,125.000000
9279,125.000000
9280,125.000000
9281,125.000000
9282,125.000000
9283,125.000000
9284,125.000000
9285,125.000000
9286,125.000000
9287,121.093750
9288,121.093750
9289,121.093750
9290,121.093750
9291,121.093750
9292,121.093750
9293,121.093750
9294,121.093750
9295,121.093750
9296,121.093750
9297,121.093750
9298,117.187500
9299,121.093750
9300,121.093750
9301,117.187500
9302,117.187500
9303,117.187500
9304,117.187500
9305,117.187500
9306,117.187500
9307,117.187500
9308,117.187500
9309,113.281250
9310,113.281250
9311,113.281250
9312,113.281250
9313,113.281250
9314,113.281250
9315,113.281250
9316,113.281250
9317,113.281250
9318,109.375000
9319,109.375000
9320,109.375000
9321,109.375000
9322,109.375000
9323,109.375000
9324,109.375000
9325,109.375000
9326,109.375000
9327,105.468750
9328,105.468750
9329,105.468750
9330,105.468750
9331,105.468750
9332,105.468750
9333,105.468750
9334,105.468750
9335,105.468750
9336,101.562500
9337,101.562500
9338,101.562500
9339,101.562500
9340,101.562500
9341,101.562500
9342,97.656250
9343,97.656250
9344,97.656250
9345,97.656250
9346,97.656250
9347,97.656250
9348,97.656250
9349,97.656250
9350,93.750000
9351,93.750000
9352,93.750000
9353,93.750000
9354,93.750000
9355,93.750000
9356,93.750000
9357,89.843750
9358,89.843750
9359,89.843750
9360,89.843750
9361,89.843750
9362,85.937500
9363,89.843750
9364,85.937500
9365,85.937500
9366,85.937500
9367,85.937500
9368,82.031250
9369,82.031250
9370,82.031250
9371,82.031250
9372,82.031250
9373,82.031250
9374,82.031250
9375,78.125000
9376,78.125000
9377,78.125000
9378,78.125000
9379,74.218750
9380,74.218750
9381,74.218750
9382,74.218750
9383,74.218750
9384,74.218750
9385,74.218750
9386,70.312500
9387,70.312500
9388,70.312500
9389,70.312500
9390,70.312500
9391,66.406250
9392,66.406250
9393,66.406250
9394,66.406250
9395,62.500000
9396,62.500000
9397,62.500000
9398,62.500000
9399,62.500000
9400,58.593750
9401,58.593750
9402,58.593750
9403,58.593750
9404,58.593750
9405,58.593750
9406,54.687500
9407,54.687500
9408,54.687500
9409,54.687500
9410,50.781250
9411,50.781250
9412,50.781250
9413,50.781250
9414,50.781250
9415,46.875000
9416,46.875000
9417,46.875000
9418,46.875000
9419,42.968750
9420,42.968750
9421,42.968750
9422,42.968750
9423,42.968750
9424,39.062500
9425,39.062500
9426,39.062500
9427,39.062500
9428,35.156250
9429,35.156250
9430,35.156250
9431,35.156250
9432,31.250000
9433,31.250000
9434,31.250000
9435,31.250000
9436,27.343750
9437,27.343750
9438,27.343750
9439,23.437500
9440,23.437500
9441,23.437500
9442,23.437500
9443,23.437500
9444,23.437500
9445,19.531250
9446,19.531250
9447,19.531250
9448,19.531250
9449,15.625000
9450,15.625000
9451,15.625000
9452,15.625000
9453,11.718750
9454,11.718750
9455,11.718750
9456,7.812500
9457,7.812500
9458,7.812500
9459,7.812500
9460,7.812500
9461,3.906250
9462,3.906250
9463,3.906250
9464,3.906250
9465,0.000000
9466,0.000000
9467,-3.906250
9468,-3.906250
9469,-3.906250
9470,-3.906250
9471,-3.906250
9472,-3.906250
9473,-7.812500
9474,-7.812500
9475,-7.812500
9476,-7.812500
9477,-11.718750
9478,-11.718750
9479,-11.718750
9480,-15.625000
9481,-15.625000
9482,-15.625000
9483,-15.625000
9484,-19.531250
9485,-23.437500
9486,-19.531250
9487,-23.437500
9488,-23.437500
9489,-23.437500
9490,-23.437500
9491,-27.343750
9492,-27.343750
9493,-27.343750
9494,-27.343750
9495,-27.343750
9496,-31.250000
9497,-31.250000
9498,-31.250000
9499,-35.156250
9500,-35.156250
9501,-35.156250
9502,-35.156250
9503,-35.156250
9504,-39.062500
9505,-39.062500
9506,-39.062500
9507,-42.968750
9508,-42.968750
9509,-42.968750
9510,-42.968750
9511,-46.875000
9512,-46.875000
9513,-46.875000
9514,-46.875000
9515,-50.781250
9516,-50.781250
9517,-50.781250
9518,-50.781250
9519,-54.687500
9520,-54.687500
9521,-54.687500
9522,-54.687500
9523,-58.593750
9524,-58.593750
9525,-58.593750
9526,-58.593750
9527,-62.500000
9528,-62.500000
9529,-62.500000
9530,-62.500000
9531,-66.406250
9532,-66.406250
9533,-66.406250
9534,-70.312500
9535,-70.312500
9536,-70.312500
9537,-70.312500
9538,-70.312500
9539,-74.218750
9540,-74.218750
9541,-74.218750
9542,-74.218750
9543,-78.125000
9544,-78.125000
9545,-78.125000
9546,-78.125000
9547,-82.031250
9548,-82.031250
9549,-82.031250
9550,-85.937500
9551,-85.937500
9552,-85.937500
9553,-85.937500
9554,-85.937500
9555,-89.843750
9556,-89.843750
9557,-89.843750
9558,-93.750000
9559,-93.750000
9560,-93.750000
9561,-93.750000
9562,-93.750000
9563,-97.656250
9564,-97.656250
9565,-97.656250
9566,-97.656250
9567,-101.562500
9568,-101.562500
9569,-101.562500
9570,-105.468750
9571,-105.468750
9572,-105.468750
9573,-105.468750
9574,-105.468750
9575,-105.468750
9576,-109.375000
9577,-109.375000
9578,-109.375000
9579,-109.375000
9580,-109.375000
9581,-113.281250
9582,-113.281250
9583,-113.281250
9584,-113.281250
9585,-117.187500
9586,-117.187500
9587,-117.187500
9588,-117.187500
9589,-121.093750
9590,-117.187500
9591,-121.093750
9592,-121.093750
9593,-121.093750
9594,-121.093750
9595,-125.000000
9596,-125.000000
9597,-125.000000
9598,-125.000000
9599,-125.000000
9600,-128.906250
9601,-128.906250
9602,-128.906250
9603,-128.906250
9604,-128.906250
9605,-132.812500
9606,-132.812500
9607,-132.812500
9608,-132.812500
9609,-136.718750
9610,-136.718750
9611,-136.718750
9612,-136.718750
9613,-136.718750
9614,-136.718750
9615,-136.718750
9616,-140.625000
9617,-140.625000
9618,-140.625000
9619,-140.625000
9620,-144.531250
9621,-144.531250
9622,-144.531250
9623,-144.531250
9624,-144.531250
9625,-144.531250
9626,-144.531250
9627,-148.437500
9628,-148.437500
9629,-148.437500
9630,-148.437500
9631,-148.437500
9632,-148.437500
9633,-148.437500
9634,-152.343750
9635,-152.343750
9636,-152.343750
9637,-152.343750
9638,-152.343750
9639,-152.343750
9640,-152.343750
9641,-156.250000
9642,-156.250000
9643,-156.250000
9644,-156.250000
9645,-156.250000
9646,-156.250000
9647,-160.156250
9648,-160.156250
9649,-160.156250
9650,-160.156250
9651,-160.156250
9652,-160.156250
9653,-160.156250
9654,-164.062500
9655,-160.156250
9656,-160.156250
9657,-160.156250
9658,-164.062500
9659,-164.062500
9660,-164.062500
9661,-164.062500
9662,-164.062500
9663,-164.062500
9664,-164.062500
9665,-167.968750
9666,-167.968750
9667,-167.968750
9668,-167.968750
9669,-167.968750
9670,-167.968750
9671,-167.968750
9672,-167.968750
9673,-167.968750
9674,-167.968750
9675,-171.875000
9676,-171.875000
9677,-171.875000
9678,-171.875000
9679,-171.875000
9680,-171.875000
9681,-171.875000
9682,-171.875000
9683,-171.875000
9684,-171.875000
9685,-171.875000
9686,-171.875000
9687,-175.781250
9688,-171.875000
9689,-171.875000
9690,-171.875000
9691,-171.875000
9692,-171.875000
9693,-175.781250
9694,-175.781250
9695,-175.781250
9696,-175.781250
9697,-175.781250
9698,-175.781250
9699,-175.781250
9700,-175.781250
9701,-175.781250
9702,-175.781250
9703,-175.781250
9704,-175.781250
9705,-175.781250
9706,-175.781250
9707,-175.781250
9708,-175.781250
9709,-175.781250
9710,-175.781250
9711,-175.781250
9712,-175.781250
9713,-175.781250
9714,-175.781250
9715,-179.687500
9716,-179.687500
9717,-175.781250
9718,-175.781250
9719,-175.781250
9720,-175.781250
9721,-175.781250
9722,-175.781250
9723,-175.781250
9724,-175.781250
9725,-175.781250
9726,-179.687500
9727,-175.781250
9728,-175.781250
9729,-179.687500
9730,-175.781250
9731,-179.687500
9732,-175.781250
9733,-175.781250
9734,-175.781250
9735,-175.781250
9736,-175.781250
9737,-175.781250
9738,-175.781250
9739,-175.781250
9740,-175.781250
9741,-175.781250
9742,-175.781250
9743,-175.781250
9744,-175.781250
9745,-175.781250
9746,-175.781250
9747,-175.781250
9748,-171.875000
9749,-175.781250
9750,-175.781250
9751,-175.781250
9752,-175.781250
9753,-171.875000
9754,-175.781250
9755,-171.875000
9756,-171.875000
9757,-171.875000
9758,-171.875000
9759,-171.875000
9760,-171.875000
9761,-171.875000
9762,-171.875000
9763,-171.875000
9764,-171.875000
9765,-167.968750
9766,-167.968750
9767,-167.968750
9768,-167.968750
9769,-167.968750
9770,-167.968750
9771,-167.968750
9772,-167.968750
9773,-167.968750
9774,-167.968750
9775,-167.968750
9776,-164.062500
9777,-164.062500
9778,-164.062500
9779,-164.062500
9780,-164.062500
9781,-164.062500
9782,-164.062500
9783,-164.062500
9784,-164.062500
9785,-164.062500
9786,-160.156250
9787,-160.156250
9788,-160.156250
9789,-160.156250
9790,-164.062500
9791,-160.156250
9792,-160.156250
9793,-156.250000
9794,-156.250000
9795,-156.250000
9796,-156.250000
9797,-156.250000
9798,-156.250000
9799,-156.250000
9800,-152.343750
9801,-152.343750
9802,-152.343750
9803,-152.343750
9804,-152.343750
9805,-152.343750
9806,-152.343750
9807,-152.343750
9808,-152.343750
9809,-148.437500
9810,-148.437500
9811,-148.437500
9812,-148.437500
9813,-148.437500
9814,-144.531250
9815,-144.531250
9816,-144.531250
9817,-144.531250
9818,-144.531250
9819,-140.625000
9820,-144.531250
9821,-140.625000
9822,-144.531250
9823,-140.625000
9824,-140.625000
9825,-140.625000
9826,-140.625000
9827,-140.625000
9828,-140.625000
9829,-136.718750
9830,-136.718750
9831,-132.812500
9832,-132.812500
9833,-132.812500
9834,-132.812500
9835,-132.812500
9836,-132.812500
9837,-128.906250
9838,-128.906250
9839,-128.906250
9840,-128.906250
9841,-128.906250
9842,-128.906250
9843,-125.000000
9844,-125.000000
9845,-125.000000
9846,-125.000000
9847,-125.000000
9848,-121.093750
9849,-121.093750
9850,-121.093750
9851,-121.093750
9852,-117.187500
9853,-117.187500
9854,-117.187500
9855,-117.187500
9856,-117.187500
9857,-117.187500
9858,-113.281250
9859,-113.281250
9860,-113.281250
9861,-113.281250
9862,-113.281250
9863,-109.375000
9864,-109.375000
9865,-109.375000
9866,-105.468750
9867,-105.468750
9868,-105.468750
9869,-105.468750
9870,-105.468750
9871,-101.562500
9872,-101.562500
9873,-101.562500
9874,-101.562500
9875,-101.562500
9876,-97.656250
9877,-97.656250
9878,-97.656250
9879,-93.750000
9880,-93.750000
9881,-93.750000
9882,-93.750000
9883,-93.750000
9884,-89.843750
9885,-89.843750
9886,-89.843750
9887,-89.843750
9888,-82.031250
9889,-85.937500
9890,-85.937500
9891,-82.031250
9892,-82.031250
9893,-82.031250
9894,-78.125000
9895,-82.031250
9896,-78.125000
9897,-78.125000
9898,-78.125000
9899,-78.125000
9900,-74.218750
9901,-74.218750
9902,-74.218750
9903,-74.218750
9904,-70.312500
9905,-70.312500
9906,-70.312500
9907,-66.406250
9908,-66.406250
9909,-66.406250
9910,-66.406250
9911,-66.406250
9912,-62.500000
9913,-62.500000
9914,-62.500000
9915,-62.500000
9916,-58.593750
9917,-58.593750
9918,-58.593750
9919,-54.687500
9920,-54.687500
9921,-54.687500
9922,-54.687500
9923,-50.781250
9924,-50.781250
9925,-50.781250
9926,-50.781250
9927,-50.781250
9928,-46.875000
9929,-46.875000
9930,-46.875000
9931,-42.968750
9932,-42.968750
9933,-42.968750
9934,-42.968750
9935,-39.062500
9936,-39.062500
9937,-39.062500
9938,-39.062500
9939,-35.156250
9940,-35.156250
9941,-35.156250
9942,-35.156250
9943,-31.250000
9944,-31.250000
9945,-31.250000
9946,-27.343750
9947,-27.343750
9948,-27.343750
9949,-27.343750
9950,-23.437500
9951,-23.437500
9952,-23.437500
9953,-23.437500
9954,-19.531250
9955,-19.531250
9956,-19.531250
9957,-19.531250
9958,-15.625000
9959,-15.625000
9960,-15.625000
9961,-15.625000
9962,-15.625000
9963,-11.718750
9964,-11.718750
9965,-11.718750
9966,-7.812500
9967,-7.812500
9968,-7.812500
9969,-7.812500
9970,-3.906250
9971,-3.906250
9972,-3.906250
9973,-3.906250
9974,0.000000
9975,0.000000
9976,0.000000
9977,0.000000
9978,3.906250
9979,3.906250
9980,3.906250
9981,7.812500
9982,7.812500
9983,7.812500
9984,7.812500
9985,7.812500
9986,11.718750
9987,11.718750
9988,11.718750
9989,11.718750
9990,15.625000
9991,15.625000
9992,15.625000
9993,15.625000
9994,19.531250
9995,19.531250
9996,19.531250
9997,19.531250
9998,23.437500
9999,23.437500
10000,23.437500
