Channel              :,CH1
Frequency            :,1.012kHz
Period               :,0.989ms
PK-PK                :,339.8mV
Probe attenuation    :,1X
Voltage per ADC value:,0.244141mV
Time interval        :,1.00000us

index,CH1_Voltage(mV)
1,-78.125000
2,-78.125000
3,-78.125000
4,-78.125000
5,-78.125000
6,-74.218750
7,-74.218750
8,-74.218750
9,-70.312500
10,-70.312500
11,-70.312500
12,-70.312500
13,-66.406250
14,-66.406250
15,-66.406250
16,-62.500000
17,-62.500000
18,-62.500000
19,-62.500000
20,-62.500000
21,-58.593750
22,-58.593750
23,-54.687500
24,-54.687500
25,-54.687500
26,-54.687500
27,-50.781250
28,-50.781250
29,-50.781250
30,-50.781250
31,-46.875000
32,-46.875000
33,-46.875000
34,-46.875000
35,-42.968750
36,-42.968750
37,-42.968750
38,-42.968750
39,-39.062500
40,-39.062500
41,-39.062500
42,-39.062500
43,-35.156250
44,-35.156250
45,-35.156250
46,-31.250000
47,-31.250000
48,-31.250000
49,-27.343750
50,-27.343750
51,-27.343750
52,-27.343750
53,-23.437500
54,-23.437500
55,-23.437500
56,-19.531250
57,-19.531250
58,-19.531250
59,-19.531250
60,-19.531250
61,-15.625000
62,-15.625000
63,-15.625000
64,-11.718750
65,-11.718750
66,-7.812500
67,-11.718750
68,-7.812500
69,-7.812500
70,-7.812500
71,-3.906250
72,-3.906250
73,-3.906250
74,0.000000
75,0.000000
76,0.000000
77,0.000000
78,3.906250
79,3.906250
80,3.906250
81,7.812500
82,7.812500
83,7.812500
84,7.812500
85,11.718750
86,11.718750
87,11.718750
88,11.718750
89,11.718750
90,15.625000
91,15.625000
92,15.625000
93,19.531250
94,19.531250
95,23.437500
96,23.437500
97,23.437500
98,23.437500
99,23.437500
100,23.437500
101,27.343750
102,27.343750
103,27.343750
104,27.343750
105,31.250000
106,31.250000
107,31.250000
108,35.156250
109,35.156250
110,35.156250
111,39.062500
112,39.062500
113,39.062500
114,39.062500
115,39.062500
116,42.968750
117,42.968750
118,42.968750
119,46.875000
120,46.875000
121,46.875000
122,46.875000
123,46.875000
124,46.875000
125,50.781250
126,50.781250
127,50.781250
128,50.781250
129,54.687500
130,54.687500
131,54.687500
132,58.593750
133,58.593750
134,58.593750
135,58.593750
136,58.593750
137,62.500000
138,62.500000
139,62.500000
140,62.500000
141,62.500000
142,66.406250
143,66.406250
144,66.406250
145,66.406250
146,66.406250
147,70.312500
148,70.312500
149,70.312500
150,70.312500
151,74.218750
152,74.218750
153,74.218750
154,74.218750
155,78.125000
156,78.125000
157,78.125000
158,78.125000
159,78.125000
160,78.125000
161,82.031250
162,82.031250
163,82.031250
164,82.031250
165,82.031250
166,82.031250
167,85.937500
168,85.937500
169,85.937500
170,85.937500
171,89.843750
172,89.843750
173,89.843750
174,89.843750
175,89.843750
176,89.843750
177,93.750000
178,93.750000
179,93.750000
180,93.750000
181,93.750000
182,93.750000
183,97.656250
184,97.656250
185,97.656250
186,97.656250
187,97.656250
188,97.656250
189,101.562500
190,101.562500
191,101.562500
192,101.562500
193,101.562500
194,101.562500
195,101.562500
196,105.468750
197,105.468750
198,105.468750
199,105.468750
200,109.375000
201,109.375000
202,109.375000
203,109.375000
204,109.375000
205,109.375000
206,109.375000
207,113.281250
208,109.375000
209,113.281250
210,113.281250
211,113.281250
212,113.281250
213,113.281250
214,113.281250
215,113.281250
216,113.281250
217,117.187500
218,117.187500
219,117.187500
220,117.187500
221,117.187500
222,117.187500
223,121.093750
224,121.093750
225,121.093750
226,121.093750
227,121.093750
228,121.093750
229,121.093750
230,121.093750
231,125.000000
232,125.000000
233,125.000000
234,125.000000
235,125.000000
236,125.000000
237,125.000000
238,125.000000
239,128.906250
240,125.000000
241,128.906250
242,128.906250
243,128.906250
244,128.906250
245,128.906250
246,128.906250
247,128.906250
248,128.906250
249,128.906250
250,128.906250
251,132.812500
252,132.812500
253,132.812500
254,132.812500
255,132.812500
256,132.812500
257,132.812500
258,132.812500
259,132.812500
260,132.812500
261,132.812500
262,132.812500
263,132.812500
264,132.812500
265,132.812500
266,132.812500
267,136.718750
268,136.718750
269,136.718750
270,136.718750
271,136.718750
272,136.718750
273,136.718750
274,136.718750
275,136.718750
276,136.718750
277,136.718750
278,136.718750
279,140.625000
280,136.718750
281,136.718750
282,136.718750
283,136.718750
284,136.718750
285,140.625000
286,140.625000
287,140.625000
288,140.625000
289,140.625000
290,136.718750
291,140.625000
292,140.625000
293,140.625000
294,140.625000
295,140.625000
296,140.625000
297,140.625000
298,140.625000
299,140.625000
300,140.625000
301,140.625000
302,140.625000
303,140.625000
304,140.625000
305,140.625000
306,140.625000
307,140.625000
308,140.625000
309,140.625000
310,140.625000
311,140.625000
312,140.625000
313,140.625000
314,140.625000
315,140.625000
316,140.625000
317,140.625000
318,140.625000
319,140.625000
320,140.625000
321,140.625000
322,140.625000
323,140.625000
324,140.625000
325,140.625000
326,140.625000
327,140.625000
328,140.625000
329,140.625000
330,140.625000
331,140.625000
332,140.625000
333,140.625000
334,140.625000
335,140.625000
336,140.625000
337,140.625000
338,140.625000
339,140.625000
340,140.625000
341,140.625000
342,140.625000
343,140.625000
344,136.718750
345,140.625000
346,140.625000
347,136.718750
348,136.718750
349,136.718750
350,136.718750
351,136.718750
352,136.718750
353,136.718750
354,136.718750
355,136.718750
356,136.718750
357,136.718750
358,136.718750
359,136.718750
360,136.718750
361,136.718750
362,136.718750
363,136.718750
364,136.718750
365,136.718750
366,136.718750
367,136.718750
368,132.812500
369,132.812500
370,132.812500
371,132.812500
372,132.812500
373,132.812500
374,132.812500
375,132.812500
376,132.812500
377,132.812500
378,132.812500
379,132.812500
380,128.906250
381,132.812500
382,128.906250
383,128.906250
384,128.906250
385,128.906250
386,128.906250
387,128.906250
388,128.906250
389,128.906250
390,128.906250
391,125.000000
392,125.000000
393,128.906250
394,125.000000
395,125.000000
396,125.000000
397,125.000000
398,125.000000
399,125.000000
400,125.000000
401,121.093750
402,121.093750
403,121.093750
404,121.093750
405,121.093750
406,121.093750
407,121.093750
408,121.093750
409,121.093750
410,117.187500
411,121.093750
412,117.187500
413,117.187500
414,117.187500
415,117.187500
416,117.187500
417,113.281250
418,117.187500
419,113.281250
420,113.281250
421,113.281250
422,113.281250
423,113.281250
424,113.281250
425,109.375000
426,109.375000
427,109.375000
428,109.375000
429,109.375000
430,109.375000
431,109.375000
432,105.468750
433,105.468750
434,105.468750
435,105.468750
436,105.468750
437,105.468750
438,101.562500
439,101.562500
440,101.562500
441,101.562500
442,101.562500
443,101.562500
444,101.562500
445,97.656250
446,97.656250
447,97.656250
448,97.656250
449,97.656250
450,93.750000
451,93.750000
452,93.750000
453,93.750000
454,93.750000
455,93.750000
456,93.750000
457,89.843750
458,89.843750
459,89.843750
460,89.843750
461,89.843750
462,85.937500
463,85.937500
464,85.937500
465,85.937500
466,82.031250
467,82.031250
468,82.031250
469,82.031250
470,82.031250
471,82.031250
472,78.125000
473,78.125000
474,78.125000
475,78.125000
476,74.218750
477,74.218750
478,74.218750
479,74.218750
480,74.218750
481,70.312500
482,70.312500
483,70.312500
484,70.312500
485,70.312500
486,66.406250
487,66.406250
488,66.406250
489,66.406250
490,66.406250
491,62.500000
492,62.500000
493,62.500000
494,62.500000
495,62.500000
496,58.593750
497,58.593750
498,58.593750
499,54.687500
500,54.687500
501,54.687500
502,54.687500
503,54.687500
504,50.781250
505,50.781250
506,50.781250
507,50.781250
508,46.875000
509,46.875000
510,46.875000
511,46.875000
512,46.875000
513,42.968750
514,42.968750
515,42.968750
516,42.968750
517,39.062500
518,39.062500
519,39.062500
520,39.062500
521,35.156250
522,35.156250
523,35.156250
524,31.250000
525,31.250000
526,31.250000
527,31.250000
528,27.343750
529,27.343750
530,27.343750
531,27.343750
532,27.343750
533,23.437500
534,23.437500
535,23.437500
536,19.531250
537,19.531250
538,19.531250
539,19.531250
540,15.625000
541,15.625000
542,15.625000
543,15.625000
544,11.718750
545,11.718750
546,11.718750
547,7.812500
548,7.812500
549,7.812500
550,7.812500
551,7.812500
552,3.906250
553,3.906250
554,3.906250
555,0.000000
556,0.000000
557,0.000000
558,-3.906250
559,-3.906250
560,-3.906250
561,-3.906250
562,-7.812500
563,-7.812500
564,-7.812500
565,-11.718750
566,-11.718750
567,-11.718750
568,-15.625000
569,-15.625000
570,-15.625000
571,-15.625000
572,-19.531250
573,-19.531250
574,-19.531250
575,-19.531250
576,-23.437500
577,-23.437500
578,-23.437500
579,-23.437500
580,-27.343750
581,-27.343750
582,-27.343750
583,-31.250000
584,-31.250000
585,-31.250000
586,-31.250000
587,-35.156250
588,-35.156250
589,-35.156250
590,-35.156250
591,-39.062500
592,-39.062500
593,-39.062500
594,-42.968750
595,-42.968750
596,-42.968750
597,-46.875000
598,-46.875000
599,-46.875000
600,-46.875000
601,-50.781250
602,-50.781250
603,-50.781250
604,-54.687500
605,-54.687500
606,-54.687500
607,-54.687500
608,-58.593750
609,-58.593750
610,-58.593750
611,-58.593750
612,-62.500000
613,-62.500000
614,-62.500000
615,-62.500000
616,-66.406250
617,-66.406250
618,-66.406250
619,-66.406250
620,-70.312500
621,-70.312500
622,-70.312500
623,-74.218750
624,-74.218750
625,-74.218750
626,-78.125000
627,-78.125000
628,-78.125000
629,-78.125000
630,-82.031250
631,-82.031250
632,-82.031250
633,-85.937500
634,-85.937500
635,-85.937500
636,-85.937500
637,-85.937500
638,-89.843750
639,-89.843750
640,-89.843750
641,-93.750000
642,-93.750000
643,-93.750000
644,-93.750000
645,-97.656250
646,-97.656250
647,-97.656250
648,-97.656250
649,-101.562500
650,-101.562500
651,-101.562500
652,-105.468750
653,-105.468750
654,-105.468750
655,-105.468750
656,-105.468750
657,-109.375000
658,-109.375000
659,-109.375000
660,-113.281250
661,-113.281250
662,-113.281250
663,-113.281250
664,-113.281250
665,-117.187500
666,-117.187500
667,-117.187500
668,-117.187500
669,-117.187500
670,-121.093750
671,-121.093750
672,-121.093750
673,-125.000000
674,-125.000000
675,-125.000000
676,-125.000000
677,-128.906250
678,-128.906250
679,-128.906250
680,-128.906250
681,-132.812500
682,-132.812500
683,-132.812500
684,-132.812500
685,-132.812500
686,-136.718750
687,-136.718750
688,-136.718750
689,-136.718750
690,-136.718750
691,-140.625000
692,-140.625000
693,-140.625000
694,-140.625000
695,-140.625000
696,-144.531250
697,-144.531250
698,-144.531250
699,-144.531250
700,-148.437500
701,-144.531250
702,-148.437500
703,-148.437500
704,-148.437500
705,-152.343750
706,-152.343750
707,-152.343750
708,-152.343750
709,-152.343750
710,-156.250000
711,-156.250000
712,-156.250000
713,-156.250000
714,-156.250000
715,-156.250000
716,-160.156250
717,-160.156250
718,-160.156250
719,-160.156250
720,-160.156250
721,-160.156250
722,-164.062500
723,-164.062500
724,-164.062500
725,-164.062500
726,-164.062500
727,-164.062500
728,-167.968750
729,-167.968750
730,-167.968750
731,-167.968750
732,-167.968750
733,-167.968750
734,-171.875000
735,-171.875000
736,-171.875000
737,-171.875000
738,-171.875000
739,-171.875000
740,-175.781250
741,-171.875000
742,-175.781250
743,-175.781250
744,-175.781250
745,-175.781250
746,-175.781250
747,-175.781250
748,-175.781250
749,-175.781250
750,-175.781250
751,-179.687500
752,-179.687500
753,-179.687500
754,-179.687500
755,-179.687500
756,-179.687500
757,-179.687500
758,-183.593750
759,-183.593750
760,-183.593750
761,-183.593750
762,-183.593750
763,-183.593750
764,-183.593750
765,-183.593750
766,-183.593750
767,-183.593750
768,-183.593750
769,-187.500000
770,-183.593750
771,-187.500000
772,-183.593750
773,-187.500000
774,-187.500000
775,-187.500000
776,-187.500000
777,-187.500000
778,-187.500000
779,-187.500000
780,-187.500000
781,-187.500000
782,-187.500000
783,-187.500000
784,-191.406250
785,-191.406250
786,-191.406250
787,-191.406250
788,-191.406250
789,-191.406250
790,-191.406250
791,-191.406250
792,-191.406250
793,-191.406250
794,-191.406250
795,-191.406250
796,-191.406250
797,-191.406250
798,-191.406250
799,-191.406250
800,-191.406250
801,-191.406250
802,-191.406250
803,-191.406250
804,-191.406250
805,-191.406250
806,-191.406250
807,-191.406250
808,-191.406250
809,-191.406250
810,-191.406250
811,-191.406250
812,-191.406250
813,-191.406250
814,-191.406250
815,-191.406250
816,-191.406250
817,-191.406250
818,-191.406250
819,-191.406250
820,-191.406250
821,-191.406250
822,-191.406250
823,-191.406250
824,-191.406250
825,-191.406250
826,-191.406250
827,-191.406250
828,-191.406250
829,-191.406250
830,-191.406250
831,-191.406250
832,-191.406250
833,-191.406250
834,-191.406250
835,-191.406250
836,-191.406250
837,-191.406250
838,-191.406250
839,-191.406250
840,-187.500000
841,-187.500000
842,-187.500000
843,-187.500000
844,-187.500000
845,-187.500000
846,-187.500000
847,-187.500000
848,-187.500000
849,-187.500000
850,-187.500000
851,-187.500000
852,-183.593750
853,-183.593750
854,-183.593750
855,-183.593750
856,-183.593750
857,-183.593750
858,-183.593750
859,-183.593750
860,-183.593750
861,-183.593750
862,-183.593750
863,-183.593750
864,-183.593750
865,-183.593750
866,-179.687500
867,-179.687500
868,-179.687500
869,-179.687500
870,-179.687500
871,-179.687500
872,-179.687500
873,-175.781250
874,-175.781250
875,-175.781250
876,-175.781250
877,-175.781250
878,-171.875000
879,-171.875000
880,-171.875000
881,-171.875000
882,-171.875000
883,-171.875000
884,-171.875000
885,-171.875000
886,-171.875000
887,-167.968750
888,-167.968750
889,-167.968750
890,-167.968750
891,-167.968750
892,-167.968750
893,-167.968750
894,-164.062500
895,-164.062500
896,-164.062500
897,-164.062500
898,-164.062500
899,-164.062500
900,-160.156250
901,-160.156250
902,-160.156250
903,-160.156250
904,-160.156250
905,-160.156250
906,-156.250000
907,-156.250000
908,-156.250000
909,-156.250000
910,-156.250000
911,-152.343750
912,-152.343750
913,-152.343750
914,-152.343750
915,-148.437500
916,-148.437500
917,-148.437500
918,-148.437500
919,-148.437500
920,-148.437500
921,-148.437500
922,-144.531250
923,-144.531250
924,-144.531250
925,-144.531250
926,-144.531250
927,-140.625000
928,-140.625000
929,-140.625000
930,-140.625000
931,-136.718750
932,-136.718750
933,-136.718750
934,-136.718750
935,-132.812500
936,-132.812500
937,-132.812500
938,-132.812500
939,-132.812500
940,-128.906250
941,-128.906250
942,-128.906250
943,-128.906250
944,-128.906250
945,-125.000000
946,-125.000000
947,-125.000000
948,-125.000000
949,-121.093750
950,-121.093750
951,-121.093750
952,-121.093750
953,-121.093750
954,-117.187500
955,-117.187500
956,-117.187500
957,-113.281250
958,-113.281250
959,-113.281250
960,-113.281250
961,-113.281250
962,-109.375000
963,-109.375000
964,-109.375000
965,-105.468750
966,-105.468750
967,-105.468750
968,-105.468750
969,-101.562500
970,-101.562500
971,-101.562500
972,-101.562500
973,-101.562500
974,-97.656250
975,-97.656250
976,-97.656250
977,-93.750000
978,-93.750000
979,-93.750000
980,-93.750000
981,-89.843750
982,-89.843750
983,-89.843750
984,-85.937500
985,-85.937500
986,-85.937500
987,-85.937500
988,-85.937500
989,-82.031250
990,-82.031250
991,-82.031250
992,-78.125000
993,-78.125000
994,-78.125000
995,-74.218750
996,-74.218750
997,-74.218750
998,-74.218750
999,-70.312500
1000,-70.312500
1001,-70.312500
1002,-70.312500
1003,-66.406250
1004,-66.406250
1005,-66.406250
1006,-62.500000
1007,-62.500000
1008,-62.500000
1009,-58.593750
1010,-58.593750
1011,-58.593750
1012,-58.593750
1013,-54.687500
1014,-54.687500
1015,-54.687500
1016,-50.781250
1017,-50.781250
1018,-50.781250
1019,-50.781250
1020,-50.781250
1021,-46.875000
1022,-46.875000
1023,-46.875000
1024,-46.875000
1025,-42.968750
1026,-42.968750
1027,-42.968750
1028,-39.062500
1029,-39.062500
1030,-39.062500
1031,-35.156250
1032,-35.156250
1033,-35.156250
1034,-35.156250
1035,-31.250000
1036,-31.250000
1037,-31.250000
1038,-31.250000
1039,-27.343750
1040,-27.343750
1041,-27.343750
1042,-23.437500
1043,-23.437500
1044,-23.437500
1045,-19.531250
1046,-19.531250
1047,-19.531250
1048,-19.531250
1049,-15.625000
1050,-15.625000
1051,-15.625000
1052,-15.625000
1053,-11.718750
1054,-11.718750
1055,-11.718750
1056,-11.718750
1057,-7.812500
1058,-7.812500
1059,-7.812500
1060,-3.906250
1061,-3.906250
1062,-3.906250
1063,-3.906250
1064,0.000000
1065,0.000000
1066,0.000000
1067,3.906250
1068,3.906250
1069,3.906250
1070,3.906250
1071,7.812500
1072,7.812500
1073,7.812500
1074,11.718750
1075,11.718750
1076,11.718750
1077,11.718750
1078,15.625000
1079,15.625000
1080,15.625000
1081,15.625000
1082,15.625000
1083,19.531250
1084,19.531250
1085,19.531250
1086,19.531250
1087,23.437500
1088,23.437500
1089,23.437500
1090,23.437500
1091,27.343750
1092,27.343750
1093,27.343750
1094,31.250000
1095,31.250000
1096,31.250000
1097,35.156250
1098,35.156250
1099,35.156250
1100,35.156250
1101,35.156250
1102,39.062500
1103,39.062500
1104,39.062500
1105,39.062500
1106,39.062500
1107,42.968750
1108,42.968750
1109,42.968750
1110,46.875000
1111,46.875000
1112,46.875000
1113,46.875000
1114,50.781250
1115,50.781250
1116,50.781250
1117,50.781250
1118,54.687500
1119,54.687500
1120,54.687500
1121,54.687500
1122,58.593750
1123,58.593750
1124,58.593750
1125,58.593750
1126,58.593750
1127,62.500000
1128,62.500000
1129,62.500000
1130,62.500000
1131,66.406250
1132,66.406250
1133,66.406250
1134,66.406250
1135,70.312500
1136,70.312500
1137,70.312500
1138,70.312500
1139,70.312500
1140,70.312500
1141,74.218750
1142,74.218750
1143,74.218750
1144,74.218750
1145,78.125000
1146,78.125000
1147,78.125000
1148,78.125000
1149,78.125000
1150,82.031250
1151,82.031250
1152,82.031250
1153,82.031250
1154,82.031250
1155,82.031250
1156,85.937500
1157,85.937500
1158,85.937500
1159,85.937500
1160,89.843750
1161,89.843750
1162,89.843750
1163,89.843750
1164,89.843750
1165,89.843750
1166,93.750000
1167,93.750000
1168,93.750000
1169,93.750000
1170,93.750000
1171,93.750000
1172,97.656250
1173,97.656250
1174,97.656250
1175,97.656250
1176,97.656250
1177,97.656250
1178,101.562500
1179,101.562500
1180,101.562500
1181,101.562500
1182,101.562500
1183,101.562500
1184,101.562500
1185,105.468750
1186,105.468750
1187,105.468750
1188,105.468750
1189,105.468750
1190,105.468750
1191,109.375000
1192,109.375000
1193,109.375000
1194,109.375000
1195,109.375000
1196,109.375000
1197,109.375000
1198,109.375000
1199,113.281250
1200,113.281250
1201,113.281250
1202,113.281250
1203,113.281250
1204,113.281250
1205,113.281250
1206,113.281250
1207,117.187500
1208,117.187500
1209,117.187500
1210,117.187500
1211,117.187500
1212,117.187500
1213,121.093750
1214,121.093750
1215,121.093750
1216,121.093750
1217,121.093750
1218,121.093750
1219,121.093750
1220,121.093750
1221,121.093750
1222,121.093750
1223,125.000000
1224,125.000000
1225,125.000000
1226,125.000000
1227,125.000000
1228,125.000000
1229,125.000000
1230,125.000000
1231,128.906250
1232,128.906250
1233,128.906250
1234,128.906250
1235,128.906250
1236,128.906250
1237,128.906250
1238,128.906250
1239,128.906250
1240,128.906250
1241,128.906250
1242,128.906250
1243,132.812500
1244,128.906250
1245,132.812500
1246,132.812500
1247,132.812500
1248,132.812500
1249,132.812500
1250,132.812500
1251,132.812500
1252,132.812500
1253,132.812500
1254,132.812500
1255,132.812500
1256,132.812500
1257,136.718750
1258,136.718750
1259,136.718750
1260,136.718750
1261,136.718750
1262,136.718750
1263,136.718750
1264,136.718750
1265,136.718750
1266,136.718750
1267,136.718750
1268,136.718750
1269,136.718750
1270,136.718750
1271,136.718750
1272,136.718750
1273,136.718750
1274,136.718750
1275,136.718750
1276,140.625000
1277,140.625000
1278,136.718750
1279,140.625000
1280,140.625000
1281,140.625000
1282,140.625000
1283,140.625000
1284,140.625000
1285,140.625000
1286,140.625000
1287,140.625000
1288,140.625000
1289,140.625000
1290,140.625000
1291,140.625000
1292,140.625000
1293,140.625000
1294,140.625000
1295,140.625000
1296,140.625000
1297,140.625000
1298,140.625000
1299,140.625000
1300,140.625000
1301,140.625000
1302,140.625000
1303,140.625000
1304,140.625000
1305,140.625000
1306,140.625000
1307,140.625000
1308,140.625000
1309,140.625000
1310,140.625000
1311,140.625000
1312,140.625000
1313,140.625000
1314,140.625000
1315,140.625000
1316,140.625000
1317,140.625000
1318,140.625000
1319,140.625000
1320,140.625000
1321,140.625000
1322,140.625000
1323,140.625000
1324,140.625000
1325,140.625000
1326,140.625000
1327,140.625000
1328,140.625000
1329,140.625000
1330,140.625000
1331,140.625000
1332,140.625000
1333,140.625000
1334,140.625000
1335,140.625000
1336,136.718750
1337,136.718750
1338,136.718750
1339,136.718750
1340,136.718750
1341,136.718750
1342,136.718750
1343,136.718750
1344,136.718750
1345,136.718750
1346,136.718750
1347,136.718750
1348,136.718750
1349,136.718750
1350,136.718750
1351,136.718750
1352,132.812500
1353,136.718750
1354,132.812500
1355,132.812500
1356,132.812500
1357,132.812500
1358,132.812500
1359,132.812500
1360,132.812500
1361,132.812500
1362,132.812500
1363,132.812500
1364,132.812500
1365,132.812500
1366,132.812500
1367,132.812500
1368,132.812500
1369,132.812500
1370,128.906250
1371,132.812500
1372,128.906250
1373,128.906250
1374,128.906250
1375,128.906250
1376,128.906250
1377,128.906250
1378,128.906250
1379,128.906250
1380,125.000000
1381,125.000000
1382,125.000000
1383,125.000000
1384,125.000000
1385,125.000000
1386,125.000000
1387,125.000000
1388,125.000000
1389,125.000000
1390,125.000000
1391,121.093750
1392,121.093750
1393,121.093750
1394,121.093750
1395,121.093750
1396,121.093750
1397,121.093750
1398,121.093750
1399,121.093750
1400,117.187500
1401,117.187500
1402,117.187500
1403,117.187500
1404,117.187500
1405,117.187500
1406,117.187500
1407,117.187500
1408,117.187500
1409,113.281250
1410,113.281250
1411,113.281250
1412,113.281250
1413,113.281250
1414,109.375000
1415,109.375000
1416,109.375000
1417,109.375000
1418,109.375000
1419,109.375000
1420,109.375000
1421,109.375000
1422,105.468750
1423,105.468750
1424,105.468750
1425,105.468750
1426,105.468750
1427,105.468750
1428,101.562500
1429,101.562500
1430,101.562500
1431,101.562500
1432,101.562500
1433,101.562500
1434,101.562500
1435,97.656250
1436,97.656250
1437,97.656250
1438,97.656250
1439,97.656250
1440,97.656250
1441,97.656250
1442,93.750000
1443,93.750000
1444,93.750000
1445,93.750000
1446,93.750000
1447,89.843750
1448,89.843750
1449,89.843750
1450,89.843750
1451,85.937500
1452,85.937500
1453,85.937500
1454,85.937500
1455,85.937500
1456,85.937500
1457,85.937500
1458,82.031250
1459,82.031250
1460,82.031250
1461,78.125000
1462,78.125000
1463,78.125000
1464,78.125000
1465,78.125000
1466,74.218750
1467,74.218750
1468,74.218750
1469,74.218750
1470,74.218750
1471,74.218750
1472,70.312500
1473,70.312500
1474,70.312500
1475,70.312500
1476,66.406250
1477,66.406250
1478,66.406250
1479,66.406250
1480,66.406250
1481,62.500000
1482,62.500000
1483,62.500000
1484,62.500000
1485,58.593750
1486,58.593750
1487,58.593750
1488,58.593750
1489,54.687500
1490,54.687500
1491,54.687500
1492,54.687500
1493,50.781250
1494,50.781250
1495,50.781250
1496,50.781250
1497,50.781250
1498,46.875000
1499,46.875000
1500,46.875000
1501,46.875000
1502,42.968750
1503,42.968750
1504,42.968750
1505,42.968750
1506,39.062500
1507,39.062500
1508,39.062500
1509,39.062500
1510,39.062500
1511,35.156250
1512,35.156250
1513,35.156250
1514,31.250000
1515,31.250000
1516,31.250000
1517,27.343750
1518,27.343750
1519,27.343750
1520,27.343750
1521,27.343750
1522,23.437500
1523,23.437500
1524,23.437500
1525,23.437500
1526,19.531250
1527,19.531250
1528,19.531250
1529,15.625000
1530,15.625000
1531,15.625000
1532,15.625000
1533,11.718750
1534,11.718750
1535,11.718750
1536,11.718750
1537,7.812500
1538,7.812500
1539,7.812500
1540,7.812500
1541,3.906250
1542,3.906250
1543,3.906250
1544,3.906250
1545,0.000000
1546,0.000000
1547,0.000000
1548,-3.906250
1549,-3.906250
1550,-3.906250
1551,-3.906250
1552,-7.812500
1553,-7.812500
1554,-7.812500
1555,-7.812500
1556,-11.718750
1557,-11.718750
1558,-11.718750
1559,-15.625000
1560,-15.625000
1561,-15.625000
1562,-19.531250
1563,-19.531250
1564,-19.531250
1565,-19.531250
1566,-23.437500
1567,-23.437500
1568,-23.437500
1569,-23.437500
1570,-27.343750
1571,-27.343750
1572,-27.343750
1573,-31.250000
1574,-31.250000
1575,-31.250000
1576,-31.250000
1577,-35.156250
1578,-35.156250
1579,-35.156250
1580,-39.062500
1581,-39.062500
1582,-39.062500
1583,-39.062500
1584,-42.968750
1585,-42.968750
1586,-46.875000
1587,-46.875000
1588,-46.875000
1589,-46.875000
1590,-46.875000
1591,-50.781250
1592,-50.781250
1593,-50.781250
1594,-54.687500
1595,-54.687500
1596,-54.687500
1597,-54.687500
1598,-58.593750
1599,-58.593750
1600,-58.593750
1601,-62.500000
1602,-62.500000
1603,-62.500000
1604,-66.406250
1605,-66.406250
1606,-66.406250
1607,-66.406250
1608,-70.312500
1609,-70.312500
1610,-70.312500
1611,-70.312500
1612,-74.218750
1613,-74.218750
1614,-78.125000
1615,-78.125000
1616,-78.125000
1617,-78.125000
1618,-78.125000
1619,-78.125000
1620,-82.031250
1621,-82.031250
1622,-82.031250
1623,-85.937500
1624,-85.937500
1625,-85.937500
1626,-89.843750
1627,-89.843750
1628,-89.843750
1629,-89.843750
1630,-93.750000
1631,-93.750000
1632,-93.750000
1633,-93.750000
1634,-97.656250
1635,-97.656250
1636,-97.656250
1637,-97.656250
1638,-101.562500
1639,-101.562500
1640,-101.562500
1641,-101.562500
1642,-105.468750
1643,-105.468750
1644,-105.468750
1645,-105.468750
1646,-109.375000
1647,-109.375000
1648,-109.375000
1649,-109.375000
1650,-113.281250
1651,-113.281250
1652,-113.281250
1653,-113.281250
1654,-117.187500
1655,-117.187500
1656,-117.187500
1657,-117.187500
1658,-121.093750
1659,-121.093750
1660,-121.093750
1661,-121.093750
1662,-125.000000
1663,-125.000000
1664,-125.000000
1665,-125.000000
1666,-128.906250
1667,-128.906250
1668,-128.906250
1669,-128.906250
1670,-128.906250
1671,-128.906250
1672,-132.812500
1673,-132.812500
1674,-132.812500
1675,-132.812500
1676,-136.718750
1677,-136.718750
1678,-136.718750
1679,-136.718750
1680,-140.625000
1681,-140.625000
1682,-140.625000
1683,-140.625000
1684,-140.625000
1685,-144.531250
1686,-144.531250
1687,-144.531250
1688,-144.531250
1689,-144.531250
1690,-148.437500
1691,-148.437500
1692,-148.437500
1693,-148.437500
1694,-152.343750
1695,-152.343750
1696,-152.343750
1697,-152.343750
1698,-156.250000
1699,-152.343750
1700,-156.250000
1701,-156.250000
1702,-156.250000
1703,-156.250000
1704,-156.250000
1705,-156.250000
1706,-160.156250
1707,-160.156250
1708,-160.156250
1709,-160.156250
1710,-164.062500
1711,-164.062500
1712,-164.062500
1713,-164.062500
1714,-164.062500
1715,-164.062500
1716,-164.062500
1717,-164.062500
1718,-167.968750
1719,-167.968750
1720,-167.968750
1721,-167.968750
1722,-167.968750
1723,-167.968750
1724,-167.968750
1725,-171.875000
1726,-171.875000
1727,-171.875000
1728,-171.875000
1729,-171.875000
1730,-171.875000
1731,-171.875000
1732,-175.781250
1733,-175.781250
1734,-175.781250
1735,-175.781250
1736,-175.781250
1737,-175.781250
1738,-179.687500
1739,-179.687500
1740,-179.687500
1741,-179.687500
1742,-179.687500
1743,-179.687500
1744,-179.687500
1745,-179.687500
1746,-179.687500
1747,-179.687500
1748,-183.593750
1749,-183.593750
1750,-183.593750
1751,-183.593750
1752,-183.593750
1753,-183.593750
1754,-183.593750
1755,-183.593750
1756,-183.593750
1757,-187.500000
1758,-187.500000
1759,-187.500000
1760,-187.500000
1761,-187.500000
1762,-187.500000
1763,-187.500000
1764,-187.500000
1765,-187.500000
1766,-187.500000
1767,-187.500000
1768,-187.500000
1769,-187.500000
1770,-191.406250
1771,-187.500000
1772,-187.500000
1773,-191.406250
1774,-191.406250
1775,-191.406250
1776,-191.406250
1777,-191.406250
1778,-191.406250
1779,-191.406250
1780,-191.406250
1781,-191.406250
1782,-191.406250
1783,-191.406250
1784,-191.406250
1785,-191.406250
1786,-191.406250
1787,-191.406250
1788,-191.406250
1789,-191.406250
1790,-191.406250
1791,-191.406250
1792,-191.406250
1793,-191.406250
1794,-191.406250
1795,-191.406250
1796,-191.406250
1797,-191.406250
1798,-191.406250
1799,-191.406250
1800,-191.406250
1801,-191.406250
1802,-191.406250
1803,-191.406250
1804,-191.406250
1805,-191.406250
1806,-191.406250
1807,-191.406250
1808,-191.406250
1809,-191.406250
1810,-191.406250
1811,-191.406250
1812,-191.406250
1813,-191.406250
1814,-191.406250
1815,-191.406250
1816,-191.406250
1817,-191.406250
1818,-191.406250
1819,-191.406250
1820,-191.406250
1821,-191.406250
1822,-191.406250
1823,-191.406250
1824,-191.406250
1825,-191.406250
1826,-191.406250
1827,-191.406250
1828,-187.500000
1829,-187.500000
1830,-187.500000
1831,-187.500000
1832,-187.500000
1833,-187.500000
1834,-187.500000
1835,-187.500000
1836,-187.500000
1837,-187.500000
1838,-187.500000
1839,-183.593750
1840,-187.500000
1841,-187.500000
1842,-187.500000
1843,-183.593750
1844,-183.593750
1845,-183.593750
1846,-183.593750
1847,-183.593750
1848,-183.593750
1849,-183.593750
1850,-183.593750
1851,-183.593750
1852,-183.593750
1853,-179.687500
1854,-183.593750
1855,-179.687500
1856,-179.687500
1857,-179.687500
1858,-179.687500
1859,-179.687500
1860,-179.687500
1861,-179.687500
1862,-179.687500
1863,-175.781250
1864,-175.781250
1865,-175.781250
1866,-175.781250
1867,-175.781250
1868,-175.781250
1869,-175.781250
1870,-171.875000
1871,-171.875000
1872,-171.875000
1873,-171.875000
1874,-171.875000
1875,-171.875000
1876,-171.875000
1877,-167.968750
1878,-167.968750
1879,-167.968750
1880,-167.968750
1881,-167.968750
1882,-167.968750
1883,-167.968750
1884,-164.062500
1885,-164.062500
1886,-164.062500
1887,-164.062500
1888,-164.062500
1889,-164.062500
1890,-164.062500
1891,-164.062500
1892,-160.156250
1893,-160.156250
1894,-160.156250
1895,-160.156250
1896,-156.250000
1897,-156.250000
1898,-156.250000
1899,-156.250000
1900,-156.250000
1901,-152.343750
1902,-152.343750
1903,-152.343750
1904,-152.343750
1905,-152.343750
1906,-148.437500
1907,-148.437500
1908,-148.437500
1909,-148.437500
1910,-148.437500
1911,-144.531250
1912,-144.531250
1913,-144.531250
1914,-144.531250
1915,-144.531250
1916,-140.625000
1917,-140.625000
1918,-140.625000
1919,-140.625000
1920,-140.625000
1921,-136.718750
1922,-136.718750
1923,-136.718750
1924,-136.718750
1925,-136.718750
1926,-132.812500
1927,-132.812500
1928,-132.812500
1929,-132.812500
1930,-128.906250
1931,-128.906250
1932,-128.906250
1933,-125.000000
1934,-125.000000
1935,-125.000000
1936,-125.000000
1937,-125.000000
1938,-125.000000
1939,-121.093750
1940,-121.093750
1941,-121.093750
1942,-121.093750
1943,-117.187500
1944,-117.187500
1945,-117.187500
1946,-117.187500
1947,-113.281250
1948,-113.281250
1949,-113.281250
1950,-113.281250
1951,-109.375000
1952,-109.375000
1953,-109.375000
1954,-109.375000
1955,-105.468750
1956,-105.468750
1957,-105.468750
1958,-105.468750
1959,-101.562500
1960,-101.562500
1961,-101.562500
1962,-97.656250
1963,-97.656250
1964,-97.656250
1965,-97.656250
1966,-97.656250
1967,-93.750000
1968,-93.750000
1969,-93.750000
1970,-93.750000
1971,-89.843750
1972,-89.843750
1973,-89.843750
1974,-85.937500
1975,-85.937500
1976,-85.937500
1977,-85.937500
1978,-82.031250
1979,-82.031250
1980,-82.031250
1981,-78.125000
1982,-78.125000
1983,-78.125000
1984,-78.125000
1985,-74.218750
1986,-74.218750
1987,-74.218750
1988,-74.218750
1989,-70.312500
1990,-70.312500
1991,-66.406250
1992,-70.312500
1993,-66.406250
1994,-66.406250
1995,-66.406250
1996,-66.406250
1997,-62.500000
1998,-62.500000
1999,-62.500000
2000,-58.593750
2001,-58.593750
2002,-58.593750
2003,-58.593750
2004,-54.687500
2005,-54.687500
2006,-54.687500
2007,-50.781250
2008,-50.781250
2009,-50.781250
2010,-46.875000
2011,-46.875000
2012,-46.875000
2013,-46.875000
2014,-46.875000
2015,-42.968750
2016,-42.968750
2017,-42.968750
2018,-39.062500
2019,-39.062500
2020,-39.062500
2021,-39.062500
2022,-35.156250
2023,-35.156250
2024,-35.156250
2025,-31.250000
2026,-31.250000
2027,-31.250000
2028,-31.250000
2029,-27.343750
2030,-27.343750
2031,-27.343750
2032,-23.437500
2033,-23.437500
2034,-23.437500
2035,-23.437500
2036,-19.531250
2037,-19.531250
2038,-19.531250
2039,-15.625000
2040,-15.625000
2041,-15.625000
2042,-15.625000
2043,-11.718750
2044,-11.718750
2045,-11.718750
2046,-7.812500
2047,-7.812500
2048,-7.812500
2049,-7.812500
2050,-3.906250
2051,-3.906250
2052,-3.906250
2053,0.000000
2054,0.000000
2055,0.000000
2056,0.000000
2057,3.906250
2058,3.906250
2059,3.906250
2060,7.812500
2061,7.812500
2062,7.812500
2063,7.812500
2064,7.812500
2065,11.718750
2066,11.718750
2067,11.718750
2068,11.718750
2069,15.625000
2070,15.625000
2071,19.531250
2072,15.625000
2073,19.531250
2074,19.531250
2075,19.531250
2076,23.437500
2077,23.437500
2078,23.437500
2079,27.343750
2080,27.343750
2081,27.343750
2082,27.343750
2083,31.250000
2084,31.250000
2085,31.250000
2086,31.250000
2087,31.250000
2088,35.156250
2089,35.156250
2090,35.156250
2091,35.156250
2092,39.062500
2093,39.062500
2094,39.062500
2095,39.062500
2096,42.968750
2097,42.968750
2098,42.968750
2099,42.968750
2100,46.875000
2101,46.875000
2102,46.875000
2103,50.781250
2104,50.781250
2105,50.781250
2106,50.781250
2107,54.687500
2108,54.687500
2109,54.687500
2110,54.687500
2111,54.687500
2112,58.593750
2113,58.593750
2114,58.593750
2115,58.593750
2116,58.593750
2117,62.500000
2118,62.500000
2119,62.500000
2120,62.500000
2121,66.406250
2122,66.406250
2123,66.406250
2124,66.406250
2125,66.406250
2126,66.406250
2127,70.312500
2128,70.312500
2129,70.312500
2130,74.218750
2131,74.218750
2132,74.218750
2133,74.218750
2134,74.218750
2135,78.125000
2136,78.125000
2137,78.125000
2138,78.125000
2139,78.125000
2140,78.125000
2141,82.031250
2142,82.031250
2143,82.031250
2144,82.031250
2145,82.031250
2146,85.937500
2147,85.937500
2148,85.937500
2149,85.937500
2150,85.937500
2151,89.843750
2152,89.843750
2153,89.843750
2154,89.843750
2155,89.843750
2156,93.750000
2157,93.750000
2158,93.750000
2159,93.750000
2160,93.750000
2161,97.656250
2162,97.656250
2163,97.656250
2164,97.656250
2165,97.656250
2166,97.656250
2167,101.562500
2168,97.656250
2169,101.562500
2170,101.562500
2171,101.562500
2172,101.562500
2173,101.562500
2174,101.562500
2175,105.468750
2176,105.468750
2177,105.468750
2178,105.468750
2179,109.375000
2180,109.375000
2181,109.375000
2182,109.375000
2183,109.375000
2184,109.375000
2185,109.375000
2186,109.375000
2187,113.281250
2188,113.281250
2189,113.281250
2190,113.281250
2191,113.281250
2192,113.281250
2193,113.281250
2194,113.281250
2195,117.187500
2196,117.187500
2197,117.187500
2198,117.187500
2199,117.187500
2200,117.187500
2201,117.187500
2202,121.093750
2203,121.093750
2204,121.093750
2205,121.093750
2206,121.093750
2207,121.093750
2208,121.093750
2209,125.000000
2210,125.000000
2211,125.000000
2212,125.000000
2213,125.000000
2214,125.000000
2215,125.000000
2216,125.000000
2217,125.000000
2218,125.000000
2219,128.906250
2220,125.000000
2221,128.906250
2222,128.906250
2223,128.906250
2224,128.906250
2225,128.906250
2226,128.906250
2227,128.906250
2228,128.906250
2229,128.906250
2230,128.906250
2231,132.812500
2232,132.812500
2233,132.812500
2234,128.906250
2235,132.812500
2236,132.812500
2237,132.812500
2238,132.812500
2239,132.812500
2240,132.812500
2241,132.812500
2242,132.812500
2243,132.812500
2244,132.812500
2245,136.718750
2246,132.812500
2247,132.812500
2248,132.812500
2249,136.718750
2250,136.718750
2251,136.718750
2252,136.718750
2253,136.718750
2254,136.718750
2255,136.718750
2256,136.718750
2257,136.718750
2258,136.718750
2259,136.718750
2260,136.718750
2261,136.718750
2262,136.718750
2263,136.718750
2264,136.718750
2265,140.625000
2266,136.718750
2267,140.625000
2268,136.718750
2269,140.625000
2270,136.718750
2271,140.625000
2272,140.625000
2273,140.625000
2274,140.625000
2275,140.625000
2276,140.625000
2277,140.625000
2278,140.625000
2279,140.625000
2280,140.625000
2281,140.625000
2282,140.625000
2283,140.625000
2284,140.625000
2285,140.625000
2286,140.625000
2287,140.625000
2288,140.625000
2289,140.625000
2290,140.625000
2291,140.625000
2292,140.625000
2293,140.625000
2294,140.625000
2295,140.625000
2296,140.625000
2297,140.625000
2298,140.625000
2299,140.625000
2300,140.625000
2301,140.625000
2302,140.625000
2303,140.625000
2304,140.625000
2305,140.625000
2306,140.625000
2307,140.625000
2308,140.625000
2309,140.625000
2310,140.625000
2311,140.625000
2312,140.625000
2313,140.625000
2314,140.625000
2315,140.625000
2316,140.625000
2317,140.625000
2318,140.625000
2319,140.625000
2320,140.625000
2321,140.625000
2322,140.625000
2323,140.625000
2324,140.625000
2325,140.625000
2326,136.718750
2327,136.718750
2328,140.625000
2329,140.625000
2330,136.718750
2331,136.718750
2332,136.718750
2333,136.718750
2334,136.718750
2335,136.718750
2336,136.718750
2337,136.718750
2338,136.718750
2339,136.718750
2340,136.718750
2341,136.718750
2342,136.718750
2343,136.718750
2344,136.718750
2345,136.718750
2346,136.718750
2347,136.718750
2348,136.718750
2349,132.812500
2350,132.812500
2351,132.812500
2352,132.812500
2353,132.812500
2354,132.812500
2355,132.812500
2356,132.812500
2357,132.812500
2358,132.812500
2359,132.812500
2360,128.906250
2361,132.812500
2362,128.906250
2363,128.906250
2364,128.906250
2365,128.906250
2366,128.906250
2367,128.906250
2368,128.906250
2369,128.906250
2370,128.906250
2371,125.000000
2372,125.000000
2373,125.000000
2374,125.000000
2375,125.000000
2376,125.000000
2377,125.000000
2378,125.000000
2379,125.000000
2380,121.093750
2381,121.093750
2382,121.093750
2383,121.093750
2384,121.093750
2385,121.093750
2386,121.093750
2387,121.093750
2388,121.093750
2389,121.093750
2390,117.187500
2391,117.187500
2392,117.187500
2393,117.187500
2394,117.187500
2395,117.187500
2396,117.187500
2397,113.281250
2398,113.281250
2399,113.281250
2400,113.281250
2401,113.281250
2402,113.281250
2403,113.281250
2404,113.281250
2405,109.375000
2406,109.375000
2407,109.375000
2408,109.375000
2409,109.375000
2410,109.375000
2411,105.468750
2412,105.468750
2413,105.468750
2414,105.468750
2415,105.468750
2416,105.468750
2417,101.562500
2418,101.562500
2419,101.562500
2420,101.562500
2421,101.562500
2422,101.562500
2423,101.562500
2424,97.656250
2425,97.656250
2426,97.656250
2427,97.656250
2428,97.656250
2429,97.656250
2430,93.750000
2431,93.750000
2432,93.750000
2433,93.750000
2434,93.750000
2435,93.750000
2436,89.843750
2437,89.843750
2438,89.843750
2439,89.843750
2440,89.843750
2441,89.843750
2442,85.937500
2443,85.937500
2444,85.937500
2445,82.031250
2446,82.031250
2447,82.031250
2448,82.031250
2449,82.031250
2450,82.031250
2451,78.125000
2452,78.125000
2453,78.125000
2454,78.125000
2455,78.125000
2456,74.218750
2457,74.218750
2458,74.218750
2459,74.218750
2460,74.218750
2461,70.312500
2462,70.312500
2463,70.312500
2464,70.312500
2465,70.312500
2466,66.406250
2467,70.312500
2468,66.406250
2469,66.406250
2470,66.406250
2471,62.500000
2472,62.500000
2473,62.500000
2474,58.593750
2475,58.593750
2476,58.593750
2477,58.593750
2478,58.593750
2479,58.593750
2480,54.687500
2481,54.687500
2482,50.781250
2483,50.781250
2484,50.781250
2485,50.781250
2486,50.781250
2487,46.875000
2488,46.875000
2489,46.875000
2490,46.875000
2491,46.875000
2492,42.968750
2493,42.968750
2494,42.968750
2495,42.968750
2496,39.062500
2497,39.062500
2498,39.062500
2499,39.062500
2500,35.156250
2501,35.156250
2502,35.156250
2503,31.250000
2504,31.250000
2505,31.250000
2506,31.250000
2507,27.343750
2508,27.343750
2509,27.343750
2510,27.343750
2511,27.343750
2512,23.437500
2513,23.437500
2514,23.437500
2515,23.437500
2516,19.531250
2517,19.531250
2518,19.531250
2519,15.625000
2520,15.625000
2521,15.625000
2522,11.718750
2523,11.718750
2524,11.718750
2525,11.718750
2526,7.812500
2527,7.812500
2528,7.812500
2529,7.812500
2530,3.906250
2531,3.906250
2532,3.906250
2533,3.906250
2534,0.000000
2535,0.000000
2536,0.000000
2537,-3.906250
2538,-3.906250
2539,-3.906250
2540,-3.906250
2541,-7.812500
2542,-7.812500
2543,-7.812500
2544,-7.812500
2545,-11.718750
2546,-11.718750
2547,-11.718750
2548,-15.625000
2549,-15.625000
2550,-15.625000
2551,-15.625000
2552,-19.531250
2553,-19.531250
2554,-19.531250
2555,-23.437500
2556,-23.437500
2557,-23.437500
2558,-27.343750
2559,-27.343750
2560,-27.343750
2561,-27.343750
2562,-27.343750
2563,-31.250000
2564,-31.250000
2565,-31.250000
2566,-35.156250
2567,-35.156250
2568,-35.156250
2569,-35.156250
2570,-39.062500
2571,-39.062500
2572,-39.062500
2573,-42.968750
2574,-42.968750
2575,-42.968750
2576,-42.968750
2577,-46.875000
2578,-46.875000
2579,-46.875000
2580,-46.875000
2581,-50.781250
2582,-50.781250
2583,-54.687500
2584,-54.687500
2585,-54.687500
2586,-54.687500
2587,-54.687500
2588,-58.593750
2589,-58.593750
2590,-58.593750
2591,-62.500000
2592,-62.500000
2593,-62.500000
2594,-66.406250
2595,-66.406250
2596,-66.406250
2597,-66.406250
2598,-66.406250
2599,-70.312500
2600,-70.312500
2601,-70.312500
2602,-74.218750
2603,-74.218750
2604,-74.218750
2605,-78.125000
2606,-78.125000
2607,-78.125000
2608,-78.125000
2609,-82.031250
2610,-82.031250
2611,-82.031250
2612,-82.031250
2613,-85.937500
2614,-85.937500
2615,-85.937500
2616,-85.937500
2617,-89.843750
2618,-89.843750
2619,-89.843750
2620,-89.843750
2621,-93.750000
2622,-93.750000
2623,-93.750000
2624,-93.750000
2625,-97.656250
2626,-97.656250
2627,-101.562500
2628,-101.562500
2629,-101.562500
2630,-101.562500
2631,-105.468750
2632,-105.468750
2633,-105.468750
2634,-105.468750
2635,-109.375000
2636,-109.375000
2637,-109.375000
2638,-109.375000
2639,-113.281250
2640,-113.281250
2641,-113.281250
2642,-113.281250
2643,-117.187500
2644,-117.187500
2645,-117.187500
2646,-117.187500
2647,-117.187500
2648,-121.093750
2649,-121.093750
2650,-121.093750
2651,-121.093750
2652,-125.000000
2653,-125.000000
2654,-125.000000
2655,-125.000000
2656,-128.906250
2657,-128.906250
2658,-128.906250
2659,-128.906250
2660,-132.812500
2661,-132.812500
2662,-132.812500
2663,-132.812500
2664,-136.718750
2665,-136.718750
2666,-136.718750
2667,-136.718750
2668,-136.718750
2669,-140.625000
2670,-140.625000
2671,-140.625000
2672,-140.625000
2673,-140.625000
2674,-144.531250
2675,-140.625000
2676,-144.531250
2677,-144.531250
2678,-148.437500
2679,-148.437500
2680,-148.437500
2681,-148.437500
2682,-148.437500
2683,-148.437500
2684,-152.343750
2685,-152.343750
2686,-152.343750
2687,-152.343750
2688,-152.343750
2689,-156.250000
2690,-156.250000
2691,-156.250000
2692,-156.250000
2693,-156.250000
2694,-156.250000
2695,-160.156250
2696,-160.156250
2697,-160.156250
2698,-160.156250
2699,-160.156250
2700,-160.156250
2701,-164.062500
2702,-164.062500
2703,-164.062500
2704,-164.062500
2705,-164.062500
2706,-164.062500
2707,-164.062500
2708,-167.968750
2709,-167.968750
2710,-167.968750
2711,-171.875000
2712,-167.968750
2713,-167.968750
2714,-171.875000
2715,-171.875000
2716,-171.875000
2717,-171.875000
2718,-171.875000
2719,-171.875000
2720,-171.875000
2721,-171.875000
2722,-175.781250
2723,-175.781250
2724,-175.781250
2725,-175.781250
2726,-175.781250
2727,-175.781250
2728,-179.687500
2729,-179.687500
2730,-179.687500
2731,-179.687500
2732,-179.687500
2733,-179.687500
2734,-179.687500
2735,-179.687500
2736,-179.687500
2737,-179.687500
2738,-179.687500
2739,-183.593750
2740,-183.593750
2741,-183.593750
2742,-183.593750
2743,-183.593750
2744,-183.593750
2745,-183.593750
2746,-183.593750
2747,-183.593750
2748,-187.500000
2749,-187.500000
2750,-187.500000
2751,-187.500000
2752,-187.500000
2753,-187.500000
2754,-187.500000
2755,-187.500000
2756,-187.500000
2757,-187.500000
2758,-187.500000
2759,-187.500000
2760,-187.500000
2761,-187.500000
2762,-187.500000
2763,-191.406250
2764,-191.406250
2765,-191.406250
2766,-191.406250
2767,-191.406250
2768,-191.406250
2769,-191.406250
2770,-191.406250
2771,-191.406250
2772,-191.406250
2773,-191.406250
2774,-191.406250
2775,-191.406250
2776,-191.406250
2777,-191.406250
2778,-191.406250
2779,-191.406250
2780,-191.406250
2781,-191.406250
2782,-191.406250
2783,-191.406250
2784,-191.406250
2785,-191.406250
2786,-191.406250
2787,-191.406250
2788,-191.406250
2789,-191.406250
2790,-191.406250
2791,-191.406250
2792,-191.406250
2793,-191.406250
2794,-191.406250
2795,-191.406250
2796,-191.406250
2797,-191.406250
2798,-195.312500
2799,-191.406250
2800,-191.406250
2801,-191.406250
2802,-191.406250
2803,-191.406250
2804,-191.406250
2805,-191.406250
2806,-191.406250
2807,-191.406250
2808,-191.406250
2809,-191.406250
2810,-191.406250
2811,-191.406250
2812,-191.406250
2813,-191.406250
2814,-191.406250
2815,-191.406250
2816,-187.500000
2817,-191.406250
2818,-191.406250
2819,-187.500000
2820,-191.406250
2821,-187.500000
2822,-187.500000
2823,-187.500000
2824,-187.500000
2825,-187.500000
2826,-187.500000
2827,-187.500000
2828,-187.500000
2829,-187.500000
2830,-187.500000
2831,-183.593750
2832,-183.593750
2833,-183.593750
2834,-183.593750
2835,-183.593750
2836,-183.593750
2837,-183.593750
2838,-183.593750
2839,-183.593750
2840,-183.593750
2841,-183.593750
2842,-183.593750
2843,-179.687500
2844,-179.687500
2845,-179.687500
2846,-179.687500
2847,-179.687500
2848,-179.687500
2849,-179.687500
2850,-179.687500
2851,-179.687500
2852,-175.781250
2853,-175.781250
2854,-175.781250
2855,-175.781250
2856,-175.781250
2857,-175.781250
2858,-175.781250
2859,-171.875000
2860,-171.875000
2861,-171.875000
2862,-171.875000
2863,-171.875000
2864,-171.875000
2865,-171.875000
2866,-171.875000
2867,-167.968750
2868,-167.968750
2869,-167.968750
2870,-167.968750
2871,-167.968750
2872,-167.968750
2873,-164.062500
2874,-164.062500
2875,-164.062500
2876,-164.062500
2877,-164.062500
2878,-164.062500
2879,-164.062500
2880,-164.062500
2881,-160.156250
2882,-160.156250
2883,-160.156250
2884,-160.156250
2885,-156.250000
2886,-156.250000
2887,-156.250000
2888,-156.250000
2889,-156.250000
2890,-156.250000
2891,-152.343750
2892,-152.343750
2893,-152.343750
2894,-152.343750
2895,-152.343750
2896,-152.343750
2897,-148.437500
2898,-148.437500
2899,-148.437500
2900,-148.437500
2901,-148.437500
2902,-144.531250
2903,-144.531250
2904,-144.531250
2905,-144.531250
2906,-140.625000
2907,-140.625000
2908,-140.625000
2909,-140.625000
2910,-140.625000
2911,-136.718750
2912,-136.718750
2913,-136.718750
2914,-136.718750
2915,-136.718750
2916,-136.718750
2917,-132.812500
2918,-132.812500
2919,-132.812500
2920,-128.906250
2921,-128.906250
2922,-128.906250
2923,-128.906250
2924,-125.000000
2925,-125.000000
2926,-125.000000
2927,-125.000000
2928,-121.093750
2929,-121.093750
2930,-121.093750
2931,-121.093750
2932,-121.093750
2933,-117.187500
2934,-117.187500
2935,-117.187500
2936,-117.187500
2937,-113.281250
2938,-113.281250
2939,-113.281250
2940,-113.281250
2941,-109.375000
2942,-109.375000
2943,-109.375000
2944,-105.468750
2945,-105.468750
2946,-105.468750
2947,-105.468750
2948,-105.468750
2949,-101.562500
2950,-101.562500
2951,-101.562500
2952,-101.562500
2953,-97.656250
2954,-97.656250
2955,-97.656250
2956,-93.750000
2957,-93.750000
2958,-93.750000
2959,-93.750000
2960,-89.843750
2961,-89.843750
2962,-89.843750
2963,-89.843750
2964,-85.937500
2965,-85.937500
2966,-85.937500
2967,-82.031250
2968,-82.031250
2969,-82.031250
2970,-82.031250
2971,-78.125000
2972,-78.125000
2973,-78.125000
2974,-78.125000
2975,-74.218750
2976,-74.218750
2977,-74.218750
2978,-74.218750
2979,-70.312500
2980,-70.312500
2981,-66.406250
2982,-66.406250
2983,-66.406250
2984,-66.406250
2985,-62.500000
2986,-62.500000
2987,-62.500000
2988,-62.500000
2989,-58.593750
2990,-58.593750
2991,-58.593750
2992,-54.687500
2993,-54.687500
2994,-54.687500
2995,-54.687500
2996,-54.687500
2997,-50.781250
2998,-50.781250
2999,-50.781250
3000,-46.875000
3001,-46.875000
3002,-46.875000
3003,-46.875000
3004,-42.968750
3005,-42.968750
3006,-42.968750
3007,-39.062500
3008,-39.062500
3009,-39.062500
3010,-35.156250
3011,-35.156250
3012,-35.156250
3013,-35.156250
3014,-35.156250
3015,-31.250000
3016,-31.250000
3017,-31.250000
3018,-27.343750
3019,-27.343750
3020,-27.343750
3021,-27.343750
3022,-23.437500
3023,-23.437500
3024,-23.437500
3025,-19.531250
3026,-19.531250
3027,-19.531250
3028,-19.531250
3029,-15.625000
3030,-15.625000
3031,-15.625000
3032,-15.625000
3033,-11.718750
3034,-11.718750
3035,-7.812500
3036,-7.812500
3037,-7.812500
3038,-7.812500
3039,-7.812500
3040,-3.906250
3041,-3.906250
3042,-3.906250
3043,0.000000
3044,0.000000
3045,0.000000
3046,0.000000
3047,3.906250
3048,3.906250
3049,3.906250
3050,7.812500
3051,7.812500
3052,7.812500
3053,7.812500
3054,11.718750
3055,11.718750
3056,11.718750
3057,11.718750
3058,15.625000
3059,15.625000
3060,15.625000
3061,19.531250
3062,19.531250
3063,19.531250
3064,19.531250
3065,19.531250
3066,23.437500
3067,23.437500
3068,23.437500
3069,27.343750
3070,27.343750
3071,27.343750
3072,27.343750
3073,31.250000
3074,31.250000
3075,31.250000
3076,31.250000
3077,35.156250
3078,35.156250
3079,35.156250
3080,39.062500
3081,39.062500
3082,39.062500
3083,39.062500
3084,39.062500
3085,42.968750
3086,42.968750
3087,42.968750
3088,42.968750
3089,46.875000
3090,46.875000
3091,46.875000
3092,46.875000
3093,50.781250
3094,50.781250
3095,50.781250
3096,50.781250
3097,54.687500
3098,54.687500
3099,54.687500
3100,58.593750
3101,54.687500
3102,58.593750
3103,58.593750
3104,58.593750
3105,58.593750
3106,62.500000
3107,62.500000
3108,62.500000
3109,62.500000
3110,62.500000
3111,66.406250
3112,66.406250
3113,66.406250
3114,66.406250
3115,70.312500
3116,70.312500
3117,70.312500
3118,70.312500
3119,74.218750
3120,74.218750
3121,74.218750
3122,74.218750
3123,74.218750
3124,74.218750
3125,78.125000
3126,78.125000
3127,78.125000
3128,78.125000
3129,82.031250
3130,82.031250
3131,82.031250
3132,82.031250
3133,82.031250
3134,82.031250
3135,85.937500
3136,85.937500
3137,85.937500
3138,85.937500
3139,85.937500
3140,85.937500
3141,89.843750
3142,89.843750
3143,89.843750
3144,89.843750
3145,89.843750
3146,93.750000
3147,93.750000
3148,93.750000
3149,93.750000
3150,93.750000
3151,93.750000
3152,97.656250
3153,97.656250
3154,97.656250
3155,97.656250
3156,97.656250
3157,97.656250
3158,101.562500
3159,101.562500
3160,101.562500
3161,101.562500
3162,101.562500
3163,101.562500
3164,101.562500
3165,105.468750
3166,105.468750
3167,105.468750
3168,105.468750
3169,105.468750
3170,109.375000
3171,109.375000
3172,109.375000
3173,109.375000
3174,109.375000
3175,109.375000
3176,109.375000
3177,109.375000
3178,109.375000
3179,113.281250
3180,113.281250
3181,113.281250
3182,113.281250
3183,113.281250
3184,113.281250
3185,113.281250
3186,117.187500
3187,117.187500
3188,117.187500
3189,117.187500
3190,117.187500
3191,117.187500
3192,117.187500
3193,117.187500
3194,121.093750
3195,121.093750
3196,121.093750
3197,121.093750
3198,121.093750
3199,121.093750
3200,121.093750
3201,125.000000
3202,125.000000
3203,125.000000
3204,125.000000
3205,125.000000
3206,125.000000
3207,125.000000
3208,125.000000
3209,125.000000
3210,125.000000
3211,125.000000
3212,125.000000
3213,128.906250
3214,128.906250
3215,128.906250
3216,128.906250
3217,128.906250
3218,128.906250
3219,128.906250
3220,128.906250
3221,128.906250
3222,128.906250
3223,132.812500
3224,132.812500
3225,132.812500
3226,132.812500
3227,132.812500
3228,132.812500
3229,132.812500
3230,132.812500
3231,132.812500
3232,132.812500
3233,132.812500
3234,132.812500
3235,132.812500
3236,132.812500
3237,136.718750
3238,136.718750
3239,136.718750
3240,136.718750
3241,136.718750
3242,136.718750
3243,136.718750
3244,136.718750
3245,136.718750
3246,136.718750
3247,136.718750
3248,136.718750
3249,136.718750
3250,136.718750
3251,136.718750
3252,140.625000
3253,136.718750
3254,140.625000
3255,140.625000
3256,136.718750
3257,136.718750
3258,136.718750
3259,140.625000
3260,140.625000
3261,140.625000
3262,140.625000
3263,140.625000
3264,140.625000
3265,140.625000
3266,140.625000
3267,140.625000
3268,140.625000
3269,140.625000
3270,140.625000
3271,140.625000
3272,140.625000
3273,140.625000
3274,140.625000
3275,140.625000
3276,140.625000
3277,140.625000
3278,140.625000
3279,140.625000
3280,140.625000
3281,140.625000
3282,140.625000
3283,140.625000
3284,140.625000
3285,140.625000
3286,140.625000
3287,140.625000
3288,140.625000
3289,140.625000
3290,140.625000
3291,140.625000
3292,140.625000
3293,140.625000
3294,140.625000
3295,140.625000
3296,140.625000
3297,140.625000
3298,140.625000
3299,140.625000
3300,140.625000
3301,140.625000
3302,140.625000
3303,140.625000
3304,140.625000
3305,140.625000
3306,140.625000
3307,140.625000
3308,140.625000
3309,140.625000
3310,140.625000
3311,140.625000
3312,136.718750
3313,136.718750
3314,140.625000
3315,136.718750
3316,136.718750
3317,136.718750
3318,140.625000
3319,136.718750
3320,136.718750
3321,136.718750
3322,136.718750
3323,136.718750
3324,136.718750
3325,136.718750
3326,136.718750
3327,136.718750
3328,136.718750
3329,136.718750
3330,136.718750
3331,136.718750
3332,136.718750
3333,136.718750
3334,132.812500
3335,132.812500
3336,132.812500
3337,132.812500
3338,132.812500
3339,132.812500
3340,132.812500
3341,132.812500
3342,132.812500
3343,132.812500
3344,132.812500
3345,132.812500
3346,132.812500
3347,132.812500
3348,132.812500
3349,132.812500
3350,128.906250
3351,132.812500
3352,128.906250
3353,128.906250
3354,128.906250
3355,128.906250
3356,128.906250
3357,128.906250
3358,128.906250
3359,128.906250
3360,125.000000
3361,128.906250
3362,125.000000
3363,125.000000
3364,125.000000
3365,125.000000
3366,125.000000
3367,125.000000
3368,125.000000
3369,125.000000
3370,121.093750
3371,125.000000
3372,121.093750
3373,121.093750
3374,121.093750
3375,121.093750
3376,121.093750
3377,121.093750
3378,121.093750
3379,121.093750
3380,117.187500
3381,117.187500
3382,117.187500
3383,117.187500
3384,117.187500
3385,117.187500
3386,113.281250
3387,117.187500
3388,113.281250
3389,113.281250
3390,113.281250
3391,113.281250
3392,113.281250
3393,113.281250
3394,109.375000
3395,109.375000
3396,109.375000
3397,109.375000
3398,109.375000
3399,109.375000
3400,109.375000
3401,109.375000
3402,105.468750
3403,105.468750
3404,105.468750
3405,105.468750
3406,105.468750
3407,105.468750
3408,101.562500
3409,101.562500
3410,101.562500
3411,101.562500
3412,101.562500
3413,101.562500
3414,97.656250
3415,97.656250
3416,97.656250
3417,97.656250
3418,97.656250
3419,97.656250
3420,93.750000
3421,93.750000
3422,93.750000
3423,93.750000
3424,93.750000
3425,89.843750
3426,89.843750
3427,89.843750
3428,89.843750
3429,89.843750
3430,85.937500
3431,85.937500
3432,85.937500
3433,85.937500
3434,85.937500
3435,82.031250
3436,82.031250
3437,82.031250
3438,82.031250
3439,82.031250
3440,82.031250
3441,78.125000
3442,78.125000
3443,78.125000
3444,78.125000
3445,78.125000
3446,74.218750
3447,74.218750
3448,74.218750
3449,74.218750
3450,70.312500
3451,70.312500
3452,70.312500
3453,70.312500
3454,70.312500
3455,70.312500
3456,66.406250
3457,66.406250
3458,66.406250
3459,66.406250
3460,62.500000
3461,62.500000
3462,62.500000
3463,62.500000
3464,58.593750
3465,58.593750
3466,58.593750
3467,58.593750
3468,54.687500
3469,54.687500
3470,54.687500
3471,54.687500
3472,50.781250
3473,50.781250
3474,50.781250
3475,50.781250
3476,50.781250
3477,46.875000
3478,46.875000
3479,46.875000
3480,46.875000
3481,42.968750
3482,39.062500
3483,42.968750
3484,42.968750
3485,39.062500
3486,39.062500
3487,39.062500
3488,39.062500
3489,39.062500
3490,35.156250
3491,35.156250
3492,35.156250
3493,31.250000
3494,31.250000
3495,31.250000
3496,31.250000
3497,27.343750
3498,27.343750
3499,27.343750
3500,27.343750
3501,23.437500
3502,23.437500
3503,23.437500
3504,19.531250
3505,19.531250
3506,19.531250
3507,19.531250
3508,19.531250
3509,15.625000
3510,15.625000
3511,15.625000
3512,11.718750
3513,11.718750
3514,11.718750
3515,11.718750
3516,7.812500
3517,7.812500
3518,7.812500
3519,7.812500
3520,3.906250
3521,3.906250
3522,3.906250
3523,3.906250
3524,0.000000
3525,0.000000
3526,0.000000
3527,-3.906250
3528,-3.906250
3529,-3.906250
3530,-3.906250
3531,-7.812500
3532,-7.812500
3533,-7.812500
3534,-7.812500
3535,-11.718750
3536,-11.718750
3537,-15.625000
3538,-15.625000
3539,-15.625000
3540,-15.625000
3541,-19.531250
3542,-19.531250
3543,-19.531250
3544,-19.531250
3545,-23.437500
3546,-23.437500
3547,-23.437500
3548,-27.343750
3549,-27.343750
3550,-27.343750
3551,-27.343750
3552,-31.250000
3553,-31.250000
3554,-31.250000
3555,-35.156250
3556,-35.156250
3557,-35.156250
3558,-39.062500
3559,-39.062500
3560,-39.062500
3561,-39.062500
3562,-39.062500
3563,-42.968750
3564,-42.968750
3565,-42.968750
3566,-46.875000
3567,-46.875000
3568,-46.875000
3569,-50.781250
3570,-50.781250
3571,-50.781250
3572,-50.781250
3573,-54.687500
3574,-54.687500
3575,-54.687500
3576,-54.687500
3577,-58.593750
3578,-58.593750
3579,-58.593750
3580,-62.500000
3581,-62.500000
3582,-62.500000
3583,-66.406250
3584,-66.406250
3585,-66.406250
3586,-66.406250
3587,-70.312500
3588,-70.312500
3589,-70.312500
3590,-70.312500
3591,-74.218750
3592,-74.218750
3593,-74.218750
3594,-78.125000
3595,-78.125000
3596,-78.125000
3597,-78.125000
3598,-82.031250
3599,-82.031250
3600,-82.031250
3601,-82.031250
3602,-85.937500
3603,-85.937500
3604,-85.937500
3605,-85.937500
3606,-89.843750
3607,-89.843750
3608,-89.843750
3609,-89.843750
3610,-93.750000
3611,-93.750000
3612,-93.750000
3613,-93.750000
3614,-97.656250
3615,-97.656250
3616,-97.656250
3617,-97.656250
3618,-101.562500
3619,-101.562500
3620,-105.468750
3621,-105.468750
3622,-105.468750
3623,-105.468750
3624,-105.468750
3625,-105.468750
3626,-109.375000
3627,-109.375000
3628,-109.375000
3629,-109.375000
3630,-113.281250
3631,-113.281250
3632,-113.281250
3633,-117.187500
3634,-117.187500
3635,-117.187500
3636,-117.187500
3637,-121.093750
3638,-121.093750
3639,-121.093750
3640,-121.093750
3641,-125.000000
3642,-125.000000
3643,-125.000000
3644,-125.000000
3645,-125.000000
3646,-128.906250
3647,-128.906250
3648,-128.906250
3649,-128.906250
3650,-132.812500
3651,-132.812500
3652,-132.812500
3653,-132.812500
3654,-132.812500
3655,-136.718750
3656,-136.718750
3657,-136.718750
3658,-140.625000
3659,-140.625000
3660,-140.625000
3661,-140.625000
3662,-140.625000
3663,-140.625000
3664,-140.625000
3665,-144.531250
3666,-144.531250
3667,-144.531250
3668,-148.437500
3669,-148.437500
3670,-148.437500
3671,-148.437500
3672,-148.437500
3673,-152.343750
3674,-152.343750
3675,-152.343750
3676,-152.343750
3677,-152.343750
3678,-152.343750
3679,-156.250000
3680,-156.250000
3681,-156.250000
3682,-156.250000
3683,-156.250000
3684,-160.156250
3685,-160.156250
3686,-160.156250
3687,-160.156250
3688,-160.156250
3689,-160.156250
3690,-164.062500
3691,-164.062500
3692,-164.062500
3693,-164.062500
3694,-164.062500
3695,-164.062500
3696,-164.062500
3697,-167.968750
3698,-167.968750
3699,-167.968750
3700,-167.968750
3701,-167.968750
3702,-171.875000
3703,-171.875000
3704,-171.875000
3705,-171.875000
3706,-171.875000
3707,-171.875000
3708,-171.875000
3709,-171.875000
3710,-171.875000
3711,-175.781250
3712,-175.781250
3713,-175.781250
3714,-175.781250
3715,-175.781250
3716,-175.781250
3717,-175.781250
3718,-175.781250
3719,-179.687500
3720,-179.687500
3721,-179.687500
3722,-179.687500
3723,-179.687500
3724,-179.687500
3725,-179.687500
3726,-179.687500
3727,-179.687500
3728,-179.687500
3729,-183.593750
3730,-183.593750
3731,-183.593750
3732,-183.593750
3733,-183.593750
3734,-183.593750
3735,-183.593750
3736,-183.593750
3737,-187.500000
3738,-187.500000
3739,-187.500000
3740,-187.500000
3741,-187.500000
3742,-187.500000
3743,-187.500000
3744,-187.500000
3745,-187.500000
3746,-187.500000
3747,-187.500000
3748,-187.500000
3749,-187.500000
3750,-187.500000
3751,-187.500000
3752,-187.500000
3753,-187.500000
3754,-191.406250
3755,-191.406250
3756,-191.406250
3757,-191.406250
3758,-191.406250
3759,-191.406250
3760,-191.406250
3761,-191.406250
3762,-191.406250
3763,-191.406250
3764,-191.406250
3765,-191.406250
3766,-191.406250
3767,-191.406250
3768,-191.406250
3769,-191.406250
3770,-191.406250
3771,-191.406250
3772,-191.406250
3773,-191.406250
3774,-191.406250
3775,-191.406250
3776,-191.406250
3777,-191.406250
3778,-191.406250
3779,-191.406250
3780,-191.406250
3781,-191.406250
3782,-191.406250
3783,-191.406250
3784,-191.406250
3785,-191.406250
3786,-191.406250
3787,-191.406250
3788,-191.406250
3789,-191.406250
3790,-191.406250
3791,-191.406250
3792,-191.406250
3793,-191.406250
3794,-191.406250
3795,-191.406250
3796,-191.406250
3797,-191.406250
3798,-191.406250
3799,-191.406250
3800,-191.406250
3801,-191.406250
3802,-191.406250
3803,-191.406250
3804,-187.500000
3805,-187.500000
3806,-187.500000
3807,-191.406250
3808,-191.406250
3809,-187.500000
3810,-187.500000
3811,-187.500000
3812,-187.500000
3813,-187.500000
3814,-187.500000
3815,-187.500000
3816,-187.500000
3817,-187.500000
3818,-187.500000
3819,-187.500000
3820,-187.500000
3821,-183.593750
3822,-187.500000
3823,-183.593750
3824,-183.593750
3825,-183.593750
3826,-183.593750
3827,-183.593750
3828,-183.593750
3829,-183.593750
3830,-183.593750
3831,-179.687500
3832,-183.593750
3833,-179.687500
3834,-179.687500
3835,-179.687500
3836,-179.687500
3837,-179.687500
3838,-179.687500
3839,-179.687500
3840,-179.687500
3841,-175.781250
3842,-175.781250
3843,-175.781250
3844,-175.781250
3845,-175.781250
3846,-175.781250
3847,-175.781250
3848,-175.781250
3849,-171.875000
3850,-171.875000
3851,-171.875000
3852,-171.875000
3853,-171.875000
3854,-171.875000
3855,-171.875000
3856,-171.875000
3857,-167.968750
3858,-167.968750
3859,-167.968750
3860,-167.968750
3861,-167.968750
3862,-164.062500
3863,-164.062500
3864,-164.062500
3865,-164.062500
3866,-164.062500
3867,-164.062500
3868,-164.062500
3869,-160.156250
3870,-160.156250
3871,-160.156250
3872,-160.156250
3873,-160.156250
3874,-160.156250
3875,-156.250000
3876,-156.250000
3877,-156.250000
3878,-156.250000
3879,-156.250000
3880,-152.343750
3881,-152.343750
3882,-152.343750
3883,-152.343750
3884,-152.343750
3885,-148.437500
3886,-148.437500
3887,-148.437500
3888,-148.437500
3889,-148.437500
3890,-144.531250
3891,-144.531250
3892,-144.531250
3893,-144.531250
3894,-144.531250
3895,-144.531250
3896,-140.625000
3897,-140.625000
3898,-140.625000
3899,-140.625000
3900,-136.718750
3901,-136.718750
3902,-136.718750
3903,-136.718750
3904,-132.812500
3905,-132.812500
3906,-132.812500
3907,-132.812500
3908,-132.812500
3909,-132.812500
3910,-128.906250
3911,-128.906250
3912,-128.906250
3913,-128.906250
3914,-125.000000
3915,-125.000000
3916,-125.000000
3917,-121.093750
3918,-121.093750
3919,-121.093750
3920,-121.093750
3921,-121.093750
3922,-117.187500
3923,-117.187500
3924,-117.187500
3925,-117.187500
3926,-117.187500
3927,-113.281250
3928,-113.281250
3929,-113.281250
3930,-109.375000
3931,-109.375000
3932,-109.375000
3933,-109.375000
3934,-105.468750
3935,-105.468750
3936,-105.468750
3937,-105.468750
3938,-101.562500
3939,-101.562500
3940,-101.562500
3941,-101.562500
3942,-101.562500
3943,-97.656250
3944,-97.656250
3945,-97.656250
3946,-97.656250
3947,-93.750000
3948,-93.750000
3949,-93.750000
3950,-89.843750
3951,-89.843750
3952,-89.843750
3953,-89.843750
3954,-85.937500
3955,-85.937500
3956,-85.937500
3957,-85.937500
3958,-82.031250
3959,-82.031250
3960,-82.031250
3961,-78.125000
3962,-78.125000
3963,-78.125000
3964,-78.125000
3965,-74.218750
3966,-74.218750
3967,-74.218750
3968,-70.312500
3969,-70.312500
3970,-70.312500
3971,-70.312500
3972,-70.312500
3973,-66.406250
3974,-66.406250
3975,-66.406250
3976,-62.500000
3977,-62.500000
3978,-62.500000
3979,-58.593750
3980,-58.593750
3981,-58.593750
3982,-58.593750
3983,-54.687500
3984,-54.687500
3985,-54.687500
3986,-54.687500
3987,-50.781250
3988,-50.781250
3989,-50.781250
3990,-46.875000
3991,-46.875000
3992,-46.875000
3993,-42.968750
3994,-42.968750
3995,-42.968750
3996,-42.968750
3997,-39.062500
3998,-39.062500
3999,-39.062500
4000,-35.156250
4001,-35.156250
4002,-35.156250
4003,-35.156250
4004,-31.250000
4005,-31.250000
4006,-31.250000
4007,-31.250000
4008,-27.343750
4009,-27.343750
4010,-27.343750
4011,-23.437500
4012,-23.437500
4013,-23.437500
4014,-19.531250
4015,-19.531250
4016,-19.531250
4017,-19.531250
4018,-19.531250
4019,-15.625000
4020,-15.625000
4021,-15.625000
4022,-11.718750
4023,-11.718750
4024,-11.718750
4025,-7.812500
4026,-7.812500
4027,-7.812500
4028,-7.812500
4029,-3.906250
4030,-3.906250
4031,-3.906250
4032,-3.906250
4033,0.000000
4034,0.000000
4035,0.000000
4036,0.000000
4037,3.906250
4038,3.906250
4039,3.906250
4040,3.906250
4041,7.812500
4042,7.812500
4043,7.812500
4044,7.812500
4045,11.718750
4046,11.718750
4047,11.718750
4048,15.625000
4049,15.625000
4050,15.625000
4051,19.531250
4052,19.531250
4053,19.531250
4054,19.531250
4055,23.437500
4056,23.437500
4057,23.437500
4058,23.437500
4059,27.343750
4060,27.343750
4061,27.343750
4062,27.343750
4063,31.250000
4064,31.250000
4065,31.250000
4066,31.250000
4067,35.156250
4068,35.156250
4069,35.156250
4070,35.156250
4071,39.062500
4072,39.062500
4073,39.062500
4074,42.968750
4075,42.968750
4076,42.968750
4077,42.968750
4078,42.968750
4079,46.875000
4080,46.875000
4081,46.875000
4082,46.875000
4083,50.781250
4084,50.781250
4085,50.781250
4086,50.781250
4087,50.781250
4088,54.687500
4089,54.687500
4090,54.687500
4091,54.687500
4092,58.593750
4093,58.593750
4094,58.593750
4095,58.593750
4096,62.500000
4097,62.500000
4098,62.500000
4099,62.500000
4100,66.406250
4101,66.406250
4102,66.406250
4103,66.406250
4104,66.406250
4105,66.406250
4106,70.312500
4107,70.312500
4108,70.312500
4109,74.218750
4110,74.218750
4111,74.218750
4112,74.218750
4113,74.218750
4114,74.218750
4115,78.125000
4116,78.125000
4117,78.125000
4118,78.125000
4119,78.125000
4120,82.031250
4121,82.031250
4122,82.031250
4123,82.031250
4124,85.937500
4125,85.937500
4126,85.937500
4127,85.937500
4128,85.937500
4129,85.937500
4130,89.843750
4131,89.843750
4132,89.843750
4133,89.843750
4134,89.843750
4135,89.843750
4136,93.750000
4137,93.750000
4138,93.750000
4139,93.750000
4140,93.750000
4141,97.656250
4142,97.656250
4143,97.656250
4144,97.656250
4145,97.656250
4146,97.656250
4147,101.562500
4148,101.562500
4149,101.562500
4150,101.562500
4151,101.562500
4152,101.562500
4153,105.468750
4154,105.468750
4155,105.468750
4156,105.468750
4157,105.468750
4158,105.468750
4159,105.468750
4160,105.468750
4161,105.468750
4162,109.375000
4163,109.375000
4164,109.375000
4165,113.281250
4166,113.281250
4167,113.281250
4168,113.281250
4169,113.281250
4170,113.281250
4171,113.281250
4172,113.281250
4173,117.187500
4174,113.281250
4175,117.187500
4176,117.187500
4177,117.187500
4178,117.187500
4179,117.187500
4180,117.187500
4181,121.093750
4182,121.093750
4183,121.093750
4184,121.093750
4185,121.093750
4186,121.093750
4187,121.093750
4188,121.093750
4189,121.093750
4190,121.093750
4191,125.000000
4192,125.000000
4193,125.000000
4194,125.000000
4195,125.000000
4196,125.000000
4197,125.000000
4198,125.000000
4199,125.000000
4200,125.000000
4201,128.906250
4202,128.906250
4203,128.906250
4204,128.906250
4205,128.906250
4206,132.812500
4207,128.906250
4208,128.906250
4209,128.906250
4210,128.906250
4211,128.906250
4212,128.906250
4213,132.812500
4214,128.906250
4215,132.812500
4216,132.812500
4217,132.812500
4218,132.812500
4219,132.812500
4220,132.812500
4221,132.812500
4222,132.812500
4223,136.718750
4224,132.812500
4225,132.812500
4226,132.812500
4227,132.812500
4228,136.718750
4229,136.718750
4230,132.812500
4231,136.718750
4232,136.718750
4233,136.718750
4234,136.718750
4235,136.718750
4236,136.718750
4237,136.718750
4238,136.718750
4239,136.718750
4240,136.718750
4241,136.718750
4242,136.718750
4243,136.718750
4244,136.718750
4245,140.625000
4246,140.625000
4247,140.625000
4248,140.625000
4249,140.625000
4250,140.625000
4251,140.625000
4252,140.625000
4253,140.625000
4254,140.625000
4255,140.625000
4256,140.625000
4257,140.625000
4258,140.625000
4259,140.625000
4260,140.625000
4261,140.625000
4262,140.625000
4263,140.625000
4264,140.625000
4265,140.625000
4266,140.625000
4267,140.625000
4268,144.531250
4269,140.625000
4270,140.625000
4271,140.625000
4272,140.625000
4273,140.625000
4274,140.625000
4275,140.625000
4276,140.625000
4277,140.625000
4278,144.531250
4279,140.625000
4280,140.625000
4281,140.625000
4282,140.625000
4283,140.625000
4284,140.625000
4285,140.625000
4286,140.625000
4287,140.625000
4288,140.625000
4289,140.625000
4290,140.625000
4291,140.625000
4292,140.625000
4293,140.625000
4294,140.625000
4295,140.625000
4296,140.625000
4297,140.625000
4298,140.625000
4299,140.625000
4300,136.718750
4301,140.625000
4302,136.718750
4303,136.718750
4304,136.718750
4305,140.625000
4306,136.718750
4307,140.625000
4308,136.718750
4309,136.718750
4310,136.718750
4311,136.718750
4312,136.718750
4313,136.718750
4314,136.718750
4315,136.718750
4316,136.718750
4317,136.718750
4318,136.718750
4319,136.718750
4320,136.718750
4321,136.718750
4322,136.718750
4323,136.718750
4324,132.812500
4325,136.718750
4326,132.812500
4327,132.812500
4328,132.812500
4329,132.812500
4330,132.812500
4331,132.812500
4332,132.812500
4333,132.812500
4334,132.812500
4335,132.812500
4336,128.906250
4337,132.812500
4338,128.906250
4339,132.812500
4340,128.906250
4341,132.812500
4342,128.906250
4343,128.906250
4344,128.906250
4345,128.906250
4346,128.906250
4347,128.906250
4348,128.906250
4349,128.906250
4350,125.000000
4351,128.906250
4352,125.000000
4353,125.000000
4354,125.000000
4355,125.000000
4356,125.000000
4357,121.093750
4358,121.093750
4359,121.093750
4360,125.000000
4361,121.093750
4362,121.093750
4363,121.093750
4364,121.093750
4365,121.093750
4366,121.093750
4367,121.093750
4368,117.187500
4369,117.187500
4370,117.187500
4371,117.187500
4372,117.187500
4373,117.187500
4374,117.187500
4375,113.281250
4376,113.281250
4377,113.281250
4378,113.281250
4379,113.281250
4380,113.281250
4381,113.281250
4382,113.281250
4383,113.281250
4384,109.375000
4385,109.375000
4386,109.375000
4387,109.375000
4388,109.375000
4389,109.375000
4390,105.468750
4391,109.375000
4392,105.468750
4393,105.468750
4394,105.468750
4395,105.468750
4396,101.562500
4397,105.468750
4398,101.562500
4399,101.562500
4400,101.562500
4401,101.562500
4402,101.562500
4403,101.562500
4404,97.656250
4405,97.656250
4406,97.656250
4407,97.656250
4408,97.656250
4409,97.656250
4410,93.750000
4411,93.750000
4412,93.750000
4413,93.750000
4414,93.750000
4415,89.843750
4416,89.843750
4417,89.843750
4418,89.843750
4419,89.843750
4420,85.937500
4421,85.937500
4422,85.937500
4423,85.937500
4424,85.937500
4425,82.031250
4426,82.031250
4427,82.031250
4428,82.031250
4429,82.031250
4430,78.125000
4431,78.125000
4432,78.125000
4433,78.125000
4434,78.125000
4435,78.125000
4436,74.218750
4437,74.218750
4438,74.218750
4439,74.218750
4440,70.312500
4441,70.312500
4442,70.312500
4443,70.312500
4444,66.406250
4445,66.406250
4446,66.406250
4447,66.406250
4448,62.500000
4449,62.500000
4450,62.500000
4451,62.500000
4452,62.500000
4453,62.500000
4454,58.593750
4455,58.593750
4456,58.593750
4457,58.593750
4458,54.687500
4459,54.687500
4460,54.687500
4461,54.687500
4462,50.781250
4463,50.781250
4464,50.781250
4465,46.875000
4466,50.781250
4467,46.875000
4468,46.875000
4469,46.875000
4470,46.875000
4471,42.968750
4472,42.968750
4473,42.968750
4474,39.062500
4475,39.062500
4476,39.062500
4477,39.062500
4478,39.062500
4479,35.156250
4480,35.156250
4481,35.156250
4482,31.250000
4483,31.250000
4484,31.250000
4485,31.250000
4486,27.343750
4487,27.343750
4488,27.343750
4489,27.343750
4490,27.343750
4491,23.437500
4492,23.437500
4493,23.437500
4494,19.531250
4495,19.531250
4496,19.531250
4497,19.531250
4498,15.625000
4499,15.625000
4500,15.625000
4501,15.625000
4502,11.718750
4503,11.718750
4504,11.718750
4505,11.718750
4506,7.812500
4507,7.812500
4508,7.812500
4509,7.812500
4510,3.906250
4511,3.906250
4512,0.000000
4513,0.000000
4514,0.000000
4515,0.000000
4516,0.000000
4517,-3.906250
4518,-3.906250
4519,-3.906250
4520,-3.906250
4521,-7.812500
4522,-7.812500
4523,-7.812500
4524,-11.718750
4525,-11.718750
4526,-11.718750
4527,-11.718750
4528,-15.625000
4529,-15.625000
4530,-15.625000
4531,-19.531250
4532,-19.531250
4533,-19.531250
4534,-19.531250
4535,-23.437500
4536,-23.437500
4537,-23.437500
4538,-27.343750
4539,-27.343750
4540,-27.343750
4541,-27.343750
4542,-27.343750
4543,-31.250000
4544,-31.250000
4545,-31.250000
4546,-35.156250
4547,-35.156250
4548,-39.062500
4549,-39.062500
4550,-39.062500
4551,-39.062500
4552,-39.062500
4553,-42.968750
4554,-42.968750
4555,-42.968750
4556,-46.875000
4557,-46.875000
4558,-46.875000
4559,-50.781250
4560,-50.781250
4561,-50.781250
4562,-50.781250
4563,-54.687500
4564,-54.687500
4565,-54.687500
4566,-54.687500
4567,-58.593750
4568,-58.593750
4569,-58.593750
4570,-62.500000
4571,-62.500000
4572,-62.500000
4573,-62.500000
4574,-66.406250
4575,-66.406250
4576,-66.406250
4577,-66.406250
4578,-70.312500
4579,-70.312500
4580,-70.312500
4581,-74.218750
4582,-74.218750
4583,-74.218750
4584,-78.125000
4585,-78.125000
4586,-78.125000
4587,-78.125000
4588,-82.031250
4589,-82.031250
4590,-82.031250
4591,-82.031250
4592,-85.937500
4593,-85.937500
4594,-85.937500
4595,-89.843750
4596,-89.843750
4597,-89.843750
4598,-89.843750
4599,-93.750000
4600,-93.750000
4601,-93.750000
4602,-97.656250
4603,-97.656250
4604,-97.656250
4605,-97.656250
4606,-97.656250
4607,-101.562500
4608,-101.562500
4609,-101.562500
4610,-101.562500
4611,-105.468750
4612,-105.468750
4613,-105.468750
4614,-109.375000
4615,-109.375000
4616,-109.375000
4617,-109.375000
4618,-109.375000
4619,-113.281250
4620,-113.281250
4621,-113.281250
4622,-113.281250
4623,-117.187500
4624,-117.187500
4625,-117.187500
4626,-121.093750
4627,-121.093750
4628,-121.093750
4629,-121.093750
4630,-121.093750
4631,-121.093750
4632,-125.000000
4633,-125.000000
4634,-125.000000
4635,-125.000000
4636,-128.906250
4637,-128.906250
4638,-128.906250
4639,-132.812500
4640,-132.812500
4641,-132.812500
4642,-132.812500
4643,-132.812500
4644,-136.718750
4645,-136.718750
4646,-136.718750
4647,-136.718750
4648,-140.625000
4649,-140.625000
4650,-140.625000
4651,-140.625000
4652,-140.625000
4653,-140.625000
4654,-144.531250
4655,-144.531250
4656,-144.531250
4657,-144.531250
4658,-144.531250
4659,-148.437500
4660,-148.437500
4661,-148.437500
4662,-148.437500
4663,-152.343750
4664,-152.343750
4665,-152.343750
4666,-152.343750
4667,-152.343750
4668,-152.343750
4669,-156.250000
4670,-156.250000
4671,-156.250000
4672,-156.250000
4673,-156.250000
4674,-156.250000
4675,-160.156250
4676,-160.156250
4677,-160.156250
4678,-160.156250
4679,-160.156250
4680,-160.156250
4681,-164.062500
4682,-164.062500
4683,-164.062500
4684,-164.062500
4685,-164.062500
4686,-167.968750
4687,-167.968750
4688,-167.968750
4689,-167.968750
4690,-167.968750
4691,-167.968750
4692,-167.968750
4693,-171.875000
4694,-171.875000
4695,-171.875000
4696,-171.875000
4697,-171.875000
4698,-171.875000
4699,-171.875000
4700,-171.875000
4701,-175.781250
4702,-175.781250
4703,-175.781250
4704,-175.781250
4705,-175.781250
4706,-175.781250
4707,-175.781250
4708,-179.687500
4709,-179.687500
4710,-179.687500
4711,-179.687500
4712,-179.687500
4713,-179.687500
4714,-179.687500
4715,-179.687500
4716,-179.687500
4717,-183.593750
4718,-183.593750
4719,-183.593750
4720,-183.593750
4721,-183.593750
4722,-183.593750
4723,-183.593750
4724,-183.593750
4725,-183.593750
4726,-183.593750
4727,-183.593750
4728,-187.500000
4729,-187.500000
4730,-187.500000
4731,-187.500000
4732,-187.500000
4733,-187.500000
4734,-187.500000
4735,-187.500000
4736,-187.500000
4737,-187.500000
4738,-187.500000
4739,-187.500000
4740,-187.500000
4741,-187.500000
4742,-191.406250
4743,-191.406250
4744,-191.406250
4745,-191.406250
4746,-191.406250
4747,-191.406250
4748,-191.406250
4749,-191.406250
4750,-191.406250
4751,-191.406250
4752,-191.406250
4753,-191.406250
4754,-191.406250
4755,-191.406250
4756,-191.406250
4757,-191.406250
4758,-191.406250
4759,-191.406250
4760,-191.406250
4761,-191.406250
4762,-191.406250
4763,-191.406250
4764,-191.406250
4765,-191.406250
4766,-191.406250
4767,-191.406250
4768,-191.406250
4769,-191.406250
4770,-191.406250
4771,-191.406250
4772,-195.312500
4773,-191.406250
4774,-191.406250
4775,-191.406250
4776,-191.406250
4777,-191.406250
4778,-191.406250
4779,-191.406250
4780,-191.406250
4781,-191.406250
4782,-191.406250
4783,-191.406250
4784,-191.406250
4785,-191.406250
4786,-191.406250
4787,-191.406250
4788,-191.406250
4789,-191.406250
4790,-191.406250
4791,-191.406250
4792,-191.406250
4793,-191.406250
4794,-191.406250
4795,-191.406250
4796,-187.500000
4797,-187.500000
4798,-187.500000
4799,-187.500000
4800,-187.500000
4801,-187.500000
4802,-187.500000
4803,-187.500000
4804,-187.500000
4805,-187.500000
4806,-187.500000
4807,-187.500000
4808,-187.500000
4809,-187.500000
4810,-187.500000
4811,-183.593750
4812,-183.593750
4813,-183.593750
4814,-183.593750
4815,-183.593750
4816,-183.593750
4817,-183.593750
4818,-183.593750
4819,-183.593750
4820,-183.593750
4821,-183.593750
4822,-179.687500
4823,-179.687500
4824,-183.593750
4825,-179.687500
4826,-179.687500
4827,-179.687500
4828,-179.687500
4829,-179.687500
4830,-175.781250
4831,-175.781250
4832,-179.687500
4833,-175.781250
4834,-175.781250
4835,-175.781250
4836,-175.781250
4837,-175.781250
4838,-175.781250
4839,-171.875000
4840,-171.875000
4841,-171.875000
4842,-171.875000
4843,-171.875000
4844,-171.875000
4845,-171.875000
4846,-167.968750
4847,-167.968750
4848,-167.968750
4849,-167.968750
4850,-167.968750
4851,-167.968750
4852,-167.968750
4853,-164.062500
4854,-164.062500
4855,-164.062500
4856,-164.062500
4857,-164.062500
4858,-164.062500
4859,-164.062500
4860,-160.156250
4861,-160.156250
4862,-160.156250
4863,-160.156250
4864,-160.156250
4865,-156.250000
4866,-156.250000
4867,-156.250000
4868,-156.250000
4869,-156.250000
4870,-152.343750
4871,-152.343750
4872,-152.343750
4873,-152.343750
4874,-152.343750
4875,-152.343750
4876,-148.437500
4877,-148.437500
4878,-148.437500
4879,-148.437500
4880,-148.437500
4881,-144.531250
4882,-144.531250
4883,-144.531250
4884,-144.531250
4885,-144.531250
4886,-140.625000
4887,-140.625000
4888,-140.625000
4889,-140.625000
4890,-140.625000
4891,-136.718750
4892,-136.718750
4893,-136.718750
4894,-136.718750
4895,-132.812500
4896,-132.812500
4897,-132.812500
4898,-132.812500
4899,-128.906250
4900,-128.906250
4901,-128.906250
4902,-128.906250
4903,-125.000000
4904,-125.000000
4905,-125.000000
4906,-125.000000
4907,-125.000000
4908,-125.000000
4909,-121.093750
4910,-121.093750
4911,-117.187500
4912,-121.093750
4913,-117.187500
4914,-117.187500
4915,-113.281250
4916,-113.281250
4917,-113.281250
4918,-113.281250
4919,-109.375000
4920,-109.375000
4921,-109.375000
4922,-109.375000
4923,-109.375000
4924,-105.468750
4925,-105.468750
4926,-105.468750
4927,-105.468750
4928,-101.562500
4929,-101.562500
4930,-101.562500
4931,-97.656250
4932,-97.656250
4933,-97.656250
4934,-97.656250
4935,-97.656250
4936,-93.750000
4937,-93.750000
4938,-93.750000
4939,-89.843750
4940,-89.843750
4941,-89.843750
4942,-85.937500
4943,-85.937500
4944,-85.937500
4945,-85.937500
4946,-85.937500
4947,-82.031250
4948,-82.031250
4949,-82.031250
4950,-82.031250
4951,-78.125000
4952,-78.125000
4953,-78.125000
4954,-74.218750
4955,-74.218750
4956,-74.218750
4957,-74.218750
4958,-74.218750
4959,-70.312500
4960,-70.312500
4961,-66.406250
4962,-66.406250
4963,-66.406250
4964,-66.406250
4965,-62.500000
4966,-62.500000
4967,-62.500000
4968,-62.500000
4969,-58.593750
4970,-58.593750
4971,-58.593750
4972,-58.593750
4973,-54.687500
4974,-54.687500
4975,-54.687500
4976,-50.781250
4977,-50.781250
4978,-50.781250
4979,-46.875000
4980,-46.875000
4981,-46.875000
4982,-46.875000
4983,-42.968750
4984,-42.968750
4985,-42.968750
4986,-42.968750
4987,-39.062500
4988,-39.062500
4989,-39.062500
4990,-39.062500
4991,-35.156250
4992,-35.156250
4993,-31.250000
4994,-31.250000
4995,-31.250000
4996,-31.250000
4997,-27.343750
4998,-27.343750
4999,-27.343750
5000,-27.343750
5001,-23.437500
5002,-23.437500
5003,-23.437500
5004,-19.531250
5005,-19.531250
5006,-19.531250
5007,-19.531250
5008,-15.625000
5009,-15.625000
5010,-15.625000
5011,-11.718750
5012,-11.718750
5013,-11.718750
5014,-11.718750
5015,-7.812500
5016,-7.812500
5017,-7.812500
5018,-3.906250
5019,-3.906250
5020,-3.906250
5021,-3.906250
5022,0.000000
5023,0.000000
5024,0.000000
5025,0.000000
5026,3.906250
5027,3.906250
5028,3.906250
5029,7.812500
5030,7.812500
5031,7.812500
5032,7.812500
5033,11.718750
5034,11.718750
5035,11.718750
5036,11.718750
5037,15.625000
5038,15.625000
5039,15.625000
5040,15.625000
5041,19.531250
5042,19.531250
5043,19.531250
5044,23.437500
5045,23.437500
5046,23.437500
5047,23.437500
5048,23.437500
5049,27.343750
5050,27.343750
5051,27.343750
5052,31.250000
5053,31.250000
5054,31.250000
5055,31.250000
5056,35.156250
5057,35.156250
5058,35.156250
5059,35.156250
5060,39.062500
5061,39.062500
5062,39.062500
5063,39.062500
5064,42.968750
5065,42.968750
5066,42.968750
5067,42.968750
5068,42.968750
5069,46.875000
5070,46.875000
5071,46.875000
5072,46.875000
5073,50.781250
5074,50.781250
5075,50.781250
5076,50.781250
5077,54.687500
5078,54.687500
5079,54.687500
5080,54.687500
5081,58.593750
5082,58.593750
5083,58.593750
5084,58.593750
5085,58.593750
5086,58.593750
5087,62.500000
5088,62.500000
5089,66.406250
5090,66.406250
5091,66.406250
5092,66.406250
5093,66.406250
5094,66.406250
5095,70.312500
5096,70.312500
5097,70.312500
5098,70.312500
5099,74.218750
5100,74.218750
5101,74.218750
5102,74.218750
5103,74.218750
5104,74.218750
5105,78.125000
5106,78.125000
5107,78.125000
5108,78.125000
5109,82.031250
5110,82.031250
5111,82.031250
5112,82.031250
5113,82.031250
5114,82.031250
5115,85.937500
5116,85.937500
5117,85.937500
5118,85.937500
5119,85.937500
5120,85.937500
5121,89.843750
5122,89.843750
5123,89.843750
5124,89.843750
5125,89.843750
5126,93.750000
5127,93.750000
5128,93.750000
5129,93.750000
5130,93.750000
5131,97.656250
5132,97.656250
5133,97.656250
5134,97.656250
5135,97.656250
5136,101.562500
5137,101.562500
5138,101.562500
5139,101.562500
5140,101.562500
5141,101.562500
5142,105.468750
5143,105.468750
5144,105.468750
5145,105.468750
5146,105.468750
5147,105.468750
5148,105.468750
5149,105.468750
5150,109.375000
5151,109.375000
5152,109.375000
5153,109.375000
5154,109.375000
5155,113.281250
5156,113.281250
5157,109.375000
5158,113.281250
5159,113.281250
5160,113.281250
5161,113.281250
5162,113.281250
5163,117.187500
5164,117.187500
5165,117.187500
5166,117.187500
5167,117.187500
5168,117.187500
5169,117.187500
5170,117.187500
5171,117.187500
5172,121.093750
5173,121.093750
5174,121.093750
5175,121.093750
5176,121.093750
5177,121.093750
5178,121.093750
5179,121.093750
5180,125.000000
5181,125.000000
5182,125.000000
5183,125.000000
5184,125.000000
5185,125.000000
5186,125.000000
5187,125.000000
5188,125.000000
5189,125.000000
5190,128.906250
5191,128.906250
5192,128.906250
5193,128.906250
5194,128.906250
5195,128.906250
5196,128.906250
5197,128.906250
5198,128.906250
5199,132.812500
5200,132.812500
5201,132.812500
5202,132.812500
5203,132.812500
5204,132.812500
5205,132.812500
5206,132.812500
5207,132.812500
5208,132.812500
5209,132.812500
5210,132.812500
5211,132.812500
5212,132.812500
5213,136.718750
5214,132.812500
5215,132.812500
5216,132.812500
5217,136.718750
5218,136.718750
5219,136.718750
5220,136.718750
5221,136.718750
5222,136.718750
5223,136.718750
5224,136.718750
5225,136.718750
5226,136.718750
5227,136.718750
5228,136.718750
5229,136.718750
5230,136.718750
5231,136.718750
5232,136.718750
5233,136.718750
5234,136.718750
5235,136.718750
5236,136.718750
5237,136.718750
5238,140.625000
5239,140.625000
5240,140.625000
5241,140.625000
5242,140.625000
5243,136.718750
5244,140.625000
5245,140.625000
5246,140.625000
5247,140.625000
5248,140.625000
5249,140.625000
5250,140.625000
5251,140.625000
5252,140.625000
5253,140.625000
5254,140.625000
5255,140.625000
5256,140.625000
5257,140.625000
5258,140.625000
5259,140.625000
5260,140.625000
5261,140.625000
5262,140.625000
5263,140.625000
5264,140.625000
5265,140.625000
5266,140.625000
5267,140.625000
5268,140.625000
5269,140.625000
5270,140.625000
5271,140.625000
5272,140.625000
5273,140.625000
5274,140.625000
5275,140.625000
5276,140.625000
5277,140.625000
5278,140.625000
5279,140.625000
5280,140.625000
5281,140.625000
5282,140.625000
5283,140.625000
5284,140.625000
5285,140.625000
5286,140.625000
5287,140.625000
5288,140.625000
5289,140.625000
5290,140.625000
5291,140.625000
5292,136.718750
5293,140.625000
5294,136.718750
5295,140.625000
5296,140.625000
5297,140.625000
5298,136.718750
5299,136.718750
5300,136.718750
5301,136.718750
5302,136.718750
5303,136.718750
5304,136.718750
5305,136.718750
5306,136.718750
5307,136.718750
5308,136.718750
5309,136.718750
5310,136.718750
5311,136.718750
5312,136.718750
5313,136.718750
5314,136.718750
5315,132.812500
5316,136.718750
5317,132.812500
5318,132.812500
5319,132.812500
5320,132.812500
5321,132.812500
5322,132.812500
5323,132.812500
5324,132.812500
5325,132.812500
5326,132.812500
5327,132.812500
5328,132.812500
5329,132.812500
5330,128.906250
5331,128.906250
5332,128.906250
5333,128.906250
5334,128.906250
5335,128.906250
5336,128.906250
5337,128.906250
5338,125.000000
5339,125.000000
5340,125.000000
5341,125.000000
5342,125.000000
5343,125.000000
5344,125.000000
5345,125.000000
5346,125.000000
5347,121.093750
5348,121.093750
5349,121.093750
5350,125.000000
5351,121.093750
5352,121.093750
5353,121.093750
5354,121.093750
5355,121.093750
5356,117.187500
5357,117.187500
5358,117.187500
5359,117.187500
5360,117.187500
5361,117.187500
5362,117.187500
5363,117.187500
5364,117.187500
5365,113.281250
5366,113.281250
5367,113.281250
5368,113.281250
5369,113.281250
5370,113.281250
5371,113.281250
5372,113.281250
5373,109.375000
5374,109.375000
5375,109.375000
5376,109.375000
5377,109.375000
5378,109.375000
5379,105.468750
5380,105.468750
5381,105.468750
5382,105.468750
5383,105.468750
5384,105.468750
5385,105.468750
5386,101.562500
5387,101.562500
5388,101.562500
5389,101.562500
5390,101.562500
5391,97.656250
5392,97.656250
5393,97.656250
5394,97.656250
5395,97.656250
5396,97.656250
5397,97.656250
5398,93.750000
5399,93.750000
5400,93.750000
5401,93.750000
5402,93.750000
5403,89.843750
5404,89.843750
5405,89.843750
5406,89.843750
5407,89.843750
5408,89.843750
5409,89.843750
5410,85.937500
5411,85.937500
5412,85.937500
5413,85.937500
5414,85.937500
5415,82.031250
5416,82.031250
5417,82.031250
5418,82.031250
5419,78.125000
5420,78.125000
5421,78.125000
5422,78.125000
5423,78.125000
5424,78.125000
5425,74.218750
5426,74.218750
5427,74.218750
5428,74.218750
5429,74.218750
5430,70.312500
5431,70.312500
5432,70.312500
5433,70.312500
5434,66.406250
5435,66.406250
5436,66.406250
5437,66.406250
5438,66.406250
5439,62.500000
5440,62.500000
5441,62.500000
5442,62.500000
5443,62.500000
5444,58.593750
5445,58.593750
5446,58.593750
5447,58.593750
5448,54.687500
5449,54.687500
5450,54.687500
5451,54.687500
5452,50.781250
5453,50.781250
5454,50.781250
5455,50.781250
5456,50.781250
5457,46.875000
5458,46.875000
5459,46.875000
5460,46.875000
5461,42.968750
5462,42.968750
5463,42.968750
5464,39.062500
5465,39.062500
5466,39.062500
5467,39.062500
5468,39.062500
5469,39.062500
5470,35.156250
5471,35.156250
5472,35.156250
5473,31.250000
5474,31.250000
5475,31.250000
5476,27.343750
5477,27.343750
5478,27.343750
5479,27.343750
5480,23.437500
5481,23.437500
5482,23.437500
5483,23.437500
5484,19.531250
5485,19.531250
5486,19.531250
5487,19.531250
5488,15.625000
5489,15.625000
5490,15.625000
5491,15.625000
5492,11.718750
5493,11.718750
5494,11.718750
5495,7.812500
5496,7.812500
5497,7.812500
5498,7.812500
5499,3.906250
5500,3.906250
5501,0.000000
5502,0.000000
5503,0.000000
5504,0.000000
5505,0.000000
5506,-3.906250
5507,-3.906250
5508,-3.906250
5509,-7.812500
5510,-7.812500
5511,-7.812500
5512,-7.812500
5513,-11.718750
5514,-11.718750
5515,-11.718750
5516,-11.718750
5517,-15.625000
5518,-15.625000
5519,-15.625000
5520,-15.625000
5521,-19.531250
5522,-19.531250
5523,-19.531250
5524,-23.437500
5525,-23.437500
5526,-23.437500
5527,-27.343750
5528,-27.343750
5529,-27.343750
5530,-27.343750
5531,-31.250000
5532,-31.250000
5533,-31.250000
5534,-31.250000
5535,-35.156250
5536,-35.156250
5537,-35.156250
5538,-35.156250
5539,-39.062500
5540,-39.062500
5541,-39.062500
5542,-42.968750
5543,-42.968750
5544,-42.968750
5545,-46.875000
5546,-46.875000
5547,-46.875000
5548,-46.875000
5549,-50.781250
5550,-50.781250
5551,-50.781250
5552,-54.687500
5553,-54.687500
5554,-54.687500
5555,-58.593750
5556,-58.593750
5557,-58.593750
5558,-58.593750
5559,-58.593750
5560,-62.500000
5561,-62.500000
5562,-62.500000
5563,-66.406250
5564,-66.406250
5565,-66.406250
5566,-66.406250
5567,-70.312500
5568,-70.312500
5569,-70.312500
5570,-74.218750
5571,-74.218750
5572,-74.218750
5573,-74.218750
5574,-78.125000
5575,-78.125000
5576,-78.125000
5577,-78.125000
5578,-82.031250
5579,-82.031250
5580,-82.031250
5581,-85.937500
5582,-85.937500
5583,-85.937500
5584,-85.937500
5585,-89.843750
5586,-89.843750
5587,-89.843750
5588,-89.843750
5589,-93.750000
5590,-93.750000
5591,-93.750000
5592,-97.656250
5593,-97.656250
5594,-97.656250
5595,-97.656250
5596,-97.656250
5597,-97.656250
5598,-101.562500
5599,-101.562500
5600,-101.562500
5601,-105.468750
5602,-105.468750
5603,-105.468750
5604,-109.375000
5605,-109.375000
5606,-109.375000
5607,-109.375000
5608,-109.375000
5609,-113.281250
5610,-113.281250
5611,-117.187500
5612,-117.187500
5613,-117.187500
5614,-117.187500
5615,-117.187500
5616,-121.093750
5617,-121.093750
5618,-121.093750
5619,-121.093750
5620,-125.000000
5621,-125.000000
5622,-125.000000
5623,-125.000000
5624,-128.906250
5625,-128.906250
5626,-128.906250
5627,-128.906250
5628,-132.812500
5629,-132.812500
5630,-132.812500
5631,-132.812500
5632,-132.812500
5633,-132.812500
5634,-136.718750
5635,-136.718750
5636,-136.718750
5637,-136.718750
5638,-136.718750
5639,-140.625000
5640,-140.625000
5641,-140.625000
5642,-144.531250
5643,-144.531250
5644,-144.531250
5645,-144.531250
5646,-144.531250
5647,-144.531250
5648,-148.437500
5649,-148.437500
5650,-148.437500
5651,-148.437500
5652,-152.343750
5653,-152.343750
5654,-152.343750
5655,-152.343750
5656,-152.343750
5657,-156.250000
5658,-156.250000
5659,-156.250000
5660,-156.250000
5661,-156.250000
5662,-156.250000
5663,-156.250000
5664,-160.156250
5665,-160.156250
5666,-160.156250
5667,-160.156250
5668,-164.062500
5669,-164.062500
5670,-164.062500
5671,-164.062500
5672,-164.062500
5673,-164.062500
5674,-164.062500
5675,-164.062500
5676,-167.968750
5677,-167.968750
5678,-167.968750
5679,-167.968750
5680,-167.968750
5681,-171.875000
5682,-171.875000
5683,-171.875000
5684,-171.875000
5685,-171.875000
5686,-171.875000
5687,-171.875000
5688,-171.875000
5689,-171.875000
5690,-171.875000
5691,-175.781250
5692,-175.781250
5693,-175.781250
5694,-175.781250
5695,-175.781250
5696,-179.687500
5697,-175.781250
5698,-179.687500
5699,-179.687500
5700,-179.687500
5701,-179.687500
5702,-179.687500
5703,-179.687500
5704,-183.593750
5705,-183.593750
5706,-179.687500
5707,-183.593750
5708,-183.593750
5709,-183.593750
5710,-183.593750
5711,-183.593750
5712,-183.593750
5713,-183.593750
5714,-183.593750
5715,-183.593750
5716,-183.593750
5717,-183.593750
5718,-187.500000
5719,-187.500000
5720,-187.500000
5721,-187.500000
5722,-187.500000
5723,-187.500000
5724,-187.500000
5725,-187.500000
5726,-187.500000
5727,-187.500000
5728,-187.500000
5729,-187.500000
5730,-187.500000
5731,-187.500000
5732,-187.500000
5733,-187.500000
5734,-191.406250
5735,-191.406250
5736,-191.406250
5737,-191.406250
5738,-191.406250
5739,-191.406250
5740,-191.406250
5741,-191.406250
5742,-191.406250
5743,-191.406250
5744,-191.406250
5745,-191.406250
5746,-191.406250
5747,-191.406250
5748,-191.406250
5749,-191.406250
5750,-191.406250
5751,-191.406250
5752,-191.406250
5753,-195.312500
5754,-191.406250
5755,-191.406250
5756,-191.406250
5757,-191.406250
5758,-191.406250
5759,-191.406250
5760,-191.406250
5761,-191.406250
5762,-195.312500
5763,-191.406250
5764,-191.406250
5765,-191.406250
5766,-191.406250
5767,-191.406250
5768,-191.406250
5769,-191.406250
5770,-191.406250
5771,-191.406250
5772,-191.406250
5773,-191.406250
5774,-191.406250
5775,-191.406250
5776,-191.406250
5777,-191.406250
5778,-191.406250
5779,-191.406250
5780,-191.406250
5781,-191.406250
5782,-191.406250
5783,-191.406250
5784,-191.406250
5785,-191.406250
5786,-187.500000
5787,-191.406250
5788,-187.500000
5789,-187.500000
5790,-187.500000
5791,-187.500000
5792,-187.500000
5793,-187.500000
5794,-187.500000
5795,-187.500000
5796,-187.500000
5797,-187.500000
5798,-187.500000
5799,-187.500000
5800,-187.500000
5801,-187.500000
5802,-183.593750
5803,-183.593750
5804,-183.593750
5805,-183.593750
5806,-183.593750
5807,-183.593750
5808,-183.593750
5809,-183.593750
5810,-179.687500
5811,-183.593750
5812,-179.687500
5813,-179.687500
5814,-179.687500
5815,-179.687500
5816,-179.687500
5817,-179.687500
5818,-179.687500
5819,-179.687500
5820,-179.687500
5821,-175.781250
5822,-175.781250
5823,-175.781250
5824,-175.781250
5825,-175.781250
5826,-175.781250
5827,-175.781250
5828,-175.781250
5829,-171.875000
5830,-171.875000
5831,-171.875000
5832,-171.875000
5833,-171.875000
5834,-171.875000
5835,-171.875000
5836,-171.875000
5837,-167.968750
5838,-167.968750
5839,-167.968750
5840,-167.968750
5841,-167.968750
5842,-164.062500
5843,-164.062500
5844,-164.062500
5845,-164.062500
5846,-164.062500
5847,-164.062500
5848,-164.062500
5849,-160.156250
5850,-160.156250
5851,-156.250000
5852,-160.156250
5853,-160.156250
5854,-156.250000
5855,-156.250000
5856,-156.250000
5857,-156.250000
5858,-156.250000
5859,-156.250000
5860,-152.343750
5861,-152.343750
5862,-152.343750
5863,-152.343750
5864,-152.343750
5865,-152.343750
5866,-148.437500
5867,-148.437500
5868,-148.437500
5869,-148.437500
5870,-148.437500
5871,-144.531250
5872,-144.531250
5873,-144.531250
5874,-144.531250
5875,-140.625000
5876,-140.625000
5877,-140.625000
5878,-140.625000
5879,-140.625000
5880,-140.625000
5881,-136.718750
5882,-136.718750
5883,-136.718750
5884,-136.718750
5885,-132.812500
5886,-132.812500
5887,-132.812500
5888,-132.812500
5889,-132.812500
5890,-128.906250
5891,-128.906250
5892,-128.906250
5893,-125.000000
5894,-125.000000
5895,-125.000000
5896,-125.000000
5897,-125.000000
5898,-121.093750
5899,-121.093750
5900,-121.093750
5901,-121.093750
5902,-117.187500
5903,-117.187500
5904,-117.187500
5905,-117.187500
5906,-113.281250
5907,-113.281250
5908,-113.281250
5909,-113.281250
5910,-109.375000
5911,-109.375000
5912,-109.375000
5913,-109.375000
5914,-109.375000
5915,-105.468750
5916,-105.468750
5917,-105.468750
5918,-105.468750
5919,-101.562500
5920,-101.562500
5921,-101.562500
5922,-101.562500
5923,-97.656250
5924,-97.656250
5925,-93.750000
5926,-93.750000
5927,-93.750000
5928,-93.750000
5929,-93.750000
5930,-89.843750
5931,-89.843750
5932,-89.843750
5933,-85.937500
5934,-85.937500
5935,-85.937500
5936,-85.937500
5937,-82.031250
5938,-82.031250
5939,-82.031250
5940,-82.031250
5941,-78.125000
5942,-78.125000
5943,-78.125000
5944,-74.218750
5945,-74.218750
5946,-74.218750
5947,-74.218750
5948,-70.312500
5949,-70.312500
5950,-70.312500
5951,-66.406250
5952,-66.406250
5953,-66.406250
5954,-66.406250
5955,-66.406250
5956,-62.500000
5957,-62.500000
5958,-58.593750
5959,-58.593750
5960,-58.593750
5961,-54.687500
5962,-54.687500
5963,-54.687500
5964,-54.687500
5965,-50.781250
5966,-50.781250
5967,-50.781250
5968,-50.781250
5969,-46.875000
5970,-46.875000
5971,-46.875000
5972,-46.875000
5973,-42.968750
5974,-42.968750
5975,-42.968750
5976,-39.062500
5977,-39.062500
5978,-39.062500
5979,-39.062500
5980,-35.156250
5981,-35.156250
5982,-35.156250
5983,-35.156250
5984,-31.250000
5985,-31.250000
5986,-31.250000
5987,-27.343750
5988,-27.343750
5989,-27.343750
5990,-23.437500
5991,-23.437500
5992,-23.437500
5993,-19.531250
5994,-19.531250
5995,-19.531250
5996,-19.531250
5997,-15.625000
5998,-15.625000
5999,-15.625000
6000,-15.625000
6001,-11.718750
6002,-11.718750
6003,-11.718750
6004,-7.812500
6005,-7.812500
6006,-7.812500
6007,-7.812500
6008,-3.906250
6009,-3.906250
6010,-3.906250
6011,-3.906250
6012,0.000000
6013,0.000000
6014,0.000000
6015,0.000000
6016,3.906250
6017,3.906250
6018,3.906250
6019,3.906250
6020,7.812500
6021,7.812500
6022,7.812500
6023,11.718750
6024,11.718750
6025,11.718750
6026,11.718750
6027,11.718750
6028,15.625000
6029,15.625000
6030,15.625000
6031,19.531250
6032,19.531250
6033,19.531250
6034,23.437500
6035,23.437500
6036,23.437500
6037,23.437500
6038,27.343750
6039,27.343750
6040,27.343750
6041,27.343750
6042,31.250000
6043,31.250000
6044,31.250000
6045,31.250000
6046,35.156250
6047,35.156250
6048,35.156250
6049,35.156250
6050,39.062500
6051,39.062500
6052,39.062500
6053,42.968750
6054,42.968750
6055,42.968750
6056,42.968750
6057,46.875000
6058,46.875000
6059,46.875000
6060,46.875000
6061,46.875000
6062,50.781250
6063,50.781250
6064,50.781250
6065,50.781250
6066,54.687500
6067,54.687500
6068,54.687500
6069,54.687500
6070,54.687500
6071,58.593750
6072,58.593750
6073,58.593750
6074,62.500000
6075,62.500000
6076,62.500000
6077,62.500000
6078,62.500000
6079,62.500000
6080,66.406250
6081,66.406250
6082,66.406250
6083,66.406250
6084,66.406250
6085,70.312500
6086,70.312500
6087,70.312500
6088,74.218750
6089,74.218750
6090,74.218750
6091,74.218750
6092,74.218750
6093,74.218750
6094,74.218750
6095,78.125000
6096,78.125000
6097,78.125000
6098,82.031250
6099,82.031250
6100,82.031250
6101,82.031250
6102,82.031250
6103,82.031250
6104,85.937500
6105,85.937500
6106,85.937500
6107,85.937500
6108,85.937500
6109,85.937500
6110,89.843750
6111,89.843750
6112,89.843750
6113,89.843750
6114,93.750000
6115,93.750000
6116,93.750000
6117,93.750000
6118,93.750000
6119,93.750000
6120,97.656250
6121,97.656250
6122,97.656250
6123,97.656250
6124,97.656250
6125,97.656250
6126,101.562500
6127,101.562500
6128,101.562500
6129,101.562500
6130,101.562500
6131,101.562500
6132,101.562500
6133,105.468750
6134,105.468750
6135,105.468750
6136,105.468750
6137,105.468750
6138,105.468750
6139,109.375000
6140,109.375000
6141,109.375000
6142,109.375000
6143,109.375000
6144,109.375000
6145,109.375000
6146,109.375000
6147,113.281250
6148,113.281250
6149,113.281250
6150,113.281250
6151,113.281250
6152,113.281250
6153,113.281250
6154,113.281250
6155,117.187500
6156,117.187500
6157,117.187500
6158,117.187500
6159,117.187500
6160,117.187500
6161,117.187500
6162,117.187500
6163,121.093750
6164,121.093750
6165,121.093750
6166,121.093750
6167,121.093750
6168,121.093750
6169,121.093750
6170,121.093750
6171,125.000000
6172,125.000000
6173,125.000000
6174,125.000000
6175,125.000000
6176,125.000000
6177,125.000000
6178,125.000000
6179,125.000000
6180,125.000000
6181,128.906250
6182,125.000000
6183,128.906250
6184,128.906250
6185,125.000000
6186,128.906250
6187,128.906250
6188,128.906250
6189,132.812500
6190,132.812500
6191,132.812500
6192,128.906250
6193,132.812500
6194,132.812500
6195,132.812500
6196,132.812500
6197,132.812500
6198,132.812500
6199,132.812500
6200,132.812500
6201,132.812500
6202,132.812500
6203,132.812500
6204,132.812500
6205,136.718750
6206,136.718750
6207,136.718750
6208,136.718750
6209,136.718750
6210,136.718750
6211,136.718750
6212,136.718750
6213,136.718750
6214,136.718750
6215,136.718750
6216,136.718750
6217,136.718750
6218,136.718750
6219,140.625000
6220,136.718750
6221,140.625000
6222,140.625000
6223,140.625000
6224,136.718750
6225,136.718750
6226,140.625000
6227,140.625000
6228,140.625000
6229,140.625000
6230,140.625000
6231,140.625000
6232,140.625000
6233,140.625000
6234,140.625000
6235,140.625000
6236,140.625000
6237,140.625000
6238,140.625000
6239,140.625000
6240,140.625000
6241,140.625000
6242,140.625000
6243,140.625000
6244,140.625000
6245,140.625000
6246,140.625000
6247,140.625000
6248,140.625000
6249,140.625000
6250,140.625000
6251,140.625000
6252,140.625000
6253,140.625000
6254,140.625000
6255,140.625000
6256,140.625000
6257,140.625000
6258,140.625000
6259,144.531250
6260,140.625000
6261,140.625000
6262,140.625000
6263,140.625000
6264,140.625000
6265,140.625000
6266,140.625000
6267,140.625000
6268,140.625000
6269,140.625000
6270,140.625000
6271,140.625000
6272,140.625000
6273,140.625000
6274,136.718750
6275,140.625000
6276,136.718750
6277,140.625000
6278,140.625000
6279,140.625000
6280,136.718750
6281,140.625000
6282,140.625000
6283,136.718750
6284,136.718750
6285,140.625000
6286,136.718750
6287,136.718750
6288,136.718750
6289,136.718750
6290,136.718750
6291,136.718750
6292,136.718750
6293,136.718750
6294,136.718750
6295,136.718750
6296,136.718750
6297,136.718750
6298,136.718750
6299,136.718750
6300,136.718750
6301,136.718750
6302,136.718750
6303,136.718750
6304,132.812500
6305,132.812500
6306,132.812500
6307,132.812500
6308,132.812500
6309,132.812500
6310,132.812500
6311,132.812500
6312,132.812500
6313,132.812500
6314,128.906250
6315,128.906250
6316,132.812500
6317,132.812500
6318,128.906250
6319,128.906250
6320,128.906250
6321,128.906250
6322,128.906250
6323,128.906250
6324,128.906250
6325,128.906250
6326,128.906250
6327,128.906250
6328,125.000000
6329,125.000000
6330,125.000000
6331,125.000000
6332,125.000000
6333,125.000000
6334,125.000000
6335,125.000000
6336,125.000000
6337,125.000000
6338,125.000000
6339,125.000000
6340,121.093750
6341,121.093750
6342,121.093750
6343,121.093750
6344,121.093750
6345,121.093750
6346,117.187500
6347,121.093750
6348,117.187500
6349,121.093750
6350,117.187500
6351,117.187500
6352,117.187500
6353,117.187500
6354,117.187500
6355,113.281250
6356,113.281250
6357,113.281250
6358,113.281250
6359,113.281250
6360,113.281250
6361,113.281250
6362,109.375000
6363,113.281250
6364,109.375000
6365,109.375000
6366,109.375000
6367,109.375000
6368,105.468750
6369,109.375000
6370,105.468750
6371,105.468750
6372,105.468750
6373,105.468750
6374,105.468750
6375,105.468750
6376,101.562500
6377,101.562500
6378,101.562500
6379,101.562500
6380,101.562500
6381,101.562500
6382,101.562500
6383,97.656250
6384,97.656250
6385,97.656250
6386,97.656250
6387,97.656250
6388,93.750000
6389,93.750000
6390,93.750000
6391,93.750000
6392,93.750000
6393,93.750000
6394,93.750000
6395,89.843750
6396,89.843750
6397,89.843750
6398,85.937500
6399,85.937500
6400,85.937500
6401,85.937500
6402,85.937500
6403,85.937500
6404,82.031250
6405,82.031250
6406,82.031250
6407,82.031250
6408,82.031250
6409,82.031250
6410,78.125000
6411,78.125000
6412,78.125000
6413,78.125000
6414,74.218750
6415,74.218750
6416,74.218750
6417,74.218750
6418,74.218750
6419,74.218750
6420,70.312500
6421,70.312500
6422,66.406250
6423,70.312500
6424,66.406250
6425,66.406250
6426,66.406250
6427,66.406250
6428,66.406250
6429,62.500000
6430,62.500000
6431,62.500000
6432,58.593750
6433,58.593750
6434,58.593750
6435,58.593750
6436,58.593750
6437,54.687500
6438,54.687500
6439,54.687500
6440,54.687500
6441,54.687500
6442,50.781250
6443,50.781250
6444,50.781250
6445,46.875000
6446,46.875000
6447,46.875000
6448,42.968750
6449,46.875000
6450,42.968750
6451,42.968750
6452,42.968750
6453,42.968750
6454,39.062500
6455,39.062500
6456,39.062500
6457,39.062500
6458,39.062500
6459,35.156250
6460,35.156250
6461,35.156250
6462,31.250000
6463,31.250000
6464,31.250000
6465,31.250000
6466,27.343750
6467,27.343750
6468,27.343750
6469,23.437500
6470,23.437500
6471,23.437500
6472,23.437500
6473,19.531250
6474,19.531250
6475,19.531250
6476,19.531250
6477,15.625000
6478,15.625000
6479,15.625000
6480,15.625000
6481,11.718750
6482,11.718750
6483,11.718750
6484,11.718750
6485,7.812500
6486,7.812500
6487,7.812500
6488,3.906250
6489,3.906250
6490,3.906250
6491,3.906250
6492,0.000000
6493,0.000000
6494,0.000000
6495,0.000000
6496,-3.906250
6497,-3.906250
6498,-3.906250
6499,-3.906250
6500,-7.812500
6501,-7.812500
6502,-7.812500
6503,-11.718750
6504,-11.718750
6505,-11.718750
6506,-11.718750
6507,-15.625000
6508,-15.625000
6509,-15.625000
6510,-15.625000
6511,-19.531250
6512,-19.531250
6513,-19.531250
6514,-23.437500
6515,-23.437500
6516,-23.437500
6517,-27.343750
6518,-27.343750
6519,-27.343750
6520,-31.250000
6521,-31.250000
6522,-31.250000
6523,-31.250000
6524,-35.156250
6525,-35.156250
6526,-35.156250
6527,-35.156250
6528,-39.062500
6529,-39.062500
6530,-39.062500
6531,-42.968750
6532,-42.968750
6533,-42.968750
6534,-42.968750
6535,-46.875000
6536,-46.875000
6537,-46.875000
6538,-50.781250
6539,-50.781250
6540,-50.781250
6541,-50.781250
6542,-54.687500
6543,-54.687500
6544,-54.687500
6545,-58.593750
6546,-58.593750
6547,-58.593750
6548,-62.500000
6549,-62.500000
6550,-62.500000
6551,-62.500000
6552,-66.406250
6553,-66.406250
6554,-66.406250
6555,-66.406250
6556,-70.312500
6557,-70.312500
6558,-70.312500
6559,-70.312500
6560,-74.218750
6561,-74.218750
6562,-74.218750
6563,-78.125000
6564,-78.125000
6565,-78.125000
6566,-78.125000
6567,-82.031250
6568,-82.031250
6569,-82.031250
6570,-85.937500
6571,-85.937500
6572,-85.937500
6573,-85.937500
6574,-85.937500
6575,-89.843750
6576,-89.843750
6577,-89.843750
6578,-93.750000
6579,-93.750000
6580,-93.750000
6581,-93.750000
6582,-93.750000
6583,-97.656250
6584,-97.656250
6585,-97.656250
6586,-101.562500
6587,-101.562500
6588,-101.562500
6589,-101.562500
6590,-105.468750
6591,-105.468750
6592,-105.468750
6593,-105.468750
6594,-109.375000
6595,-109.375000
6596,-109.375000
6597,-109.375000
6598,-113.281250
6599,-113.281250
6600,-113.281250
6601,-113.281250
6602,-117.187500
6603,-117.187500
6604,-117.187500
6605,-117.187500
6606,-121.093750
6607,-121.093750
6608,-121.093750
6609,-121.093750
6610,-125.000000
6611,-125.000000
6612,-125.000000
6613,-125.000000
6614,-125.000000
6615,-128.906250
6616,-128.906250
6617,-128.906250
6618,-132.812500
6619,-132.812500
6620,-132.812500
6621,-132.812500
6622,-132.812500
6623,-136.718750
6624,-136.718750
6625,-136.718750
6626,-136.718750
6627,-136.718750
6628,-140.625000
6629,-140.625000
6630,-140.625000
6631,-140.625000
6632,-140.625000
6633,-144.531250
6634,-144.531250
6635,-144.531250
6636,-144.531250
6637,-144.531250
6638,-148.437500
6639,-148.437500
6640,-148.437500
6641,-148.437500
6642,-152.343750
6643,-152.343750
6644,-152.343750
6645,-152.343750
6646,-152.343750
6647,-152.343750
6648,-156.250000
6649,-156.250000
6650,-156.250000
6651,-156.250000
6652,-156.250000
6653,-156.250000
6654,-160.156250
6655,-160.156250
6656,-160.156250
6657,-160.156250
6658,-164.062500
6659,-164.062500
6660,-164.062500
6661,-164.062500
6662,-164.062500
6663,-164.062500
6664,-164.062500
6665,-167.968750
6666,-167.968750
6667,-167.968750
6668,-167.968750
6669,-167.968750
6670,-167.968750
6671,-167.968750
6672,-171.875000
6673,-171.875000
6674,-171.875000
6675,-171.875000
6676,-171.875000
6677,-171.875000
6678,-175.781250
6679,-175.781250
6680,-175.781250
6681,-175.781250
6682,-175.781250
6683,-175.781250
6684,-175.781250
6685,-175.781250
6686,-175.781250
6687,-179.687500
6688,-179.687500
6689,-179.687500
6690,-179.687500
6691,-179.687500
6692,-179.687500
6693,-179.687500
6694,-179.687500
6695,-183.593750
6696,-183.593750
6697,-183.593750
6698,-183.593750
6699,-183.593750
6700,-183.593750
6701,-183.593750
6702,-183.593750
6703,-183.593750
6704,-183.593750
6705,-187.500000
6706,-187.500000
6707,-187.500000
6708,-187.500000
6709,-187.500000
6710,-187.500000
6711,-187.500000
6712,-187.500000
6713,-187.500000
6714,-187.500000
6715,-187.500000
6716,-187.500000
6717,-187.500000
6718,-187.500000
6719,-187.500000
6720,-187.500000
6721,-191.406250
6722,-191.406250
6723,-191.406250
6724,-191.406250
6725,-191.406250
6726,-191.406250
6727,-191.406250
6728,-191.406250
6729,-191.406250
6730,-191.406250
6731,-191.406250
6732,-191.406250
6733,-191.406250
6734,-191.406250
6735,-191.406250
6736,-191.406250
6737,-191.406250
6738,-191.406250
6739,-191.406250
6740,-191.406250
6741,-191.406250
6742,-195.312500
6743,-191.406250
6744,-191.406250
6745,-191.406250
6746,-191.406250
6747,-191.406250
6748,-191.406250
6749,-191.406250
6750,-191.406250
6751,-191.406250
6752,-191.406250
6753,-191.406250
6754,-191.406250
6755,-191.406250
6756,-195.312500
6757,-191.406250
6758,-191.406250
6759,-191.406250
6760,-191.406250
6761,-191.406250
6762,-191.406250
6763,-191.406250
6764,-191.406250
6765,-191.406250
6766,-191.406250
6767,-191.406250
6768,-191.406250
6769,-191.406250
6770,-191.406250
6771,-191.406250
6772,-191.406250
6773,-191.406250
6774,-191.406250
6775,-191.406250
6776,-191.406250
6777,-191.406250
6778,-191.406250
6779,-187.500000
6780,-187.500000
6781,-187.500000
6782,-187.500000
6783,-187.500000
6784,-187.500000
6785,-187.500000
6786,-187.500000
6787,-187.500000
6788,-187.500000
6789,-187.500000
6790,-187.500000
6791,-187.500000
6792,-183.593750
6793,-183.593750
6794,-183.593750
6795,-183.593750
6796,-183.593750
6797,-183.593750
6798,-183.593750
6799,-183.593750
6800,-183.593750
6801,-183.593750
6802,-179.687500
6803,-179.687500
6804,-179.687500
6805,-179.687500
6806,-179.687500
6807,-179.687500
6808,-179.687500
6809,-179.687500
6810,-179.687500
6811,-175.781250
6812,-175.781250
6813,-175.781250
6814,-175.781250
6815,-175.781250
6816,-175.781250
6817,-175.781250
6818,-175.781250
6819,-175.781250
6820,-175.781250
6821,-171.875000
6822,-171.875000
6823,-171.875000
6824,-171.875000
6825,-171.875000
6826,-171.875000
6827,-167.968750
6828,-167.968750
6829,-167.968750
6830,-164.062500
6831,-167.968750
6832,-167.968750
6833,-164.062500
6834,-164.062500
6835,-164.062500
6836,-164.062500
6837,-164.062500
6838,-164.062500
6839,-160.156250
6840,-160.156250
6841,-160.156250
6842,-160.156250
6843,-160.156250
6844,-160.156250
6845,-156.250000
6846,-156.250000
6847,-156.250000
6848,-156.250000
6849,-152.343750
6850,-152.343750
6851,-152.343750
6852,-152.343750
6853,-152.343750
6854,-152.343750
6855,-148.437500
6856,-148.437500
6857,-148.437500
6858,-148.437500
6859,-148.437500
6860,-144.531250
6861,-144.531250
6862,-144.531250
6863,-144.531250
6864,-144.531250
6865,-140.625000
6866,-140.625000
6867,-140.625000
6868,-140.625000
6869,-136.718750
6870,-136.718750
6871,-136.718750
6872,-136.718750
6873,-132.812500
6874,-132.812500
6875,-132.812500
6876,-132.812500
6877,-132.812500
6878,-132.812500
6879,-128.906250
6880,-128.906250
6881,-128.906250
6882,-128.906250
6883,-125.000000
6884,-125.000000
6885,-125.000000
6886,-125.000000
6887,-121.093750
6888,-121.093750
6889,-121.093750
6890,-121.093750
6891,-117.187500
6892,-117.187500
6893,-117.187500
6894,-117.187500
6895,-113.281250
6896,-113.281250
6897,-113.281250
6898,-113.281250
6899,-109.375000
6900,-109.375000
6901,-109.375000
6902,-109.375000
6903,-109.375000
6904,-105.468750
6905,-105.468750
6906,-105.468750
6907,-101.562500
6908,-101.562500
6909,-101.562500
6910,-101.562500
6911,-97.656250
6912,-97.656250
6913,-97.656250
6914,-97.656250
6915,-93.750000
6916,-93.750000
6917,-93.750000
6918,-93.750000
6919,-89.843750
6920,-89.843750
6921,-89.843750
6922,-89.843750
6923,-85.937500
6924,-85.937500
6925,-85.937500
6926,-82.031250
6927,-82.031250
6928,-82.031250
6929,-82.031250
6930,-78.125000
6931,-78.125000
6932,-78.125000
6933,-78.125000
6934,-74.218750
6935,-74.218750
6936,-74.218750
6937,-74.218750
6938,-70.312500
6939,-70.312500
6940,-70.312500
6941,-66.406250
6942,-66.406250
6943,-66.406250
6944,-66.406250
6945,-62.500000
6946,-62.500000
6947,-62.500000
6948,-58.593750
6949,-58.593750
6950,-58.593750
6951,-58.593750
6952,-54.687500
6953,-54.687500
6954,-54.687500
6955,-50.781250
6956,-50.781250
6957,-50.781250
6958,-50.781250
6959,-46.875000
6960,-46.875000
6961,-46.875000
6962,-46.875000
6963,-42.968750
6964,-42.968750
6965,-42.968750
6966,-39.062500
6967,-39.062500
6968,-39.062500
6969,-35.156250
6970,-35.156250
6971,-35.156250
6972,-35.156250
6973,-31.250000
6974,-31.250000
6975,-31.250000
6976,-27.343750
6977,-27.343750
6978,-27.343750
6979,-27.343750
6980,-23.437500
6981,-23.437500
6982,-23.437500
6983,-23.437500
6984,-19.531250
6985,-19.531250
6986,-19.531250
6987,-15.625000
6988,-15.625000
6989,-15.625000
6990,-15.625000
6991,-11.718750
6992,-11.718750
6993,-11.718750
6994,-11.718750
6995,-7.812500
6996,-7.812500
6997,-7.812500
6998,-3.906250
6999,-3.906250
7000,-3.906250
7001,-3.906250
7002,0.000000
7003,0.000000
7004,0.000000
7005,0.000000
7006,3.906250
7007,3.906250
7008,7.812500
7009,7.812500
7010,7.812500
7011,7.812500
7012,7.812500
7013,11.718750
7014,11.718750
7015,11.718750
7016,15.625000
7017,15.625000
7018,15.625000
7019,15.625000
7020,19.531250
7021,19.531250
7022,19.531250
7023,19.531250
7024,19.531250
7025,23.437500
7026,23.437500
7027,23.437500
7028,27.343750
7029,27.343750
7030,27.343750
7031,27.343750
7032,31.250000
7033,31.250000
7034,31.250000
7035,31.250000
7036,35.156250
7037,35.156250
7038,35.156250
7039,35.156250
7040,39.062500
7041,39.062500
7042,39.062500
7043,39.062500
7044,42.968750
7045,42.968750
7046,42.968750
7047,46.875000
7048,46.875000
7049,46.875000
7050,46.875000
7051,46.875000
7052,50.781250
7053,50.781250
7054,50.781250
7055,50.781250
7056,54.687500
7057,54.687500
7058,54.687500
7059,54.687500
7060,58.593750
7061,54.687500
7062,58.593750
7063,58.593750
7064,58.593750
7065,62.500000
7066,62.500000
7067,62.500000
7068,62.500000
7069,62.500000
7070,66.406250
7071,66.406250
7072,66.406250
7073,66.406250
7074,66.406250
7075,70.312500
7076,70.312500
7077,70.312500
7078,70.312500
7079,74.218750
7080,74.218750
7081,74.218750
7082,74.218750
7083,78.125000
7084,78.125000
7085,78.125000
7086,78.125000
7087,78.125000
7088,78.125000
7089,82.031250
7090,82.031250
7091,82.031250
7092,82.031250
7093,82.031250
7094,85.937500
7095,85.937500
7096,85.937500
7097,85.937500
7098,85.937500
7099,89.843750
7100,89.843750
7101,89.843750
7102,89.843750
7103,89.843750
7104,93.750000
7105,93.750000
7106,93.750000
7107,93.750000
7108,93.750000
7109,93.750000
7110,97.656250
7111,97.656250
7112,97.656250
7113,97.656250
7114,97.656250
7115,97.656250
7116,101.562500
7117,101.562500
7118,101.562500
7119,101.562500
7120,101.562500
7121,101.562500
7122,105.468750
7123,105.468750
7124,105.468750
7125,105.468750
7126,105.468750
7127,105.468750
7128,105.468750
7129,109.375000
7130,109.375000
7131,109.375000
7132,109.375000
7133,109.375000
7134,109.375000
7135,113.281250
7136,113.281250
7137,113.281250
7138,113.281250
7139,113.281250
7140,113.281250
7141,113.281250
7142,113.281250
7143,117.187500
7144,117.187500
7145,117.187500
7146,117.187500
7147,117.187500
7148,117.187500
7149,117.187500
7150,117.187500
7151,117.187500
7152,121.093750
7153,121.093750
7154,121.093750
7155,121.093750
7156,121.093750
7157,121.093750
7158,121.093750
7159,121.093750
7160,125.000000
7161,125.000000
7162,125.000000
7163,125.000000
7164,125.000000
7165,125.000000
7166,125.000000
7167,128.906250
7168,125.000000
7169,128.906250
7170,125.000000
7171,128.906250
7172,128.906250
7173,128.906250
7174,128.906250
7175,128.906250
7176,128.906250
7177,128.906250
7178,128.906250
7179,128.906250
7180,128.906250
7181,128.906250
7182,132.812500
7183,132.812500
7184,132.812500
7185,132.812500
7186,132.812500
7187,132.812500
7188,132.812500
7189,132.812500
7190,132.812500
7191,136.718750
7192,132.812500
7193,132.812500
7194,132.812500
7195,136.718750
7196,132.812500
7197,136.718750
7198,132.812500
7199,136.718750
7200,136.718750
7201,136.718750
7202,136.718750
7203,136.718750
7204,136.718750
7205,136.718750
7206,136.718750
7207,136.718750
7208,136.718750
7209,136.718750
7210,136.718750
7211,136.718750
7212,136.718750
7213,136.718750
7214,136.718750
7215,140.625000
7216,136.718750
7217,136.718750
7218,136.718750
7219,140.625000
7220,140.625000
7221,140.625000
7222,140.625000
7223,140.625000
7224,140.625000
7225,140.625000
7226,140.625000
7227,140.625000
7228,140.625000
7229,140.625000
7230,140.625000
7231,140.625000
7232,140.625000
7233,140.625000
7234,140.625000
7235,140.625000
7236,140.625000
7237,140.625000
7238,140.625000
7239,140.625000
7240,140.625000
7241,140.625000
7242,140.625000
7243,140.625000
7244,140.625000
7245,140.625000
7246,140.625000
7247,140.625000
7248,140.625000
7249,140.625000
7250,140.625000
7251,140.625000
7252,140.625000
7253,140.625000
7254,140.625000
7255,140.625000
7256,140.625000
7257,140.625000
7258,140.625000
7259,140.625000
7260,140.625000
7261,140.625000
7262,140.625000
7263,140.625000
7264,140.625000
7265,140.625000
7266,140.625000
7267,140.625000
7268,140.625000
7269,140.625000
7270,140.625000
7271,140.625000
7272,140.625000
7273,140.625000
7274,140.625000
7275,140.625000
7276,136.718750
7277,136.718750
7278,136.718750
7279,136.718750
7280,136.718750
7281,136.718750
7282,136.718750
7283,136.718750
7284,140.625000
7285,136.718750
7286,136.718750
7287,136.718750
7288,136.718750
7289,136.718750
7290,136.718750
7291,136.718750
7292,136.718750
7293,136.718750
7294,132.812500
7295,132.812500
7296,136.718750
7297,132.812500
7298,132.812500
7299,132.812500
7300,132.812500
7301,132.812500
7302,132.812500
7303,132.812500
7304,132.812500
7305,132.812500
7306,128.906250
7307,132.812500
7308,128.906250
7309,128.906250
7310,128.906250
7311,128.906250
7312,128.906250
7313,128.906250
7314,128.906250
7315,128.906250
7316,128.906250
7317,128.906250
7318,125.000000
7319,125.000000
7320,125.000000
7321,128.906250
7322,125.000000
7323,125.000000
7324,125.000000
7325,125.000000
7326,125.000000
7327,125.000000
7328,121.093750
7329,121.093750
7330,121.093750
7331,121.093750
7332,121.093750
7333,121.093750
7334,121.093750
7335,121.093750
7336,121.093750
7337,121.093750
7338,117.187500
7339,117.187500
7340,117.187500
7341,117.187500
7342,117.187500
7343,117.187500
7344,117.187500
7345,113.281250
7346,113.281250
7347,113.281250
7348,113.281250
7349,113.281250
7350,109.375000
7351,113.281250
7352,109.375000
7353,109.375000
7354,109.375000
7355,109.375000
7356,109.375000
7357,109.375000
7358,105.468750
7359,105.468750
7360,105.468750
7361,105.468750
7362,105.468750
7363,105.468750
7364,105.468750
7365,101.562500
7366,101.562500
7367,101.562500
7368,101.562500
7369,101.562500
7370,101.562500
7371,97.656250
7372,97.656250
7373,97.656250
7374,97.656250
7375,97.656250
7376,97.656250
7377,97.656250
7378,93.750000
7379,93.750000
7380,93.750000
7381,93.750000
7382,93.750000
7383,93.750000
7384,89.843750
7385,89.843750
7386,89.843750
7387,89.843750
7388,89.843750
7389,85.937500
7390,85.937500
7391,85.937500
7392,85.937500
7393,85.937500
7394,82.031250
7395,82.031250
7396,82.031250
7397,78.125000
7398,78.125000
7399,78.125000
7400,78.125000
7401,78.125000
7402,78.125000
7403,74.218750
7404,74.218750
7405,74.218750
7406,74.218750
7407,74.218750
7408,74.218750
7409,70.312500
7410,70.312500
7411,70.312500
7412,70.312500
7413,70.312500
7414,66.406250
7415,66.406250
7416,66.406250
7417,62.500000
7418,62.500000
7419,62.500000
7420,66.406250
7421,62.500000
7422,62.500000
7423,58.593750
7424,58.593750
7425,58.593750
7426,54.687500
7427,54.687500
7428,54.687500
7429,54.687500
7430,50.781250
7431,50.781250
7432,50.781250
7433,50.781250
7434,50.781250
7435,50.781250
7436,46.875000
7437,46.875000
7438,46.875000
7439,42.968750
7440,42.968750
7441,42.968750
7442,42.968750
7443,39.062500
7444,39.062500
7445,39.062500
7446,35.156250
7447,39.062500
7448,35.156250
7449,35.156250
7450,35.156250
7451,31.250000
7452,27.343750
7453,31.250000
7454,31.250000
7455,27.343750
7456,27.343750
7457,27.343750
7458,23.437500
7459,27.343750
7460,23.437500
7461,23.437500
7462,19.531250
7463,19.531250
7464,19.531250
7465,19.531250
7466,15.625000
7467,15.625000
7468,15.625000
7469,15.625000
7470,11.718750
7471,11.718750
7472,11.718750
7473,11.718750
7474,7.812500
7475,7.812500
7476,7.812500
7477,3.906250
7478,3.906250
7479,3.906250
7480,3.906250
7481,3.906250
7482,0.000000
7483,0.000000
7484,-3.906250
7485,-3.906250
7486,-3.906250
7487,-3.906250
7488,-3.906250
7489,-7.812500
7490,-7.812500
7491,-7.812500
7492,-7.812500
7493,-11.718750
7494,-11.718750
7495,-11.718750
7496,-15.625000
7497,-15.625000
7498,-15.625000
7499,-15.625000
7500,-19.531250
7501,-19.531250
7502,-19.531250
7503,-23.437500
7504,-23.437500
7505,-23.437500
7506,-23.437500
7507,-23.437500
7508,-27.343750
7509,-27.343750
7510,-31.250000
7511,-31.250000
7512,-31.250000
7513,-31.250000
7514,-35.156250
7515,-35.156250
7516,-35.156250
7517,-39.062500
7518,-39.062500
7519,-39.062500
7520,-39.062500
7521,-39.062500
7522,-42.968750
7523,-42.968750
7524,-42.968750
7525,-46.875000
7526,-46.875000
7527,-46.875000
7528,-50.781250
7529,-50.781250
7530,-50.781250
7531,-50.781250
7532,-54.687500
7533,-54.687500
7534,-54.687500
7535,-58.593750
7536,-58.593750
7537,-58.593750
7538,-62.500000
7539,-62.500000
7540,-62.500000
7541,-62.500000
7542,-66.406250
7543,-66.406250
7544,-66.406250
7545,-66.406250
7546,-70.312500
7547,-70.312500
7548,-70.312500
7549,-74.218750
7550,-74.218750
7551,-74.218750
7552,-74.218750
7553,-78.125000
7554,-78.125000
7555,-78.125000
7556,-82.031250
7557,-82.031250
7558,-82.031250
7559,-82.031250
7560,-85.937500
7561,-85.937500
7562,-85.937500
7563,-85.937500
7564,-89.843750
7565,-89.843750
7566,-89.843750
7567,-89.843750
7568,-93.750000
7569,-93.750000
7570,-93.750000
7571,-93.750000
7572,-97.656250
7573,-97.656250
7574,-97.656250
7575,-101.562500
7576,-101.562500
7577,-101.562500
7578,-101.562500
7579,-105.468750
7580,-105.468750
7581,-105.468750
7582,-105.468750
7583,-109.375000
7584,-109.375000
7585,-109.375000
7586,-109.375000
7587,-113.281250
7588,-113.281250
7589,-113.281250
7590,-113.281250
7591,-117.187500
7592,-117.187500
7593,-117.187500
7594,-121.093750
7595,-121.093750
7596,-121.093750
7597,-121.093750
7598,-121.093750
7599,-125.000000
7600,-125.000000
7601,-125.000000
7602,-128.906250
7603,-125.000000
7604,-128.906250
7605,-128.906250
7606,-128.906250
7607,-132.812500
7608,-132.812500
7609,-132.812500
7610,-132.812500
7611,-132.812500
7612,-132.812500
7613,-136.718750
7614,-136.718750
7615,-136.718750
7616,-140.625000
7617,-140.625000
7618,-140.625000
7619,-140.625000
7620,-140.625000
7621,-144.531250
7622,-144.531250
7623,-144.531250
7624,-144.531250
7625,-144.531250
7626,-144.531250
7627,-148.437500
7628,-148.437500
7629,-148.437500
7630,-148.437500
7631,-148.437500
7632,-152.343750
7633,-152.343750
7634,-152.343750
7635,-152.343750
7636,-156.250000
7637,-156.250000
7638,-156.250000
7639,-156.250000
7640,-156.250000
7641,-156.250000
7642,-160.156250
7643,-160.156250
7644,-160.156250
7645,-160.156250
7646,-160.156250
7647,-164.062500
7648,-164.062500
7649,-164.062500
7650,-164.062500
7651,-164.062500
7652,-164.062500
7653,-164.062500
7654,-164.062500
7655,-167.968750
7656,-167.968750
7657,-167.968750
7658,-167.968750
7659,-167.968750
7660,-171.875000
7661,-171.875000
7662,-171.875000
7663,-171.875000
7664,-171.875000
7665,-171.875000
7666,-171.875000
7667,-175.781250
7668,-175.781250
7669,-175.781250
7670,-175.781250
7671,-175.781250
7672,-175.781250
7673,-175.781250
7674,-175.781250
7675,-175.781250
7676,-179.687500
7677,-179.687500
7678,-179.687500
7679,-179.687500
7680,-179.687500
7681,-179.687500
7682,-179.687500
7683,-179.687500
7684,-183.593750
7685,-183.593750
7686,-183.593750
7687,-183.593750
7688,-183.593750
7689,-183.593750
7690,-183.593750
7691,-183.593750
7692,-183.593750
7693,-187.500000
7694,-187.500000
7695,-187.500000
7696,-187.500000
7697,-187.500000
7698,-187.500000
7699,-187.500000
7700,-187.500000
7701,-187.500000
7702,-187.500000
7703,-187.500000
7704,-187.500000
7705,-191.406250
7706,-187.500000
7707,-187.500000
7708,-191.406250
7709,-191.406250
7710,-191.406250
7711,-191.406250
7712,-191.406250
7713,-191.406250
7714,-191.406250
7715,-191.406250
7716,-191.406250
7717,-191.406250
7718,-191.406250
7719,-191.406250
7720,-191.406250
7721,-191.406250
7722,-191.406250
7723,-191.406250
7724,-191.406250
7725,-191.406250
7726,-191.406250
7727,-191.406250
7728,-191.406250
7729,-191.406250
7730,-191.406250
7731,-191.406250
7732,-191.406250
7733,-191.406250
7734,-191.406250
7735,-191.406250
7736,-191.406250
7737,-195.312500
7738,-191.406250
7739,-191.406250
7740,-191.406250
7741,-191.406250
7742,-191.406250
7743,-195.312500
7744,-195.312500
7745,-191.406250
7746,-191.406250
7747,-191.406250
7748,-191.406250
7749,-191.406250
7750,-191.406250
7751,-191.406250
7752,-191.406250
7753,-195.312500
7754,-191.406250
7755,-191.406250
7756,-191.406250
7757,-191.406250
7758,-191.406250
7759,-191.406250
7760,-191.406250
7761,-191.406250
7762,-191.406250
7763,-191.406250
7764,-191.406250
7765,-191.406250
7766,-191.406250
7767,-187.500000
7768,-187.500000
7769,-191.406250
7770,-187.500000
7771,-187.500000
7772,-187.500000
7773,-187.500000
7774,-187.500000
7775,-187.500000
7776,-187.500000
7777,-187.500000
7778,-187.500000
7779,-187.500000
7780,-187.500000
7781,-187.500000
7782,-183.593750
7783,-183.593750
7784,-183.593750
7785,-183.593750
7786,-183.593750
7787,-183.593750
7788,-183.593750
7789,-183.593750
7790,-183.593750
7791,-179.687500
7792,-179.687500
7793,-179.687500
7794,-179.687500
7795,-179.687500
7796,-179.687500
7797,-179.687500
7798,-179.687500
7799,-179.687500
7800,-179.687500
7801,-179.687500
7802,-175.781250
7803,-175.781250
7804,-175.781250
7805,-175.781250
7806,-175.781250
7807,-175.781250
7808,-171.875000
7809,-171.875000
7810,-171.875000
7811,-171.875000
7812,-171.875000
7813,-171.875000
7814,-171.875000
7815,-171.875000
7816,-167.968750
7817,-167.968750
7818,-167.968750
7819,-167.968750
7820,-167.968750
7821,-167.968750
7822,-167.968750
7823,-164.062500
7824,-164.062500
7825,-164.062500
7826,-164.062500
7827,-164.062500
7828,-164.062500
7829,-160.156250
7830,-160.156250
7831,-160.156250
7832,-160.156250
7833,-160.156250
7834,-160.156250
7835,-156.250000
7836,-156.250000
7837,-156.250000
7838,-156.250000
7839,-152.343750
7840,-156.250000
7841,-152.343750
7842,-152.343750
7843,-152.343750
7844,-152.343750
7845,-148.437500
7846,-152.343750
7847,-148.437500
7848,-148.437500
7849,-148.437500
7850,-144.531250
7851,-144.531250
7852,-144.531250
7853,-144.531250
7854,-144.531250
7855,-144.531250
7856,-140.625000
7857,-140.625000
7858,-140.625000
7859,-136.718750
7860,-136.718750
7861,-136.718750
7862,-136.718750
7863,-132.812500
7864,-132.812500
7865,-132.812500
7866,-132.812500
7867,-132.812500
7868,-132.812500
7869,-128.906250
7870,-128.906250
7871,-128.906250
7872,-128.906250
7873,-125.000000
7874,-125.000000
7875,-125.000000
7876,-125.000000
7877,-121.093750
7878,-121.093750
7879,-121.093750
7880,-121.093750
7881,-117.187500
7882,-117.187500
7883,-117.187500
7884,-117.187500
7885,-113.281250
7886,-113.281250
7887,-113.281250
7888,-113.281250
7889,-109.375000
7890,-109.375000
7891,-109.375000
7892,-109.375000
7893,-105.468750
7894,-105.468750
7895,-105.468750
7896,-105.468750
7897,-101.562500
7898,-101.562500
7899,-101.562500
7900,-101.562500
7901,-97.656250
7902,-97.656250
7903,-97.656250
7904,-93.750000
7905,-93.750000
7906,-93.750000
7907,-93.750000
7908,-89.843750
7909,-89.843750
7910,-89.843750
7911,-89.843750
7912,-85.937500
7913,-85.937500
7914,-85.937500
7915,-85.937500
7916,-82.031250
7917,-82.031250
7918,-82.031250
7919,-78.125000
7920,-78.125000
7921,-78.125000
7922,-78.125000
7923,-74.218750
7924,-74.218750
7925,-74.218750
7926,-74.218750
7927,-74.218750
7928,-70.312500
7929,-70.312500
7930,-70.312500
7931,-66.406250
7932,-66.406250
7933,-66.406250
7934,-62.500000
7935,-62.500000
7936,-62.500000
7937,-62.500000
7938,-58.593750
7939,-58.593750
7940,-58.593750
7941,-54.687500
7942,-54.687500
7943,-54.687500
7944,-54.687500
7945,-50.781250
7946,-50.781250
7947,-50.781250
7948,-50.781250
7949,-46.875000
7950,-46.875000
7951,-46.875000
7952,-46.875000
7953,-42.968750
7954,-42.968750
7955,-42.968750
7956,-39.062500
7957,-39.062500
7958,-39.062500
7959,-35.156250
7960,-35.156250
7961,-35.156250
7962,-35.156250
7963,-31.250000
7964,-31.250000
7965,-31.250000
7966,-27.343750
7967,-27.343750
7968,-27.343750
7969,-27.343750
7970,-23.437500
7971,-23.437500
7972,-23.437500
7973,-23.437500
7974,-19.531250
7975,-19.531250
7976,-19.531250
7977,-15.625000
7978,-15.625000
7979,-15.625000
7980,-15.625000
7981,-11.718750
7982,-11.718750
7983,-11.718750
7984,-11.718750
7985,-7.812500
7986,-7.812500
7987,-7.812500
7988,-3.906250
7989,-3.906250
7990,-3.906250
7991,0.000000
7992,0.000000
7993,0.000000
7994,0.000000
7995,3.906250
7996,3.906250
7997,3.906250
7998,3.906250
7999,7.812500
8000,7.812500
8001,7.812500
8002,7.812500
8003,11.718750
8004,11.718750
8005,11.718750
8006,11.718750
8007,15.625000
8008,15.625000
8009,15.625000
8010,19.531250
8011,19.531250
8012,19.531250
8013,19.531250
8014,23.437500
8015,23.437500
8016,23.437500
8017,23.437500
8018,27.343750
8019,27.343750
8020,27.343750
8021,31.250000
8022,31.250000
8023,31.250000
8024,31.250000
8025,35.156250
8026,35.156250
8027,35.156250
8028,35.156250
8029,39.062500
8030,39.062500
8031,39.062500
8032,39.062500
8033,42.968750
8034,42.968750
8035,42.968750
8036,42.968750
8037,46.875000
8038,46.875000
8039,46.875000
8040,46.875000
8041,50.781250
8042,50.781250
8043,50.781250
8044,50.781250
8045,50.781250
8046,54.687500
8047,54.687500
8048,54.687500
8049,54.687500
8050,58.593750
8051,58.593750
8052,58.593750
8053,58.593750
8054,58.593750
8055,62.500000
8056,62.500000
8057,62.500000
8058,62.500000
8059,66.406250
8060,66.406250
8061,66.406250
8062,66.406250
8063,66.406250
8064,70.312500
8065,70.312500
8066,70.312500
8067,70.312500
8068,74.218750
8069,74.218750
8070,74.218750
8071,74.218750
8072,74.218750
8073,78.125000
8074,78.125000
8075,78.125000
8076,78.125000
8077,78.125000
8078,82.031250
8079,82.031250
8080,82.031250
8081,82.031250
8082,82.031250
8083,85.937500
8084,85.937500
8085,85.937500
8086,85.937500
8087,85.937500
8088,85.937500
8089,89.843750
8090,89.843750
8091,89.843750
8092,89.843750
8093,89.843750
8094,93.750000
8095,93.750000
8096,93.750000
8097,93.750000
8098,93.750000
8099,93.750000
8100,93.750000
8101,97.656250
8102,97.656250
8103,97.656250
8104,97.656250
8105,97.656250
8106,97.656250
8107,101.562500
8108,101.562500
8109,101.562500
8110,101.562500
8111,105.468750
8112,105.468750
8113,105.468750
8114,105.468750
8115,105.468750
8116,105.468750
8117,105.468750
8118,105.468750
8119,109.375000
8120,109.375000
8121,109.375000
8122,105.468750
8123,109.375000
8124,109.375000
8125,113.281250
8126,113.281250
8127,113.281250
8128,113.281250
8129,113.281250
8130,113.281250
8131,113.281250
8132,113.281250
8133,117.187500
8134,117.187500
8135,117.187500
8136,117.187500
8137,117.187500
8138,117.187500
8139,117.187500
8140,121.093750
8141,121.093750
8142,121.093750
8143,121.093750
8144,121.093750
8145,121.093750
8146,121.093750
8147,121.093750
8148,121.093750
8149,125.000000
8150,121.093750
8151,125.000000
8152,125.000000
8153,125.000000
8154,125.000000
8155,125.000000
8156,125.000000
8157,125.000000
8158,125.000000
8159,128.906250
8160,128.906250
8161,128.906250
8162,128.906250
8163,128.906250
8164,128.906250
8165,128.906250
8166,128.906250
8167,128.906250
8168,128.906250
8169,128.906250
8170,128.906250
8171,132.812500
8172,132.812500
8173,132.812500
8174,132.812500
8175,132.812500
8176,132.812500
8177,132.812500
8178,132.812500
8179,132.812500
8180,132.812500
8181,132.812500
8182,132.812500
8183,132.812500
8184,136.718750
8185,136.718750
8186,136.718750
8187,136.718750
8188,136.718750
8189,136.718750
8190,136.718750
8191,136.718750
8192,136.718750
8193,136.718750
8194,136.718750
8195,136.718750
8196,136.718750
8197,136.718750
8198,136.718750
8199,136.718750
8200,136.718750
8201,136.718750
8202,136.718750
8203,140.625000
8204,136.718750
8205,140.625000
8206,136.718750
8207,136.718750
8208,140.625000
8209,140.625000
8210,136.718750
8211,140.625000
8212,140.625000
8213,140.625000
8214,140.625000
8215,140.625000
8216,140.625000
8217,140.625000
8218,140.625000
8219,140.625000
8220,140.625000
8221,140.625000
8222,140.625000
8223,140.625000
8224,140.625000
8225,140.625000
8226,140.625000
8227,140.625000
8228,140.625000
8229,140.625000
8230,140.625000
8231,140.625000
8232,140.625000
8233,140.625000
8234,140.625000
8235,140.625000
8236,140.625000
8237,140.625000
8238,140.625000
8239,140.625000
8240,140.625000
8241,140.625000
8242,140.625000
8243,140.625000
8244,140.625000
8245,140.625000
8246,140.625000
8247,140.625000
8248,140.625000
8249,140.625000
8250,140.625000
8251,140.625000
8252,140.625000
8253,140.625000
8254,140.625000
8255,140.625000
8256,136.718750
8257,140.625000
8258,136.718750
8259,136.718750
8260,136.718750
8261,140.625000
8262,140.625000
8263,140.625000
8264,136.718750
8265,136.718750
8266,136.718750
8267,136.718750
8268,136.718750
8269,136.718750
8270,136.718750
8271,136.718750
8272,136.718750
8273,136.718750
8274,136.718750
8275,136.718750
8276,136.718750
8277,136.718750
8278,136.718750
8279,136.718750
8280,136.718750
8281,132.812500
8282,136.718750
8283,132.812500
8284,132.812500
8285,132.812500
8286,132.812500
8287,132.812500
8288,132.812500
8289,132.812500
8290,132.812500
8291,132.812500
8292,132.812500
8293,132.812500
8294,132.812500
8295,132.812500
8296,128.906250
8297,132.812500
8298,128.906250
8299,128.906250
8300,128.906250
8301,128.906250
8302,128.906250
8303,128.906250
8304,128.906250
8305,128.906250
8306,128.906250
8307,128.906250
8308,128.906250
8309,125.000000
8310,125.000000
8311,125.000000
8312,125.000000
8313,125.000000
8314,125.000000
8315,125.000000
8316,125.000000
8317,125.000000
8318,121.093750
8319,121.093750
8320,121.093750
8321,121.093750
8322,121.093750
8323,121.093750
8324,121.093750
8325,121.093750
8326,117.187500
8327,117.187500
8328,117.187500
8329,117.187500
8330,117.187500
8331,117.187500
8332,117.187500
8333,117.187500
8334,113.281250
8335,113.281250
8336,113.281250
8337,113.281250
8338,113.281250
8339,113.281250
8340,113.281250
8341,113.281250
8342,113.281250
8343,109.375000
8344,109.375000
8345,109.375000
8346,109.375000
8347,109.375000
8348,105.468750
8349,105.468750
8350,105.468750
8351,105.468750
8352,105.468750
8353,105.468750
8354,105.468750
8355,105.468750
8356,101.562500
8357,101.562500
8358,101.562500
8359,101.562500
8360,101.562500
8361,101.562500
8362,97.656250
8363,97.656250
8364,97.656250
8365,97.656250
8366,93.750000
8367,93.750000
8368,93.750000
8369,93.750000
8370,93.750000
8371,93.750000
8372,89.843750
8373,89.843750
8374,89.843750
8375,89.843750
8376,89.843750
8377,89.843750
8378,89.843750
8379,85.937500
8380,85.937500
8381,85.937500
8382,82.031250
8383,85.937500
8384,85.937500
8385,82.031250
8386,82.031250
8387,82.031250
8388,78.125000
8389,78.125000
8390,78.125000
8391,78.125000
8392,78.125000
8393,78.125000
8394,74.218750
8395,74.218750
8396,74.218750
8397,74.218750
8398,70.312500
8399,70.312500
8400,70.312500
8401,70.312500
8402,70.312500
8403,66.406250
8404,66.406250
8405,66.406250
8406,66.406250
8407,66.406250
8408,62.500000
8409,62.500000
8410,62.500000
8411,62.500000
8412,62.500000
8413,58.593750
8414,58.593750
8415,58.593750
8416,58.593750
8417,54.687500
8418,54.687500
8419,54.687500
8420,54.687500
8421,54.687500
8422,50.781250
8423,50.781250
8424,50.781250
8425,46.875000
8426,46.875000
8427,46.875000
8428,46.875000
8429,46.875000
8430,42.968750
8431,42.968750
8432,42.968750
8433,42.968750
8434,39.062500
8435,39.062500
8436,39.062500
8437,35.156250
8438,35.156250
8439,35.156250
8440,35.156250
8441,35.156250
8442,31.250000
8443,31.250000
8444,31.250000
8445,27.343750
8446,27.343750
8447,27.343750
8448,27.343750
8449,23.437500
8450,23.437500
8451,23.437500
8452,19.531250
8453,19.531250
8454,19.531250
8455,19.531250
8456,19.531250
8457,15.625000
8458,15.625000
8459,15.625000
8460,11.718750
8461,11.718750
8462,11.718750
8463,11.718750
8464,7.812500
8465,7.812500
8466,7.812500
8467,3.906250
8468,3.906250
8469,3.906250
8470,3.906250
8471,3.906250
8472,0.000000
8473,0.000000
8474,-3.906250
8475,-3.906250
8476,-3.906250
8477,-3.906250
8478,-7.812500
8479,-7.812500
8480,-7.812500
8481,-7.812500
8482,-11.718750
8483,-11.718750
8484,-11.718750
8485,-11.718750
8486,-15.625000
8487,-15.625000
8488,-15.625000
8489,-19.531250
8490,-19.531250
8491,-19.531250
8492,-19.531250
8493,-23.437500
8494,-23.437500
8495,-23.437500
8496,-27.343750
8497,-27.343750
8498,-27.343750
8499,-27.343750
8500,-31.250000
8501,-31.250000
8502,-31.250000
8503,-35.156250
8504,-35.156250
8505,-35.156250
8506,-35.156250
8507,-39.062500
8508,-39.062500
8509,-39.062500
8510,-42.968750
8511,-42.968750
8512,-42.968750
8513,-46.875000
8514,-46.875000
8515,-46.875000
8516,-46.875000
8517,-46.875000
8518,-50.781250
8519,-50.781250
8520,-50.781250
8521,-54.687500
8522,-54.687500
8523,-54.687500
8524,-54.687500
8525,-58.593750
8526,-58.593750
8527,-58.593750
8528,-62.500000
8529,-62.500000
8530,-62.500000
8531,-62.500000
8532,-66.406250
8533,-66.406250
8534,-66.406250
8535,-66.406250
8536,-70.312500
8537,-70.312500
8538,-70.312500
8539,-70.312500
8540,-74.218750
8541,-74.218750
8542,-74.218750
8543,-78.125000
8544,-78.125000
8545,-78.125000
8546,-78.125000
8547,-82.031250
8548,-82.031250
8549,-82.031250
8550,-82.031250
8551,-85.937500
8552,-85.937500
8553,-85.937500
8554,-89.843750
8555,-89.843750
8556,-89.843750
8557,-89.843750
8558,-93.750000
8559,-93.750000
8560,-93.750000
8561,-97.656250
8562,-97.656250
8563,-97.656250
8564,-97.656250
8565,-97.656250
8566,-101.562500
8567,-101.562500
8568,-101.562500
8569,-105.468750
8570,-105.468750
8571,-105.468750
8572,-105.468750
8573,-105.468750
8574,-109.375000
8575,-109.375000
8576,-109.375000
8577,-113.281250
8578,-113.281250
8579,-113.281250
8580,-113.281250
8581,-117.187500
8582,-117.187500
8583,-117.187500
8584,-117.187500
8585,-121.093750
8586,-121.093750
8587,-121.093750
8588,-121.093750
8589,-121.093750
8590,-125.000000
8591,-125.000000
8592,-125.000000
8593,-125.000000
8594,-128.906250
8595,-128.906250
8596,-128.906250
8597,-128.906250
8598,-132.812500
8599,-132.812500
8600,-132.812500
8601,-132.812500
8602,-136.718750
8603,-136.718750
8604,-136.718750
8605,-136.718750
8606,-136.718750
8607,-140.625000
8608,-140.625000
8609,-140.625000
8610,-140.625000
8611,-144.531250
8612,-144.531250
8613,-144.531250
8614,-144.531250
8615,-144.531250
8616,-148.437500
8617,-148.437500
8618,-148.437500
8619,-148.437500
8620,-148.437500
8621,-152.343750
8622,-152.343750
8623,-152.343750
8624,-152.343750
8625,-152.343750
8626,-152.343750
8627,-156.250000
8628,-156.250000
8629,-156.250000
8630,-156.250000
8631,-160.156250
8632,-160.156250
8633,-160.156250
8634,-160.156250
8635,-160.156250
8636,-160.156250
8637,-160.156250
8638,-164.062500
8639,-164.062500
8640,-164.062500
8641,-164.062500
8642,-167.968750
8643,-167.968750
8644,-167.968750
8645,-167.968750
8646,-167.968750
8647,-167.968750
8648,-167.968750
8649,-167.968750
8650,-171.875000
8651,-171.875000
8652,-171.875000
8653,-171.875000
8654,-171.875000
8655,-171.875000
8656,-175.781250
8657,-175.781250
8658,-175.781250
8659,-175.781250
8660,-175.781250
8661,-175.781250
8662,-175.781250
8663,-175.781250
8664,-175.781250
8665,-179.687500
8666,-179.687500
8667,-179.687500
8668,-179.687500
8669,-179.687500
8670,-179.687500
8671,-179.687500
8672,-179.687500
8673,-179.687500
8674,-179.687500
8675,-179.687500
8676,-183.593750
8677,-183.593750
8678,-183.593750
8679,-183.593750
8680,-183.593750
8681,-183.593750
8682,-183.593750
8683,-183.593750
8684,-183.593750
8685,-183.593750
8686,-187.500000
8687,-187.500000
8688,-187.500000
8689,-187.500000
8690,-187.500000
8691,-187.500000
8692,-187.500000
8693,-187.500000
8694,-187.500000
8695,-187.500000
8696,-187.500000
8697,-187.500000
8698,-191.406250
8699,-191.406250
8700,-187.500000
8701,-191.406250
8702,-191.406250
8703,-191.406250
8704,-191.406250
8705,-191.406250
8706,-191.406250
8707,-191.406250
8708,-191.406250
8709,-191.406250
8710,-191.406250
8711,-191.406250
8712,-191.406250
8713,-191.406250
8714,-191.406250
8715,-191.406250
8716,-191.406250
8717,-191.406250
8718,-191.406250
8719,-191.406250
8720,-191.406250
8721,-191.406250
8722,-191.406250
8723,-191.406250
8724,-191.406250
8725,-191.406250
8726,-191.406250
8727,-191.406250
8728,-191.406250
8729,-191.406250
8730,-191.406250
8731,-191.406250
8732,-191.406250
8733,-191.406250
8734,-191.406250
8735,-191.406250
8736,-191.406250
8737,-191.406250
8738,-191.406250
8739,-191.406250
8740,-191.406250
8741,-191.406250
8742,-191.406250
8743,-191.406250
8744,-191.406250
8745,-191.406250
8746,-191.406250
8747,-191.406250
8748,-191.406250
8749,-191.406250
8750,-191.406250
8751,-191.406250
8752,-191.406250
8753,-191.406250
8754,-191.406250
8755,-191.406250
8756,-191.406250
8757,-191.406250
8758,-187.500000
8759,-191.406250
8760,-187.500000
8761,-187.500000
8762,-187.500000
8763,-187.500000
8764,-187.500000
8765,-187.500000
8766,-187.500000
8767,-187.500000
8768,-187.500000
8769,-187.500000
8770,-187.500000
8771,-187.500000
8772,-183.593750
8773,-183.593750
8774,-183.593750
8775,-183.593750
8776,-183.593750
8777,-183.593750
8778,-183.593750
8779,-183.593750
8780,-183.593750
8781,-179.687500
8782,-179.687500
8783,-179.687500
8784,-179.687500
8785,-179.687500
8786,-179.687500
8787,-179.687500
8788,-179.687500
8789,-179.687500
8790,-179.687500
8791,-175.781250
8792,-175.781250
8793,-175.781250
8794,-175.781250
8795,-175.781250
8796,-175.781250
8797,-171.875000
8798,-171.875000
8799,-171.875000
8800,-171.875000
8801,-171.875000
8802,-171.875000
8803,-171.875000
8804,-171.875000
8805,-171.875000
8806,-167.968750
8807,-167.968750
8808,-167.968750
8809,-167.968750
8810,-167.968750
8811,-167.968750
8812,-167.968750
8813,-164.062500
8814,-164.062500
8815,-164.062500
8816,-164.062500
8817,-160.156250
8818,-164.062500
8819,-160.156250
8820,-160.156250
8821,-160.156250
8822,-160.156250
8823,-160.156250
8824,-160.156250
8825,-156.250000
8826,-156.250000
8827,-156.250000
8828,-152.343750
8829,-152.343750
8830,-152.343750
8831,-152.343750
8832,-152.343750
8833,-148.437500
8834,-148.437500
8835,-148.437500
8836,-148.437500
8837,-148.437500
8838,-148.437500
8839,-144.531250
8840,-144.531250
8841,-144.531250
8842,-144.531250
8843,-144.531250
8844,-144.531250
8845,-144.531250
8846,-140.625000
8847,-140.625000
8848,-140.625000
8849,-136.718750
8850,-136.718750
8851,-136.718750
8852,-136.718750
8853,-136.718750
8854,-132.812500
8855,-132.812500
8856,-132.812500
8857,-132.812500
8858,-128.906250
8859,-128.906250
8860,-128.906250
8861,-128.906250
8862,-125.000000
8863,-125.000000
8864,-125.000000
8865,-125.000000
8866,-125.000000
8867,-121.093750
8868,-121.093750
8869,-121.093750
8870,-121.093750
8871,-117.187500
8872,-117.187500
8873,-117.187500
8874,-117.187500
8875,-113.281250
8876,-113.281250
8877,-113.281250
8878,-113.281250
8879,-109.375000
8880,-109.375000
8881,-109.375000
8882,-109.375000
8883,-105.468750
8884,-105.468750
8885,-105.468750
8886,-105.468750
8887,-101.562500
8888,-101.562500
8889,-101.562500
8890,-101.562500
8891,-97.656250
8892,-97.656250
8893,-97.656250
8894,-93.750000
8895,-93.750000
8896,-93.750000
8897,-93.750000
8898,-89.843750
8899,-89.843750
8900,-89.843750
8901,-85.937500
8902,-85.937500
8903,-85.937500
8904,-85.937500
8905,-85.937500
8906,-82.031250
8907,-82.031250
8908,-82.031250
8909,-78.125000
8910,-78.125000
8911,-78.125000
8912,-78.125000
8913,-78.125000
8914,-74.218750
8915,-74.218750
8916,-74.218750
8917,-70.312500
8918,-70.312500
8919,-70.312500
8920,-70.312500
8921,-66.406250
8922,-66.406250
8923,-66.406250
8924,-62.500000
8925,-62.500000
8926,-62.500000
8927,-58.593750
8928,-58.593750
8929,-58.593750
8930,-54.687500
8931,-58.593750
8932,-54.687500
8933,-54.687500
8934,-50.781250
8935,-50.781250
8936,-50.781250
8937,-50.781250
8938,-46.875000
8939,-46.875000
8940,-46.875000
8941,-46.875000
8942,-42.968750
8943,-42.968750
8944,-42.968750
8945,-42.968750
8946,-39.062500
8947,-39.062500
8948,-35.156250
8949,-35.156250
8950,-35.156250
8951,-35.156250
8952,-31.250000
8953,-31.250000
8954,-31.250000
8955,-27.343750
8956,-27.343750
8957,-27.343750
8958,-27.343750
8959,-27.343750
8960,-23.437500
8961,-23.437500
8962,-23.437500
8963,-19.531250
8964,-19.531250
8965,-19.531250
8966,-15.625000
8967,-15.625000
8968,-15.625000
8969,-15.625000
8970,-11.718750
8971,-11.718750
8972,-11.718750
8973,-11.718750
8974,-7.812500
8975,-7.812500
8976,-7.812500
8977,-3.906250
8978,-3.906250
8979,-3.906250
8980,-3.906250
8981,0.000000
8982,0.000000
8983,0.000000
8984,0.000000
8985,3.906250
8986,3.906250
8987,3.906250
8988,3.906250
8989,7.812500
8990,7.812500
8991,7.812500
8992,11.718750
8993,11.718750
8994,11.718750
8995,11.718750
8996,11.718750
8997,15.625000
8998,15.625000
8999,15.625000
9000,19.531250
9001,23.437500
9002,19.531250
9003,23.437500
9004,23.437500
9005,23.437500
9006,23.437500
9007,27.343750
9008,23.437500
9009,27.343750
9010,27.343750
9011,27.343750
9012,31.250000
9013,31.250000
9014,31.250000
9015,35.156250
9016,35.156250
9017,35.156250
9018,35.156250
9019,39.062500
9020,39.062500
9021,39.062500
9022,39.062500
9023,39.062500
9024,42.968750
9025,42.968750
9026,42.968750
9027,46.875000
9028,46.875000
9029,46.875000
9030,46.875000
9031,46.875000
9032,46.875000
9033,50.781250
9034,50.781250
9035,50.781250
9036,54.687500
9037,54.687500
9038,54.687500
9039,54.687500
9040,58.593750
9041,58.593750
9042,58.593750
9043,58.593750
9044,58.593750
9045,62.500000
9046,62.500000
9047,62.500000
9048,62.500000
9049,66.406250
9050,66.406250
9051,66.406250
9052,66.406250
9053,66.406250
9054,70.312500
9055,70.312500
9056,70.312500
9057,74.218750
9058,74.218750
9059,74.218750
9060,74.218750
9061,74.218750
9062,74.218750
9063,78.125000
9064,78.125000
9065,78.125000
9066,78.125000
9067,78.125000
9068,82.031250
9069,82.031250
9070,82.031250
9071,82.031250
9072,82.031250
9073,85.937500
9074,85.937500
9075,85.937500
9076,85.937500
9077,85.937500
9078,89.843750
9079,89.843750
9080,89.843750
9081,89.843750
9082,89.843750
9083,89.843750
9084,93.750000
9085,93.750000
9086,93.750000
9087,93.750000
9088,93.750000
9089,93.750000
9090,97.656250
9091,97.656250
9092,97.656250
9093,97.656250
9094,97.656250
9095,101.562500
9096,101.562500
9097,101.562500
9098,101.562500
9099,101.562500
9100,101.562500
9101,101.562500
9102,105.468750
9103,105.468750
9104,105.468750
9105,105.468750
9106,105.468750
9107,105.468750
9108,109.375000
9109,109.375000
9110,109.375000
9111,109.375000
9112,109.375000
9113,109.375000
9114,109.375000
9115,109.375000
9116,113.281250
9117,113.281250
9118,113.281250
9119,113.281250
9120,113.281250
9121,113.281250
9122,113.281250
9123,117.187500
9124,117.187500
9125,117.187500
9126,117.187500
9127,117.187500
9128,117.187500
9129,117.187500
9130,117.187500
9131,121.093750
9132,121.093750
9133,121.093750
9134,121.093750
9135,121.093750
9136,121.093750
9137,121.093750
9138,121.093750
9139,121.093750
9140,121.093750
9141,125.000000
9142,125.000000
9143,125.000000
9144,125.000000
9145,125.000000
9146,125.000000
9147,125.000000
9148,125.000000
9149,128.906250
9150,128.906250
9151,128.906250
9152,128.906250
9153,128.906250
9154,128.906250
9155,128.906250
9156,128.906250
9157,128.906250
9158,128.906250
9159,128.906250
9160,128.906250
9161,132.812500
9162,132.812500
9163,132.812500
9164,132.812500
9165,132.812500
9166,132.812500
9167,132.812500
9168,132.812500
9169,132.812500
9170,132.812500
9171,132.812500
9172,132.812500
9173,132.812500
9174,132.812500
9175,136.718750
9176,136.718750
9177,136.718750
9178,136.718750
9179,136.718750
9180,136.718750
9181,136.718750
9182,136.718750
9183,136.718750
9184,136.718750
9185,136.718750
9186,136.718750
9187,136.718750
9188,136.718750
9189,136.718750
9190,140.625000
9191,140.625000
9192,136.718750
9193,136.718750
9194,136.718750
9195,140.625000
9196,140.625000
9197,140.625000
9198,140.625000
9199,140.625000
9200,140.625000
9201,140.625000
9202,140.625000
9203,136.718750
9204,140.625000
9205,140.625000
9206,140.625000
9207,140.625000
9208,140.625000
9209,136.718750
9210,140.625000
9211,140.625000
9212,140.625000
9213,140.625000
9214,140.625000
9215,140.625000
9216,140.625000
9217,140.625000
9218,140.625000
9219,140.625000
9220,140.625000
9221,140.625000
9222,140.625000
9223,140.625000
9224,140.625000
9225,140.625000
9226,140.625000
9227,140.625000
9228,140.625000
9229,140.625000
9230,140.625000
9231,140.625000
9232,140.625000
9233,140.625000
9234,140.625000
9235,140.625000
9236,140.625000
9237,140.625000
9238,140.625000
9239,140.625000
9240,140.625000
9241,140.625000
9242,140.625000
9243,140.625000
9244,140.625000
9245,140.625000
9246,140.625000
9247,140.625000
9248,140.625000
9249,140.625000
9250,140.625000
9251,136.718750
9252,136.718750
9253,136.718750
9254,136.718750
9255,136.718750
9256,136.718750
9257,136.718750
9258,136.718750
9259,136.718750
9260,136.718750
9261,136.718750
9262,136.718750
9263,136.718750
9264,136.718750
9265,136.718750
9266,136.718750
9267,136.718750
9268,136.718750
9269,132.812500
9270,132.812500
9271,132.812500
9272,132.812500
9273,136.718750
9274,132.812500
9275,132.812500
9276,132.812500
9277,132.812500
9278,132.812500
9279,136.718750
9280,132.812500
9281,132.812500
9282,132.812500
9283,132.812500
9284,132.812500
9285,132.812500
9286,128.906250
9287,128.906250
9288,128.906250
9289,128.906250
9290,128.906250
9291,128.906250
9292,128.906250
9293,128.906250
9294,128.906250
9295,128.906250
9296,128.906250
9297,128.906250
9298,125.000000
9299,128.906250
9300,125.000000
9301,125.000000
9302,125.000000
9303,125.000000
9304,125.000000
9305,125.000000
9306,121.093750
9307,125.000000
9308,121.093750
9309,121.093750
9310,121.093750
9311,121.093750
9312,121.093750
9313,121.093750
9314,121.093750
9315,121.093750
9316,117.187500
9317,117.187500
9318,117.187500
9319,117.187500
9320,117.187500
9321,117.187500
9322,117.187500
9323,117.187500
9324,117.187500
9325,113.281250
9326,113.281250
9327,113.281250
9328,113.281250
9329,113.281250
9330,113.281250
9331,109.375000
9332,109.375000
9333,109.375000
9334,109.375000
9335,109.375000
9336,109.375000
9337,109.375000
9338,105.468750
9339,105.468750
9340,105.468750
9341,105.468750
9342,105.468750
9343,105.468750
9344,105.468750
9345,105.468750
9346,101.562500
9347,101.562500
9348,101.562500
9349,101.562500
9350,101.562500
9351,101.562500
9352,97.656250
9353,97.656250
9354,97.656250
9355,97.656250
9356,97.656250
9357,93.750000
9358,93.750000
9359,93.750000
9360,93.750000
9361,93.750000
9362,93.750000
9363,89.843750
9364,89.843750
9365,89.843750
9366,89.843750
9367,89.843750
9368,85.937500
9369,85.937500
9370,85.937500
9371,85.937500
9372,85.937500
9373,82.031250
9374,82.031250
9375,82.031250
9376,82.031250
9377,82.031250
9378,78.125000
9379,78.125000
9380,78.125000
9381,78.125000
9382,74.218750
9383,78.125000
9384,74.218750
9385,74.218750
9386,74.218750
9387,74.218750
9388,70.312500
9389,70.312500
9390,70.312500
9391,70.312500
9392,70.312500
9393,66.406250
9394,66.406250
9395,66.406250
9396,66.406250
9397,62.500000
9398,62.500000
9399,62.500000
9400,62.500000
9401,58.593750
9402,58.593750
9403,58.593750
9404,58.593750
9405,58.593750
9406,54.687500
9407,54.687500
9408,54.687500
9409,54.687500
9410,50.781250
9411,50.781250
9412,50.781250
9413,50.781250
9414,50.781250
9415,46.875000
9416,46.875000
9417,46.875000
9418,42.968750
9419,42.968750
9420,42.968750
9421,42.968750
9422,39.062500
9423,39.062500
9424,39.062500
9425,39.062500
9426,35.156250
9427,35.156250
9428,35.156250
9429,35.156250
9430,35.156250
9431,31.250000
9432,31.250000
9433,31.250000
9434,31.250000
9435,27.343750
9436,27.343750
9437,27.343750
9438,23.437500
9439,23.437500
9440,23.437500
9441,23.437500
9442,19.531250
9443,19.531250
9444,19.531250
9445,19.531250
9446,15.625000
9447,15.625000
9448,15.625000
9449,15.625000
9450,11.718750
9451,11.718750
9452,11.718750
9453,11.718750
9454,7.812500
9455,7.812500
9456,7.812500
9457,3.906250
9458,3.906250
9459,3.906250
9460,3.906250
9461,0.000000
9462,0.000000
9463,0.000000
9464,-3.906250
9465,-3.906250
9466,-3.906250
9467,-3.906250
9468,-7.812500
9469,-7.812500
9470,-7.812500
9471,-7.812500
9472,-11.718750
9473,-11.718750
9474,-11.718750
9475,-11.718750
9476,-15.625000
9477,-15.625000
9478,-15.625000
9479,-19.531250
9480,-19.531250
9481,-19.531250
9482,-19.531250
9483,-23.437500
9484,-23.437500
9485,-23.437500
9486,-27.343750
9487,-27.343750
9488,-27.343750
9489,-27.343750
9490,-31.250000
9491,-31.250000
9492,-31.250000
9493,-35.156250
9494,-35.156250
9495,-35.156250
9496,-35.156250
9497,-39.062500
9498,-39.062500
9499,-39.062500
9500,-39.062500
9501,-42.968750
9502,-42.968750
9503,-42.968750
9504,-46.875000
9505,-46.875000
9506,-46.875000
9507,-46.875000
9508,-50.781250
9509,-50.781250
9510,-50.781250
9511,-54.687500
9512,-54.687500
9513,-54.687500
9514,-58.593750
9515,-58.593750
9516,-58.593750
9517,-58.593750
9518,-62.500000
9519,-62.500000
9520,-62.500000
9521,-66.406250
9522,-66.406250
9523,-66.406250
9524,-66.406250
9525,-70.312500
9526,-70.312500
9527,-70.312500
9528,-70.312500
9529,-74.218750
9530,-74.218750
9531,-74.218750
9532,-78.125000
9533,-78.125000
9534,-78.125000
9535,-78.125000
9536,-82.031250
9537,-82.031250
9538,-82.031250
9539,-85.937500
9540,-85.937500
9541,-85.937500
9542,-85.937500
9543,-85.937500
9544,-89.843750
9545,-89.843750
9546,-89.843750
9547,-89.843750
9548,-93.750000
9549,-93.750000
9550,-97.656250
9551,-97.656250
9552,-97.656250
9553,-97.656250
9554,-97.656250
9555,-101.562500
9556,-101.562500
9557,-101.562500
9558,-101.562500
9559,-105.468750
9560,-105.468750
9561,-105.468750
9562,-105.468750
9563,-109.375000
9564,-109.375000
9565,-109.375000
9566,-113.281250
9567,-109.375000
9568,-113.281250
9569,-113.281250
9570,-113.281250
9571,-117.187500
9572,-117.187500
9573,-117.187500
9574,-117.187500
9575,-117.187500
9576,-121.093750
9577,-121.093750
9578,-121.093750
9579,-121.093750
9580,-125.000000
9581,-125.000000
9582,-125.000000
9583,-125.000000
9584,-128.906250
9585,-128.906250
9586,-128.906250
9587,-132.812500
9588,-132.812500
9589,-132.812500
9590,-132.812500
9591,-132.812500
9592,-136.718750
9593,-136.718750
9594,-136.718750
9595,-136.718750
9596,-136.718750
9597,-140.625000
9598,-140.625000
9599,-140.625000
9600,-140.625000
9601,-140.625000
9602,-144.531250
9603,-144.531250
9604,-144.531250
9605,-144.531250
9606,-144.531250
9607,-144.531250
9608,-148.437500
9609,-148.437500
9610,-148.437500
9611,-148.437500
9612,-152.343750
9613,-152.343750
9614,-152.343750
9615,-152.343750
9616,-152.343750
9617,-156.250000
9618,-156.250000
9619,-156.250000
9620,-156.250000
9621,-156.250000
9622,-160.156250
9623,-160.156250
9624,-160.156250
9625,-164.062500
9626,-160.156250
9627,-160.156250
9628,-164.062500
9629,-164.062500
9630,-164.062500
9631,-164.062500
9632,-164.062500
9633,-164.062500
9634,-167.968750
9635,-167.968750
9636,-167.968750
9637,-167.968750
9638,-167.968750
9639,-167.968750
9640,-171.875000
9641,-171.875000
9642,-171.875000
9643,-171.875000
9644,-171.875000
9645,-171.875000
9646,-171.875000
9647,-175.781250
9648,-175.781250
9649,-175.781250
9650,-175.781250
9651,-175.781250
9652,-175.781250
9653,-175.781250
9654,-175.781250
9655,-179.687500
9656,-179.687500
9657,-179.687500
9658,-179.687500
9659,-179.687500
9660,-179.687500
9661,-179.687500
9662,-179.687500
9663,-179.687500
9664,-183.593750
9665,-183.593750
9666,-183.593750
9667,-183.593750
9668,-183.593750
9669,-183.593750
9670,-183.593750
9671,-183.593750
9672,-187.500000
9673,-187.500000
9674,-187.500000
9675,-187.500000
9676,-187.500000
9677,-187.500000
9678,-187.500000
9679,-187.500000
9680,-187.500000
9681,-187.500000
9682,-187.500000
9683,-187.500000
9684,-187.500000
9685,-187.500000
9686,-187.500000
9687,-191.406250
9688,-187.500000
9689,-191.406250
9690,-187.500000
9691,-191.406250
9692,-191.406250
9693,-191.406250
9694,-191.406250
9695,-191.406250
9696,-191.406250
9697,-191.406250
9698,-191.406250
9699,-191.406250
9700,-191.406250
9701,-191.406250
9702,-191.406250
9703,-191.406250
9704,-191.406250
9705,-191.406250
9706,-191.406250
9707,-191.406250
9708,-191.406250
9709,-191.406250
9710,-191.406250
9711,-191.406250
9712,-191.406250
9713,-191.406250
9714,-191.406250
9715,-191.406250
9716,-191.406250
9717,-191.406250
9718,-191.406250
9719,-191.406250
9720,-191.406250
9721,-191.406250
9722,-191.406250
9723,-191.406250
9724,-191.406250
9725,-191.406250
9726,-195.312500
9727,-191.406250
9728,-191.406250
9729,-191.406250
9730,-191.406250
9731,-191.406250
9732,-191.406250
9733,-191.406250
9734,-191.406250
9735,-191.406250
9736,-191.406250
9737,-191.406250
9738,-191.406250
9739,-191.406250
9740,-191.406250
9741,-191.406250
9742,-191.406250
9743,-191.406250
9744,-191.406250
9745,-187.500000
9746,-187.500000
9747,-187.500000
9748,-187.500000
9749,-187.500000
9750,-187.500000
9751,-187.500000
9752,-187.500000
9753,-187.500000
9754,-187.500000
9755,-187.500000
9756,-187.500000
9757,-187.500000
9758,-187.500000
9759,-187.500000
9760,-187.500000
9761,-183.593750
9762,-187.500000
9763,-187.500000
9764,-183.593750
9765,-183.593750
9766,-183.593750
9767,-183.593750
9768,-183.593750
9769,-183.593750
9770,-183.593750
9771,-179.687500
9772,-179.687500
9773,-179.687500
9774,-179.687500
9775,-179.687500
9776,-179.687500
9777,-179.687500
9778,-179.687500
9779,-179.687500
9780,-179.687500
9781,-179.687500
9782,-175.781250
9783,-175.781250
9784,-175.781250
9785,-175.781250
9786,-175.781250
9787,-175.781250
9788,-175.781250
9789,-171.875000
9790,-171.875000
9791,-171.875000
9792,-171.875000
9793,-171.875000
9794,-171.875000
9795,-167.968750
9796,-167.968750
9797,-167.968750
9798,-167.968750
9799,-167.968750
9800,-167.968750
9801,-167.968750
9802,-167.968750
9803,-164.062500
9804,-164.062500
9805,-164.062500
9806,-164.062500
9807,-160.156250
9808,-160.156250
9809,-160.156250
9810,-160.156250
9811,-160.156250
9812,-160.156250
9813,-160.156250
9814,-156.250000
9815,-156.250000
9816,-156.250000
9817,-156.250000
9818,-156.250000
9819,-152.343750
9820,-152.343750
9821,-152.343750
9822,-152.343750
9823,-152.343750
9824,-148.437500
9825,-148.437500
9826,-148.437500
9827,-148.437500
9828,-148.437500
9829,-144.531250
9830,-144.531250
9831,-144.531250
9832,-144.531250
9833,-140.625000
9834,-144.531250
9835,-140.625000
9836,-140.625000
9837,-140.625000
9838,-140.625000
9839,-136.718750
9840,-136.718750
9841,-136.718750
9842,-136.718750
9843,-132.812500
9844,-132.812500
9845,-132.812500
9846,-132.812500
9847,-128.906250
9848,-128.906250
9849,-128.906250
9850,-128.906250
9851,-125.000000
9852,-125.000000
9853,-125.000000
9854,-125.000000
9855,-121.093750
9856,-121.093750
9857,-121.093750
9858,-121.093750
9859,-117.187500
9860,-117.187500
9861,-117.187500
9862,-117.187500
9863,-117.187500
9864,-117.187500
9865,-113.281250
9866,-113.281250
9867,-109.375000
9868,-109.375000
9869,-109.375000
9870,-109.375000
9871,-109.375000
9872,-109.375000
9873,-105.468750
9874,-105.468750
9875,-105.468750
9876,-101.562500
9877,-101.562500
9878,-101.562500
9879,-101.562500
9880,-97.656250
9881,-97.656250
9882,-97.656250
9883,-97.656250
9884,-93.750000
9885,-93.750000
9886,-93.750000
9887,-93.750000
9888,-89.843750
9889,-89.843750
9890,-89.843750
9891,-89.843750
9892,-85.937500
9893,-85.937500
9894,-85.937500
9895,-82.031250
9896,-82.031250
9897,-82.031250
9898,-82.031250
9899,-82.031250
9900,-78.125000
9901,-78.125000
9902,-78.125000
9903,-74.218750
9904,-74.218750
9905,-74.218750
9906,-74.218750
9907,-70.312500
9908,-70.312500
9909,-70.312500
9910,-70.312500
9911,-66.406250
9912,-66.406250
9913,-62.500000
9914,-62.500000
9915,-62.500000
9916,-62.500000
9917,-62.500000
9918,-58.593750
9919,-58.593750
9920,-58.593750
9921,-54.687500
9922,-54.687500
9923,-54.687500
9924,-54.687500
9925,-50.781250
9926,-50.781250
9927,-50.781250
9928,-46.875000
9929,-46.875000
9930,-46.875000
9931,-46.875000
9932,-42.968750
9933,-42.968750
9934,-42.968750
9935,-39.062500
9936,-39.062500
9937,-39.062500
9938,-35.156250
9939,-35.156250
9940,-35.156250
9941,-35.156250
9942,-31.250000
9943,-31.250000
9944,-31.250000
9945,-27.343750
9946,-27.343750
9947,-27.343750
9948,-27.343750
9949,-23.437500
9950,-23.437500
9951,-23.437500
9952,-19.531250
9953,-19.531250
9954,-19.531250
9955,-19.531250
9956,-19.531250
9957,-15.625000
9958,-15.625000
9959,-15.625000
9960,-11.718750
9961,-11.718750
9962,-11.718750
9963,-7.812500
9964,-7.812500
9965,-7.812500
9966,-7.812500
9967,-3.906250
9968,-3.906250
9969,-3.906250
9970,0.000000
9971,0.000000
9972,0.000000
9973,0.000000
9974,0.000000
9975,3.906250
9976,3.906250
9977,3.906250
9978,7.812500
9979,7.812500
9980,7.812500
9981,11.718750
9982,11.718750
9983,11.718750
9984,15.625000
9985,15.625000
9986,15.625000
9987,15.625000
9988,15.625000
9989,19.531250
9990,19.531250
9991,19.531250
9992,23.437500
9993,23.437500
9994,23.437500
9995,23.437500
9996,23.437500
9997,27.343750
9998,27.343750
9999,27.343750
10000,31.250000
