Channel              :,CH1
Frequency            :,1.010kHz
Period               :,0.990ms
PK-PK                :,140.6mV
Probe attenuation    :,1X
Voltage per ADC value:,0.244141mV
Time interval        :,1.00000us

index,CH1_Voltage(mV)
1,-46.875000
2,-46.875000
3,-46.875000
4,-46.875000
5,-42.968750
6,-42.968750
7,-42.968750
8,-42.968750
9,-42.968750
10,-42.968750
11,-42.968750
12,-42.968750
13,-42.968750
14,-39.062500
15,-39.062500
16,-39.062500
17,-39.062500
18,-39.062500
19,-39.062500
20,-39.062500
21,-39.062500
22,-39.062500
23,-35.156250
24,-35.156250
25,-35.156250
26,-35.156250
27,-35.156250
28,-35.156250
29,-35.156250
30,-35.156250
31,-35.156250
32,-31.250000
33,-35.156250
34,-35.156250
35,-31.250000
36,-31.250000
37,-31.250000
38,-31.250000
39,-31.250000
40,-31.250000
41,-31.250000
42,-27.343750
43,-27.343750
44,-27.343750
45,-27.343750
46,-27.343750
47,-27.343750
48,-27.343750
49,-27.343750
50,-23.437500
51,-27.343750
52,-23.437500
53,-27.343750
54,-23.437500
55,-23.437500
56,-23.437500
57,-23.437500
58,-19.531250
59,-23.437500
60,-23.437500
61,-19.531250
62,-19.531250
63,-19.531250
64,-19.531250
65,-19.531250
66,-19.531250
67,-19.531250
68,-19.531250
69,-15.625000
70,-15.625000
71,-15.625000
72,-15.625000
73,-15.625000
74,-15.625000
75,-15.625000
76,-15.625000
77,-15.625000
78,-15.625000
79,-11.718750
80,-11.718750
81,-11.718750
82,-11.718750
83,-11.718750
84,-11.718750
85,-11.718750
86,-11.718750
87,-7.812500
88,-7.812500
89,-7.812500
90,-7.812500
91,-7.812500
92,-7.812500
93,-7.812500
94,-7.812500
95,-7.812500
96,-3.906250
97,-3.906250
98,-3.906250
99,-3.906250
100,-3.906250
101,-3.906250
102,-3.906250
103,-3.906250
104,-3.906250
105,0.000000
106,0.000000
107,0.000000
108,0.000000
109,0.000000
110,0.000000
111,0.000000
112,0.000000
113,0.000000
114,0.000000
115,3.906250
116,3.906250
117,3.906250
118,3.906250
119,3.906250
120,3.906250
121,3.906250
122,7.812500
123,3.906250
124,7.812500
125,7.812500
126,7.812500
127,7.812500
128,7.812500
129,7.812500
130,7.812500
131,7.812500
132,7.812500
133,7.812500
134,11.718750
135,11.718750
136,11.718750
137,11.718750
138,11.718750
139,11.718750
140,11.718750
141,11.718750
142,11.718750
143,11.718750
144,15.625000
145,11.718750
146,15.625000
147,15.625000
148,15.625000
149,15.625000
150,15.625000
151,15.625000
152,15.625000
153,15.625000
154,19.531250
155,19.531250
156,19.531250
157,19.531250
158,19.531250
159,19.531250
160,19.531250
161,19.531250
162,19.531250
163,19.531250
164,23.437500
165,23.437500
166,23.437500
167,23.437500
168,23.437500
169,23.437500
170,23.437500
171,23.437500
172,23.437500
173,23.437500
174,23.437500
175,23.437500
176,23.437500
177,27.343750
178,23.437500
179,27.343750
180,27.343750
181,27.343750
182,27.343750
183,27.343750
184,27.343750
185,27.343750
186,31.250000
187,31.250000
188,27.343750
189,27.343750
190,31.250000
191,31.250000
192,31.250000
193,31.250000
194,31.250000
195,31.250000
196,31.250000
197,31.250000
198,31.250000
199,31.250000
200,35.156250
201,35.156250
202,35.156250
203,35.156250
204,35.156250
205,35.156250
206,35.156250
207,35.156250
208,35.156250
209,35.156250
210,39.062500
211,35.156250
212,35.156250
213,39.062500
214,39.062500
215,39.062500
216,39.062500
217,39.062500
218,39.062500
219,39.062500
220,39.062500
221,39.062500
222,39.062500
223,39.062500
224,39.062500
225,39.062500
226,42.968750
227,42.968750
228,42.968750
229,42.968750
230,42.968750
231,42.968750
232,42.968750
233,42.968750
234,42.968750
235,42.968750
236,42.968750
237,42.968750
238,42.968750
239,42.968750
240,42.968750
241,42.968750
242,42.968750
243,42.968750
244,46.875000
245,46.875000
246,46.875000
247,46.875000
248,46.875000
249,46.875000
250,46.875000
251,46.875000
252,46.875000
253,46.875000
254,46.875000
255,46.875000
256,46.875000
257,46.875000
258,46.875000
259,46.875000
260,46.875000
261,46.875000
262,46.875000
263,46.875000
264,50.781250
265,46.875000
266,50.781250
267,46.875000
268,50.781250
269,50.781250
270,50.781250
271,50.781250
272,50.781250
273,50.781250
274,50.781250
275,50.781250
276,50.781250
277,50.781250
278,50.781250
279,50.781250
280,50.781250
281,50.781250
282,50.781250
283,50.781250
284,50.781250
285,50.781250
286,50.781250
287,50.781250
288,50.781250
289,50.781250
290,50.781250
291,50.781250
292,50.781250
293,50.781250
294,54.687500
295,54.687500
296,54.687500
297,50.781250
298,50.781250
299,50.781250
300,54.687500
301,54.687500
302,54.687500
303,54.687500
304,54.687500
305,54.687500
306,54.687500
307,54.687500
308,54.687500
309,54.687500
310,54.687500
311,54.687500
312,54.687500
313,54.687500
314,54.687500
315,54.687500
316,54.687500
317,54.687500
318,54.687500
319,54.687500
320,54.687500
321,54.687500
322,54.687500
323,54.687500
324,54.687500
325,54.687500
326,54.687500
327,54.687500
328,54.687500
329,54.687500
330,54.687500
331,54.687500
332,54.687500
333,54.687500
334,54.687500
335,54.687500
336,54.687500
337,54.687500
338,54.687500
339,54.687500
340,54.687500
341,54.687500
342,54.687500
343,54.687500
344,54.687500
345,54.687500
346,54.687500
347,54.687500
348,54.687500
349,54.687500
350,54.687500
351,54.687500
352,54.687500
353,54.687500
354,54.687500
355,54.687500
356,54.687500
357,54.687500
358,54.687500
359,54.687500
360,54.687500
361,54.687500
362,54.687500
363,54.687500
364,54.687500
365,54.687500
366,54.687500
367,54.687500
368,54.687500
369,54.687500
370,54.687500
371,54.687500
372,54.687500
373,54.687500
374,54.687500
375,54.687500
376,50.781250
377,50.781250
378,54.687500
379,54.687500
380,54.687500
381,54.687500
382,54.687500
383,50.781250
384,54.687500
385,50.781250
386,50.781250
387,50.781250
388,50.781250
389,50.781250
390,50.781250
391,50.781250
392,50.781250
393,50.781250
394,50.781250
395,50.781250
396,50.781250
397,50.781250
398,50.781250
399,50.781250
400,50.781250
401,50.781250
402,50.781250
403,50.781250
404,50.781250
405,46.875000
406,46.875000
407,50.781250
408,50.781250
409,50.781250
410,46.875000
411,46.875000
412,46.875000
413,46.875000
414,46.875000
415,46.875000
416,46.875000
417,46.875000
418,46.875000
419,46.875000
420,46.875000
421,46.875000
422,46.875000
423,46.875000
424,46.875000
425,46.875000
426,46.875000
427,42.968750
428,42.968750
429,42.968750
430,42.968750
431,42.968750
432,42.968750
433,42.968750
434,42.968750
435,42.968750
436,42.968750
437,42.968750
438,42.968750
439,42.968750
440,42.968750
441,42.968750
442,42.968750
443,42.968750
444,39.062500
445,39.062500
446,39.062500
447,39.062500
448,39.062500
449,39.062500
450,39.062500
451,39.062500
452,39.062500
453,39.062500
454,39.062500
455,39.062500
456,39.062500
457,39.062500
458,39.062500
459,39.062500
460,39.062500
461,35.156250
462,35.156250
463,35.156250
464,35.156250
465,35.156250
466,35.156250
467,35.156250
468,35.156250
469,35.156250
470,35.156250
471,31.250000
472,31.250000
473,31.250000
474,31.250000
475,31.250000
476,31.250000
477,31.250000
478,31.250000
479,31.250000
480,31.250000
481,31.250000
482,31.250000
483,31.250000
484,31.250000
485,31.250000
486,27.343750
487,27.343750
488,27.343750
489,27.343750
490,27.343750
491,27.343750
492,27.343750
493,27.343750
494,27.343750
495,27.343750
496,23.437500
497,23.437500
498,23.437500
499,23.437500
500,23.437500
501,23.437500
502,23.437500
503,23.437500
504,23.437500
505,23.437500
506,23.437500
507,23.437500
508,23.437500
509,19.531250
510,19.531250
511,19.531250
512,19.531250
513,19.531250
514,19.531250
515,19.531250
516,19.531250
517,15.625000
518,15.625000
519,15.625000
520,15.625000
521,15.625000
522,15.625000
523,15.625000
524,15.625000
525,15.625000
526,15.625000
527,15.625000
528,15.625000
529,11.718750
530,11.718750
531,11.718750
532,11.718750
533,11.718750
534,11.718750
535,11.718750
536,11.718750
537,7.812500
538,7.812500
539,7.812500
540,7.812500
541,7.812500
542,7.812500
543,7.812500
544,7.812500
545,7.812500
546,3.906250
547,3.906250
548,3.906250
549,3.906250
550,3.906250
551,3.906250
552,3.906250
553,3.906250
554,3.906250
555,0.000000
556,0.000000
557,0.000000
558,0.000000
559,0.000000
560,0.000000
561,0.000000
562,0.000000
563,0.000000
564,0.000000
565,-3.906250
566,-3.906250
567,-3.906250
568,-3.906250
569,-3.906250
570,-3.906250
571,-3.906250
572,-3.906250
573,-3.906250
574,-3.906250
575,-7.812500
576,-7.812500
577,-7.812500
578,-7.812500
579,-7.812500
580,-7.812500
581,-7.812500
582,-7.812500
583,-11.718750
584,-11.718750
585,-11.718750
586,-11.718750
587,-11.718750
588,-11.718750
589,-11.718750
590,-11.718750
591,-15.625000
592,-11.718750
593,-11.718750
594,-11.718750
595,-15.625000
596,-15.625000
597,-15.625000
598,-15.625000
599,-15.625000
600,-15.625000
601,-19.531250
602,-15.625000
603,-15.625000
604,-19.531250
605,-19.531250
606,-19.531250
607,-19.531250
608,-19.531250
609,-19.531250
610,-19.531250
611,-19.531250
612,-23.437500
613,-23.437500
614,-23.437500
615,-23.437500
616,-23.437500
617,-23.437500
618,-23.437500
619,-23.437500
620,-27.343750
621,-27.343750
622,-27.343750
623,-27.343750
624,-27.343750
625,-27.343750
626,-27.343750
627,-27.343750
628,-27.343750
629,-31.250000
630,-31.250000
631,-31.250000
632,-31.250000
633,-31.250000
634,-31.250000
635,-31.250000
636,-31.250000
637,-35.156250
638,-35.156250
639,-35.156250
640,-35.156250
641,-35.156250
642,-35.156250
643,-35.156250
644,-35.156250
645,-35.156250
646,-35.156250
647,-39.062500
648,-39.062500
649,-39.062500
650,-39.062500
651,-39.062500
652,-39.062500
653,-39.062500
654,-39.062500
655,-42.968750
656,-42.968750
657,-42.968750
658,-39.062500
659,-42.968750
660,-42.968750
661,-42.968750
662,-42.968750
663,-42.968750
664,-42.968750
665,-42.968750
666,-42.968750
667,-46.875000
668,-46.875000
669,-46.875000
670,-46.875000
671,-46.875000
672,-46.875000
673,-50.781250
674,-46.875000
675,-46.875000
676,-46.875000
677,-50.781250
678,-50.781250
679,-50.781250
680,-50.781250
681,-50.781250
682,-50.781250
683,-50.781250
684,-50.781250
685,-50.781250
686,-54.687500
687,-54.687500
688,-54.687500
689,-54.687500
690,-54.687500
691,-54.687500
692,-54.687500
693,-54.687500
694,-54.687500
695,-54.687500
696,-54.687500
697,-54.687500
698,-58.593750
699,-58.593750
700,-58.593750
701,-58.593750
702,-58.593750
703,-58.593750
704,-58.593750
705,-58.593750
706,-58.593750
707,-62.500000
708,-58.593750
709,-62.500000
710,-62.500000
711,-62.500000
712,-62.500000
713,-62.500000
714,-62.500000
715,-62.500000
716,-62.500000
717,-62.500000
718,-62.500000
719,-62.500000
720,-62.500000
721,-66.406250
722,-66.406250
723,-66.406250
724,-66.406250
725,-66.406250
726,-66.406250
727,-66.406250
728,-66.406250
729,-66.406250
730,-66.406250
731,-66.406250
732,-66.406250
733,-66.406250
734,-66.406250
735,-70.312500
736,-70.312500
737,-70.312500
738,-70.312500
739,-66.406250
740,-70.312500
741,-70.312500
742,-70.312500
743,-70.312500
744,-70.312500
745,-70.312500
746,-70.312500
747,-70.312500
748,-70.312500
749,-70.312500
750,-70.312500
751,-70.312500
752,-74.218750
753,-74.218750
754,-74.218750
755,-74.218750
756,-70.312500
757,-74.218750
758,-74.218750
759,-74.218750
760,-74.218750
761,-74.218750
762,-74.218750
763,-74.218750
764,-74.218750
765,-74.218750
766,-74.218750
767,-74.218750
768,-74.218750
769,-74.218750
770,-78.125000
771,-78.125000
772,-78.125000
773,-78.125000
774,-78.125000
775,-78.125000
776,-78.125000
777,-78.125000
778,-78.125000
779,-78.125000
780,-78.125000
781,-78.125000
782,-78.125000
783,-78.125000
784,-78.125000
785,-78.125000
786,-78.125000
787,-78.125000
788,-78.125000
789,-82.031250
790,-78.125000
791,-78.125000
792,-78.125000
793,-82.031250
794,-78.125000
795,-78.125000
796,-78.125000
797,-82.031250
798,-82.031250
799,-82.031250
800,-82.031250
801,-82.031250
802,-78.125000
803,-82.031250
804,-82.031250
805,-82.031250
806,-82.031250
807,-82.031250
808,-82.031250
809,-82.031250
810,-82.031250
811,-82.031250
812,-82.031250
813,-82.031250
814,-82.031250
815,-82.031250
816,-82.031250
817,-82.031250
818,-82.031250
819,-82.031250
820,-82.031250
821,-82.031250
822,-82.031250
823,-82.031250
824,-82.031250
825,-82.031250
826,-82.031250
827,-82.031250
828,-82.031250
829,-82.031250
830,-82.031250
831,-82.031250
832,-82.031250
833,-82.031250
834,-82.031250
835,-82.031250
836,-82.031250
837,-82.031250
838,-82.031250
839,-82.031250
840,-82.031250
841,-82.031250
842,-82.031250
843,-82.031250
844,-82.031250
845,-82.031250
846,-82.031250
847,-82.031250
848,-82.031250
849,-82.031250
850,-82.031250
851,-82.031250
852,-82.031250
853,-82.031250
854,-82.031250
855,-82.031250
856,-82.031250
857,-82.031250
858,-82.031250
859,-82.031250
860,-82.031250
861,-78.125000
862,-78.125000
863,-78.125000
864,-78.125000
865,-78.125000
866,-78.125000
867,-78.125000
868,-78.125000
869,-78.125000
870,-78.125000
871,-78.125000
872,-78.125000
873,-78.125000
874,-78.125000
875,-78.125000
876,-78.125000
877,-78.125000
878,-78.125000
879,-78.125000
880,-78.125000
881,-78.125000
882,-78.125000
883,-78.125000
884,-78.125000
885,-78.125000
886,-74.218750
887,-74.218750
888,-78.125000
889,-74.218750
890,-74.218750
891,-74.218750
892,-74.218750
893,-78.125000
894,-74.218750
895,-74.218750
896,-74.218750
897,-74.218750
898,-74.218750
899,-74.218750
900,-74.218750
901,-74.218750
902,-74.218750
903,-74.218750
904,-74.218750
905,-74.218750
906,-70.312500
907,-70.312500
908,-70.312500
909,-74.218750
910,-74.218750
911,-70.312500
912,-70.312500
913,-70.312500
914,-70.312500
915,-70.312500
916,-70.312500
917,-70.312500
918,-70.312500
919,-70.312500
920,-70.312500
921,-70.312500
922,-70.312500
923,-70.312500
924,-70.312500
925,-66.406250
926,-66.406250
927,-66.406250
928,-66.406250
929,-66.406250
930,-66.406250
931,-66.406250
932,-66.406250
933,-66.406250
934,-66.406250
935,-66.406250
936,-66.406250
937,-66.406250
938,-62.500000
939,-62.500000
940,-62.500000
941,-62.500000
942,-62.500000
943,-62.500000
944,-62.500000
945,-62.500000
946,-62.500000
947,-62.500000
948,-62.500000
949,-62.500000
950,-62.500000
951,-58.593750
952,-58.593750
953,-58.593750
954,-58.593750
955,-58.593750
956,-58.593750
957,-58.593750
958,-58.593750
959,-58.593750
960,-58.593750
961,-58.593750
962,-54.687500
963,-54.687500
964,-54.687500
965,-54.687500
966,-54.687500
967,-54.687500
968,-54.687500
969,-54.687500
970,-54.687500
971,-54.687500
972,-54.687500
973,-50.781250
974,-50.781250
975,-50.781250
976,-50.781250
977,-50.781250
978,-50.781250
979,-50.781250
980,-50.781250
981,-50.781250
982,-46.875000
983,-50.781250
984,-46.875000
985,-46.875000
986,-46.875000
987,-46.875000
988,-46.875000
989,-46.875000
990,-46.875000
991,-46.875000
992,-46.875000
993,-46.875000
994,-42.968750
995,-42.968750
996,-42.968750
997,-42.968750
998,-42.968750
999,-42.968750
1000,-42.968750
1001,-42.968750
1002,-39.062500
1003,-42.968750
1004,-39.062500
1005,-39.062500
1006,-39.062500
1007,-39.062500
1008,-39.062500
1009,-39.062500
1010,-39.062500
1011,-39.062500
1012,-39.062500
1013,-35.156250
1014,-35.156250
1015,-35.156250
1016,-35.156250
1017,-35.156250
1018,-35.156250
1019,-35.156250
1020,-35.156250
1021,-35.156250
1022,-35.156250
1023,-31.250000
1024,-31.250000
1025,-31.250000
1026,-31.250000
1027,-31.250000
1028,-31.250000
1029,-31.250000
1030,-31.250000
1031,-31.250000
1032,-27.343750
1033,-27.343750
1034,-27.343750
1035,-27.343750
1036,-27.343750
1037,-27.343750
1038,-27.343750
1039,-27.343750
1040,-23.437500
1041,-23.437500
1042,-23.437500
1043,-23.437500
1044,-23.437500
1045,-23.437500
1046,-23.437500
1047,-23.437500
1048,-23.437500
1049,-23.437500
1050,-19.531250
1051,-19.531250
1052,-19.531250
1053,-19.531250
1054,-19.531250
1055,-19.531250
1056,-19.531250
1057,-19.531250
1058,-19.531250
1059,-19.531250
1060,-15.625000
1061,-15.625000
1062,-15.625000
1063,-15.625000
1064,-15.625000
1065,-15.625000
1066,-15.625000
1067,-15.625000
1068,-11.718750
1069,-15.625000
1070,-11.718750
1071,-11.718750
1072,-11.718750
1073,-11.718750
1074,-11.718750
1075,-11.718750
1076,-7.812500
1077,-11.718750
1078,-11.718750
1079,-7.812500
1080,-7.812500
1081,-7.812500
1082,-7.812500
1083,-7.812500
1084,-7.812500
1085,-7.812500
1086,-7.812500
1087,-3.906250
1088,-3.906250
1089,-3.906250
1090,-3.906250
1091,-3.906250
1092,-3.906250
1093,-3.906250
1094,-3.906250
1095,0.000000
1096,0.000000
1097,0.000000
1098,0.000000
1099,0.000000
1100,0.000000
1101,0.000000
1102,0.000000
1103,0.000000
1104,0.000000
1105,0.000000
1106,3.906250
1107,3.906250
1108,3.906250
1109,3.906250
1110,3.906250
1111,3.906250
1112,3.906250
1113,3.906250
1114,7.812500
1115,7.812500
1116,7.812500
1117,7.812500
1118,7.812500
1119,7.812500
1120,7.812500
1121,7.812500
1122,11.718750
1123,7.812500
1124,7.812500
1125,11.718750
1126,11.718750
1127,11.718750
1128,11.718750
1129,11.718750
1130,11.718750
1131,11.718750
1132,11.718750
1133,15.625000
1134,15.625000
1135,15.625000
1136,15.625000
1137,15.625000
1138,15.625000
1139,15.625000
1140,15.625000
1141,15.625000
1142,19.531250
1143,19.531250
1144,19.531250
1145,15.625000
1146,19.531250
1147,19.531250
1148,19.531250
1149,19.531250
1150,19.531250
1151,19.531250
1152,23.437500
1153,19.531250
1154,23.437500
1155,23.437500
1156,23.437500
1157,23.437500
1158,23.437500
1159,23.437500
1160,23.437500
1161,23.437500
1162,23.437500
1163,23.437500
1164,27.343750
1165,23.437500
1166,23.437500
1167,27.343750
1168,27.343750
1169,27.343750
1170,27.343750
1171,27.343750
1172,27.343750
1173,27.343750
1174,27.343750
1175,27.343750
1176,27.343750
1177,27.343750
1178,31.250000
1179,31.250000
1180,31.250000
1181,31.250000
1182,31.250000
1183,31.250000
1184,31.250000
1185,31.250000
1186,31.250000
1187,31.250000
1188,31.250000
1189,31.250000
1190,35.156250
1191,35.156250
1192,35.156250
1193,35.156250
1194,35.156250
1195,35.156250
1196,35.156250
1197,35.156250
1198,35.156250
1199,35.156250
1200,35.156250
1201,35.156250
1202,35.156250
1203,35.156250
1204,35.156250
1205,39.062500
1206,39.062500
1207,39.062500
1208,39.062500
1209,39.062500
1210,39.062500
1211,39.062500
1212,39.062500
1213,39.062500
1214,39.062500
1215,39.062500
1216,42.968750
1217,39.062500
1218,42.968750
1219,39.062500
1220,39.062500
1221,39.062500
1222,42.968750
1223,42.968750
1224,42.968750
1225,42.968750
1226,42.968750
1227,42.968750
1228,42.968750
1229,42.968750
1230,42.968750
1231,42.968750
1232,42.968750
1233,42.968750
1234,46.875000
1235,42.968750
1236,42.968750
1237,42.968750
1238,46.875000
1239,46.875000
1240,46.875000
1241,46.875000
1242,46.875000
1243,46.875000
1244,46.875000
1245,46.875000
1246,46.875000
1247,46.875000
1248,46.875000
1249,46.875000
1250,46.875000
1251,46.875000
1252,46.875000
1253,46.875000
1254,46.875000
1255,50.781250
1256,50.781250
1257,50.781250
1258,50.781250
1259,50.781250
1260,50.781250
1261,50.781250
1262,50.781250
1263,50.781250
1264,50.781250
1265,50.781250
1266,50.781250
1267,50.781250
1268,50.781250
1269,50.781250
1270,50.781250
1271,50.781250
1272,50.781250
1273,50.781250
1274,50.781250
1275,50.781250
1276,50.781250
1277,50.781250
1278,50.781250
1279,54.687500
1280,54.687500
1281,54.687500
1282,50.781250
1283,50.781250
1284,50.781250
1285,50.781250
1286,54.687500
1287,54.687500
1288,54.687500
1289,54.687500
1290,54.687500
1291,54.687500
1292,54.687500
1293,54.687500
1294,54.687500
1295,54.687500
1296,54.687500
1297,54.687500
1298,54.687500
1299,54.687500
1300,54.687500
1301,54.687500
1302,54.687500
1303,54.687500
1304,54.687500
1305,54.687500
1306,54.687500
1307,54.687500
1308,54.687500
1309,54.687500
1310,54.687500
1311,54.687500
1312,54.687500
1313,54.687500
1314,54.687500
1315,54.687500
1316,54.687500
1317,54.687500
1318,54.687500
1319,54.687500
1320,54.687500
1321,54.687500
1322,54.687500
1323,54.687500
1324,54.687500
1325,54.687500
1326,54.687500
1327,54.687500
1328,54.687500
1329,54.687500
1330,54.687500
1331,54.687500
1332,54.687500
1333,54.687500
1334,54.687500
1335,54.687500
1336,54.687500
1337,54.687500
1338,54.687500
1339,54.687500
1340,54.687500
1341,54.687500
1342,54.687500
1343,54.687500
1344,54.687500
1345,54.687500
1346,54.687500
1347,54.687500
1348,54.687500
1349,54.687500
1350,54.687500
1351,54.687500
1352,54.687500
1353,54.687500
1354,54.687500
1355,54.687500
1356,54.687500
1357,54.687500
1358,50.781250
1359,54.687500
1360,54.687500
1361,54.687500
1362,54.687500
1363,54.687500
1364,54.687500
1365,50.781250
1366,50.781250
1367,50.781250
1368,50.781250
1369,50.781250
1370,54.687500
1371,54.687500
1372,54.687500
1373,50.781250
1374,50.781250
1375,50.781250
1376,50.781250
1377,50.781250
1378,50.781250
1379,50.781250
1380,50.781250
1381,50.781250
1382,50.781250
1383,50.781250
1384,50.781250
1385,50.781250
1386,50.781250
1387,50.781250
1388,50.781250
1389,50.781250
1390,50.781250
1391,50.781250
1392,50.781250
1393,50.781250
1394,50.781250
1395,50.781250
1396,46.875000
1397,46.875000
1398,50.781250
1399,50.781250
1400,50.781250
1401,46.875000
1402,50.781250
1403,46.875000
1404,46.875000
1405,46.875000
1406,46.875000
1407,46.875000
1408,46.875000
1409,46.875000
1410,46.875000
1411,46.875000
1412,46.875000
1413,46.875000
1414,46.875000
1415,46.875000
1416,46.875000
1417,46.875000
1418,46.875000
1419,46.875000
1420,46.875000
1421,42.968750
1422,42.968750
1423,42.968750
1424,42.968750
1425,42.968750
1426,42.968750
1427,42.968750
1428,42.968750
1429,42.968750
1430,42.968750
1431,39.062500
1432,42.968750
1433,42.968750
1434,42.968750
1435,39.062500
1436,39.062500
1437,39.062500
1438,39.062500
1439,39.062500
1440,39.062500
1441,39.062500
1442,39.062500
1443,39.062500
1444,39.062500
1445,39.062500
1446,39.062500
1447,35.156250
1448,35.156250
1449,39.062500
1450,39.062500
1451,35.156250
1452,35.156250
1453,35.156250
1454,35.156250
1455,35.156250
1456,35.156250
1457,35.156250
1458,35.156250
1459,35.156250
1460,35.156250
1461,31.250000
1462,35.156250
1463,31.250000
1464,31.250000
1465,31.250000
1466,31.250000
1467,31.250000
1468,31.250000
1469,31.250000
1470,31.250000
1471,31.250000
1472,31.250000
1473,27.343750
1474,27.343750
1475,27.343750
1476,27.343750
1477,27.343750
1478,27.343750
1479,27.343750
1480,27.343750
1481,27.343750
1482,27.343750
1483,27.343750
1484,27.343750
1485,27.343750
1486,27.343750
1487,23.437500
1488,23.437500
1489,23.437500
1490,23.437500
1491,23.437500
1492,23.437500
1493,23.437500
1494,23.437500
1495,23.437500
1496,23.437500
1497,19.531250
1498,19.531250
1499,19.531250
1500,19.531250
1501,19.531250
1502,19.531250
1503,19.531250
1504,19.531250
1505,19.531250
1506,19.531250
1507,15.625000
1508,15.625000
1509,15.625000
1510,15.625000
1511,15.625000
1512,15.625000
1513,15.625000
1514,15.625000
1515,15.625000
1516,15.625000
1517,15.625000
1518,11.718750
1519,11.718750
1520,11.718750
1521,11.718750
1522,11.718750
1523,11.718750
1524,11.718750
1525,11.718750
1526,11.718750
1527,11.718750
1528,11.718750
1529,7.812500
1530,7.812500
1531,7.812500
1532,7.812500
1533,7.812500
1534,7.812500
1535,7.812500
1536,7.812500
1537,3.906250
1538,3.906250
1539,3.906250
1540,3.906250
1541,3.906250
1542,3.906250
1543,3.906250
1544,3.906250
1545,0.000000
1546,0.000000
1547,0.000000
1548,0.000000
1549,0.000000
1550,0.000000
1551,0.000000
1552,0.000000
1553,0.000000
1554,0.000000
1555,-3.906250
1556,-3.906250
1557,-3.906250
1558,-3.906250
1559,-3.906250
1560,-3.906250
1561,-3.906250
1562,-3.906250
1563,-3.906250
1564,-7.812500
1565,-7.812500
1566,-7.812500
1567,-7.812500
1568,-7.812500
1569,-7.812500
1570,-7.812500
1571,-7.812500
1572,-11.718750
1573,-11.718750
1574,-11.718750
1575,-11.718750
1576,-11.718750
1577,-11.718750
1578,-15.625000
1579,-11.718750
1580,-11.718750
1581,-15.625000
1582,-15.625000
1583,-15.625000
1584,-15.625000
1585,-15.625000
1586,-15.625000
1587,-15.625000
1588,-15.625000
1589,-15.625000
1590,-19.531250
1591,-19.531250
1592,-19.531250
1593,-19.531250
1594,-19.531250
1595,-19.531250
1596,-19.531250
1597,-19.531250
1598,-19.531250
1599,-19.531250
1600,-19.531250
1601,-23.437500
1602,-23.437500
1603,-23.437500
1604,-23.437500
1605,-23.437500
1606,-23.437500
1607,-27.343750
1608,-23.437500
1609,-27.343750
1610,-23.437500
1611,-27.343750
1612,-27.343750
1613,-27.343750
1614,-27.343750
1615,-31.250000
1616,-31.250000
1617,-31.250000
1618,-31.250000
1619,-31.250000
1620,-31.250000
1621,-31.250000
1622,-31.250000
1623,-31.250000
1624,-31.250000
1625,-31.250000
1626,-31.250000
1627,-35.156250
1628,-35.156250
1629,-35.156250
1630,-35.156250
1631,-35.156250
1632,-35.156250
1633,-35.156250
1634,-35.156250
1635,-35.156250
1636,-39.062500
1637,-39.062500
1638,-39.062500
1639,-39.062500
1640,-39.062500
1641,-39.062500
1642,-39.062500
1643,-39.062500
1644,-39.062500
1645,-39.062500
1646,-42.968750
1647,-42.968750
1648,-42.968750
1649,-42.968750
1650,-42.968750
1651,-42.968750
1652,-42.968750
1653,-42.968750
1654,-42.968750
1655,-42.968750
1656,-46.875000
1657,-46.875000
1658,-46.875000
1659,-46.875000
1660,-46.875000
1661,-46.875000
1662,-46.875000
1663,-46.875000
1664,-46.875000
1665,-50.781250
1666,-50.781250
1667,-50.781250
1668,-50.781250
1669,-50.781250
1670,-50.781250
1671,-50.781250
1672,-50.781250
1673,-50.781250
1674,-50.781250
1675,-50.781250
1676,-54.687500
1677,-54.687500
1678,-54.687500
1679,-54.687500
1680,-54.687500
1681,-54.687500
1682,-54.687500
1683,-54.687500
1684,-54.687500
1685,-58.593750
1686,-58.593750
1687,-58.593750
1688,-58.593750
1689,-58.593750
1690,-58.593750
1691,-58.593750
1692,-58.593750
1693,-58.593750
1694,-58.593750
1695,-58.593750
1696,-62.500000
1697,-58.593750
1698,-62.500000
1699,-62.500000
1700,-62.500000
1701,-62.500000
1702,-62.500000
1703,-62.500000
1704,-62.500000
1705,-62.500000
1706,-62.500000
1707,-62.500000
1708,-62.500000
1709,-66.406250
1710,-62.500000
1711,-66.406250
1712,-66.406250
1713,-66.406250
1714,-66.406250
1715,-66.406250
1716,-66.406250
1717,-66.406250
1718,-66.406250
1719,-66.406250
1720,-66.406250
1721,-66.406250
1722,-66.406250
1723,-66.406250
1724,-66.406250
1725,-70.312500
1726,-70.312500
1727,-70.312500
1728,-70.312500
1729,-70.312500
1730,-70.312500
1731,-70.312500
1732,-70.312500
1733,-70.312500
1734,-70.312500
1735,-70.312500
1736,-74.218750
1737,-70.312500
1738,-70.312500
1739,-70.312500
1740,-70.312500
1741,-74.218750
1742,-74.218750
1743,-74.218750
1744,-74.218750
1745,-74.218750
1746,-74.218750
1747,-74.218750
1748,-74.218750
1749,-74.218750
1750,-74.218750
1751,-74.218750
1752,-74.218750
1753,-74.218750
1754,-74.218750
1755,-74.218750
1756,-74.218750
1757,-74.218750
1758,-74.218750
1759,-78.125000
1760,-78.125000
1761,-78.125000
1762,-78.125000
1763,-78.125000
1764,-78.125000
1765,-78.125000
1766,-78.125000
1767,-78.125000
1768,-78.125000
1769,-78.125000
1770,-78.125000
1771,-78.125000
1772,-78.125000
1773,-78.125000
1774,-78.125000
1775,-78.125000
1776,-78.125000
1777,-78.125000
1778,-78.125000
1779,-78.125000
1780,-78.125000
1781,-78.125000
1782,-78.125000
1783,-78.125000
1784,-78.125000
1785,-78.125000
1786,-78.125000
1787,-78.125000
1788,-78.125000
1789,-82.031250
1790,-78.125000
1791,-78.125000
1792,-78.125000
1793,-78.125000
1794,-82.031250
1795,-82.031250
1796,-82.031250
1797,-82.031250
1798,-82.031250
1799,-82.031250
1800,-82.031250
1801,-82.031250
1802,-78.125000
1803,-82.031250
1804,-82.031250
1805,-82.031250
1806,-82.031250
1807,-82.031250
1808,-82.031250
1809,-82.031250
1810,-82.031250
1811,-82.031250
1812,-82.031250
1813,-82.031250
1814,-82.031250
1815,-82.031250
1816,-82.031250
1817,-82.031250
1818,-82.031250
1819,-82.031250
1820,-82.031250
1821,-82.031250
1822,-82.031250
1823,-82.031250
1824,-82.031250
1825,-82.031250
1826,-82.031250
1827,-82.031250
1828,-82.031250
1829,-82.031250
1830,-82.031250
1831,-82.031250
1832,-82.031250
1833,-82.031250
1834,-82.031250
1835,-82.031250
1836,-82.031250
1837,-82.031250
1838,-82.031250
1839,-82.031250
1840,-82.031250
1841,-78.125000
1842,-78.125000
1843,-82.031250
1844,-82.031250
1845,-82.031250
1846,-78.125000
1847,-82.031250
1848,-82.031250
1849,-78.125000
1850,-78.125000
1851,-78.125000
1852,-78.125000
1853,-78.125000
1854,-78.125000
1855,-78.125000
1856,-78.125000
1857,-78.125000
1858,-78.125000
1859,-78.125000
1860,-78.125000
1861,-78.125000
1862,-78.125000
1863,-78.125000
1864,-78.125000
1865,-78.125000
1866,-78.125000
1867,-78.125000
1868,-78.125000
1869,-78.125000
1870,-78.125000
1871,-78.125000
1872,-78.125000
1873,-78.125000
1874,-78.125000
1875,-78.125000
1876,-78.125000
1877,-78.125000
1878,-78.125000
1879,-74.218750
1880,-74.218750
1881,-74.218750
1882,-74.218750
1883,-74.218750
1884,-74.218750
1885,-74.218750
1886,-74.218750
1887,-74.218750
1888,-74.218750
1889,-74.218750
1890,-74.218750
1891,-74.218750
1892,-74.218750
1893,-74.218750
1894,-74.218750
1895,-74.218750
1896,-70.312500
1897,-74.218750
1898,-70.312500
1899,-70.312500
1900,-70.312500
1901,-70.312500
1902,-70.312500
1903,-70.312500
1904,-70.312500
1905,-70.312500
1906,-70.312500
1907,-70.312500
1908,-70.312500
1909,-70.312500
1910,-66.406250
1911,-70.312500
1912,-70.312500
1913,-66.406250
1914,-66.406250
1915,-66.406250
1916,-66.406250
1917,-66.406250
1918,-66.406250
1919,-66.406250
1920,-66.406250
1921,-66.406250
1922,-66.406250
1923,-66.406250
1924,-66.406250
1925,-66.406250
1926,-62.500000
1927,-62.500000
1928,-62.500000
1929,-62.500000
1930,-62.500000
1931,-62.500000
1932,-62.500000
1933,-62.500000
1934,-62.500000
1935,-62.500000
1936,-62.500000
1937,-62.500000
1938,-58.593750
1939,-62.500000
1940,-58.593750
1941,-58.593750
1942,-58.593750
1943,-58.593750
1944,-58.593750
1945,-58.593750
1946,-58.593750
1947,-58.593750
1948,-58.593750
1949,-58.593750
1950,-54.687500
1951,-58.593750
1952,-54.687500
1953,-54.687500
1954,-54.687500
1955,-54.687500
1956,-54.687500
1957,-54.687500
1958,-54.687500
1959,-54.687500
1960,-54.687500
1961,-54.687500
1962,-54.687500
1963,-50.781250
1964,-50.781250
1965,-50.781250
1966,-50.781250
1967,-50.781250
1968,-50.781250
1969,-50.781250
1970,-50.781250
1971,-50.781250
1972,-50.781250
1973,-50.781250
1974,-46.875000
1975,-46.875000
1976,-46.875000
1977,-46.875000
1978,-46.875000
1979,-46.875000
1980,-46.875000
1981,-46.875000
1982,-42.968750
1983,-46.875000
1984,-42.968750
1985,-42.968750
1986,-42.968750
1987,-42.968750
1988,-42.968750
1989,-42.968750
1990,-42.968750
1991,-42.968750
1992,-42.968750
1993,-42.968750
1994,-39.062500
1995,-39.062500
1996,-39.062500
1997,-39.062500
1998,-39.062500
1999,-39.062500
2000,-39.062500
2001,-39.062500
2002,-39.062500
2003,-39.062500
2004,-39.062500
2005,-35.156250
2006,-35.156250
2007,-35.156250
2008,-35.156250
2009,-35.156250
2010,-35.156250
2011,-35.156250
2012,-31.250000
2013,-31.250000
2014,-31.250000
2015,-31.250000
2016,-31.250000
2017,-31.250000
2018,-31.250000
2019,-31.250000
2020,-31.250000
2021,-31.250000
2022,-27.343750
2023,-27.343750
2024,-27.343750
2025,-27.343750
2026,-27.343750
2027,-27.343750
2028,-27.343750
2029,-27.343750
2030,-27.343750
2031,-23.437500
2032,-23.437500
2033,-23.437500
2034,-23.437500
2035,-23.437500
2036,-23.437500
2037,-23.437500
2038,-23.437500
2039,-23.437500
2040,-23.437500
2041,-19.531250
2042,-19.531250
2043,-19.531250
2044,-19.531250
2045,-19.531250
2046,-19.531250
2047,-15.625000
2048,-19.531250
2049,-15.625000
2050,-15.625000
2051,-15.625000
2052,-15.625000
2053,-15.625000
2054,-15.625000
2055,-15.625000
2056,-15.625000
2057,-11.718750
2058,-15.625000
2059,-11.718750
2060,-11.718750
2061,-11.718750
2062,-11.718750
2063,-11.718750
2064,-11.718750
2065,-11.718750
2066,-7.812500
2067,-7.812500
2068,-7.812500
2069,-7.812500
2070,-7.812500
2071,-7.812500
2072,-7.812500
2073,-7.812500
2074,-7.812500
2075,-3.906250
2076,-3.906250
2077,-3.906250
2078,-3.906250
2079,-3.906250
2080,-3.906250
2081,-3.906250
2082,-3.906250
2083,-3.906250
2084,-3.906250
2085,0.000000
2086,0.000000
2087,0.000000
2088,0.000000
2089,0.000000
2090,0.000000
2091,0.000000
2092,0.000000
2093,0.000000
2094,0.000000
2095,3.906250
2096,3.906250
2097,3.906250
2098,3.906250
2099,3.906250
2100,3.906250
2101,3.906250
2102,3.906250
2103,3.906250
2104,7.812500
2105,7.812500
2106,7.812500
2107,7.812500
2108,7.812500
2109,7.812500
2110,7.812500
2111,7.812500
2112,7.812500
2113,7.812500
2114,7.812500
2115,11.718750
2116,11.718750
2117,11.718750
2118,11.718750
2119,11.718750
2120,11.718750
2121,11.718750
2122,15.625000
2123,11.718750
2124,15.625000
2125,15.625000
2126,15.625000
2127,15.625000
2128,15.625000
2129,15.625000
2130,15.625000
2131,15.625000
2132,19.531250
2133,15.625000
2134,15.625000
2135,19.531250
2136,19.531250
2137,19.531250
2138,19.531250
2139,19.531250
2140,19.531250
2141,19.531250
2142,19.531250
2143,19.531250
2144,19.531250
2145,19.531250
2146,23.437500
2147,23.437500
2148,23.437500
2149,23.437500
2150,23.437500
2151,23.437500
2152,23.437500
2153,23.437500
2154,27.343750
2155,27.343750
2156,27.343750
2157,27.343750
2158,27.343750
2159,27.343750
2160,27.343750
2161,27.343750
2162,27.343750
2163,27.343750
2164,27.343750
2165,27.343750
2166,31.250000
2167,31.250000
2168,31.250000
2169,31.250000
2170,31.250000
2171,31.250000
2172,31.250000
2173,31.250000
2174,31.250000
2175,31.250000
2176,31.250000
2177,31.250000
2178,35.156250
2179,35.156250
2180,35.156250
2181,35.156250
2182,35.156250
2183,35.156250
2184,35.156250
2185,35.156250
2186,35.156250
2187,35.156250
2188,35.156250
2189,35.156250
2190,35.156250
2191,35.156250
2192,39.062500
2193,39.062500
2194,39.062500
2195,39.062500
2196,39.062500
2197,39.062500
2198,39.062500
2199,39.062500
2200,39.062500
2201,39.062500
2202,39.062500
2203,39.062500
2204,39.062500
2205,39.062500
2206,42.968750
2207,42.968750
2208,42.968750
2209,39.062500
2210,42.968750
2211,42.968750
2212,42.968750
2213,42.968750
2214,42.968750
2215,42.968750
2216,42.968750
2217,42.968750
2218,42.968750
2219,42.968750
2220,46.875000
2221,42.968750
2222,42.968750
2223,46.875000
2224,46.875000
2225,42.968750
2226,46.875000
2227,46.875000
2228,46.875000
2229,46.875000
2230,46.875000
2231,46.875000
2232,46.875000
2233,46.875000
2234,46.875000
2235,46.875000
2236,46.875000
2237,46.875000
2238,46.875000
2239,46.875000
2240,46.875000
2241,46.875000
2242,46.875000
2243,46.875000
2244,50.781250
2245,50.781250
2246,50.781250
2247,46.875000
2248,50.781250
2249,50.781250
2250,50.781250
2251,46.875000
2252,50.781250
2253,50.781250
2254,50.781250
2255,50.781250
2256,50.781250
2257,50.781250
2258,50.781250
2259,50.781250
2260,50.781250
2261,50.781250
2262,50.781250
2263,50.781250
2264,50.781250
2265,50.781250
2266,50.781250
2267,50.781250
2268,50.781250
2269,54.687500
2270,54.687500
2271,50.781250
2272,54.687500
2273,50.781250
2274,54.687500
2275,54.687500
2276,54.687500
2277,54.687500
2278,54.687500
2279,54.687500
2280,54.687500
2281,50.781250
2282,54.687500
2283,54.687500
2284,54.687500
2285,54.687500
2286,54.687500
2287,54.687500
2288,54.687500
2289,54.687500
2290,54.687500
2291,54.687500
2292,54.687500
2293,54.687500
2294,54.687500
2295,54.687500
2296,54.687500
2297,54.687500
2298,54.687500
2299,54.687500
2300,54.687500
2301,54.687500
2302,54.687500
2303,54.687500
2304,54.687500
2305,54.687500
2306,54.687500
2307,54.687500
2308,54.687500
2309,54.687500
2310,54.687500
2311,54.687500
2312,54.687500
2313,54.687500
2314,54.687500
2315,54.687500
2316,54.687500
2317,54.687500
2318,54.687500
2319,54.687500
2320,54.687500
2321,54.687500
2322,54.687500
2323,54.687500
2324,54.687500
2325,54.687500
2326,54.687500
2327,54.687500
2328,54.687500
2329,54.687500
2330,54.687500
2331,54.687500
2332,54.687500
2333,54.687500
2334,54.687500
2335,54.687500
2336,54.687500
2337,54.687500
2338,54.687500
2339,54.687500
2340,54.687500
2341,54.687500
2342,54.687500
2343,54.687500
2344,54.687500
2345,54.687500
2346,54.687500
2347,54.687500
2348,54.687500
2349,54.687500
2350,54.687500
2351,54.687500
2352,54.687500
2353,54.687500
2354,54.687500
2355,54.687500
2356,50.781250
2357,50.781250
2358,50.781250
2359,50.781250
2360,50.781250
2361,50.781250
2362,50.781250
2363,50.781250
2364,50.781250
2365,50.781250
2366,50.781250
2367,50.781250
2368,50.781250
2369,50.781250
2370,50.781250
2371,50.781250
2372,50.781250
2373,50.781250
2374,50.781250
2375,50.781250
2376,50.781250
2377,50.781250
2378,50.781250
2379,50.781250
2380,50.781250
2381,50.781250
2382,50.781250
2383,50.781250
2384,50.781250
2385,46.875000
2386,46.875000
2387,50.781250
2388,46.875000
2389,46.875000
2390,50.781250
2391,46.875000
2392,46.875000
2393,46.875000
2394,46.875000
2395,46.875000
2396,46.875000
2397,46.875000
2398,46.875000
2399,46.875000
2400,46.875000
2401,46.875000
2402,46.875000
2403,46.875000
2404,46.875000
2405,46.875000
2406,46.875000
2407,46.875000
2408,42.968750
2409,42.968750
2410,42.968750
2411,42.968750
2412,42.968750
2413,42.968750
2414,42.968750
2415,42.968750
2416,42.968750
2417,42.968750
2418,42.968750
2419,42.968750
2420,42.968750
2421,42.968750
2422,42.968750
2423,42.968750
2424,42.968750
2425,39.062500
2426,39.062500
2427,39.062500
2428,39.062500
2429,39.062500
2430,39.062500
2431,39.062500
2432,39.062500
2433,39.062500
2434,39.062500
2435,39.062500
2436,39.062500
2437,39.062500
2438,39.062500
2439,35.156250
2440,39.062500
2441,35.156250
2442,35.156250
2443,35.156250
2444,35.156250
2445,35.156250
2446,35.156250
2447,35.156250
2448,35.156250
2449,35.156250
2450,35.156250
2451,35.156250
2452,35.156250
2453,35.156250
2454,35.156250
2455,31.250000
2456,31.250000
2457,31.250000
2458,31.250000
2459,31.250000
2460,31.250000
2461,31.250000
2462,31.250000
2463,31.250000
2464,31.250000
2465,27.343750
2466,27.343750
2467,27.343750
2468,27.343750
2469,27.343750
2470,27.343750
2471,27.343750
2472,27.343750
2473,27.343750
2474,27.343750
2475,27.343750
2476,23.437500
2477,23.437500
2478,23.437500
2479,23.437500
2480,23.437500
2481,23.437500
2482,23.437500
2483,23.437500
2484,23.437500
2485,23.437500
2486,23.437500
2487,19.531250
2488,23.437500
2489,19.531250
2490,19.531250
2491,19.531250
2492,19.531250
2493,19.531250
2494,19.531250
2495,19.531250
2496,15.625000
2497,15.625000
2498,19.531250
2499,19.531250
2500,15.625000
2501,15.625000
2502,15.625000
2503,15.625000
2504,15.625000
2505,15.625000
2506,15.625000
2507,11.718750
2508,11.718750
2509,11.718750
2510,11.718750
2511,11.718750
2512,11.718750
2513,11.718750
2514,11.718750
2515,7.812500
2516,7.812500
2517,7.812500
2518,7.812500
2519,7.812500
2520,7.812500
2521,7.812500
2522,7.812500
2523,7.812500
2524,7.812500
2525,3.906250
2526,7.812500
2527,3.906250
2528,3.906250
2529,3.906250
2530,3.906250
2531,3.906250
2532,3.906250
2533,3.906250
2534,3.906250
2535,3.906250
2536,3.906250
2537,0.000000
2538,0.000000
2539,0.000000
2540,0.000000
2541,0.000000
2542,0.000000
2543,0.000000
2544,0.000000
2545,0.000000
2546,0.000000
2547,-3.906250
2548,-3.906250
2549,-3.906250
2550,-3.906250
2551,-3.906250
2552,-3.906250
2553,-3.906250
2554,-3.906250
2555,-3.906250
2556,-7.812500
2557,-7.812500
2558,-7.812500
2559,-7.812500
2560,-7.812500
2561,-7.812500
2562,-7.812500
2563,-7.812500
2564,-11.718750
2565,-11.718750
2566,-11.718750
2567,-11.718750
2568,-11.718750
2569,-11.718750
2570,-11.718750
2571,-15.625000
2572,-11.718750
2573,-15.625000
2574,-15.625000
2575,-15.625000
2576,-15.625000
2577,-15.625000
2578,-15.625000
2579,-15.625000
2580,-15.625000
2581,-19.531250
2582,-19.531250
2583,-19.531250
2584,-19.531250
2585,-19.531250
2586,-19.531250
2587,-19.531250
2588,-19.531250
2589,-19.531250
2590,-23.437500
2591,-23.437500
2592,-23.437500
2593,-23.437500
2594,-23.437500
2595,-23.437500
2596,-23.437500
2597,-23.437500
2598,-27.343750
2599,-27.343750
2600,-27.343750
2601,-27.343750
2602,-27.343750
2603,-27.343750
2604,-27.343750
2605,-27.343750
2606,-27.343750
2607,-31.250000
2608,-31.250000
2609,-31.250000
2610,-31.250000
2611,-31.250000
2612,-31.250000
2613,-31.250000
2614,-31.250000
2615,-35.156250
2616,-35.156250
2617,-35.156250
2618,-35.156250
2619,-35.156250
2620,-35.156250
2621,-35.156250
2622,-35.156250
2623,-35.156250
2624,-35.156250
2625,-39.062500
2626,-39.062500
2627,-39.062500
2628,-39.062500
2629,-39.062500
2630,-39.062500
2631,-39.062500
2632,-39.062500
2633,-39.062500
2634,-39.062500
2635,-42.968750
2636,-39.062500
2637,-42.968750
2638,-42.968750
2639,-42.968750
2640,-42.968750
2641,-42.968750
2642,-42.968750
2643,-42.968750
2644,-42.968750
2645,-46.875000
2646,-46.875000
2647,-46.875000
2648,-46.875000
2649,-46.875000
2650,-46.875000
2651,-46.875000
2652,-46.875000
2653,-46.875000
2654,-46.875000
2655,-46.875000
2656,-46.875000
2657,-50.781250
2658,-50.781250
2659,-50.781250
2660,-50.781250
2661,-50.781250
2662,-50.781250
2663,-50.781250
2664,-50.781250
2665,-50.781250
2666,-54.687500
2667,-54.687500
2668,-54.687500
2669,-54.687500
2670,-54.687500
2671,-54.687500
2672,-54.687500
2673,-54.687500
2674,-54.687500
2675,-54.687500
2676,-54.687500
2677,-54.687500
2678,-58.593750
2679,-58.593750
2680,-58.593750
2681,-58.593750
2682,-58.593750
2683,-58.593750
2684,-58.593750
2685,-58.593750
2686,-58.593750
2687,-58.593750
2688,-58.593750
2689,-62.500000
2690,-62.500000
2691,-62.500000
2692,-62.500000
2693,-62.500000
2694,-62.500000
2695,-62.500000
2696,-62.500000
2697,-62.500000
2698,-62.500000
2699,-66.406250
2700,-62.500000
2701,-62.500000
2702,-62.500000
2703,-66.406250
2704,-66.406250
2705,-66.406250
2706,-66.406250
2707,-66.406250
2708,-66.406250
2709,-66.406250
2710,-66.406250
2711,-66.406250
2712,-66.406250
2713,-66.406250
2714,-66.406250
2715,-66.406250
2716,-70.312500
2717,-70.312500
2718,-70.312500
2719,-70.312500
2720,-70.312500
2721,-70.312500
2722,-70.312500
2723,-70.312500
2724,-70.312500
2725,-70.312500
2726,-70.312500
2727,-70.312500
2728,-70.312500
2729,-70.312500
2730,-70.312500
2731,-70.312500
2732,-74.218750
2733,-74.218750
2734,-74.218750
2735,-74.218750
2736,-74.218750
2737,-74.218750
2738,-74.218750
2739,-74.218750
2740,-74.218750
2741,-74.218750
2742,-74.218750
2743,-74.218750
2744,-74.218750
2745,-74.218750
2746,-78.125000
2747,-78.125000
2748,-74.218750
2749,-78.125000
2750,-78.125000
2751,-78.125000
2752,-78.125000
2753,-78.125000
2754,-78.125000
2755,-78.125000
2756,-78.125000
2757,-78.125000
2758,-78.125000
2759,-78.125000
2760,-78.125000
2761,-78.125000
2762,-78.125000
2763,-78.125000
2764,-78.125000
2765,-78.125000
2766,-78.125000
2767,-78.125000
2768,-78.125000
2769,-78.125000
2770,-78.125000
2771,-78.125000
2772,-78.125000
2773,-78.125000
2774,-78.125000
2775,-82.031250
2776,-78.125000
2777,-82.031250
2778,-82.031250
2779,-82.031250
2780,-78.125000
2781,-78.125000
2782,-82.031250
2783,-82.031250
2784,-78.125000
2785,-82.031250
2786,-82.031250
2787,-82.031250
2788,-82.031250
2789,-82.031250
2790,-82.031250
2791,-82.031250
2792,-82.031250
2793,-82.031250
2794,-82.031250
2795,-82.031250
2796,-82.031250
2797,-82.031250
2798,-82.031250
2799,-82.031250
2800,-82.031250
2801,-82.031250
2802,-82.031250
2803,-82.031250
2804,-82.031250
2805,-82.031250
2806,-82.031250
2807,-82.031250
2808,-82.031250
2809,-82.031250
2810,-82.031250
2811,-82.031250
2812,-82.031250
2813,-82.031250
2814,-82.031250
2815,-82.031250
2816,-82.031250
2817,-82.031250
2818,-82.031250
2819,-82.031250
2820,-82.031250
2821,-82.031250
2822,-82.031250
2823,-82.031250
2824,-82.031250
2825,-82.031250
2826,-82.031250
2827,-78.125000
2828,-82.031250
2829,-78.125000
2830,-78.125000
2831,-82.031250
2832,-78.125000
2833,-78.125000
2834,-78.125000
2835,-78.125000
2836,-78.125000
2837,-78.125000
2838,-78.125000
2839,-82.031250
2840,-78.125000
2841,-82.031250
2842,-78.125000
2843,-78.125000
2844,-78.125000
2845,-78.125000
2846,-78.125000
2847,-78.125000
2848,-78.125000
2849,-78.125000
2850,-78.125000
2851,-78.125000
2852,-78.125000
2853,-78.125000
2854,-78.125000
2855,-78.125000
2856,-78.125000
2857,-78.125000
2858,-78.125000
2859,-78.125000
2860,-78.125000
2861,-78.125000
2862,-78.125000
2863,-78.125000
2864,-78.125000
2865,-78.125000
2866,-74.218750
2867,-74.218750
2868,-74.218750
2869,-74.218750
2870,-74.218750
2871,-74.218750
2872,-74.218750
2873,-74.218750
2874,-74.218750
2875,-74.218750
2876,-74.218750
2877,-74.218750
2878,-74.218750
2879,-74.218750
2880,-74.218750
2881,-74.218750
2882,-74.218750
2883,-74.218750
2884,-74.218750
2885,-74.218750
2886,-70.312500
2887,-74.218750
2888,-70.312500
2889,-74.218750
2890,-70.312500
2891,-70.312500
2892,-70.312500
2893,-70.312500
2894,-70.312500
2895,-70.312500
2896,-70.312500
2897,-70.312500
2898,-70.312500
2899,-70.312500
2900,-70.312500
2901,-70.312500
2902,-70.312500
2903,-70.312500
2904,-66.406250
2905,-66.406250
2906,-66.406250
2907,-66.406250
2908,-66.406250
2909,-66.406250
2910,-66.406250
2911,-66.406250
2912,-66.406250
2913,-66.406250
2914,-66.406250
2915,-66.406250
2916,-62.500000
2917,-62.500000
2918,-62.500000
2919,-62.500000
2920,-62.500000
2921,-62.500000
2922,-62.500000
2923,-62.500000
2924,-62.500000
2925,-62.500000
2926,-62.500000
2927,-62.500000
2928,-62.500000
2929,-58.593750
2930,-58.593750
2931,-58.593750
2932,-58.593750
2933,-58.593750
2934,-58.593750
2935,-58.593750
2936,-58.593750
2937,-58.593750
2938,-54.687500
2939,-58.593750
2940,-54.687500
2941,-54.687500
2942,-54.687500
2943,-54.687500
2944,-54.687500
2945,-54.687500
2946,-54.687500
2947,-54.687500
2948,-54.687500
2949,-54.687500
2950,-54.687500
2951,-54.687500
2952,-50.781250
2953,-50.781250
2954,-50.781250
2955,-50.781250
2956,-50.781250
2957,-50.781250
2958,-50.781250
2959,-50.781250
2960,-50.781250
2961,-46.875000
2962,-46.875000
2963,-46.875000
2964,-46.875000
2965,-46.875000
2966,-46.875000
2967,-46.875000
2968,-46.875000
2969,-46.875000
2970,-46.875000
2971,-46.875000
2972,-42.968750
2973,-42.968750
2974,-42.968750
2975,-42.968750
2976,-42.968750
2977,-42.968750
2978,-42.968750
2979,-42.968750
2980,-39.062500
2981,-42.968750
2982,-39.062500
2983,-39.062500
2984,-39.062500
2985,-39.062500
2986,-39.062500
2987,-39.062500
2988,-39.062500
2989,-35.156250
2990,-39.062500
2991,-39.062500
2992,-39.062500
2993,-35.156250
2994,-35.156250
2995,-35.156250
2996,-35.156250
2997,-35.156250
2998,-35.156250
2999,-35.156250
3000,-35.156250
3001,-35.156250
3002,-31.250000
3003,-31.250000
3004,-31.250000
3005,-31.250000
3006,-31.250000
3007,-31.250000
3008,-31.250000
3009,-31.250000
3010,-27.343750
3011,-27.343750
3012,-27.343750
3013,-27.343750
3014,-27.343750
3015,-27.343750
3016,-27.343750
3017,-27.343750
3018,-27.343750
3019,-27.343750
3020,-23.437500
3021,-23.437500
3022,-23.437500
3023,-23.437500
3024,-23.437500
3025,-23.437500
3026,-23.437500
3027,-23.437500
3028,-23.437500
3029,-19.531250
3030,-19.531250
3031,-19.531250
3032,-19.531250
3033,-19.531250
3034,-19.531250
3035,-19.531250
3036,-19.531250
3037,-19.531250
3038,-19.531250
3039,-15.625000
3040,-15.625000
3041,-15.625000
3042,-15.625000
3043,-15.625000
3044,-15.625000
3045,-11.718750
3046,-11.718750
3047,-11.718750
3048,-11.718750
3049,-11.718750
3050,-11.718750
3051,-11.718750
3052,-11.718750
3053,-11.718750
3054,-11.718750
3055,-7.812500
3056,-7.812500
3057,-7.812500
3058,-7.812500
3059,-7.812500
3060,-7.812500
3061,-7.812500
3062,-7.812500
3063,-7.812500
3064,-3.906250
3065,-7.812500
3066,-3.906250
3067,-3.906250
3068,-3.906250
3069,-3.906250
3070,-3.906250
3071,-3.906250
3072,-3.906250
3073,-3.906250
3074,0.000000
3075,0.000000
3076,0.000000
3077,0.000000
3078,0.000000
3079,0.000000
3080,0.000000
3081,0.000000
3082,3.906250
3083,3.906250
3084,3.906250
3085,3.906250
3086,3.906250
3087,3.906250
3088,3.906250
3089,3.906250
3090,3.906250
3091,7.812500
3092,7.812500
3093,7.812500
3094,7.812500
3095,7.812500
3096,7.812500
3097,7.812500
3098,7.812500
3099,7.812500
3100,7.812500
3101,7.812500
3102,11.718750
3103,11.718750
3104,11.718750
3105,11.718750
3106,11.718750
3107,11.718750
3108,11.718750
3109,11.718750
3110,11.718750
3111,11.718750
3112,15.625000
3113,15.625000
3114,15.625000
3115,15.625000
3116,15.625000
3117,15.625000
3118,15.625000
3119,15.625000
3120,15.625000
3121,15.625000
3122,19.531250
3123,19.531250
3124,19.531250
3125,19.531250
3126,19.531250
3127,19.531250
3128,19.531250
3129,19.531250
3130,19.531250
3131,19.531250
3132,19.531250
3133,23.437500
3134,19.531250
3135,23.437500
3136,23.437500
3137,23.437500
3138,23.437500
3139,23.437500
3140,23.437500
3141,23.437500
3142,23.437500
3143,23.437500
3144,27.343750
3145,27.343750
3146,27.343750
3147,27.343750
3148,27.343750
3149,27.343750
3150,27.343750
3151,27.343750
3152,27.343750
3153,27.343750
3154,27.343750
3155,31.250000
3156,27.343750
3157,31.250000
3158,31.250000
3159,31.250000
3160,31.250000
3161,31.250000
3162,31.250000
3163,31.250000
3164,31.250000
3165,31.250000
3166,31.250000
3167,31.250000
3168,35.156250
3169,35.156250
3170,35.156250
3171,35.156250
3172,35.156250
3173,35.156250
3174,35.156250
3175,35.156250
3176,35.156250
3177,35.156250
3178,35.156250
3179,35.156250
3180,35.156250
3181,35.156250
3182,35.156250
3183,39.062500
3184,39.062500
3185,39.062500
3186,39.062500
3187,39.062500
3188,39.062500
3189,39.062500
3190,39.062500
3191,39.062500
3192,39.062500
3193,39.062500
3194,39.062500
3195,39.062500
3196,42.968750
3197,42.968750
3198,42.968750
3199,42.968750
3200,42.968750
3201,42.968750
3202,42.968750
3203,42.968750
3204,42.968750
3205,42.968750
3206,42.968750
3207,42.968750
3208,42.968750
3209,42.968750
3210,42.968750
3211,46.875000
3212,46.875000
3213,46.875000
3214,46.875000
3215,46.875000
3216,46.875000
3217,46.875000
3218,46.875000
3219,46.875000
3220,46.875000
3221,46.875000
3222,46.875000
3223,46.875000
3224,46.875000
3225,46.875000
3226,46.875000
3227,46.875000
3228,46.875000
3229,46.875000
3230,46.875000
3231,46.875000
3232,50.781250
3233,50.781250
3234,50.781250
3235,46.875000
3236,50.781250
3237,50.781250
3238,50.781250
3239,50.781250
3240,50.781250
3241,50.781250
3242,50.781250
3243,50.781250
3244,50.781250
3245,50.781250
3246,50.781250
3247,50.781250
3248,50.781250
3249,50.781250
3250,50.781250
3251,50.781250
3252,50.781250
3253,50.781250
3254,50.781250
3255,50.781250
3256,50.781250
3257,50.781250
3258,54.687500
3259,54.687500
3260,54.687500
3261,54.687500
3262,54.687500
3263,54.687500
3264,54.687500
3265,54.687500
3266,54.687500
3267,54.687500
3268,54.687500
3269,50.781250
3270,54.687500
3271,54.687500
3272,54.687500
3273,54.687500
3274,54.687500
3275,54.687500
3276,54.687500
3277,54.687500
3278,54.687500
3279,54.687500
3280,54.687500
3281,54.687500
3282,54.687500
3283,54.687500
3284,54.687500
3285,54.687500
3286,54.687500
3287,54.687500
3288,54.687500
3289,54.687500
3290,54.687500
3291,54.687500
3292,54.687500
3293,54.687500
3294,54.687500
3295,54.687500
3296,54.687500
3297,54.687500
3298,54.687500
3299,54.687500
3300,54.687500
3301,54.687500
3302,54.687500
3303,54.687500
3304,54.687500
3305,54.687500
3306,54.687500
3307,54.687500
3308,54.687500
3309,54.687500
3310,54.687500
3311,54.687500
3312,54.687500
3313,54.687500
3314,54.687500
3315,54.687500
3316,54.687500
3317,58.593750
3318,54.687500
3319,54.687500
3320,54.687500
3321,54.687500
3322,54.687500
3323,54.687500
3324,54.687500
3325,54.687500
3326,54.687500
3327,54.687500
3328,54.687500
3329,54.687500
3330,54.687500
3331,54.687500
3332,54.687500
3333,54.687500
3334,54.687500
3335,54.687500
3336,54.687500
3337,54.687500
3338,54.687500
3339,54.687500
3340,54.687500
3341,54.687500
3342,54.687500
3343,54.687500
3344,54.687500
3345,54.687500
3346,54.687500
3347,54.687500
3348,54.687500
3349,54.687500
3350,50.781250
3351,54.687500
3352,54.687500
3353,54.687500
3354,54.687500
3355,54.687500
3356,54.687500
3357,50.781250
3358,50.781250
3359,50.781250
3360,50.781250
3361,50.781250
3362,50.781250
3363,50.781250
3364,50.781250
3365,50.781250
3366,50.781250
3367,50.781250
3368,50.781250
3369,50.781250
3370,50.781250
3371,50.781250
3372,50.781250
3373,50.781250
3374,50.781250
3375,50.781250
3376,50.781250
3377,50.781250
3378,50.781250
3379,50.781250
3380,50.781250
3381,50.781250
3382,50.781250
3383,46.875000
3384,46.875000
3385,46.875000
3386,46.875000
3387,46.875000
3388,46.875000
3389,46.875000
3390,46.875000
3391,46.875000
3392,46.875000
3393,46.875000
3394,46.875000
3395,46.875000
3396,42.968750
3397,42.968750
3398,46.875000
3399,42.968750
3400,46.875000
3401,42.968750
3402,42.968750
3403,42.968750
3404,42.968750
3405,42.968750
3406,42.968750
3407,42.968750
3408,42.968750
3409,42.968750
3410,42.968750
3411,42.968750
3412,42.968750
3413,39.062500
3414,42.968750
3415,39.062500
3416,39.062500
3417,39.062500
3418,42.968750
3419,39.062500
3420,39.062500
3421,39.062500
3422,39.062500
3423,39.062500
3424,39.062500
3425,39.062500
3426,39.062500
3427,39.062500
3428,35.156250
3429,35.156250
3430,39.062500
3431,35.156250
3432,35.156250
3433,35.156250
3434,35.156250
3435,35.156250
3436,35.156250
3437,35.156250
3438,35.156250
3439,35.156250
3440,35.156250
3441,31.250000
3442,31.250000
3443,31.250000
3444,31.250000
3445,31.250000
3446,31.250000
3447,31.250000
3448,31.250000
3449,35.156250
3450,31.250000
3451,31.250000
3452,31.250000
3453,31.250000
3454,27.343750
3455,27.343750
3456,27.343750
3457,27.343750
3458,27.343750
3459,27.343750
3460,27.343750
3461,27.343750
3462,27.343750
3463,27.343750
3464,27.343750
3465,27.343750
3466,27.343750
3467,23.437500
3468,23.437500
3469,23.437500
3470,23.437500
3471,23.437500
3472,23.437500
3473,23.437500
3474,23.437500
3475,23.437500
3476,23.437500
3477,23.437500
3478,23.437500
3479,19.531250
3480,19.531250
3481,19.531250
3482,19.531250
3483,19.531250
3484,19.531250
3485,19.531250
3486,19.531250
3487,19.531250
3488,19.531250
3489,15.625000
3490,15.625000
3491,15.625000
3492,15.625000
3493,15.625000
3494,15.625000
3495,15.625000
3496,15.625000
3497,15.625000
3498,15.625000
3499,11.718750
3500,11.718750
3501,11.718750
3502,11.718750
3503,11.718750
3504,11.718750
3505,11.718750
3506,11.718750
3507,7.812500
3508,7.812500
3509,7.812500
3510,7.812500
3511,7.812500
3512,7.812500
3513,7.812500
3514,7.812500
3515,7.812500
3516,7.812500
3517,3.906250
3518,3.906250
3519,3.906250
3520,3.906250
3521,3.906250
3522,3.906250
3523,3.906250
3524,3.906250
3525,3.906250
3526,0.000000
3527,0.000000
3528,0.000000
3529,0.000000
3530,0.000000
3531,0.000000
3532,0.000000
3533,0.000000
3534,-3.906250
3535,-3.906250
3536,-3.906250
3537,-3.906250
3538,-3.906250
3539,-3.906250
3540,-3.906250
3541,-3.906250
3542,-3.906250
3543,-7.812500
3544,-7.812500
3545,-7.812500
3546,-7.812500
3547,-7.812500
3548,-7.812500
3549,-7.812500
3550,-7.812500
3551,-7.812500
3552,-7.812500
3553,-11.718750
3554,-11.718750
3555,-11.718750
3556,-11.718750
3557,-11.718750
3558,-11.718750
3559,-11.718750
3560,-11.718750
3561,-11.718750
3562,-15.625000
3563,-15.625000
3564,-15.625000
3565,-15.625000
3566,-15.625000
3567,-15.625000
3568,-19.531250
3569,-15.625000
3570,-15.625000
3571,-19.531250
3572,-19.531250
3573,-19.531250
3574,-19.531250
3575,-19.531250
3576,-19.531250
3577,-19.531250
3578,-19.531250
3579,-23.437500
3580,-19.531250
3581,-23.437500
3582,-23.437500
3583,-23.437500
3584,-23.437500
3585,-23.437500
3586,-23.437500
3587,-23.437500
3588,-27.343750
3589,-27.343750
3590,-27.343750
3591,-27.343750
3592,-27.343750
3593,-27.343750
3594,-27.343750
3595,-27.343750
3596,-27.343750
3597,-31.250000
3598,-31.250000
3599,-31.250000
3600,-31.250000
3601,-31.250000
3602,-31.250000
3603,-31.250000
3604,-31.250000
3605,-31.250000
3606,-35.156250
3607,-35.156250
3608,-35.156250
3609,-35.156250
3610,-35.156250
3611,-35.156250
3612,-35.156250
3613,-35.156250
3614,-35.156250
3615,-35.156250
3616,-39.062500
3617,-39.062500
3618,-39.062500
3619,-39.062500
3620,-39.062500
3621,-39.062500
3622,-39.062500
3623,-39.062500
3624,-39.062500
3625,-39.062500
3626,-42.968750
3627,-42.968750
3628,-42.968750
3629,-42.968750
3630,-42.968750
3631,-42.968750
3632,-42.968750
3633,-42.968750
3634,-42.968750
3635,-46.875000
3636,-46.875000
3637,-42.968750
3638,-46.875000
3639,-46.875000
3640,-46.875000
3641,-46.875000
3642,-46.875000
3643,-50.781250
3644,-50.781250
3645,-50.781250
3646,-50.781250
3647,-50.781250
3648,-50.781250
3649,-50.781250
3650,-50.781250
3651,-50.781250
3652,-50.781250
3653,-50.781250
3654,-50.781250
3655,-54.687500
3656,-54.687500
3657,-54.687500
3658,-54.687500
3659,-54.687500
3660,-54.687500
3661,-54.687500
3662,-54.687500
3663,-54.687500
3664,-54.687500
3665,-58.593750
3666,-58.593750
3667,-58.593750
3668,-58.593750
3669,-58.593750
3670,-58.593750
3671,-58.593750
3672,-58.593750
3673,-58.593750
3674,-58.593750
3675,-62.500000
3676,-58.593750
3677,-58.593750
3678,-62.500000
3679,-62.500000
3680,-62.500000
3681,-62.500000
3682,-62.500000
3683,-62.500000
3684,-62.500000
3685,-62.500000
3686,-62.500000
3687,-62.500000
3688,-62.500000
3689,-62.500000
3690,-62.500000
3691,-66.406250
3692,-66.406250
3693,-66.406250
3694,-66.406250
3695,-66.406250
3696,-66.406250
3697,-66.406250
3698,-66.406250
3699,-66.406250
3700,-66.406250
3701,-66.406250
3702,-66.406250
3703,-66.406250
3704,-66.406250
3705,-66.406250
3706,-70.312500
3707,-70.312500
3708,-70.312500
3709,-70.312500
3710,-70.312500
3711,-70.312500
3712,-70.312500
3713,-70.312500
3714,-70.312500
3715,-70.312500
3716,-70.312500
3717,-70.312500
3718,-70.312500
3719,-70.312500
3720,-70.312500
3721,-70.312500
3722,-70.312500
3723,-74.218750
3724,-74.218750
3725,-74.218750
3726,-74.218750
3727,-74.218750
3728,-74.218750
3729,-74.218750
3730,-74.218750
3731,-74.218750
3732,-74.218750
3733,-74.218750
3734,-74.218750
3735,-74.218750
3736,-74.218750
3737,-74.218750
3738,-74.218750
3739,-74.218750
3740,-74.218750
3741,-74.218750
3742,-74.218750
3743,-78.125000
3744,-78.125000
3745,-78.125000
3746,-78.125000
3747,-78.125000
3748,-78.125000
3749,-78.125000
3750,-78.125000
3751,-78.125000
3752,-78.125000
3753,-78.125000
3754,-78.125000
3755,-78.125000
3756,-78.125000
3757,-78.125000
3758,-78.125000
3759,-78.125000
3760,-78.125000
3761,-78.125000
3762,-78.125000
3763,-78.125000
3764,-78.125000
3765,-78.125000
3766,-78.125000
3767,-78.125000
3768,-78.125000
3769,-78.125000
3770,-78.125000
3771,-82.031250
3772,-78.125000
3773,-82.031250
3774,-78.125000
3775,-82.031250
3776,-82.031250
3777,-82.031250
3778,-78.125000
3779,-82.031250
3780,-82.031250
3781,-82.031250
3782,-82.031250
3783,-82.031250
3784,-82.031250
3785,-82.031250
3786,-82.031250
3787,-82.031250
3788,-82.031250
3789,-82.031250
3790,-82.031250
3791,-82.031250
3792,-82.031250
3793,-82.031250
3794,-82.031250
3795,-82.031250
3796,-82.031250
3797,-82.031250
3798,-82.031250
3799,-82.031250
3800,-82.031250
3801,-82.031250
3802,-82.031250
3803,-82.031250
3804,-82.031250
3805,-82.031250
3806,-82.031250
3807,-82.031250
3808,-82.031250
3809,-82.031250
3810,-82.031250
3811,-82.031250
3812,-78.125000
3813,-82.031250
3814,-82.031250
3815,-82.031250
3816,-82.031250
3817,-82.031250
3818,-78.125000
3819,-82.031250
3820,-78.125000
3821,-78.125000
3822,-78.125000
3823,-78.125000
3824,-78.125000
3825,-78.125000
3826,-78.125000
3827,-78.125000
3828,-78.125000
3829,-78.125000
3830,-78.125000
3831,-78.125000
3832,-78.125000
3833,-78.125000
3834,-78.125000
3835,-78.125000
3836,-78.125000
3837,-78.125000
3838,-78.125000
3839,-78.125000
3840,-78.125000
3841,-78.125000
3842,-78.125000
3843,-78.125000
3844,-78.125000
3845,-78.125000
3846,-78.125000
3847,-78.125000
3848,-78.125000
3849,-74.218750
3850,-78.125000
3851,-78.125000
3852,-74.218750
3853,-74.218750
3854,-74.218750
3855,-78.125000
3856,-74.218750
3857,-74.218750
3858,-74.218750
3859,-74.218750
3860,-74.218750
3861,-74.218750
3862,-74.218750
3863,-74.218750
3864,-74.218750
3865,-74.218750
3866,-74.218750
3867,-74.218750
3868,-74.218750
3869,-74.218750
3870,-74.218750
3871,-74.218750
3872,-74.218750
3873,-74.218750
3874,-74.218750
3875,-70.312500
3876,-70.312500
3877,-70.312500
3878,-70.312500
3879,-70.312500
3880,-70.312500
3881,-70.312500
3882,-70.312500
3883,-70.312500
3884,-70.312500
3885,-70.312500
3886,-70.312500
3887,-70.312500
3888,-70.312500
3889,-70.312500
3890,-66.406250
3891,-66.406250
3892,-66.406250
3893,-66.406250
3894,-66.406250
3895,-66.406250
3896,-66.406250
3897,-66.406250
3898,-66.406250
3899,-66.406250
3900,-66.406250
3901,-66.406250
3902,-66.406250
3903,-66.406250
3904,-66.406250
3905,-62.500000
3906,-62.500000
3907,-62.500000
3908,-62.500000
3909,-62.500000
3910,-62.500000
3911,-62.500000
3912,-62.500000
3913,-62.500000
3914,-62.500000
3915,-62.500000
3916,-62.500000
3917,-62.500000
3918,-62.500000
3919,-58.593750
3920,-58.593750
3921,-58.593750
3922,-58.593750
3923,-58.593750
3924,-58.593750
3925,-58.593750
3926,-58.593750
3927,-58.593750
3928,-54.687500
3929,-54.687500
3930,-54.687500
3931,-54.687500
3932,-54.687500
3933,-54.687500
3934,-54.687500
3935,-54.687500
3936,-54.687500
3937,-54.687500
3938,-54.687500
3939,-54.687500
3940,-50.781250
3941,-54.687500
3942,-50.781250
3943,-54.687500
3944,-50.781250
3945,-50.781250
3946,-50.781250
3947,-50.781250
3948,-50.781250
3949,-50.781250
3950,-46.875000
3951,-50.781250
3952,-46.875000
3953,-46.875000
3954,-46.875000
3955,-46.875000
3956,-46.875000
3957,-46.875000
3958,-46.875000
3959,-46.875000
3960,-46.875000
3961,-46.875000
3962,-42.968750
3963,-42.968750
3964,-42.968750
3965,-42.968750
3966,-42.968750
3967,-42.968750
3968,-42.968750
3969,-42.968750
3970,-42.968750
3971,-39.062500
3972,-39.062500
3973,-39.062500
3974,-39.062500
3975,-39.062500
3976,-39.062500
3977,-39.062500
3978,-39.062500
3979,-39.062500
3980,-35.156250
3981,-39.062500
3982,-35.156250
3983,-35.156250
3984,-35.156250
3985,-35.156250
3986,-35.156250
3987,-35.156250
3988,-35.156250
3989,-35.156250
3990,-31.250000
3991,-31.250000
3992,-31.250000
3993,-31.250000
3994,-31.250000
3995,-31.250000
3996,-31.250000
3997,-31.250000
3998,-27.343750
3999,-27.343750
4000,-27.343750
4001,-27.343750
4002,-27.343750
4003,-27.343750
4004,-27.343750
4005,-27.343750
4006,-27.343750
4007,-27.343750
4008,-23.437500
4009,-23.437500
4010,-23.437500
4011,-23.437500
4012,-23.437500
4013,-23.437500
4014,-23.437500
4015,-23.437500
4016,-23.437500
4017,-23.437500
4018,-19.531250
4019,-19.531250
4020,-19.531250
4021,-19.531250
4022,-19.531250
4023,-19.531250
4024,-19.531250
4025,-15.625000
4026,-15.625000
4027,-15.625000
4028,-15.625000
4029,-15.625000
4030,-15.625000
4031,-15.625000
4032,-15.625000
4033,-15.625000
4034,-11.718750
4035,-15.625000
4036,-11.718750
4037,-11.718750
4038,-11.718750
4039,-11.718750
4040,-11.718750
4041,-11.718750
4042,-11.718750
4043,-11.718750
4044,-11.718750
4045,-11.718750
4046,-7.812500
4047,-7.812500
4048,-7.812500
4049,-7.812500
4050,-7.812500
4051,-7.812500
4052,-7.812500
4053,-3.906250
4054,-3.906250
4055,-3.906250
4056,-3.906250
4057,-3.906250
4058,-3.906250
4059,-3.906250
4060,-3.906250
4061,-3.906250
4062,-3.906250
4063,-3.906250
4064,0.000000
4065,0.000000
4066,0.000000
4067,0.000000
4068,0.000000
4069,0.000000
4070,0.000000
4071,0.000000
4072,0.000000
4073,3.906250
4074,3.906250
4075,3.906250
4076,3.906250
4077,3.906250
4078,3.906250
4079,3.906250
4080,3.906250
4081,3.906250
4082,3.906250
4083,3.906250
4084,7.812500
4085,7.812500
4086,7.812500
4087,7.812500
4088,7.812500
4089,7.812500
4090,11.718750
4091,11.718750
4092,11.718750
4093,11.718750
4094,11.718750
4095,11.718750
4096,11.718750
4097,11.718750
4098,11.718750
4099,11.718750
4100,15.625000
4101,11.718750
4102,15.625000
4103,15.625000
4104,15.625000
4105,15.625000
4106,15.625000
4107,15.625000
4108,15.625000
4109,15.625000
4110,15.625000
4111,19.531250
4112,19.531250
4113,19.531250
4114,19.531250
4115,19.531250
4116,19.531250
4117,19.531250
4118,19.531250
4119,19.531250
4120,19.531250
4121,23.437500
4122,23.437500
4123,23.437500
4124,23.437500
4125,23.437500
4126,23.437500
4127,23.437500
4128,23.437500
4129,23.437500
4130,23.437500
4131,27.343750
4132,23.437500
4133,23.437500
4134,27.343750
4135,27.343750
4136,27.343750
4137,27.343750
4138,27.343750
4139,27.343750
4140,27.343750
4141,27.343750
4142,27.343750
4143,27.343750
4144,31.250000
4145,31.250000
4146,31.250000
4147,31.250000
4148,31.250000
4149,31.250000
4150,31.250000
4151,31.250000
4152,31.250000
4153,31.250000
4154,31.250000
4155,31.250000
4156,31.250000
4157,35.156250
4158,35.156250
4159,31.250000
4160,35.156250
4161,35.156250
4162,35.156250
4163,35.156250
4164,35.156250
4165,35.156250
4166,35.156250
4167,35.156250
4168,35.156250
4169,35.156250
4170,35.156250
4171,39.062500
4172,39.062500
4173,39.062500
4174,39.062500
4175,39.062500
4176,39.062500
4177,39.062500
4178,39.062500
4179,39.062500
4180,39.062500
4181,39.062500
4182,39.062500
4183,39.062500
4184,39.062500
4185,39.062500
4186,42.968750
4187,42.968750
4188,42.968750
4189,42.968750
4190,42.968750
4191,42.968750
4192,42.968750
4193,42.968750
4194,42.968750
4195,42.968750
4196,42.968750
4197,42.968750
4198,42.968750
4199,42.968750
4200,46.875000
4201,42.968750
4202,46.875000
4203,42.968750
4204,46.875000
4205,46.875000
4206,46.875000
4207,46.875000
4208,46.875000
4209,46.875000
4210,46.875000
4211,46.875000
4212,46.875000
4213,46.875000
4214,46.875000
4215,46.875000
4216,46.875000
4217,46.875000
4218,46.875000
4219,46.875000
4220,46.875000
4221,46.875000
4222,50.781250
4223,46.875000
4224,50.781250
4225,50.781250
4226,50.781250
4227,50.781250
4228,50.781250
4229,50.781250
4230,50.781250
4231,50.781250
4232,50.781250
4233,50.781250
4234,50.781250
4235,50.781250
4236,50.781250
4237,50.781250
4238,50.781250
4239,50.781250
4240,50.781250
4241,50.781250
4242,50.781250
4243,50.781250
4244,54.687500
4245,54.687500
4246,54.687500
4247,50.781250
4248,54.687500
4249,54.687500
4250,54.687500
4251,54.687500
4252,54.687500
4253,54.687500
4254,54.687500
4255,54.687500
4256,54.687500
4257,54.687500
4258,54.687500
4259,54.687500
4260,54.687500
4261,54.687500
4262,54.687500
4263,54.687500
4264,54.687500
4265,54.687500
4266,54.687500
4267,54.687500
4268,54.687500
4269,54.687500
4270,54.687500
4271,54.687500
4272,54.687500
4273,54.687500
4274,54.687500
4275,54.687500
4276,54.687500
4277,54.687500
4278,54.687500
4279,54.687500
4280,54.687500
4281,54.687500
4282,54.687500
4283,54.687500
4284,54.687500
4285,54.687500
4286,54.687500
4287,54.687500
4288,54.687500
4289,54.687500
4290,54.687500
4291,54.687500
4292,54.687500
4293,54.687500
4294,54.687500
4295,54.687500
4296,54.687500
4297,54.687500
4298,54.687500
4299,54.687500
4300,54.687500
4301,54.687500
4302,54.687500
4303,54.687500
4304,54.687500
4305,54.687500
4306,54.687500
4307,54.687500
4308,54.687500
4309,54.687500
4310,54.687500
4311,54.687500
4312,54.687500
4313,54.687500
4314,54.687500
4315,54.687500
4316,54.687500
4317,54.687500
4318,54.687500
4319,54.687500
4320,54.687500
4321,54.687500
4322,54.687500
4323,54.687500
4324,54.687500
4325,54.687500
4326,54.687500
4327,54.687500
4328,54.687500
4329,54.687500
4330,54.687500
4331,54.687500
4332,54.687500
4333,54.687500
4334,54.687500
4335,54.687500
4336,54.687500
4337,54.687500
4338,54.687500
4339,54.687500
4340,50.781250
4341,50.781250
4342,50.781250
4343,50.781250
4344,54.687500
4345,50.781250
4346,50.781250
4347,54.687500
4348,50.781250
4349,50.781250
4350,50.781250
4351,50.781250
4352,50.781250
4353,50.781250
4354,50.781250
4355,50.781250
4356,50.781250
4357,50.781250
4358,50.781250
4359,50.781250
4360,50.781250
4361,50.781250
4362,50.781250
4363,50.781250
4364,50.781250
4365,50.781250
4366,50.781250
4367,46.875000
4368,50.781250
4369,46.875000
4370,46.875000
4371,46.875000
4372,46.875000
4373,46.875000
4374,46.875000
4375,46.875000
4376,46.875000
4377,46.875000
4378,46.875000
4379,46.875000
4380,46.875000
4381,46.875000
4382,46.875000
4383,46.875000
4384,46.875000
4385,46.875000
4386,46.875000
4387,46.875000
4388,46.875000
4389,46.875000
4390,46.875000
4391,42.968750
4392,42.968750
4393,42.968750
4394,42.968750
4395,42.968750
4396,42.968750
4397,42.968750
4398,42.968750
4399,42.968750
4400,42.968750
4401,42.968750
4402,42.968750
4403,42.968750
4404,42.968750
4405,42.968750
4406,42.968750
4407,39.062500
4408,39.062500
4409,39.062500
4410,39.062500
4411,39.062500
4412,39.062500
4413,39.062500
4414,39.062500
4415,39.062500
4416,39.062500
4417,39.062500
4418,39.062500
4419,35.156250
4420,35.156250
4421,35.156250
4422,35.156250
4423,35.156250
4424,35.156250
4425,35.156250
4426,35.156250
4427,35.156250
4428,35.156250
4429,35.156250
4430,35.156250
4431,31.250000
4432,31.250000
4433,31.250000
4434,31.250000
4435,31.250000
4436,31.250000
4437,31.250000
4438,31.250000
4439,31.250000
4440,31.250000
4441,31.250000
4442,31.250000
4443,31.250000
4444,27.343750
4445,27.343750
4446,27.343750
4447,27.343750
4448,27.343750
4449,27.343750
4450,27.343750
4451,27.343750
4452,27.343750
4453,27.343750
4454,23.437500
4455,23.437500
4456,23.437500
4457,23.437500
4458,23.437500
4459,23.437500
4460,23.437500
4461,23.437500
4462,23.437500
4463,23.437500
4464,23.437500
4465,19.531250
4466,19.531250
4467,19.531250
4468,19.531250
4469,19.531250
4470,19.531250
4471,19.531250
4472,19.531250
4473,19.531250
4474,19.531250
4475,19.531250
4476,19.531250
4477,15.625000
4478,15.625000
4479,15.625000
4480,15.625000
4481,15.625000
4482,15.625000
4483,15.625000
4484,15.625000
4485,15.625000
4486,11.718750
4487,11.718750
4488,11.718750
4489,11.718750
4490,11.718750
4491,11.718750
4492,11.718750
4493,11.718750
4494,11.718750
4495,11.718750
4496,11.718750
4497,11.718750
4498,7.812500
4499,7.812500
4500,7.812500
4501,7.812500
4502,7.812500
4503,7.812500
4504,7.812500
4505,7.812500
4506,7.812500
4507,7.812500
4508,3.906250
4509,3.906250
4510,3.906250
4511,3.906250
4512,3.906250
4513,3.906250
4514,3.906250
4515,3.906250
4516,0.000000
4517,0.000000
4518,0.000000
4519,0.000000
4520,0.000000
4521,0.000000
4522,0.000000
4523,0.000000
4524,0.000000
4525,-3.906250
4526,0.000000
4527,-3.906250
4528,-3.906250
4529,-3.906250
4530,-3.906250
4531,-3.906250
4532,-3.906250
4533,-3.906250
4534,-7.812500
4535,-3.906250
4536,-7.812500
4537,-7.812500
4538,-7.812500
4539,-7.812500
4540,-7.812500
4541,-7.812500
4542,-7.812500
4543,-11.718750
4544,-11.718750
4545,-11.718750
4546,-11.718750
4547,-11.718750
4548,-11.718750
4549,-11.718750
4550,-11.718750
4551,-11.718750
4552,-15.625000
4553,-15.625000
4554,-15.625000
4555,-15.625000
4556,-15.625000
4557,-15.625000
4558,-15.625000
4559,-15.625000
4560,-15.625000
4561,-19.531250
4562,-19.531250
4563,-19.531250
4564,-19.531250
4565,-19.531250
4566,-19.531250
4567,-19.531250
4568,-19.531250
4569,-23.437500
4570,-19.531250
4571,-23.437500
4572,-23.437500
4573,-23.437500
4574,-23.437500
4575,-23.437500
4576,-23.437500
4577,-23.437500
4578,-27.343750
4579,-23.437500
4580,-27.343750
4581,-27.343750
4582,-27.343750
4583,-27.343750
4584,-27.343750
4585,-27.343750
4586,-27.343750
4587,-31.250000
4588,-31.250000
4589,-35.156250
4590,-31.250000
4591,-31.250000
4592,-31.250000
4593,-31.250000
4594,-31.250000
4595,-31.250000
4596,-31.250000
4597,-35.156250
4598,-35.156250
4599,-35.156250
4600,-35.156250
4601,-35.156250
4602,-35.156250
4603,-35.156250
4604,-35.156250
4605,-39.062500
4606,-39.062500
4607,-39.062500
4608,-39.062500
4609,-39.062500
4610,-39.062500
4611,-39.062500
4612,-39.062500
4613,-39.062500
4614,-39.062500
4615,-42.968750
4616,-42.968750
4617,-42.968750
4618,-42.968750
4619,-42.968750
4620,-42.968750
4621,-42.968750
4622,-42.968750
4623,-42.968750
4624,-42.968750
4625,-42.968750
4626,-46.875000
4627,-46.875000
4628,-46.875000
4629,-46.875000
4630,-46.875000
4631,-46.875000
4632,-46.875000
4633,-46.875000
4634,-46.875000
4635,-46.875000
4636,-50.781250
4637,-50.781250
4638,-50.781250
4639,-50.781250
4640,-50.781250
4641,-50.781250
4642,-50.781250
4643,-50.781250
4644,-50.781250
4645,-50.781250
4646,-50.781250
4647,-54.687500
4648,-54.687500
4649,-54.687500
4650,-54.687500
4651,-54.687500
4652,-54.687500
4653,-54.687500
4654,-54.687500
4655,-54.687500
4656,-54.687500
4657,-58.593750
4658,-54.687500
4659,-58.593750
4660,-58.593750
4661,-58.593750
4662,-58.593750
4663,-58.593750
4664,-58.593750
4665,-58.593750
4666,-58.593750
4667,-58.593750
4668,-58.593750
4669,-62.500000
4670,-62.500000
4671,-62.500000
4672,-62.500000
4673,-62.500000
4674,-62.500000
4675,-62.500000
4676,-62.500000
4677,-62.500000
4678,-62.500000
4679,-62.500000
4680,-66.406250
4681,-66.406250
4682,-66.406250
4683,-66.406250
4684,-66.406250
4685,-66.406250
4686,-66.406250
4687,-66.406250
4688,-66.406250
4689,-66.406250
4690,-66.406250
4691,-66.406250
4692,-66.406250
4693,-70.312500
4694,-70.312500
4695,-70.312500
4696,-70.312500
4697,-70.312500
4698,-70.312500
4699,-70.312500
4700,-70.312500
4701,-70.312500
4702,-70.312500
4703,-70.312500
4704,-70.312500
4705,-70.312500
4706,-70.312500
4707,-70.312500
4708,-70.312500
4709,-70.312500
4710,-70.312500
4711,-74.218750
4712,-74.218750
4713,-74.218750
4714,-74.218750
4715,-74.218750
4716,-74.218750
4717,-74.218750
4718,-74.218750
4719,-74.218750
4720,-74.218750
4721,-74.218750
4722,-74.218750
4723,-74.218750
4724,-74.218750
4725,-74.218750
4726,-74.218750
4727,-74.218750
4728,-74.218750
4729,-74.218750
4730,-78.125000
4731,-78.125000
4732,-78.125000
4733,-78.125000
4734,-78.125000
4735,-78.125000
4736,-78.125000
4737,-78.125000
4738,-78.125000
4739,-78.125000
4740,-78.125000
4741,-78.125000
4742,-78.125000
4743,-78.125000
4744,-78.125000
4745,-78.125000
4746,-78.125000
4747,-78.125000
4748,-78.125000
4749,-78.125000
4750,-78.125000
4751,-78.125000
4752,-78.125000
4753,-78.125000
4754,-78.125000
4755,-78.125000
4756,-78.125000
4757,-78.125000
4758,-78.125000
4759,-78.125000
4760,-78.125000
4761,-78.125000
4762,-78.125000
4763,-78.125000
4764,-78.125000
4765,-82.031250
4766,-82.031250
4767,-82.031250
4768,-78.125000
4769,-82.031250
4770,-82.031250
4771,-78.125000
4772,-78.125000
4773,-82.031250
4774,-82.031250
4775,-82.031250
4776,-82.031250
4777,-82.031250
4778,-82.031250
4779,-82.031250
4780,-82.031250
4781,-82.031250
4782,-82.031250
4783,-82.031250
4784,-82.031250
4785,-82.031250
4786,-82.031250
4787,-82.031250
4788,-82.031250
4789,-82.031250
4790,-82.031250
4791,-82.031250
4792,-82.031250
4793,-82.031250
4794,-82.031250
4795,-78.125000
4796,-82.031250
4797,-82.031250
4798,-82.031250
4799,-82.031250
4800,-82.031250
4801,-82.031250
4802,-82.031250
4803,-82.031250
4804,-78.125000
4805,-78.125000
4806,-78.125000
4807,-82.031250
4808,-82.031250
4809,-82.031250
4810,-82.031250
4811,-82.031250
4812,-82.031250
4813,-78.125000
4814,-78.125000
4815,-82.031250
4816,-78.125000
4817,-78.125000
4818,-78.125000
4819,-78.125000
4820,-78.125000
4821,-78.125000
4822,-78.125000
4823,-78.125000
4824,-78.125000
4825,-78.125000
4826,-78.125000
4827,-78.125000
4828,-78.125000
4829,-78.125000
4830,-78.125000
4831,-78.125000
4832,-78.125000
4833,-78.125000
4834,-78.125000
4835,-78.125000
4836,-78.125000
4837,-78.125000
4838,-78.125000
4839,-78.125000
4840,-78.125000
4841,-78.125000
4842,-78.125000
4843,-78.125000
4844,-78.125000
4845,-74.218750
4846,-74.218750
4847,-74.218750
4848,-74.218750
4849,-74.218750
4850,-74.218750
4851,-74.218750
4852,-74.218750
4853,-74.218750
4854,-74.218750
4855,-74.218750
4856,-74.218750
4857,-74.218750
4858,-74.218750
4859,-74.218750
4860,-74.218750
4861,-74.218750
4862,-74.218750
4863,-70.312500
4864,-70.312500
4865,-74.218750
4866,-70.312500
4867,-70.312500
4868,-70.312500
4869,-70.312500
4870,-70.312500
4871,-70.312500
4872,-70.312500
4873,-70.312500
4874,-70.312500
4875,-70.312500
4876,-70.312500
4877,-70.312500
4878,-66.406250
4879,-66.406250
4880,-66.406250
4881,-66.406250
4882,-66.406250
4883,-66.406250
4884,-66.406250
4885,-66.406250
4886,-66.406250
4887,-66.406250
4888,-66.406250
4889,-66.406250
4890,-66.406250
4891,-66.406250
4892,-62.500000
4893,-66.406250
4894,-66.406250
4895,-62.500000
4896,-62.500000
4897,-62.500000
4898,-62.500000
4899,-62.500000
4900,-62.500000
4901,-62.500000
4902,-62.500000
4903,-62.500000
4904,-62.500000
4905,-58.593750
4906,-58.593750
4907,-62.500000
4908,-58.593750
4909,-58.593750
4910,-58.593750
4911,-58.593750
4912,-58.593750
4913,-58.593750
4914,-58.593750
4915,-58.593750
4916,-58.593750
4917,-58.593750
4918,-54.687500
4919,-54.687500
4920,-58.593750
4921,-54.687500
4922,-54.687500
4923,-54.687500
4924,-54.687500
4925,-54.687500
4926,-54.687500
4927,-54.687500
4928,-54.687500
4929,-54.687500
4930,-50.781250
4931,-50.781250
4932,-50.781250
4933,-50.781250
4934,-50.781250
4935,-50.781250
4936,-50.781250
4937,-50.781250
4938,-50.781250
4939,-50.781250
4940,-46.875000
4941,-50.781250
4942,-46.875000
4943,-46.875000
4944,-46.875000
4945,-46.875000
4946,-46.875000
4947,-46.875000
4948,-46.875000
4949,-46.875000
4950,-46.875000
4951,-46.875000
4952,-42.968750
4953,-42.968750
4954,-42.968750
4955,-42.968750
4956,-42.968750
4957,-42.968750
4958,-42.968750
4959,-42.968750
4960,-42.968750
4961,-42.968750
4962,-39.062500
4963,-39.062500
4964,-39.062500
4965,-39.062500
4966,-39.062500
4967,-39.062500
4968,-39.062500
4969,-39.062500
4970,-35.156250
4971,-39.062500
4972,-35.156250
4973,-39.062500
4974,-35.156250
4975,-35.156250
4976,-35.156250
4977,-35.156250
4978,-35.156250
4979,-35.156250
4980,-31.250000
4981,-31.250000
4982,-31.250000
4983,-31.250000
4984,-31.250000
4985,-31.250000
4986,-31.250000
4987,-31.250000
4988,-27.343750
4989,-27.343750
4990,-27.343750
4991,-27.343750
4992,-27.343750
4993,-27.343750
4994,-27.343750
4995,-27.343750
4996,-27.343750
4997,-23.437500
4998,-23.437500
4999,-27.343750
5000,-23.437500
5001,-23.437500
5002,-23.437500
5003,-23.437500
5004,-23.437500
5005,-23.437500
5006,-19.531250
5007,-19.531250
5008,-19.531250
5009,-19.531250
5010,-19.531250
5011,-19.531250
5012,-23.437500
5013,-19.531250
5014,-19.531250
5015,-15.625000
5016,-19.531250
5017,-15.625000
5018,-15.625000
5019,-15.625000
5020,-15.625000
5021,-15.625000
5022,-15.625000
5023,-15.625000
5024,-11.718750
5025,-11.718750
5026,-11.718750
5027,-11.718750
5028,-11.718750
5029,-11.718750
5030,-11.718750
5031,-11.718750
5032,-11.718750
5033,-11.718750
5034,-7.812500
5035,-7.812500
5036,-7.812500
5037,-7.812500
5038,-7.812500
5039,-7.812500
5040,-7.812500
5041,-7.812500
5042,-7.812500
5043,-3.906250
5044,-7.812500
5045,-3.906250
5046,-3.906250
5047,-3.906250
5048,-3.906250
5049,-3.906250
5050,-3.906250
5051,-3.906250
5052,-3.906250
5053,0.000000
5054,0.000000
5055,0.000000
5056,0.000000
5057,0.000000
5058,0.000000
5059,0.000000
5060,0.000000
5061,0.000000
5062,3.906250
5063,3.906250
5064,3.906250
5065,3.906250
5066,3.906250
5067,3.906250
5068,3.906250
5069,3.906250
5070,3.906250
5071,3.906250
5072,7.812500
5073,7.812500
5074,3.906250
5075,7.812500
5076,7.812500
5077,7.812500
5078,7.812500
5079,7.812500
5080,7.812500
5081,11.718750
5082,7.812500
5083,11.718750
5084,11.718750
5085,11.718750
5086,11.718750
5087,11.718750
5088,11.718750
5089,11.718750
5090,11.718750
5091,11.718750
5092,11.718750
5093,11.718750
5094,15.625000
5095,15.625000
5096,15.625000
5097,15.625000
5098,15.625000
5099,15.625000
5100,15.625000
5101,15.625000
5102,19.531250
5103,19.531250
5104,19.531250
5105,19.531250
5106,15.625000
5107,19.531250
5108,19.531250
5109,19.531250
5110,19.531250
5111,19.531250
5112,19.531250
5113,23.437500
5114,23.437500
5115,23.437500
5116,23.437500
5117,23.437500
5118,23.437500
5119,23.437500
5120,23.437500
5121,23.437500
5122,23.437500
5123,27.343750
5124,27.343750
5125,27.343750
5126,27.343750
5127,27.343750
5128,27.343750
5129,27.343750
5130,27.343750
5131,27.343750
5132,27.343750
5133,31.250000
5134,31.250000
5135,27.343750
5136,31.250000
5137,31.250000
5138,31.250000
5139,31.250000
5140,31.250000
5141,31.250000
5142,31.250000
5143,31.250000
5144,31.250000
5145,31.250000
5146,35.156250
5147,35.156250
5148,35.156250
5149,35.156250
5150,35.156250
5151,35.156250
5152,35.156250
5153,35.156250
5154,35.156250
5155,35.156250
5156,35.156250
5157,35.156250
5158,35.156250
5159,39.062500
5160,39.062500
5161,39.062500
5162,39.062500
5163,39.062500
5164,39.062500
5165,39.062500
5166,39.062500
5167,39.062500
5168,39.062500
5169,39.062500
5170,39.062500
5171,39.062500
5172,39.062500
5173,42.968750
5174,42.968750
5175,42.968750
5176,42.968750
5177,39.062500
5178,42.968750
5179,42.968750
5180,42.968750
5181,42.968750
5182,42.968750
5183,42.968750
5184,42.968750
5185,42.968750
5186,42.968750
5187,42.968750
5188,42.968750
5189,42.968750
5190,42.968750
5191,42.968750
5192,46.875000
5193,46.875000
5194,46.875000
5195,46.875000
5196,46.875000
5197,46.875000
5198,46.875000
5199,46.875000
5200,46.875000
5201,46.875000
5202,46.875000
5203,46.875000
5204,46.875000
5205,46.875000
5206,46.875000
5207,46.875000
5208,46.875000
5209,46.875000
5210,46.875000
5211,46.875000
5212,50.781250
5213,50.781250
5214,46.875000
5215,50.781250
5216,50.781250
5217,50.781250
5218,50.781250
5219,50.781250
5220,50.781250
5221,50.781250
5222,50.781250
5223,50.781250
5224,50.781250
5225,50.781250
5226,50.781250
5227,50.781250
5228,50.781250
5229,50.781250
5230,50.781250
5231,50.781250
5232,50.781250
5233,50.781250
5234,50.781250
5235,50.781250
5236,50.781250
5237,50.781250
5238,50.781250
5239,50.781250
5240,50.781250
5241,50.781250
5242,54.687500
5243,54.687500
5244,54.687500
5245,54.687500
5246,54.687500
5247,54.687500
5248,54.687500
5249,54.687500
5250,54.687500
5251,54.687500
5252,54.687500
5253,54.687500
5254,54.687500
5255,54.687500
5256,54.687500
5257,54.687500
5258,54.687500
5259,54.687500
5260,54.687500
5261,54.687500
5262,54.687500
5263,54.687500
5264,54.687500
5265,54.687500
5266,54.687500
5267,54.687500
5268,54.687500
5269,54.687500
5270,54.687500
5271,54.687500
5272,54.687500
5273,54.687500
5274,54.687500
5275,54.687500
5276,54.687500
5277,54.687500
5278,54.687500
5279,54.687500
5280,54.687500
5281,54.687500
5282,54.687500
5283,54.687500
5284,54.687500
5285,54.687500
5286,54.687500
5287,54.687500
5288,54.687500
5289,54.687500
5290,54.687500
5291,54.687500
5292,54.687500
5293,54.687500
5294,54.687500
5295,54.687500
5296,54.687500
5297,54.687500
5298,54.687500
5299,54.687500
5300,54.687500
5301,54.687500
5302,54.687500
5303,54.687500
5304,54.687500
5305,54.687500
5306,54.687500
5307,54.687500
5308,54.687500
5309,54.687500
5310,54.687500
5311,54.687500
5312,54.687500
5313,54.687500
5314,54.687500
5315,54.687500
5316,54.687500
5317,54.687500
5318,54.687500
5319,54.687500
5320,54.687500
5321,54.687500
5322,54.687500
5323,54.687500
5324,54.687500
5325,54.687500
5326,50.781250
5327,50.781250
5328,50.781250
5329,50.781250
5330,50.781250
5331,50.781250
5332,50.781250
5333,50.781250
5334,50.781250
5335,50.781250
5336,50.781250
5337,50.781250
5338,50.781250
5339,50.781250
5340,50.781250
5341,50.781250
5342,50.781250
5343,50.781250
5344,50.781250
5345,50.781250
5346,50.781250
5347,50.781250
5348,50.781250
5349,50.781250
5350,50.781250
5351,50.781250
5352,50.781250
5353,46.875000
5354,50.781250
5355,50.781250
5356,50.781250
5357,46.875000
5358,46.875000
5359,46.875000
5360,46.875000
5361,46.875000
5362,46.875000
5363,46.875000
5364,46.875000
5365,46.875000
5366,46.875000
5367,46.875000
5368,46.875000
5369,46.875000
5370,46.875000
5371,46.875000
5372,46.875000
5373,46.875000
5374,46.875000
5375,46.875000
5376,46.875000
5377,46.875000
5378,46.875000
5379,42.968750
5380,42.968750
5381,39.062500
5382,42.968750
5383,42.968750
5384,42.968750
5385,42.968750
5386,42.968750
5387,42.968750
5388,42.968750
5389,42.968750
5390,42.968750
5391,39.062500
5392,42.968750
5393,39.062500
5394,39.062500
5395,42.968750
5396,42.968750
5397,39.062500
5398,39.062500
5399,39.062500
5400,39.062500
5401,39.062500
5402,39.062500
5403,39.062500
5404,39.062500
5405,39.062500
5406,39.062500
5407,39.062500
5408,39.062500
5409,39.062500
5410,35.156250
5411,35.156250
5412,35.156250
5413,35.156250
5414,35.156250
5415,35.156250
5416,35.156250
5417,35.156250
5418,35.156250
5419,35.156250
5420,35.156250
5421,31.250000
5422,31.250000
5423,31.250000
5424,31.250000
5425,31.250000
5426,31.250000
5427,31.250000
5428,31.250000
5429,31.250000
5430,31.250000
5431,31.250000
5432,31.250000
5433,27.343750
5434,31.250000
5435,27.343750
5436,27.343750
5437,27.343750
5438,27.343750
5439,27.343750
5440,27.343750
5441,27.343750
5442,27.343750
5443,27.343750
5444,27.343750
5445,23.437500
5446,27.343750
5447,23.437500
5448,23.437500
5449,23.437500
5450,23.437500
5451,23.437500
5452,23.437500
5453,23.437500
5454,23.437500
5455,23.437500
5456,23.437500
5457,19.531250
5458,19.531250
5459,19.531250
5460,19.531250
5461,19.531250
5462,19.531250
5463,19.531250
5464,19.531250
5465,19.531250
5466,15.625000
5467,15.625000
5468,15.625000
5469,15.625000
5470,15.625000
5471,15.625000
5472,15.625000
5473,15.625000
5474,15.625000
5475,15.625000
5476,11.718750
5477,11.718750
5478,11.718750
5479,11.718750
5480,11.718750
5481,11.718750
5482,11.718750
5483,11.718750
5484,11.718750
5485,7.812500
5486,7.812500
5487,7.812500
5488,7.812500
5489,7.812500
5490,7.812500
5491,7.812500
5492,7.812500
5493,3.906250
5494,7.812500
5495,3.906250
5496,3.906250
5497,3.906250
5498,3.906250
5499,3.906250
5500,3.906250
5501,3.906250
5502,3.906250
5503,3.906250
5504,3.906250
5505,0.000000
5506,0.000000
5507,0.000000
5508,0.000000
5509,0.000000
5510,0.000000
5511,0.000000
5512,0.000000
5513,-3.906250
5514,-3.906250
5515,-3.906250
5516,-3.906250
5517,-3.906250
5518,-3.906250
5519,-7.812500
5520,-3.906250
5521,-3.906250
5522,-3.906250
5523,-7.812500
5524,-7.812500
5525,-7.812500
5526,-7.812500
5527,-7.812500
5528,-7.812500
5529,-7.812500
5530,-7.812500
5531,-11.718750
5532,-11.718750
5533,-11.718750
5534,-11.718750
5535,-11.718750
5536,-11.718750
5537,-11.718750
5538,-11.718750
5539,-11.718750
5540,-11.718750
5541,-15.625000
5542,-15.625000
5543,-15.625000
5544,-15.625000
5545,-15.625000
5546,-15.625000
5547,-15.625000
5548,-15.625000
5549,-15.625000
5550,-15.625000
5551,-19.531250
5552,-19.531250
5553,-19.531250
5554,-19.531250
5555,-19.531250
5556,-19.531250
5557,-19.531250
5558,-19.531250
5559,-23.437500
5560,-23.437500
5561,-23.437500
5562,-23.437500
5563,-23.437500
5564,-23.437500
5565,-23.437500
5566,-23.437500
5567,-23.437500
5568,-27.343750
5569,-27.343750
5570,-27.343750
5571,-27.343750
5572,-27.343750
5573,-27.343750
5574,-27.343750
5575,-27.343750
5576,-31.250000
5577,-31.250000
5578,-31.250000
5579,-31.250000
5580,-31.250000
5581,-31.250000
5582,-31.250000
5583,-31.250000
5584,-31.250000
5585,-35.156250
5586,-35.156250
5587,-35.156250
5588,-35.156250
5589,-35.156250
5590,-35.156250
5591,-35.156250
5592,-35.156250
5593,-35.156250
5594,-39.062500
5595,-39.062500
5596,-39.062500
5597,-39.062500
5598,-39.062500
5599,-39.062500
5600,-39.062500
5601,-39.062500
5602,-39.062500
5603,-39.062500
5604,-42.968750
5605,-42.968750
5606,-42.968750
5607,-42.968750
5608,-42.968750
5609,-42.968750
5610,-42.968750
5611,-42.968750
5612,-42.968750
5613,-46.875000
5614,-46.875000
5615,-46.875000
5616,-46.875000
5617,-46.875000
5618,-46.875000
5619,-46.875000
5620,-46.875000
5621,-46.875000
5622,-46.875000
5623,-46.875000
5624,-50.781250
5625,-50.781250
5626,-50.781250
5627,-50.781250
5628,-50.781250
5629,-50.781250
5630,-50.781250
5631,-50.781250
5632,-50.781250
5633,-54.687500
5634,-54.687500
5635,-54.687500
5636,-54.687500
5637,-54.687500
5638,-54.687500
5639,-54.687500
5640,-54.687500
5641,-54.687500
5642,-54.687500
5643,-54.687500
5644,-54.687500
5645,-58.593750
5646,-58.593750
5647,-58.593750
5648,-58.593750
5649,-58.593750
5650,-58.593750
5651,-58.593750
5652,-58.593750
5653,-58.593750
5654,-58.593750
5655,-58.593750
5656,-58.593750
5657,-58.593750
5658,-62.500000
5659,-62.500000
5660,-62.500000
5661,-62.500000
5662,-62.500000
5663,-62.500000
5664,-62.500000
5665,-62.500000
5666,-62.500000
5667,-62.500000
5668,-62.500000
5669,-66.406250
5670,-66.406250
5671,-66.406250
5672,-66.406250
5673,-66.406250
5674,-66.406250
5675,-66.406250
5676,-66.406250
5677,-66.406250
5678,-66.406250
5679,-66.406250
5680,-66.406250
5681,-66.406250
5682,-66.406250
5683,-66.406250
5684,-66.406250
5685,-70.312500
5686,-70.312500
5687,-70.312500
5688,-70.312500
5689,-70.312500
5690,-70.312500
5691,-70.312500
5692,-70.312500
5693,-70.312500
5694,-70.312500
5695,-70.312500
5696,-70.312500
5697,-70.312500
5698,-70.312500
5699,-74.218750
5700,-74.218750
5701,-74.218750
5702,-70.312500
5703,-74.218750
5704,-74.218750
5705,-74.218750
5706,-74.218750
5707,-74.218750
5708,-74.218750
5709,-74.218750
5710,-74.218750
5711,-74.218750
5712,-74.218750
5713,-74.218750
5714,-74.218750
5715,-74.218750
5716,-74.218750
5717,-78.125000
5718,-78.125000
5719,-78.125000
5720,-78.125000
5721,-78.125000
5722,-78.125000
5723,-78.125000
5724,-78.125000
5725,-78.125000
5726,-78.125000
5727,-78.125000
5728,-78.125000
5729,-78.125000
5730,-78.125000
5731,-78.125000
5732,-78.125000
5733,-78.125000
5734,-78.125000
5735,-78.125000
5736,-78.125000
5737,-78.125000
5738,-78.125000
5739,-78.125000
5740,-78.125000
5741,-78.125000
5742,-78.125000
5743,-78.125000
5744,-82.031250
5745,-78.125000
5746,-78.125000
5747,-82.031250
5748,-82.031250
5749,-82.031250
5750,-78.125000
5751,-82.031250
5752,-82.031250
5753,-82.031250
5754,-82.031250
5755,-82.031250
5756,-82.031250
5757,-82.031250
5758,-82.031250
5759,-82.031250
5760,-82.031250
5761,-82.031250
5762,-82.031250
5763,-82.031250
5764,-82.031250
5765,-82.031250
5766,-82.031250
5767,-82.031250
5768,-82.031250
5769,-82.031250
5770,-82.031250
5771,-82.031250
5772,-82.031250
5773,-82.031250
5774,-82.031250
5775,-82.031250
5776,-82.031250
5777,-82.031250
5778,-82.031250
5779,-82.031250
5780,-82.031250
5781,-82.031250
5782,-82.031250
5783,-82.031250
5784,-82.031250
5785,-82.031250
5786,-82.031250
5787,-82.031250
5788,-82.031250
5789,-82.031250
5790,-78.125000
5791,-82.031250
5792,-82.031250
5793,-82.031250
5794,-82.031250
5795,-78.125000
5796,-78.125000
5797,-82.031250
5798,-82.031250
5799,-82.031250
5800,-78.125000
5801,-82.031250
5802,-78.125000
5803,-78.125000
5804,-78.125000
5805,-78.125000
5806,-78.125000
5807,-78.125000
5808,-78.125000
5809,-78.125000
5810,-78.125000
5811,-78.125000
5812,-78.125000
5813,-78.125000
5814,-78.125000
5815,-78.125000
5816,-78.125000
5817,-78.125000
5818,-78.125000
5819,-78.125000
5820,-78.125000
5821,-78.125000
5822,-78.125000
5823,-78.125000
5824,-78.125000
5825,-78.125000
5826,-78.125000
5827,-78.125000
5828,-78.125000
5829,-78.125000
5830,-78.125000
5831,-78.125000
5832,-78.125000
5833,-74.218750
5834,-74.218750
5835,-74.218750
5836,-74.218750
5837,-74.218750
5838,-74.218750
5839,-78.125000
5840,-74.218750
5841,-74.218750
5842,-74.218750
5843,-74.218750
5844,-74.218750
5845,-74.218750
5846,-74.218750
5847,-74.218750
5848,-74.218750
5849,-74.218750
5850,-74.218750
5851,-74.218750
5852,-74.218750
5853,-74.218750
5854,-74.218750
5855,-70.312500
5856,-70.312500
5857,-70.312500
5858,-70.312500
5859,-70.312500
5860,-70.312500
5861,-70.312500
5862,-70.312500
5863,-70.312500
5864,-70.312500
5865,-70.312500
5866,-70.312500
5867,-70.312500
5868,-70.312500
5869,-70.312500
5870,-70.312500
5871,-70.312500
5872,-66.406250
5873,-70.312500
5874,-66.406250
5875,-66.406250
5876,-66.406250
5877,-66.406250
5878,-66.406250
5879,-66.406250
5880,-66.406250
5881,-66.406250
5882,-66.406250
5883,-66.406250
5884,-62.500000
5885,-66.406250
5886,-62.500000
5887,-62.500000
5888,-62.500000
5889,-62.500000
5890,-62.500000
5891,-62.500000
5892,-62.500000
5893,-62.500000
5894,-62.500000
5895,-62.500000
5896,-62.500000
5897,-58.593750
5898,-58.593750
5899,-58.593750
5900,-58.593750
5901,-58.593750
5902,-58.593750
5903,-58.593750
5904,-58.593750
5905,-58.593750
5906,-58.593750
5907,-58.593750
5908,-54.687500
5909,-54.687500
5910,-54.687500
5911,-54.687500
5912,-54.687500
5913,-54.687500
5914,-54.687500
5915,-54.687500
5916,-54.687500
5917,-54.687500
5918,-54.687500
5919,-54.687500
5920,-50.781250
5921,-50.781250
5922,-50.781250
5923,-50.781250
5924,-50.781250
5925,-50.781250
5926,-50.781250
5927,-50.781250
5928,-50.781250
5929,-50.781250
5930,-46.875000
5931,-46.875000
5932,-46.875000
5933,-46.875000
5934,-46.875000
5935,-46.875000
5936,-46.875000
5937,-46.875000
5938,-46.875000
5939,-46.875000
5940,-46.875000
5941,-42.968750
5942,-42.968750
5943,-42.968750
5944,-42.968750
5945,-42.968750
5946,-42.968750
5947,-42.968750
5948,-42.968750
5949,-42.968750
5950,-39.062500
5951,-39.062500
5952,-39.062500
5953,-39.062500
5954,-39.062500
5955,-39.062500
5956,-39.062500
5957,-39.062500
5958,-39.062500
5959,-39.062500
5960,-35.156250
5961,-39.062500
5962,-35.156250
5963,-35.156250
5964,-35.156250
5965,-35.156250
5966,-35.156250
5967,-35.156250
5968,-31.250000
5969,-35.156250
5970,-31.250000
5971,-31.250000
5972,-31.250000
5973,-31.250000
5974,-31.250000
5975,-31.250000
5976,-31.250000
5977,-31.250000
5978,-27.343750
5979,-27.343750
5980,-27.343750
5981,-27.343750
5982,-27.343750
5983,-27.343750
5984,-27.343750
5985,-27.343750
5986,-27.343750
5987,-27.343750
5988,-23.437500
5989,-23.437500
5990,-23.437500
5991,-23.437500
5992,-23.437500
5993,-23.437500
5994,-23.437500
5995,-23.437500
5996,-23.437500
5997,-23.437500
5998,-19.531250
5999,-19.531250
6000,-19.531250
6001,-19.531250
6002,-19.531250
6003,-19.531250
6004,-19.531250
6005,-19.531250
6006,-19.531250
6007,-15.625000
6008,-15.625000
6009,-15.625000
6010,-15.625000
6011,-15.625000
6012,-15.625000
6013,-15.625000
6014,-15.625000
6015,-15.625000
6016,-11.718750
6017,-11.718750
6018,-11.718750
6019,-11.718750
6020,-11.718750
6021,-11.718750
6022,-11.718750
6023,-11.718750
6024,-7.812500
6025,-11.718750
6026,-7.812500
6027,-7.812500
6028,-7.812500
6029,-7.812500
6030,-7.812500
6031,-7.812500
6032,-7.812500
6033,-3.906250
6034,-3.906250
6035,-3.906250
6036,-3.906250
6037,-3.906250
6038,-3.906250
6039,-3.906250
6040,-3.906250
6041,-3.906250
6042,-3.906250
6043,0.000000
6044,0.000000
6045,0.000000
6046,0.000000
6047,0.000000
6048,0.000000
6049,0.000000
6050,3.906250
6051,0.000000
6052,3.906250
6053,3.906250
6054,3.906250
6055,3.906250
6056,3.906250
6057,3.906250
6058,3.906250
6059,3.906250
6060,3.906250
6061,7.812500
6062,7.812500
6063,7.812500
6064,7.812500
6065,7.812500
6066,7.812500
6067,7.812500
6068,11.718750
6069,11.718750
6070,11.718750
6071,11.718750
6072,11.718750
6073,11.718750
6074,11.718750
6075,11.718750
6076,11.718750
6077,11.718750
6078,11.718750
6079,15.625000
6080,15.625000
6081,15.625000
6082,15.625000
6083,15.625000
6084,15.625000
6085,15.625000
6086,15.625000
6087,15.625000
6088,15.625000
6089,15.625000
6090,15.625000
6091,19.531250
6092,19.531250
6093,19.531250
6094,19.531250
6095,19.531250
6096,19.531250
6097,19.531250
6098,19.531250
6099,19.531250
6100,19.531250
6101,23.437500
6102,23.437500
6103,23.437500
6104,23.437500
6105,23.437500
6106,23.437500
6107,23.437500
6108,23.437500
6109,23.437500
6110,23.437500
6111,23.437500
6112,23.437500
6113,23.437500
6114,27.343750
6115,27.343750
6116,27.343750
6117,27.343750
6118,27.343750
6119,27.343750
6120,27.343750
6121,27.343750
6122,27.343750
6123,27.343750
6124,27.343750
6125,31.250000
6126,31.250000
6127,31.250000
6128,31.250000
6129,31.250000
6130,31.250000
6131,31.250000
6132,31.250000
6133,31.250000
6134,31.250000
6135,31.250000
6136,35.156250
6137,35.156250
6138,35.156250
6139,35.156250
6140,35.156250
6141,35.156250
6142,35.156250
6143,35.156250
6144,35.156250
6145,35.156250
6146,35.156250
6147,35.156250
6148,35.156250
6149,35.156250
6150,35.156250
6151,35.156250
6152,39.062500
6153,39.062500
6154,39.062500
6155,39.062500
6156,39.062500
6157,39.062500
6158,39.062500
6159,39.062500
6160,39.062500
6161,39.062500
6162,39.062500
6163,39.062500
6164,39.062500
6165,39.062500
6166,39.062500
6167,42.968750
6168,42.968750
6169,42.968750
6170,42.968750
6171,42.968750
6172,42.968750
6173,42.968750
6174,42.968750
6175,42.968750
6176,42.968750
6177,42.968750
6178,42.968750
6179,42.968750
6180,42.968750
6181,42.968750
6182,42.968750
6183,42.968750
6184,46.875000
6185,46.875000
6186,46.875000
6187,46.875000
6188,46.875000
6189,46.875000
6190,46.875000
6191,46.875000
6192,46.875000
6193,50.781250
6194,46.875000
6195,46.875000
6196,46.875000
6197,46.875000
6198,46.875000
6199,46.875000
6200,46.875000
6201,46.875000
6202,50.781250
6203,50.781250
6204,50.781250
6205,50.781250
6206,50.781250
6207,50.781250
6208,50.781250
6209,50.781250
6210,50.781250
6211,50.781250
6212,50.781250
6213,50.781250
6214,50.781250
6215,50.781250
6216,50.781250
6217,50.781250
6218,50.781250
6219,50.781250
6220,50.781250
6221,50.781250
6222,50.781250
6223,50.781250
6224,50.781250
6225,50.781250
6226,50.781250
6227,50.781250
6228,54.687500
6229,54.687500
6230,54.687500
6231,54.687500
6232,54.687500
6233,54.687500
6234,50.781250
6235,50.781250
6236,50.781250
6237,54.687500
6238,54.687500
6239,54.687500
6240,54.687500
6241,50.781250
6242,54.687500
6243,54.687500
6244,54.687500
6245,54.687500
6246,54.687500
6247,54.687500
6248,54.687500
6249,54.687500
6250,54.687500
6251,54.687500
6252,54.687500
6253,54.687500
6254,54.687500
6255,54.687500
6256,54.687500
6257,54.687500
6258,54.687500
6259,54.687500
6260,54.687500
6261,54.687500
6262,54.687500
6263,54.687500
6264,54.687500
6265,54.687500
6266,54.687500
6267,54.687500
6268,54.687500
6269,54.687500
6270,54.687500
6271,54.687500
6272,54.687500
6273,54.687500
6274,54.687500
6275,54.687500
6276,54.687500
6277,54.687500
6278,54.687500
6279,54.687500
6280,54.687500
6281,54.687500
6282,54.687500
6283,54.687500
6284,54.687500
6285,54.687500
6286,54.687500
6287,54.687500
6288,54.687500
6289,54.687500
6290,54.687500
6291,54.687500
6292,54.687500
6293,54.687500
6294,54.687500
6295,54.687500
6296,54.687500
6297,54.687500
6298,54.687500
6299,54.687500
6300,54.687500
6301,54.687500
6302,54.687500
6303,54.687500
6304,54.687500
6305,54.687500
6306,54.687500
6307,54.687500
6308,54.687500
6309,54.687500
6310,54.687500
6311,54.687500
6312,54.687500
6313,54.687500
6314,54.687500
6315,50.781250
6316,54.687500
6317,50.781250
6318,54.687500
6319,50.781250
6320,54.687500
6321,54.687500
6322,50.781250
6323,50.781250
6324,50.781250
6325,50.781250
6326,50.781250
6327,50.781250
6328,50.781250
6329,50.781250
6330,50.781250
6331,50.781250
6332,50.781250
6333,50.781250
6334,50.781250
6335,50.781250
6336,50.781250
6337,50.781250
6338,50.781250
6339,50.781250
6340,50.781250
6341,50.781250
6342,50.781250
6343,50.781250
6344,50.781250
6345,50.781250
6346,50.781250
6347,50.781250
6348,46.875000
6349,50.781250
6350,46.875000
6351,46.875000
6352,46.875000
6353,46.875000
6354,46.875000
6355,46.875000
6356,46.875000
6357,46.875000
6358,46.875000
6359,46.875000
6360,46.875000
6361,46.875000
6362,46.875000
6363,46.875000
6364,46.875000
6365,46.875000
6366,46.875000
6367,42.968750
6368,42.968750
6369,42.968750
6370,42.968750
6371,42.968750
6372,42.968750
6373,42.968750
6374,42.968750
6375,42.968750
6376,42.968750
6377,42.968750
6378,42.968750
6379,42.968750
6380,42.968750
6381,39.062500
6382,39.062500
6383,39.062500
6384,39.062500
6385,39.062500
6386,39.062500
6387,39.062500
6388,39.062500
6389,39.062500
6390,39.062500
6391,39.062500
6392,39.062500
6393,39.062500
6394,35.156250
6395,35.156250
6396,35.156250
6397,35.156250
6398,39.062500
6399,35.156250
6400,35.156250
6401,35.156250
6402,35.156250
6403,35.156250
6404,35.156250
6405,35.156250
6406,35.156250
6407,35.156250
6408,35.156250
6409,35.156250
6410,35.156250
6411,31.250000
6412,31.250000
6413,31.250000
6414,31.250000
6415,31.250000
6416,31.250000
6417,31.250000
6418,31.250000
6419,31.250000
6420,31.250000
6421,31.250000
6422,31.250000
6423,27.343750
6424,27.343750
6425,27.343750
6426,27.343750
6427,27.343750
6428,27.343750
6429,27.343750
6430,27.343750
6431,27.343750
6432,27.343750
6433,27.343750
6434,27.343750
6435,27.343750
6436,23.437500
6437,23.437500
6438,23.437500
6439,23.437500
6440,23.437500
6441,23.437500
6442,23.437500
6443,23.437500
6444,23.437500
6445,19.531250
6446,23.437500
6447,19.531250
6448,23.437500
6449,19.531250
6450,19.531250
6451,19.531250
6452,19.531250
6453,19.531250
6454,19.531250
6455,19.531250
6456,19.531250
6457,15.625000
6458,15.625000
6459,15.625000
6460,15.625000
6461,15.625000
6462,15.625000
6463,15.625000
6464,15.625000
6465,15.625000
6466,11.718750
6467,11.718750
6468,11.718750
6469,11.718750
6470,11.718750
6471,11.718750
6472,11.718750
6473,11.718750
6474,7.812500
6475,11.718750
6476,7.812500
6477,7.812500
6478,7.812500
6479,7.812500
6480,7.812500
6481,7.812500
6482,7.812500
6483,7.812500
6484,7.812500
6485,7.812500
6486,7.812500
6487,3.906250
6488,3.906250
6489,3.906250
6490,3.906250
6491,3.906250
6492,3.906250
6493,3.906250
6494,3.906250
6495,0.000000
6496,0.000000
6497,0.000000
6498,0.000000
6499,0.000000
6500,0.000000
6501,-3.906250
6502,0.000000
6503,-3.906250
6504,-3.906250
6505,-3.906250
6506,-3.906250
6507,-3.906250
6508,-3.906250
6509,-3.906250
6510,-3.906250
6511,-3.906250
6512,-3.906250
6513,-7.812500
6514,-7.812500
6515,-7.812500
6516,-7.812500
6517,-7.812500
6518,-7.812500
6519,-7.812500
6520,-7.812500
6521,-7.812500
6522,-11.718750
6523,-11.718750
6524,-11.718750
6525,-11.718750
6526,-11.718750
6527,-11.718750
6528,-11.718750
6529,-11.718750
6530,-15.625000
6531,-15.625000
6532,-15.625000
6533,-15.625000
6534,-15.625000
6535,-15.625000
6536,-15.625000
6537,-15.625000
6538,-15.625000
6539,-19.531250
6540,-19.531250
6541,-19.531250
6542,-19.531250
6543,-19.531250
6544,-19.531250
6545,-19.531250
6546,-19.531250
6547,-19.531250
6548,-23.437500
6549,-23.437500
6550,-23.437500
6551,-23.437500
6552,-23.437500
6553,-23.437500
6554,-23.437500
6555,-23.437500
6556,-27.343750
6557,-23.437500
6558,-27.343750
6559,-27.343750
6560,-27.343750
6561,-27.343750
6562,-27.343750
6563,-27.343750
6564,-27.343750
6565,-27.343750
6566,-31.250000
6567,-31.250000
6568,-31.250000
6569,-31.250000
6570,-31.250000
6571,-31.250000
6572,-31.250000
6573,-31.250000
6574,-31.250000
6575,-35.156250
6576,-35.156250
6577,-35.156250
6578,-35.156250
6579,-35.156250
6580,-35.156250
6581,-35.156250
6582,-35.156250
6583,-35.156250
6584,-35.156250
6585,-35.156250
6586,-39.062500
6587,-39.062500
6588,-39.062500
6589,-39.062500
6590,-39.062500
6591,-39.062500
6592,-39.062500
6593,-39.062500
6594,-39.062500
6595,-42.968750
6596,-42.968750
6597,-42.968750
6598,-42.968750
6599,-42.968750
6600,-42.968750
6601,-42.968750
6602,-42.968750
6603,-46.875000
6604,-46.875000
6605,-46.875000
6606,-46.875000
6607,-46.875000
6608,-46.875000
6609,-46.875000
6610,-46.875000
6611,-46.875000
6612,-46.875000
6613,-46.875000
6614,-50.781250
6615,-50.781250
6616,-50.781250
6617,-50.781250
6618,-50.781250
6619,-50.781250
6620,-50.781250
6621,-50.781250
6622,-50.781250
6623,-50.781250
6624,-54.687500
6625,-54.687500
6626,-54.687500
6627,-50.781250
6628,-54.687500
6629,-54.687500
6630,-54.687500
6631,-54.687500
6632,-54.687500
6633,-54.687500
6634,-58.593750
6635,-58.593750
6636,-58.593750
6637,-58.593750
6638,-58.593750
6639,-58.593750
6640,-58.593750
6641,-58.593750
6642,-58.593750
6643,-58.593750
6644,-58.593750
6645,-58.593750
6646,-62.500000
6647,-62.500000
6648,-62.500000
6649,-62.500000
6650,-62.500000
6651,-62.500000
6652,-62.500000
6653,-62.500000
6654,-62.500000
6655,-62.500000
6656,-62.500000
6657,-62.500000
6658,-62.500000
6659,-66.406250
6660,-66.406250
6661,-66.406250
6662,-66.406250
6663,-66.406250
6664,-66.406250
6665,-66.406250
6666,-66.406250
6667,-66.406250
6668,-66.406250
6669,-66.406250
6670,-66.406250
6671,-66.406250
6672,-70.312500
6673,-70.312500
6674,-70.312500
6675,-70.312500
6676,-70.312500
6677,-70.312500
6678,-70.312500
6679,-70.312500
6680,-70.312500
6681,-70.312500
6682,-70.312500
6683,-70.312500
6684,-70.312500
6685,-70.312500
6686,-70.312500
6687,-70.312500
6688,-70.312500
6689,-70.312500
6690,-70.312500
6691,-74.218750
6692,-74.218750
6693,-74.218750
6694,-74.218750
6695,-74.218750
6696,-74.218750
6697,-74.218750
6698,-74.218750
6699,-74.218750
6700,-74.218750
6701,-74.218750
6702,-74.218750
6703,-74.218750
6704,-74.218750
6705,-74.218750
6706,-74.218750
6707,-74.218750
6708,-74.218750
6709,-74.218750
6710,-78.125000
6711,-78.125000
6712,-78.125000
6713,-78.125000
6714,-78.125000
6715,-78.125000
6716,-78.125000
6717,-78.125000
6718,-78.125000
6719,-78.125000
6720,-78.125000
6721,-78.125000
6722,-78.125000
6723,-78.125000
6724,-78.125000
6725,-78.125000
6726,-78.125000
6727,-78.125000
6728,-78.125000
6729,-78.125000
6730,-78.125000
6731,-78.125000
6732,-78.125000
6733,-78.125000
6734,-78.125000
6735,-78.125000
6736,-78.125000
6737,-82.031250
6738,-78.125000
6739,-78.125000
6740,-78.125000
6741,-78.125000
6742,-78.125000
6743,-78.125000
6744,-78.125000
6745,-78.125000
6746,-78.125000
6747,-78.125000
6748,-82.031250
6749,-82.031250
6750,-82.031250
6751,-82.031250
6752,-82.031250
6753,-82.031250
6754,-82.031250
6755,-78.125000
6756,-82.031250
6757,-82.031250
6758,-82.031250
6759,-82.031250
6760,-82.031250
6761,-82.031250
6762,-82.031250
6763,-82.031250
6764,-82.031250
6765,-82.031250
6766,-82.031250
6767,-82.031250
6768,-82.031250
6769,-82.031250
6770,-82.031250
6771,-82.031250
6772,-82.031250
6773,-82.031250
6774,-82.031250
6775,-82.031250
6776,-82.031250
6777,-82.031250
6778,-82.031250
6779,-82.031250
6780,-82.031250
6781,-78.125000
6782,-82.031250
6783,-82.031250
6784,-78.125000
6785,-82.031250
6786,-82.031250
6787,-82.031250
6788,-82.031250
6789,-82.031250
6790,-78.125000
6791,-78.125000
6792,-78.125000
6793,-82.031250
6794,-78.125000
6795,-78.125000
6796,-78.125000
6797,-78.125000
6798,-78.125000
6799,-78.125000
6800,-78.125000
6801,-78.125000
6802,-78.125000
6803,-78.125000
6804,-78.125000
6805,-78.125000
6806,-78.125000
6807,-78.125000
6808,-78.125000
6809,-78.125000
6810,-78.125000
6811,-78.125000
6812,-78.125000
6813,-78.125000
6814,-78.125000
6815,-78.125000
6816,-78.125000
6817,-78.125000
6818,-78.125000
6819,-78.125000
6820,-78.125000
6821,-78.125000
6822,-78.125000
6823,-78.125000
6824,-74.218750
6825,-78.125000
6826,-74.218750
6827,-74.218750
6828,-74.218750
6829,-74.218750
6830,-74.218750
6831,-74.218750
6832,-74.218750
6833,-74.218750
6834,-74.218750
6835,-74.218750
6836,-74.218750
6837,-74.218750
6838,-74.218750
6839,-74.218750
6840,-74.218750
6841,-74.218750
6842,-74.218750
6843,-70.312500
6844,-70.312500
6845,-70.312500
6846,-70.312500
6847,-70.312500
6848,-70.312500
6849,-70.312500
6850,-70.312500
6851,-70.312500
6852,-70.312500
6853,-70.312500
6854,-70.312500
6855,-70.312500
6856,-70.312500
6857,-66.406250
6858,-66.406250
6859,-70.312500
6860,-66.406250
6861,-66.406250
6862,-66.406250
6863,-66.406250
6864,-66.406250
6865,-66.406250
6866,-66.406250
6867,-66.406250
6868,-66.406250
6869,-66.406250
6870,-66.406250
6871,-66.406250
6872,-66.406250
6873,-66.406250
6874,-62.500000
6875,-62.500000
6876,-62.500000
6877,-62.500000
6878,-62.500000
6879,-62.500000
6880,-62.500000
6881,-62.500000
6882,-62.500000
6883,-62.500000
6884,-62.500000
6885,-62.500000
6886,-62.500000
6887,-58.593750
6888,-58.593750
6889,-58.593750
6890,-58.593750
6891,-58.593750
6892,-58.593750
6893,-58.593750
6894,-58.593750
6895,-58.593750
6896,-58.593750
6897,-58.593750
6898,-58.593750
6899,-58.593750
6900,-54.687500
6901,-54.687500
6902,-54.687500
6903,-54.687500
6904,-54.687500
6905,-54.687500
6906,-54.687500
6907,-54.687500
6908,-54.687500
6909,-50.781250
6910,-50.781250
6911,-50.781250
6912,-50.781250
6913,-50.781250
6914,-50.781250
6915,-50.781250
6916,-50.781250
6917,-46.875000
6918,-50.781250
6919,-50.781250
6920,-50.781250
6921,-50.781250
6922,-46.875000
6923,-46.875000
6924,-46.875000
6925,-46.875000
6926,-46.875000
6927,-46.875000
6928,-46.875000
6929,-46.875000
6930,-46.875000
6931,-42.968750
6932,-42.968750
6933,-42.968750
6934,-42.968750
6935,-42.968750
6936,-42.968750
6937,-42.968750
6938,-42.968750
6939,-42.968750
6940,-42.968750
6941,-42.968750
6942,-39.062500
6943,-39.062500
6944,-39.062500
6945,-39.062500
6946,-39.062500
6947,-35.156250
6948,-39.062500
6949,-39.062500
6950,-35.156250
6951,-35.156250
6952,-35.156250
6953,-35.156250
6954,-35.156250
6955,-39.062500
6956,-31.250000
6957,-35.156250
6958,-35.156250
6959,-35.156250
6960,-31.250000
6961,-31.250000
6962,-31.250000
6963,-31.250000
6964,-31.250000
6965,-31.250000
6966,-31.250000
6967,-27.343750
6968,-27.343750
6969,-27.343750
6970,-27.343750
6971,-27.343750
6972,-27.343750
6973,-27.343750
6974,-27.343750
6975,-27.343750
6976,-27.343750
6977,-27.343750
6978,-27.343750
6979,-23.437500
6980,-23.437500
6981,-23.437500
6982,-23.437500
6983,-23.437500
6984,-23.437500
6985,-23.437500
6986,-19.531250
6987,-19.531250
6988,-19.531250
6989,-19.531250
6990,-19.531250
6991,-19.531250
6992,-19.531250
6993,-19.531250
6994,-19.531250
6995,-15.625000
6996,-15.625000
6997,-15.625000
6998,-15.625000
6999,-15.625000
7000,-11.718750
7001,-15.625000
7002,-15.625000
7003,-15.625000
7004,-15.625000
7005,-11.718750
7006,-11.718750
7007,-11.718750
7008,-11.718750
7009,-11.718750
7010,-11.718750
7011,-11.718750
7012,-11.718750
7013,-7.812500
7014,-7.812500
7015,-7.812500
7016,-7.812500
7017,-7.812500
7018,-7.812500
7019,-7.812500
7020,-7.812500
7021,-7.812500
7022,-7.812500
7023,-3.906250
7024,-3.906250
7025,-7.812500
7026,-3.906250
7027,-3.906250
7028,-3.906250
7029,-3.906250
7030,-3.906250
7031,-3.906250
7032,-3.906250
7033,0.000000
7034,0.000000
7035,0.000000
7036,0.000000
7037,0.000000
7038,0.000000
7039,0.000000
7040,0.000000
7041,0.000000
7042,3.906250
7043,3.906250
7044,3.906250
7045,0.000000
7046,3.906250
7047,3.906250
7048,3.906250
7049,3.906250
7050,3.906250
7051,7.812500
7052,7.812500
7053,3.906250
7054,7.812500
7055,7.812500
7056,7.812500
7057,7.812500
7058,7.812500
7059,7.812500
7060,7.812500
7061,7.812500
7062,11.718750
7063,11.718750
7064,11.718750
7065,11.718750
7066,11.718750
7067,11.718750
7068,11.718750
7069,11.718750
7070,15.625000
7071,15.625000
7072,15.625000
7073,15.625000
7074,15.625000
7075,15.625000
7076,15.625000
7077,15.625000
7078,15.625000
7079,19.531250
7080,15.625000
7081,15.625000
7082,19.531250
7083,19.531250
7084,19.531250
7085,19.531250
7086,19.531250
7087,19.531250
7088,19.531250
7089,19.531250
7090,19.531250
7091,23.437500
7092,19.531250
7093,23.437500
7094,23.437500
7095,23.437500
7096,23.437500
7097,23.437500
7098,23.437500
7099,23.437500
7100,23.437500
7101,23.437500
7102,23.437500
7103,27.343750
7104,27.343750
7105,27.343750
7106,27.343750
7107,27.343750
7108,27.343750
7109,27.343750
7110,31.250000
7111,27.343750
7112,27.343750
7113,27.343750
7114,27.343750
7115,31.250000
7116,31.250000
7117,31.250000
7118,31.250000
7119,31.250000
7120,31.250000
7121,31.250000
7122,31.250000
7123,31.250000
7124,31.250000
7125,31.250000
7126,31.250000
7127,35.156250
7128,35.156250
7129,35.156250
7130,35.156250
7131,35.156250
7132,35.156250
7133,35.156250
7134,35.156250
7135,35.156250
7136,39.062500
7137,35.156250
7138,35.156250
7139,35.156250
7140,39.062500
7141,39.062500
7142,39.062500
7143,39.062500
7144,39.062500
7145,39.062500
7146,39.062500
7147,39.062500
7148,39.062500
7149,39.062500
7150,39.062500
7151,39.062500
7152,39.062500
7153,39.062500
7154,39.062500
7155,42.968750
7156,42.968750
7157,42.968750
7158,42.968750
7159,42.968750
7160,42.968750
7161,42.968750
7162,42.968750
7163,42.968750
7164,42.968750
7165,42.968750
7166,42.968750
7167,42.968750
7168,42.968750
7169,42.968750
7170,42.968750
7171,46.875000
7172,42.968750
7173,42.968750
7174,46.875000
7175,46.875000
7176,46.875000
7177,46.875000
7178,46.875000
7179,46.875000
7180,46.875000
7181,46.875000
7182,46.875000
7183,46.875000
7184,46.875000
7185,46.875000
7186,46.875000
7187,46.875000
7188,46.875000
7189,46.875000
7190,46.875000
7191,50.781250
7192,46.875000
7193,50.781250
7194,46.875000
7195,50.781250
7196,50.781250
7197,50.781250
7198,50.781250
7199,50.781250
7200,50.781250
7201,50.781250
7202,50.781250
7203,50.781250
7204,50.781250
7205,50.781250
7206,50.781250
7207,50.781250
7208,50.781250
7209,50.781250
7210,50.781250
7211,50.781250
7212,50.781250
7213,50.781250
7214,50.781250
7215,50.781250
7216,54.687500
7217,50.781250
7218,54.687500
7219,54.687500
7220,54.687500
7221,54.687500
7222,54.687500
7223,54.687500
7224,54.687500
7225,54.687500
7226,54.687500
7227,54.687500
7228,54.687500
7229,54.687500
7230,54.687500
7231,54.687500
7232,54.687500
7233,54.687500
7234,54.687500
7235,54.687500
7236,54.687500
7237,54.687500
7238,54.687500
7239,54.687500
7240,54.687500
7241,54.687500
7242,54.687500
7243,54.687500
7244,54.687500
7245,54.687500
7246,54.687500
7247,54.687500
7248,54.687500
7249,54.687500
7250,54.687500
7251,54.687500
7252,54.687500
7253,54.687500
7254,54.687500
7255,54.687500
7256,54.687500
7257,54.687500
7258,54.687500
7259,54.687500
7260,54.687500
7261,54.687500
7262,54.687500
7263,54.687500
7264,54.687500
7265,54.687500
7266,54.687500
7267,54.687500
7268,54.687500
7269,54.687500
7270,54.687500
7271,54.687500
7272,54.687500
7273,54.687500
7274,54.687500
7275,54.687500
7276,54.687500
7277,54.687500
7278,54.687500
7279,54.687500
7280,54.687500
7281,54.687500
7282,54.687500
7283,54.687500
7284,54.687500
7285,54.687500
7286,54.687500
7287,54.687500
7288,54.687500
7289,54.687500
7290,54.687500
7291,54.687500
7292,54.687500
7293,54.687500
7294,54.687500
7295,50.781250
7296,54.687500
7297,54.687500
7298,54.687500
7299,54.687500
7300,54.687500
7301,54.687500
7302,54.687500
7303,50.781250
7304,50.781250
7305,54.687500
7306,54.687500
7307,50.781250
7308,50.781250
7309,54.687500
7310,50.781250
7311,50.781250
7312,50.781250
7313,54.687500
7314,50.781250
7315,50.781250
7316,50.781250
7317,50.781250
7318,50.781250
7319,50.781250
7320,50.781250
7321,50.781250
7322,50.781250
7323,50.781250
7324,50.781250
7325,50.781250
7326,50.781250
7327,50.781250
7328,50.781250
7329,50.781250
7330,50.781250
7331,50.781250
7332,50.781250
7333,46.875000
7334,50.781250
7335,50.781250
7336,46.875000
7337,46.875000
7338,46.875000
7339,46.875000
7340,46.875000
7341,46.875000
7342,46.875000
7343,46.875000
7344,46.875000
7345,46.875000
7346,46.875000
7347,46.875000
7348,46.875000
7349,46.875000
7350,46.875000
7351,46.875000
7352,46.875000
7353,46.875000
7354,46.875000
7355,46.875000
7356,46.875000
7357,46.875000
7358,46.875000
7359,42.968750
7360,42.968750
7361,46.875000
7362,42.968750
7363,42.968750
7364,42.968750
7365,42.968750
7366,42.968750
7367,42.968750
7368,42.968750
7369,42.968750
7370,42.968750
7371,39.062500
7372,42.968750
7373,39.062500
7374,42.968750
7375,39.062500
7376,39.062500
7377,39.062500
7378,39.062500
7379,39.062500
7380,39.062500
7381,39.062500
7382,39.062500
7383,39.062500
7384,39.062500
7385,39.062500
7386,39.062500
7387,39.062500
7388,35.156250
7389,35.156250
7390,35.156250
7391,35.156250
7392,35.156250
7393,35.156250
7394,35.156250
7395,35.156250
7396,35.156250
7397,35.156250
7398,35.156250
7399,35.156250
7400,31.250000
7401,31.250000
7402,31.250000
7403,31.250000
7404,31.250000
7405,31.250000
7406,31.250000
7407,31.250000
7408,31.250000
7409,31.250000
7410,31.250000
7411,31.250000
7412,27.343750
7413,27.343750
7414,27.343750
7415,27.343750
7416,27.343750
7417,27.343750
7418,27.343750
7419,27.343750
7420,27.343750
7421,23.437500
7422,27.343750
7423,23.437500
7424,27.343750
7425,23.437500
7426,23.437500
7427,23.437500
7428,23.437500
7429,23.437500
7430,23.437500
7431,23.437500
7432,23.437500
7433,23.437500
7434,19.531250
7435,19.531250
7436,19.531250
7437,19.531250
7438,19.531250
7439,19.531250
7440,19.531250
7441,19.531250
7442,19.531250
7443,15.625000
7444,15.625000
7445,15.625000
7446,15.625000
7447,15.625000
7448,15.625000
7449,15.625000
7450,15.625000
7451,15.625000
7452,15.625000
7453,15.625000
7454,15.625000
7455,11.718750
7456,11.718750
7457,11.718750
7458,11.718750
7459,11.718750
7460,11.718750
7461,11.718750
7462,11.718750
7463,7.812500
7464,11.718750
7465,11.718750
7466,7.812500
7467,7.812500
7468,7.812500
7469,7.812500
7470,7.812500
7471,7.812500
7472,7.812500
7473,7.812500
7474,7.812500
7475,3.906250
7476,3.906250
7477,3.906250
7478,3.906250
7479,3.906250
7480,3.906250
7481,3.906250
7482,3.906250
7483,0.000000
7484,0.000000
7485,0.000000
7486,0.000000
7487,0.000000
7488,0.000000
7489,0.000000
7490,0.000000
7491,0.000000
7492,0.000000
7493,-3.906250
7494,-3.906250
7495,-3.906250
7496,-3.906250
7497,-3.906250
7498,-3.906250
7499,-3.906250
7500,-3.906250
7501,-3.906250
7502,-3.906250
7503,-7.812500
7504,-7.812500
7505,-7.812500
7506,-7.812500
7507,-7.812500
7508,-7.812500
7509,-11.718750
7510,-11.718750
7511,-11.718750
7512,-11.718750
7513,-11.718750
7514,-11.718750
7515,-11.718750
7516,-11.718750
7517,-11.718750
7518,-11.718750
7519,-11.718750
7520,-11.718750
7521,-15.625000
7522,-15.625000
7523,-15.625000
7524,-15.625000
7525,-15.625000
7526,-15.625000
7527,-19.531250
7528,-19.531250
7529,-19.531250
7530,-19.531250
7531,-19.531250
7532,-19.531250
7533,-19.531250
7534,-19.531250
7535,-19.531250
7536,-19.531250
7537,-19.531250
7538,-23.437500
7539,-23.437500
7540,-23.437500
7541,-23.437500
7542,-23.437500
7543,-23.437500
7544,-23.437500
7545,-27.343750
7546,-27.343750
7547,-27.343750
7548,-27.343750
7549,-27.343750
7550,-27.343750
7551,-27.343750
7552,-27.343750
7553,-27.343750
7554,-27.343750
7555,-27.343750
7556,-31.250000
7557,-31.250000
7558,-31.250000
7559,-31.250000
7560,-31.250000
7561,-31.250000
7562,-31.250000
7563,-31.250000
7564,-35.156250
7565,-35.156250
7566,-35.156250
7567,-35.156250
7568,-35.156250
7569,-35.156250
7570,-35.156250
7571,-35.156250
7572,-35.156250
7573,-35.156250
7574,-35.156250
7575,-39.062500
7576,-39.062500
7577,-39.062500
7578,-39.062500
7579,-39.062500
7580,-39.062500
7581,-39.062500
7582,-39.062500
7583,-42.968750
7584,-42.968750
7585,-42.968750
7586,-42.968750
7587,-42.968750
7588,-42.968750
7589,-42.968750
7590,-42.968750
7591,-42.968750
7592,-42.968750
7593,-46.875000
7594,-46.875000
7595,-46.875000
7596,-46.875000
7597,-46.875000
7598,-46.875000
7599,-46.875000
7600,-46.875000
7601,-46.875000
7602,-46.875000
7603,-46.875000
7604,-50.781250
7605,-50.781250
7606,-50.781250
7607,-50.781250
7608,-50.781250
7609,-50.781250
7610,-50.781250
7611,-50.781250
7612,-50.781250
7613,-50.781250
7614,-50.781250
7615,-50.781250
7616,-54.687500
7617,-54.687500
7618,-54.687500
7619,-54.687500
7620,-54.687500
7621,-54.687500
7622,-54.687500
7623,-54.687500
7624,-58.593750
7625,-58.593750
7626,-58.593750
7627,-58.593750
7628,-58.593750
7629,-58.593750
7630,-58.593750
7631,-58.593750
7632,-58.593750
7633,-58.593750
7634,-58.593750
7635,-58.593750
7636,-58.593750
7637,-58.593750
7638,-62.500000
7639,-62.500000
7640,-62.500000
7641,-62.500000
7642,-62.500000
7643,-62.500000
7644,-62.500000
7645,-62.500000
7646,-62.500000
7647,-62.500000
7648,-62.500000
7649,-62.500000
7650,-66.406250
7651,-66.406250
7652,-66.406250
7653,-66.406250
7654,-66.406250
7655,-66.406250
7656,-66.406250
7657,-66.406250
7658,-66.406250
7659,-66.406250
7660,-66.406250
7661,-70.312500
7662,-66.406250
7663,-70.312500
7664,-70.312500
7665,-70.312500
7666,-70.312500
7667,-70.312500
7668,-70.312500
7669,-70.312500
7670,-70.312500
7671,-70.312500
7672,-70.312500
7673,-70.312500
7674,-70.312500
7675,-70.312500
7676,-70.312500
7677,-74.218750
7678,-74.218750
7679,-70.312500
7680,-74.218750
7681,-74.218750
7682,-74.218750
7683,-74.218750
7684,-74.218750
7685,-74.218750
7686,-74.218750
7687,-74.218750
7688,-74.218750
7689,-74.218750
7690,-74.218750
7691,-74.218750
7692,-74.218750
7693,-74.218750
7694,-74.218750
7695,-78.125000
7696,-78.125000
7697,-78.125000
7698,-78.125000
7699,-78.125000
7700,-78.125000
7701,-78.125000
7702,-78.125000
7703,-78.125000
7704,-78.125000
7705,-78.125000
7706,-74.218750
7707,-78.125000
7708,-78.125000
7709,-78.125000
7710,-78.125000
7711,-78.125000
7712,-78.125000
7713,-78.125000
7714,-78.125000
7715,-78.125000
7716,-78.125000
7717,-78.125000
7718,-78.125000
7719,-78.125000
7720,-78.125000
7721,-78.125000
7722,-78.125000
7723,-78.125000
7724,-82.031250
7725,-78.125000
7726,-82.031250
7727,-82.031250
7728,-82.031250
7729,-82.031250
7730,-82.031250
7731,-82.031250
7732,-78.125000
7733,-78.125000
7734,-78.125000
7735,-82.031250
7736,-78.125000
7737,-82.031250
7738,-82.031250
7739,-82.031250
7740,-82.031250
7741,-82.031250
7742,-82.031250
7743,-82.031250
7744,-82.031250
7745,-82.031250
7746,-82.031250
7747,-82.031250
7748,-82.031250
7749,-82.031250
7750,-82.031250
7751,-82.031250
7752,-82.031250
7753,-82.031250
7754,-82.031250
7755,-82.031250
7756,-82.031250
7757,-82.031250
7758,-82.031250
7759,-82.031250
7760,-82.031250
7761,-82.031250
7762,-82.031250
7763,-82.031250
7764,-82.031250
7765,-82.031250
7766,-82.031250
7767,-82.031250
7768,-82.031250
7769,-82.031250
7770,-82.031250
7771,-82.031250
7772,-82.031250
7773,-82.031250
7774,-82.031250
7775,-82.031250
7776,-82.031250
7777,-82.031250
7778,-82.031250
7779,-82.031250
7780,-82.031250
7781,-82.031250
7782,-82.031250
7783,-78.125000
7784,-82.031250
7785,-82.031250
7786,-78.125000
7787,-78.125000
7788,-78.125000
7789,-82.031250
7790,-78.125000
7791,-78.125000
7792,-78.125000
7793,-78.125000
7794,-78.125000
7795,-78.125000
7796,-78.125000
7797,-78.125000
7798,-78.125000
7799,-78.125000
7800,-78.125000
7801,-78.125000
7802,-78.125000
7803,-78.125000
7804,-78.125000
7805,-78.125000
7806,-78.125000
7807,-78.125000
7808,-78.125000
7809,-78.125000
7810,-78.125000
7811,-78.125000
7812,-78.125000
7813,-74.218750
7814,-78.125000
7815,-78.125000
7816,-78.125000
7817,-78.125000
7818,-78.125000
7819,-74.218750
7820,-74.218750
7821,-74.218750
7822,-74.218750
7823,-74.218750
7824,-74.218750
7825,-74.218750
7826,-74.218750
7827,-74.218750
7828,-74.218750
7829,-74.218750
7830,-74.218750
7831,-74.218750
7832,-74.218750
7833,-74.218750
7834,-74.218750
7835,-74.218750
7836,-70.312500
7837,-70.312500
7838,-70.312500
7839,-70.312500
7840,-70.312500
7841,-70.312500
7842,-70.312500
7843,-70.312500
7844,-70.312500
7845,-70.312500
7846,-70.312500
7847,-70.312500
7848,-70.312500
7849,-70.312500
7850,-66.406250
7851,-66.406250
7852,-66.406250
7853,-66.406250
7854,-66.406250
7855,-66.406250
7856,-66.406250
7857,-66.406250
7858,-66.406250
7859,-66.406250
7860,-66.406250
7861,-66.406250
7862,-66.406250
7863,-66.406250
7864,-62.500000
7865,-66.406250
7866,-62.500000
7867,-62.500000
7868,-62.500000
7869,-62.500000
7870,-62.500000
7871,-62.500000
7872,-62.500000
7873,-62.500000
7874,-62.500000
7875,-62.500000
7876,-58.593750
7877,-58.593750
7878,-58.593750
7879,-58.593750
7880,-58.593750
7881,-58.593750
7882,-58.593750
7883,-58.593750
7884,-58.593750
7885,-58.593750
7886,-58.593750
7887,-58.593750
7888,-54.687500
7889,-54.687500
7890,-54.687500
7891,-54.687500
7892,-54.687500
7893,-54.687500
7894,-54.687500
7895,-54.687500
7896,-54.687500
7897,-54.687500
7898,-54.687500
7899,-54.687500
7900,-50.781250
7901,-50.781250
7902,-50.781250
7903,-50.781250
7904,-50.781250
7905,-50.781250
7906,-50.781250
7907,-50.781250
7908,-50.781250
7909,-50.781250
7910,-46.875000
7911,-46.875000
7912,-46.875000
7913,-46.875000
7914,-46.875000
7915,-46.875000
7916,-46.875000
7917,-46.875000
7918,-46.875000
7919,-46.875000
7920,-42.968750
7921,-42.968750
7922,-42.968750
7923,-42.968750
7924,-42.968750
7925,-42.968750
7926,-42.968750
7927,-42.968750
7928,-42.968750
7929,-42.968750
7930,-42.968750
7931,-42.968750
7932,-39.062500
7933,-39.062500
7934,-39.062500
7935,-39.062500
7936,-39.062500
7937,-39.062500
7938,-39.062500
7939,-39.062500
7940,-39.062500
7941,-35.156250
7942,-35.156250
7943,-35.156250
7944,-35.156250
7945,-35.156250
7946,-35.156250
7947,-35.156250
7948,-35.156250
7949,-31.250000
7950,-31.250000
7951,-31.250000
7952,-31.250000
7953,-31.250000
7954,-31.250000
7955,-31.250000
7956,-31.250000
7957,-31.250000
7958,-27.343750
7959,-31.250000
7960,-27.343750
7961,-27.343750
7962,-27.343750
7963,-27.343750
7964,-27.343750
7965,-27.343750
7966,-27.343750
7967,-27.343750
7968,-23.437500
7969,-23.437500
7970,-23.437500
7971,-23.437500
7972,-23.437500
7973,-23.437500
7974,-23.437500
7975,-19.531250
7976,-23.437500
7977,-23.437500
7978,-19.531250
7979,-19.531250
7980,-19.531250
7981,-19.531250
7982,-19.531250
7983,-19.531250
7984,-19.531250
7985,-19.531250
7986,-15.625000
7987,-15.625000
7988,-15.625000
7989,-15.625000
7990,-15.625000
7991,-15.625000
7992,-15.625000
7993,-15.625000
7994,-15.625000
7995,-15.625000
7996,-11.718750
7997,-11.718750
7998,-11.718750
7999,-11.718750
8000,-11.718750
8001,-11.718750
8002,-11.718750
8003,-7.812500
8004,-7.812500
8005,-7.812500
8006,-7.812500
8007,-7.812500
8008,-7.812500
8009,-7.812500
8010,-7.812500
8011,-7.812500
8012,-3.906250
8013,-3.906250
8014,-3.906250
8015,-3.906250
8016,-3.906250
8017,-3.906250
8018,-3.906250
8019,-3.906250
8020,0.000000
8021,-3.906250
8022,-3.906250
8023,0.000000
8024,0.000000
8025,0.000000
8026,0.000000
8027,0.000000
8028,0.000000
8029,0.000000
8030,0.000000
8031,3.906250
8032,3.906250
8033,3.906250
8034,3.906250
8035,3.906250
8036,3.906250
8037,3.906250
8038,3.906250
8039,3.906250
8040,7.812500
8041,7.812500
8042,7.812500
8043,7.812500
8044,7.812500
8045,7.812500
8046,7.812500
8047,7.812500
8048,7.812500
8049,7.812500
8050,11.718750
8051,7.812500
8052,11.718750
8053,11.718750
8054,11.718750
8055,11.718750
8056,11.718750
8057,11.718750
8058,11.718750
8059,11.718750
8060,15.625000
8061,15.625000
8062,15.625000
8063,15.625000
8064,15.625000
8065,15.625000
8066,15.625000
8067,15.625000
8068,15.625000
8069,15.625000
8070,15.625000
8071,19.531250
8072,19.531250
8073,19.531250
8074,19.531250
8075,19.531250
8076,19.531250
8077,19.531250
8078,19.531250
8079,19.531250
8080,19.531250
8081,19.531250
8082,23.437500
8083,23.437500
8084,23.437500
8085,23.437500
8086,23.437500
8087,23.437500
8088,23.437500
8089,23.437500
8090,23.437500
8091,23.437500
8092,27.343750
8093,27.343750
8094,27.343750
8095,27.343750
8096,27.343750
8097,27.343750
8098,27.343750
8099,27.343750
8100,27.343750
8101,27.343750
8102,27.343750
8103,27.343750
8104,31.250000
8105,31.250000
8106,31.250000
8107,27.343750
8108,31.250000
8109,31.250000
8110,31.250000
8111,31.250000
8112,31.250000
8113,31.250000
8114,31.250000
8115,31.250000
8116,31.250000
8117,31.250000
8118,35.156250
8119,35.156250
8120,35.156250
8121,35.156250
8122,31.250000
8123,35.156250
8124,35.156250
8125,35.156250
8126,35.156250
8127,35.156250
8128,35.156250
8129,39.062500
8130,39.062500
8131,39.062500
8132,39.062500
8133,39.062500
8134,39.062500
8135,39.062500
8136,39.062500
8137,39.062500
8138,39.062500
8139,39.062500
8140,39.062500
8141,39.062500
8142,39.062500
8143,42.968750
8144,42.968750
8145,42.968750
8146,42.968750
8147,42.968750
8148,42.968750
8149,42.968750
8150,42.968750
8151,42.968750
8152,42.968750
8153,42.968750
8154,42.968750
8155,42.968750
8156,42.968750
8157,42.968750
8158,42.968750
8159,42.968750
8160,42.968750
8161,46.875000
8162,46.875000
8163,46.875000
8164,46.875000
8165,46.875000
8166,46.875000
8167,46.875000
8168,46.875000
8169,46.875000
8170,46.875000
8171,46.875000
8172,46.875000
8173,46.875000
8174,46.875000
8175,46.875000
8176,46.875000
8177,46.875000
8178,50.781250
8179,50.781250
8180,50.781250
8181,46.875000
8182,50.781250
8183,50.781250
8184,50.781250
8185,50.781250
8186,50.781250
8187,50.781250
8188,50.781250
8189,50.781250
8190,50.781250
8191,50.781250
8192,50.781250
8193,50.781250
8194,54.687500
8195,50.781250
8196,50.781250
8197,50.781250
8198,50.781250
8199,50.781250
8200,50.781250
8201,50.781250
8202,50.781250
8203,50.781250
8204,50.781250
8205,50.781250
8206,50.781250
8207,50.781250
8208,50.781250
8209,50.781250
8210,50.781250
8211,50.781250
8212,50.781250
8213,50.781250
8214,54.687500
8215,54.687500
8216,54.687500
8217,54.687500
8218,54.687500
8219,54.687500
8220,54.687500
8221,54.687500
8222,54.687500
8223,54.687500
8224,54.687500
8225,54.687500
8226,54.687500
8227,54.687500
8228,54.687500
8229,54.687500
8230,54.687500
8231,54.687500
8232,54.687500
8233,54.687500
8234,54.687500
8235,54.687500
8236,54.687500
8237,54.687500
8238,54.687500
8239,54.687500
8240,54.687500
8241,54.687500
8242,54.687500
8243,54.687500
8244,54.687500
8245,54.687500
8246,54.687500
8247,54.687500
8248,54.687500
8249,54.687500
8250,54.687500
8251,54.687500
8252,54.687500
8253,54.687500
8254,54.687500
8255,54.687500
8256,54.687500
8257,54.687500
8258,54.687500
8259,54.687500
8260,54.687500
8261,54.687500
8262,54.687500
8263,54.687500
8264,54.687500
8265,54.687500
8266,54.687500
8267,54.687500
8268,54.687500
8269,54.687500
8270,54.687500
8271,54.687500
8272,54.687500
8273,54.687500
8274,54.687500
8275,54.687500
8276,54.687500
8277,54.687500
8278,54.687500
8279,54.687500
8280,54.687500
8281,54.687500
8282,54.687500
8283,54.687500
8284,54.687500
8285,54.687500
8286,54.687500
8287,54.687500
8288,54.687500
8289,54.687500
8290,54.687500
8291,54.687500
8292,54.687500
8293,50.781250
8294,54.687500
8295,54.687500
8296,50.781250
8297,50.781250
8298,50.781250
8299,50.781250
8300,50.781250
8301,50.781250
8302,50.781250
8303,50.781250
8304,50.781250
8305,50.781250
8306,50.781250
8307,50.781250
8308,50.781250
8309,50.781250
8310,50.781250
8311,50.781250
8312,50.781250
8313,50.781250
8314,50.781250
8315,50.781250
8316,50.781250
8317,50.781250
8318,50.781250
8319,50.781250
8320,50.781250
8321,50.781250
8322,50.781250
8323,50.781250
8324,46.875000
8325,46.875000
8326,46.875000
8327,46.875000
8328,46.875000
8329,46.875000
8330,46.875000
8331,46.875000
8332,46.875000
8333,46.875000
8334,46.875000
8335,46.875000
8336,46.875000
8337,46.875000
8338,46.875000
8339,46.875000
8340,46.875000
8341,46.875000
8342,46.875000
8343,46.875000
8344,46.875000
8345,42.968750
8346,46.875000
8347,42.968750
8348,42.968750
8349,42.968750
8350,42.968750
8351,42.968750
8352,42.968750
8353,42.968750
8354,42.968750
8355,42.968750
8356,42.968750
8357,39.062500
8358,42.968750
8359,39.062500
8360,42.968750
8361,42.968750
8362,42.968750
8363,39.062500
8364,39.062500
8365,39.062500
8366,39.062500
8367,39.062500
8368,39.062500
8369,39.062500
8370,39.062500
8371,35.156250
8372,39.062500
8373,39.062500
8374,39.062500
8375,39.062500
8376,39.062500
8377,35.156250
8378,35.156250
8379,35.156250
8380,35.156250
8381,35.156250
8382,35.156250
8383,35.156250
8384,35.156250
8385,35.156250
8386,35.156250
8387,35.156250
8388,35.156250
8389,31.250000
8390,31.250000
8391,31.250000
8392,31.250000
8393,31.250000
8394,31.250000
8395,31.250000
8396,31.250000
8397,31.250000
8398,31.250000
8399,31.250000
8400,31.250000
8401,27.343750
8402,31.250000
8403,31.250000
8404,27.343750
8405,27.343750
8406,27.343750
8407,27.343750
8408,27.343750
8409,27.343750
8410,27.343750
8411,27.343750
8412,27.343750
8413,23.437500
8414,23.437500
8415,23.437500
8416,23.437500
8417,23.437500
8418,23.437500
8419,23.437500
8420,23.437500
8421,23.437500
8422,23.437500
8423,23.437500
8424,19.531250
8425,19.531250
8426,19.531250
8427,19.531250
8428,19.531250
8429,19.531250
8430,19.531250
8431,19.531250
8432,19.531250
8433,19.531250
8434,19.531250
8435,15.625000
8436,15.625000
8437,15.625000
8438,15.625000
8439,15.625000
8440,15.625000
8441,15.625000
8442,15.625000
8443,15.625000
8444,15.625000
8445,15.625000
8446,15.625000
8447,11.718750
8448,11.718750
8449,11.718750
8450,11.718750
8451,11.718750
8452,11.718750
8453,11.718750
8454,11.718750
8455,7.812500
8456,7.812500
8457,7.812500
8458,7.812500
8459,7.812500
8460,7.812500
8461,7.812500
8462,7.812500
8463,7.812500
8464,3.906250
8465,3.906250
8466,3.906250
8467,3.906250
8468,3.906250
8469,3.906250
8470,3.906250
8471,3.906250
8472,0.000000
8473,0.000000
8474,0.000000
8475,0.000000
8476,0.000000
8477,0.000000
8478,0.000000
8479,0.000000
8480,0.000000
8481,-3.906250
8482,0.000000
8483,-3.906250
8484,-3.906250
8485,-3.906250
8486,-3.906250
8487,-3.906250
8488,-3.906250
8489,-3.906250
8490,-3.906250
8491,-3.906250
8492,-7.812500
8493,-7.812500
8494,-7.812500
8495,-7.812500
8496,-7.812500
8497,-7.812500
8498,-3.906250
8499,-7.812500
8500,-11.718750
8501,-11.718750
8502,-11.718750
8503,-11.718750
8504,-11.718750
8505,-11.718750
8506,-11.718750
8507,-11.718750
8508,-15.625000
8509,-15.625000
8510,-15.625000
8511,-15.625000
8512,-11.718750
8513,-15.625000
8514,-15.625000
8515,-15.625000
8516,-15.625000
8517,-15.625000
8518,-15.625000
8519,-19.531250
8520,-19.531250
8521,-19.531250
8522,-19.531250
8523,-19.531250
8524,-19.531250
8525,-19.531250
8526,-19.531250
8527,-23.437500
8528,-19.531250
8529,-23.437500
8530,-23.437500
8531,-23.437500
8532,-23.437500
8533,-23.437500
8534,-23.437500
8535,-23.437500
8536,-23.437500
8537,-27.343750
8538,-27.343750
8539,-27.343750
8540,-27.343750
8541,-27.343750
8542,-27.343750
8543,-27.343750
8544,-27.343750
8545,-31.250000
8546,-31.250000
8547,-31.250000
8548,-31.250000
8549,-31.250000
8550,-31.250000
8551,-31.250000
8552,-31.250000
8553,-31.250000
8554,-31.250000
8555,-35.156250
8556,-35.156250
8557,-35.156250
8558,-35.156250
8559,-35.156250
8560,-35.156250
8561,-35.156250
8562,-35.156250
8563,-35.156250
8564,-35.156250
8565,-39.062500
8566,-39.062500
8567,-39.062500
8568,-39.062500
8569,-39.062500
8570,-39.062500
8571,-39.062500
8572,-39.062500
8573,-42.968750
8574,-42.968750
8575,-42.968750
8576,-42.968750
8577,-42.968750
8578,-42.968750
8579,-42.968750
8580,-42.968750
8581,-42.968750
8582,-42.968750
8583,-46.875000
8584,-46.875000
8585,-46.875000
8586,-46.875000
8587,-46.875000
8588,-46.875000
8589,-46.875000
8590,-50.781250
8591,-50.781250
8592,-50.781250
8593,-50.781250
8594,-50.781250
8595,-50.781250
8596,-50.781250
8597,-50.781250
8598,-50.781250
8599,-50.781250
8600,-50.781250
8601,-50.781250
8602,-54.687500
8603,-54.687500
8604,-54.687500
8605,-54.687500
8606,-54.687500
8607,-54.687500
8608,-54.687500
8609,-54.687500
8610,-54.687500
8611,-54.687500
8612,-54.687500
8613,-58.593750
8614,-58.593750
8615,-58.593750
8616,-58.593750
8617,-58.593750
8618,-58.593750
8619,-58.593750
8620,-58.593750
8621,-58.593750
8622,-58.593750
8623,-58.593750
8624,-58.593750
8625,-58.593750
8626,-58.593750
8627,-62.500000
8628,-62.500000
8629,-62.500000
8630,-62.500000
8631,-62.500000
8632,-62.500000
8633,-62.500000
8634,-62.500000
8635,-62.500000
8636,-62.500000
8637,-62.500000
8638,-66.406250
8639,-66.406250
8640,-66.406250
8641,-66.406250
8642,-66.406250
8643,-66.406250
8644,-66.406250
8645,-66.406250
8646,-66.406250
8647,-66.406250
8648,-66.406250
8649,-70.312500
8650,-66.406250
8651,-66.406250
8652,-66.406250
8653,-70.312500
8654,-66.406250
8655,-70.312500
8656,-70.312500
8657,-70.312500
8658,-70.312500
8659,-70.312500
8660,-70.312500
8661,-70.312500
8662,-70.312500
8663,-70.312500
8664,-70.312500
8665,-70.312500
8666,-70.312500
8667,-74.218750
8668,-74.218750
8669,-74.218750
8670,-74.218750
8671,-74.218750
8672,-74.218750
8673,-74.218750
8674,-74.218750
8675,-74.218750
8676,-74.218750
8677,-74.218750
8678,-74.218750
8679,-74.218750
8680,-74.218750
8681,-74.218750
8682,-74.218750
8683,-74.218750
8684,-74.218750
8685,-74.218750
8686,-74.218750
8687,-74.218750
8688,-74.218750
8689,-78.125000
8690,-78.125000
8691,-78.125000
8692,-78.125000
8693,-78.125000
8694,-78.125000
8695,-78.125000
8696,-78.125000
8697,-78.125000
8698,-78.125000
8699,-78.125000
8700,-78.125000
8701,-78.125000
8702,-78.125000
8703,-78.125000
8704,-78.125000
8705,-78.125000
8706,-78.125000
8707,-78.125000
8708,-78.125000
8709,-78.125000
8710,-78.125000
8711,-78.125000
8712,-78.125000
8713,-82.031250
8714,-82.031250
8715,-82.031250
8716,-78.125000
8717,-82.031250
8718,-82.031250
8719,-82.031250
8720,-82.031250
8721,-82.031250
8722,-82.031250
8723,-82.031250
8724,-82.031250
8725,-82.031250
8726,-82.031250
8727,-82.031250
8728,-82.031250
8729,-82.031250
8730,-82.031250
8731,-82.031250
8732,-82.031250
8733,-82.031250
8734,-82.031250
8735,-82.031250
8736,-82.031250
8737,-82.031250
8738,-82.031250
8739,-82.031250
8740,-82.031250
8741,-82.031250
8742,-82.031250
8743,-82.031250
8744,-82.031250
8745,-82.031250
8746,-82.031250
8747,-82.031250
8748,-82.031250
8749,-82.031250
8750,-82.031250
8751,-82.031250
8752,-82.031250
8753,-82.031250
8754,-82.031250
8755,-82.031250
8756,-82.031250
8757,-82.031250
8758,-82.031250
8759,-82.031250
8760,-82.031250
8761,-82.031250
8762,-82.031250
8763,-82.031250
8764,-82.031250
8765,-82.031250
8766,-82.031250
8767,-82.031250
8768,-82.031250
8769,-82.031250
8770,-82.031250
8771,-78.125000
8772,-78.125000
8773,-78.125000
8774,-78.125000
8775,-78.125000
8776,-78.125000
8777,-78.125000
8778,-78.125000
8779,-78.125000
8780,-78.125000
8781,-78.125000
8782,-78.125000
8783,-78.125000
8784,-78.125000
8785,-78.125000
8786,-78.125000
8787,-78.125000
8788,-78.125000
8789,-78.125000
8790,-78.125000
8791,-78.125000
8792,-78.125000
8793,-78.125000
8794,-78.125000
8795,-78.125000
8796,-78.125000
8797,-78.125000
8798,-78.125000
8799,-78.125000
8800,-78.125000
8801,-78.125000
8802,-74.218750
8803,-74.218750
8804,-74.218750
8805,-74.218750
8806,-74.218750
8807,-74.218750
8808,-74.218750
8809,-74.218750
8810,-74.218750
8811,-74.218750
8812,-74.218750
8813,-74.218750
8814,-74.218750
8815,-74.218750
8816,-74.218750
8817,-74.218750
8818,-74.218750
8819,-74.218750
8820,-74.218750
8821,-74.218750
8822,-70.312500
8823,-70.312500
8824,-74.218750
8825,-74.218750
8826,-70.312500
8827,-70.312500
8828,-70.312500
8829,-70.312500
8830,-70.312500
8831,-70.312500
8832,-70.312500
8833,-70.312500
8834,-70.312500
8835,-70.312500
8836,-70.312500
8837,-70.312500
8838,-70.312500
8839,-70.312500
8840,-70.312500
8841,-66.406250
8842,-66.406250
8843,-66.406250
8844,-66.406250
8845,-66.406250
8846,-66.406250
8847,-66.406250
8848,-66.406250
8849,-66.406250
8850,-66.406250
8851,-66.406250
8852,-66.406250
8853,-66.406250
8854,-62.500000
8855,-62.500000
8856,-62.500000
8857,-62.500000
8858,-62.500000
8859,-62.500000
8860,-62.500000
8861,-62.500000
8862,-62.500000
8863,-62.500000
8864,-62.500000
8865,-62.500000
8866,-58.593750
8867,-62.500000
8868,-58.593750
8869,-58.593750
8870,-62.500000
8871,-58.593750
8872,-58.593750
8873,-62.500000
8874,-58.593750
8875,-58.593750
8876,-58.593750
8877,-58.593750
8878,-58.593750
8879,-58.593750
8880,-54.687500
8881,-54.687500
8882,-54.687500
8883,-54.687500
8884,-54.687500
8885,-54.687500
8886,-54.687500
8887,-54.687500
8888,-54.687500
8889,-54.687500
8890,-54.687500
8891,-50.781250
8892,-50.781250
8893,-50.781250
8894,-50.781250
8895,-50.781250
8896,-50.781250
8897,-50.781250
8898,-50.781250
8899,-46.875000
8900,-46.875000
8901,-46.875000
8902,-46.875000
8903,-46.875000
8904,-46.875000
8905,-46.875000
8906,-46.875000
8907,-46.875000
8908,-42.968750
8909,-46.875000
8910,-42.968750
8911,-42.968750
8912,-42.968750
8913,-42.968750
8914,-42.968750
8915,-42.968750
8916,-42.968750
8917,-42.968750
8918,-42.968750
8919,-42.968750
8920,-39.062500
8921,-39.062500
8922,-39.062500
8923,-39.062500
8924,-39.062500
8925,-39.062500
8926,-39.062500
8927,-39.062500
8928,-39.062500
8929,-39.062500
8930,-35.156250
8931,-35.156250
8932,-35.156250
8933,-35.156250
8934,-35.156250
8935,-35.156250
8936,-35.156250
8937,-35.156250
8938,-35.156250
8939,-31.250000
8940,-31.250000
8941,-31.250000
8942,-31.250000
8943,-31.250000
8944,-31.250000
8945,-31.250000
8946,-27.343750
8947,-31.250000
8948,-27.343750
8949,-27.343750
8950,-27.343750
8951,-27.343750
8952,-27.343750
8953,-27.343750
8954,-27.343750
8955,-27.343750
8956,-23.437500
8957,-27.343750
8958,-23.437500
8959,-23.437500
8960,-23.437500
8961,-23.437500
8962,-23.437500
8963,-23.437500
8964,-23.437500
8965,-23.437500
8966,-23.437500
8967,-23.437500
8968,-19.531250
8969,-19.531250
8970,-19.531250
8971,-19.531250
8972,-19.531250
8973,-19.531250
8974,-19.531250
8975,-19.531250
8976,-19.531250
8977,-15.625000
8978,-15.625000
8979,-15.625000
8980,-15.625000
8981,-15.625000
8982,-15.625000
8983,-15.625000
8984,-15.625000
8985,-11.718750
8986,-11.718750
8987,-11.718750
8988,-11.718750
8989,-11.718750
8990,-11.718750
8991,-11.718750
8992,-11.718750
8993,-11.718750
8994,-11.718750
8995,-7.812500
8996,-7.812500
8997,-7.812500
8998,-7.812500
8999,-7.812500
9000,-7.812500
9001,-7.812500
9002,-7.812500
9003,-3.906250
9004,-3.906250
9005,-3.906250
9006,-3.906250
9007,-3.906250
9008,-3.906250
9009,-3.906250
9010,-3.906250
9011,-3.906250
9012,0.000000
9013,0.000000
9014,0.000000
9015,0.000000
9016,0.000000
9017,0.000000
9018,0.000000
9019,0.000000
9020,0.000000
9021,3.906250
9022,3.906250
9023,3.906250
9024,3.906250
9025,3.906250
9026,3.906250
9027,3.906250
9028,3.906250
9029,3.906250
9030,7.812500
9031,7.812500
9032,7.812500
9033,7.812500
9034,7.812500
9035,7.812500
9036,7.812500
9037,7.812500
9038,7.812500
9039,7.812500
9040,11.718750
9041,11.718750
9042,11.718750
9043,11.718750
9044,11.718750
9045,11.718750
9046,11.718750
9047,11.718750
9048,11.718750
9049,15.625000
9050,15.625000
9051,15.625000
9052,15.625000
9053,15.625000
9054,15.625000
9055,15.625000
9056,15.625000
9057,15.625000
9058,15.625000
9059,15.625000
9060,15.625000
9061,19.531250
9062,19.531250
9063,19.531250
9064,19.531250
9065,19.531250
9066,19.531250
9067,19.531250
9068,19.531250
9069,19.531250
9070,19.531250
9071,23.437500
9072,23.437500
9073,23.437500
9074,23.437500
9075,23.437500
9076,23.437500
9077,23.437500
9078,23.437500
9079,23.437500
9080,23.437500
9081,23.437500
9082,27.343750
9083,27.343750
9084,27.343750
9085,27.343750
9086,27.343750
9087,27.343750
9088,27.343750
9089,27.343750
9090,27.343750
9091,27.343750
9092,27.343750
9093,27.343750
9094,31.250000
9095,31.250000
9096,31.250000
9097,31.250000
9098,31.250000
9099,31.250000
9100,31.250000
9101,31.250000
9102,31.250000
9103,31.250000
9104,31.250000
9105,31.250000
9106,31.250000
9107,31.250000
9108,35.156250
9109,35.156250
9110,35.156250
9111,35.156250
9112,35.156250
9113,35.156250
9114,35.156250
9115,35.156250
9116,35.156250
9117,35.156250
9118,35.156250
9119,39.062500
9120,39.062500
9121,39.062500
9122,39.062500
9123,39.062500
9124,39.062500
9125,39.062500
9126,39.062500
9127,39.062500
9128,39.062500
9129,39.062500
9130,39.062500
9131,39.062500
9132,39.062500
9133,42.968750
9134,42.968750
9135,39.062500
9136,42.968750
9137,42.968750
9138,42.968750
9139,42.968750
9140,42.968750
9141,42.968750
9142,42.968750
9143,42.968750
9144,42.968750
9145,42.968750
9146,42.968750
9147,42.968750
9148,42.968750
9149,42.968750
9150,46.875000
9151,46.875000
9152,46.875000
9153,46.875000
9154,46.875000
9155,46.875000
9156,46.875000
9157,46.875000
9158,46.875000
9159,46.875000
9160,46.875000
9161,46.875000
9162,46.875000
9163,46.875000
9164,46.875000
9165,46.875000
9166,46.875000
9167,46.875000
9168,46.875000
9169,50.781250
9170,50.781250
9171,50.781250
9172,50.781250
9173,50.781250
9174,50.781250
9175,50.781250
9176,50.781250
9177,50.781250
9178,50.781250
9179,50.781250
9180,50.781250
9181,50.781250
9182,50.781250
9183,50.781250
9184,50.781250
9185,50.781250
9186,50.781250
9187,50.781250
9188,50.781250
9189,50.781250
9190,50.781250
9191,50.781250
9192,50.781250
9193,50.781250
9194,54.687500
9195,50.781250
9196,50.781250
9197,50.781250
9198,54.687500
9199,54.687500
9200,54.687500
9201,54.687500
9202,54.687500
9203,54.687500
9204,54.687500
9205,54.687500
9206,54.687500
9207,54.687500
9208,54.687500
9209,54.687500
9210,54.687500
9211,54.687500
9212,54.687500
9213,54.687500
9214,54.687500
9215,54.687500
9216,54.687500
9217,54.687500
9218,54.687500
9219,54.687500
9220,54.687500
9221,54.687500
9222,54.687500
9223,54.687500
9224,54.687500
9225,54.687500
9226,54.687500
9227,54.687500
9228,54.687500
9229,54.687500
9230,54.687500
9231,54.687500
9232,54.687500
9233,54.687500
9234,54.687500
9235,54.687500
9236,54.687500
9237,54.687500
9238,54.687500
9239,54.687500
9240,54.687500
9241,54.687500
9242,54.687500
9243,54.687500
9244,54.687500
9245,54.687500
9246,54.687500
9247,54.687500
9248,54.687500
9249,54.687500
9250,54.687500
9251,54.687500
9252,54.687500
9253,54.687500
9254,54.687500
9255,54.687500
9256,54.687500
9257,54.687500
9258,54.687500
9259,54.687500
9260,54.687500
9261,54.687500
9262,54.687500
9263,54.687500
9264,54.687500
9265,54.687500
9266,54.687500
9267,54.687500
9268,54.687500
9269,54.687500
9270,54.687500
9271,54.687500
9272,54.687500
9273,54.687500
9274,54.687500
9275,54.687500
9276,54.687500
9277,54.687500
9278,54.687500
9279,50.781250
9280,54.687500
9281,54.687500
9282,54.687500
9283,50.781250
9284,54.687500
9285,54.687500
9286,54.687500
9287,54.687500
9288,54.687500
9289,50.781250
9290,54.687500
9291,50.781250
9292,54.687500
9293,50.781250
9294,50.781250
9295,50.781250
9296,50.781250
9297,50.781250
9298,50.781250
9299,50.781250
9300,50.781250
9301,50.781250
9302,50.781250
9303,50.781250
9304,50.781250
9305,50.781250
9306,50.781250
9307,50.781250
9308,50.781250
9309,50.781250
9310,50.781250
9311,50.781250
9312,50.781250
9313,50.781250
9314,50.781250
9315,50.781250
9316,46.875000
9317,46.875000
9318,46.875000
9319,46.875000
9320,46.875000
9321,46.875000
9322,46.875000
9323,46.875000
9324,46.875000
9325,46.875000
9326,46.875000
9327,46.875000
9328,46.875000
9329,46.875000
9330,46.875000
9331,46.875000
9332,46.875000
9333,46.875000
9334,46.875000
9335,42.968750
9336,42.968750
9337,42.968750
9338,42.968750
9339,42.968750
9340,42.968750
9341,42.968750
9342,42.968750
9343,42.968750
9344,42.968750
9345,42.968750
9346,42.968750
9347,42.968750
9348,42.968750
9349,42.968750
9350,42.968750
9351,39.062500
9352,42.968750
9353,39.062500
9354,39.062500
9355,39.062500
9356,39.062500
9357,39.062500
9358,39.062500
9359,39.062500
9360,39.062500
9361,39.062500
9362,39.062500
9363,39.062500
9364,39.062500
9365,39.062500
9366,35.156250
9367,35.156250
9368,35.156250
9369,35.156250
9370,35.156250
9371,35.156250
9372,35.156250
9373,35.156250
9374,35.156250
9375,35.156250
9376,35.156250
9377,31.250000
9378,35.156250
9379,35.156250
9380,31.250000
9381,31.250000
9382,31.250000
9383,31.250000
9384,31.250000
9385,31.250000
9386,31.250000
9387,31.250000
9388,31.250000
9389,31.250000
9390,31.250000
9391,31.250000
9392,27.343750
9393,27.343750
9394,27.343750
9395,27.343750
9396,27.343750
9397,27.343750
9398,27.343750
9399,27.343750
9400,27.343750
9401,27.343750
9402,27.343750
9403,27.343750
9404,23.437500
9405,23.437500
9406,23.437500
9407,23.437500
9408,23.437500
9409,23.437500
9410,23.437500
9411,23.437500
9412,23.437500
9413,23.437500
9414,19.531250
9415,19.531250
9416,19.531250
9417,19.531250
9418,19.531250
9419,19.531250
9420,19.531250
9421,19.531250
9422,19.531250
9423,19.531250
9424,19.531250
9425,15.625000
9426,15.625000
9427,15.625000
9428,15.625000
9429,15.625000
9430,15.625000
9431,15.625000
9432,15.625000
9433,15.625000
9434,15.625000
9435,11.718750
9436,11.718750
9437,11.718750
9438,11.718750
9439,11.718750
9440,11.718750
9441,11.718750
9442,11.718750
9443,11.718750
9444,11.718750
9445,7.812500
9446,11.718750
9447,7.812500
9448,7.812500
9449,7.812500
9450,7.812500
9451,7.812500
9452,7.812500
9453,7.812500
9454,7.812500
9455,7.812500
9456,3.906250
9457,3.906250
9458,3.906250
9459,3.906250
9460,3.906250
9461,3.906250
9462,3.906250
9463,0.000000
9464,0.000000
9465,0.000000
9466,0.000000
9467,0.000000
9468,0.000000
9469,0.000000
9470,0.000000
9471,0.000000
9472,-3.906250
9473,-3.906250
9474,-3.906250
9475,-3.906250
9476,-3.906250
9477,-3.906250
9478,-3.906250
9479,-3.906250
9480,-3.906250
9481,-7.812500
9482,-7.812500
9483,-7.812500
9484,-7.812500
9485,-7.812500
9486,-7.812500
9487,-7.812500
9488,-7.812500
9489,-7.812500
9490,-11.718750
9491,-11.718750
9492,-11.718750
9493,-11.718750
9494,-11.718750
9495,-11.718750
9496,-11.718750
9497,-11.718750
9498,-11.718750
9499,-15.625000
9500,-15.625000
9501,-15.625000
9502,-15.625000
9503,-15.625000
9504,-15.625000
9505,-15.625000
9506,-15.625000
9507,-19.531250
9508,-15.625000
9509,-19.531250
9510,-19.531250
9511,-19.531250
9512,-19.531250
9513,-19.531250
9514,-19.531250
9515,-23.437500
9516,-23.437500
9517,-23.437500
9518,-23.437500
9519,-23.437500
9520,-23.437500
9521,-23.437500
9522,-23.437500
9523,-23.437500
9524,-27.343750
9525,-23.437500
9526,-27.343750
9527,-27.343750
9528,-27.343750
9529,-27.343750
9530,-27.343750
9531,-27.343750
9532,-27.343750
9533,-27.343750
9534,-27.343750
9535,-31.250000
9536,-27.343750
9537,-31.250000
9538,-31.250000
9539,-31.250000
9540,-31.250000
9541,-31.250000
9542,-31.250000
9543,-31.250000
9544,-31.250000
9545,-31.250000
9546,-35.156250
9547,-35.156250
9548,-35.156250
9549,-35.156250
9550,-35.156250
9551,-35.156250
9552,-35.156250
9553,-35.156250
9554,-35.156250
9555,-39.062500
9556,-39.062500
9557,-39.062500
9558,-39.062500
9559,-39.062500
9560,-39.062500
9561,-39.062500
9562,-39.062500
9563,-42.968750
9564,-42.968750
9565,-42.968750
9566,-42.968750
9567,-42.968750
9568,-42.968750
9569,-42.968750
9570,-42.968750
9571,-42.968750
9572,-42.968750
9573,-46.875000
9574,-46.875000
9575,-46.875000
9576,-46.875000
9577,-46.875000
9578,-46.875000
9579,-46.875000
9580,-46.875000
9581,-46.875000
9582,-50.781250
9583,-50.781250
9584,-50.781250
9585,-50.781250
9586,-50.781250
9587,-50.781250
9588,-50.781250
9589,-50.781250
9590,-50.781250
9591,-50.781250
9592,-50.781250
9593,-54.687500
9594,-54.687500
9595,-54.687500
9596,-54.687500
9597,-54.687500
9598,-54.687500
9599,-54.687500
9600,-54.687500
9601,-54.687500
9602,-54.687500
9603,-54.687500
9604,-54.687500
9605,-58.593750
9606,-58.593750
9607,-58.593750
9608,-58.593750
9609,-58.593750
9610,-58.593750
9611,-58.593750
9612,-58.593750
9613,-58.593750
9614,-58.593750
9615,-62.500000
9616,-62.500000
9617,-62.500000
9618,-62.500000
9619,-62.500000
9620,-62.500000
9621,-62.500000
9622,-62.500000
9623,-62.500000
9624,-62.500000
9625,-66.406250
9626,-62.500000
9627,-66.406250
9628,-62.500000
9629,-66.406250
9630,-66.406250
9631,-66.406250
9632,-66.406250
9633,-66.406250
9634,-66.406250
9635,-66.406250
9636,-66.406250
9637,-66.406250
9638,-66.406250
9639,-66.406250
9640,-70.312500
9641,-66.406250
9642,-70.312500
9643,-70.312500
9644,-70.312500
9645,-70.312500
9646,-70.312500
9647,-70.312500
9648,-70.312500
9649,-70.312500
9650,-70.312500
9651,-70.312500
9652,-70.312500
9653,-70.312500
9654,-70.312500
9655,-70.312500
9656,-70.312500
9657,-74.218750
9658,-74.218750
9659,-74.218750
9660,-74.218750
9661,-74.218750
9662,-74.218750
9663,-74.218750
9664,-74.218750
9665,-74.218750
9666,-74.218750
9667,-74.218750
9668,-74.218750
9669,-74.218750
9670,-74.218750
9671,-74.218750
9672,-74.218750
9673,-74.218750
9674,-74.218750
9675,-74.218750
9676,-78.125000
9677,-74.218750
9678,-78.125000
9679,-78.125000
9680,-78.125000
9681,-78.125000
9682,-78.125000
9683,-78.125000
9684,-78.125000
9685,-78.125000
9686,-78.125000
9687,-78.125000
9688,-78.125000
9689,-78.125000
9690,-78.125000
9691,-78.125000
9692,-78.125000
9693,-78.125000
9694,-78.125000
9695,-78.125000
9696,-78.125000
9697,-78.125000
9698,-78.125000
9699,-78.125000
9700,-78.125000
9701,-78.125000
9702,-78.125000
9703,-78.125000
9704,-78.125000
9705,-78.125000
9706,-78.125000
9707,-82.031250
9708,-78.125000
9709,-82.031250
9710,-82.031250
9711,-78.125000
9712,-78.125000
9713,-78.125000
9714,-82.031250
9715,-82.031250
9716,-82.031250
9717,-82.031250
9718,-82.031250
9719,-82.031250
9720,-82.031250
9721,-82.031250
9722,-82.031250
9723,-82.031250
9724,-82.031250
9725,-82.031250
9726,-82.031250
9727,-82.031250
9728,-82.031250
9729,-82.031250
9730,-82.031250
9731,-82.031250
9732,-82.031250
9733,-82.031250
9734,-82.031250
9735,-82.031250
9736,-82.031250
9737,-82.031250
9738,-82.031250
9739,-82.031250
9740,-82.031250
9741,-82.031250
9742,-82.031250
9743,-82.031250
9744,-82.031250
9745,-82.031250
9746,-82.031250
9747,-82.031250
9748,-82.031250
9749,-82.031250
9750,-82.031250
9751,-78.125000
9752,-82.031250
9753,-82.031250
9754,-82.031250
9755,-82.031250
9756,-82.031250
9757,-82.031250
9758,-82.031250
9759,-82.031250
9760,-82.031250
9761,-82.031250
9762,-82.031250
9763,-82.031250
9764,-78.125000
9765,-82.031250
9766,-78.125000
9767,-78.125000
9768,-78.125000
9769,-78.125000
9770,-78.125000
9771,-78.125000
9772,-78.125000
9773,-78.125000
9774,-78.125000
9775,-78.125000
9776,-78.125000
9777,-78.125000
9778,-78.125000
9779,-78.125000
9780,-78.125000
9781,-78.125000
9782,-78.125000
9783,-78.125000
9784,-78.125000
9785,-78.125000
9786,-78.125000
9787,-78.125000
9788,-78.125000
9789,-78.125000
9790,-78.125000
9791,-78.125000
9792,-78.125000
9793,-78.125000
9794,-78.125000
9795,-78.125000
9796,-74.218750
9797,-74.218750
9798,-74.218750
9799,-74.218750
9800,-74.218750
9801,-74.218750
9802,-74.218750
9803,-74.218750
9804,-74.218750
9805,-74.218750
9806,-74.218750
9807,-74.218750
9808,-74.218750
9809,-74.218750
9810,-74.218750
9811,-74.218750
9812,-70.312500
9813,-74.218750
9814,-74.218750
9815,-70.312500
9816,-70.312500
9817,-70.312500
9818,-70.312500
9819,-70.312500
9820,-70.312500
9821,-70.312500
9822,-70.312500
9823,-70.312500
9824,-70.312500
9825,-70.312500
9826,-70.312500
9827,-70.312500
9828,-66.406250
9829,-70.312500
9830,-66.406250
9831,-66.406250
9832,-66.406250
9833,-66.406250
9834,-66.406250
9835,-66.406250
9836,-66.406250
9837,-66.406250
9838,-66.406250
9839,-66.406250
9840,-66.406250
9841,-66.406250
9842,-66.406250
9843,-62.500000
9844,-62.500000
9845,-62.500000
9846,-62.500000
9847,-62.500000
9848,-62.500000
9849,-62.500000
9850,-62.500000
9851,-62.500000
9852,-62.500000
9853,-62.500000
9854,-62.500000
9855,-62.500000
9856,-58.593750
9857,-58.593750
9858,-58.593750
9859,-58.593750
9860,-58.593750
9861,-58.593750
9862,-58.593750
9863,-58.593750
9864,-58.593750
9865,-58.593750
9866,-58.593750
9867,-58.593750
9868,-54.687500
9869,-54.687500
9870,-54.687500
9871,-54.687500
9872,-54.687500
9873,-54.687500
9874,-54.687500
9875,-54.687500
9876,-54.687500
9877,-54.687500
9878,-54.687500
9879,-54.687500
9880,-50.781250
9881,-50.781250
9882,-50.781250
9883,-50.781250
9884,-50.781250
9885,-50.781250
9886,-50.781250
9887,-50.781250
9888,-46.875000
9889,-50.781250
9890,-46.875000
9891,-46.875000
9892,-46.875000
9893,-46.875000
9894,-46.875000
9895,-46.875000
9896,-46.875000
9897,-46.875000
9898,-46.875000
9899,-46.875000
9900,-46.875000
9901,-46.875000
9902,-42.968750
9903,-42.968750
9904,-42.968750
9905,-42.968750
9906,-42.968750
9907,-42.968750
9908,-42.968750
9909,-39.062500
9910,-39.062500
9911,-42.968750
9912,-39.062500
9913,-39.062500
9914,-42.968750
9915,-39.062500
9916,-39.062500
9917,-39.062500
9918,-35.156250
9919,-39.062500
9920,-35.156250
9921,-35.156250
9922,-35.156250
9923,-35.156250
9924,-35.156250
9925,-35.156250
9926,-35.156250
9927,-35.156250
9928,-31.250000
9929,-31.250000
9930,-31.250000
9931,-31.250000
9932,-31.250000
9933,-31.250000
9934,-31.250000
9935,-31.250000
9936,-31.250000
9937,-31.250000
9938,-27.343750
9939,-27.343750
9940,-27.343750
9941,-27.343750
9942,-27.343750
9943,-27.343750
9944,-27.343750
9945,-27.343750
9946,-23.437500
9947,-23.437500
9948,-23.437500
9949,-23.437500
9950,-23.437500
9951,-23.437500
9952,-23.437500
9953,-23.437500
9954,-19.531250
9955,-19.531250
9956,-19.531250
9957,-19.531250
9958,-19.531250
9959,-19.531250
9960,-19.531250
9961,-19.531250
9962,-19.531250
9963,-19.531250
9964,-15.625000
9965,-15.625000
9966,-15.625000
9967,-15.625000
9968,-15.625000
9969,-15.625000
9970,-15.625000
9971,-15.625000
9972,-15.625000
9973,-15.625000
9974,-11.718750
9975,-11.718750
9976,-11.718750
9977,-11.718750
9978,-7.812500
9979,-11.718750
9980,-11.718750
9981,-7.812500
9982,-11.718750
9983,-7.812500
9984,-7.812500
9985,-7.812500
9986,-7.812500
9987,-7.812500
9988,-7.812500
9989,-7.812500
9990,-7.812500
9991,-7.812500
9992,-3.906250
9993,-3.906250
9994,-3.906250
9995,-3.906250
9996,-3.906250
9997,-3.906250
9998,-3.906250
9999,-3.906250
10000,0.000000
