Channel              :,CH1
Frequency            :,1.010kHz
Period               :,0.990ms
PK-PK                :,132.8mV
Probe attenuation    :,1X
Voltage per ADC value:,0.244141mV
Time interval        :,1.00000us

index,CH1_Voltage(mV)
1,-42.968750
2,-42.968750
3,-39.062500
4,-39.062500
5,-39.062500
6,-39.062500
7,-39.062500
8,-39.062500
9,-39.062500
10,-39.062500
11,-39.062500
12,-35.156250
13,-35.156250
14,-35.156250
15,-35.156250
16,-35.156250
17,-35.156250
18,-35.156250
19,-35.156250
20,-35.156250
21,-35.156250
22,-31.250000
23,-31.250000
24,-31.250000
25,-31.250000
26,-31.250000
27,-31.250000
28,-31.250000
29,-31.250000
30,-31.250000
31,-31.250000
32,-27.343750
33,-27.343750
34,-27.343750
35,-27.343750
36,-27.343750
37,-27.343750
38,-27.343750
39,-27.343750
40,-23.437500
41,-23.437500
42,-23.437500
43,-23.437500
44,-23.437500
45,-23.437500
46,-23.437500
47,-23.437500
48,-23.437500
49,-23.437500
50,-19.531250
51,-19.531250
52,-19.531250
53,-19.531250
54,-19.531250
55,-19.531250
56,-19.531250
57,-19.531250
58,-15.625000
59,-15.625000
60,-15.625000
61,-15.625000
62,-15.625000
63,-15.625000
64,-15.625000
65,-15.625000
66,-15.625000
67,-15.625000
68,-11.718750
69,-11.718750
70,-11.718750
71,-11.718750
72,-11.718750
73,-11.718750
74,-11.718750
75,-11.718750
76,-11.718750
77,-11.718750
78,-11.718750
79,-7.812500
80,-7.812500
81,-7.812500
82,-7.812500
83,-7.812500
84,-7.812500
85,-7.812500
86,-7.812500
87,-7.812500
88,-3.906250
89,-3.906250
90,-3.906250
91,-3.906250
92,-3.906250
93,-3.906250
94,-3.906250
95,-3.906250
96,-3.906250
97,0.000000
98,-3.906250
99,0.000000
100,0.000000
101,0.000000
102,0.000000
103,0.000000
104,0.000000
105,0.000000
106,0.000000
107,3.906250
108,3.906250
109,3.906250
110,3.906250
111,3.906250
112,3.906250
113,3.906250
114,3.906250
115,3.906250
116,7.812500
117,3.906250
118,7.812500
119,7.812500
120,7.812500
121,7.812500
122,7.812500
123,7.812500
124,7.812500
125,7.812500
126,7.812500
127,7.812500
128,7.812500
129,11.718750
130,11.718750
131,11.718750
132,11.718750
133,11.718750
134,11.718750
135,11.718750
136,11.718750
137,11.718750
138,15.625000
139,15.625000
140,15.625000
141,15.625000
142,15.625000
143,15.625000
144,15.625000
145,15.625000
146,15.625000
147,15.625000
148,15.625000
149,19.531250
150,19.531250
151,19.531250
152,19.531250
153,19.531250
154,19.531250
155,19.531250
156,19.531250
157,19.531250
158,19.531250
159,19.531250
160,23.437500
161,23.437500
162,23.437500
163,23.437500
164,23.437500
165,23.437500
166,23.437500
167,23.437500
168,23.437500
169,23.437500
170,23.437500
171,23.437500
172,23.437500
173,27.343750
174,27.343750
175,27.343750
176,27.343750
177,27.343750
178,27.343750
179,27.343750
180,27.343750
181,27.343750
182,27.343750
183,31.250000
184,31.250000
185,31.250000
186,31.250000
187,31.250000
188,31.250000
189,31.250000
190,31.250000
191,31.250000
192,31.250000
193,31.250000
194,31.250000
195,31.250000
196,31.250000
197,31.250000
198,35.156250
199,35.156250
200,35.156250
201,35.156250
202,35.156250
203,35.156250
204,35.156250
205,35.156250
206,35.156250
207,35.156250
208,35.156250
209,35.156250
210,35.156250
211,35.156250
212,35.156250
213,35.156250
214,35.156250
215,39.062500
216,39.062500
217,39.062500
218,39.062500
219,39.062500
220,39.062500
221,39.062500
222,39.062500
223,39.062500
224,39.062500
225,39.062500
226,39.062500
227,39.062500
228,39.062500
229,39.062500
230,39.062500
231,39.062500
232,39.062500
233,42.968750
234,42.968750
235,42.968750
236,42.968750
237,42.968750
238,42.968750
239,42.968750
240,42.968750
241,42.968750
242,42.968750
243,42.968750
244,42.968750
245,42.968750
246,42.968750
247,42.968750
248,46.875000
249,42.968750
250,46.875000
251,42.968750
252,46.875000
253,46.875000
254,46.875000
255,46.875000
256,46.875000
257,46.875000
258,46.875000
259,46.875000
260,46.875000
261,46.875000
262,46.875000
263,46.875000
264,46.875000
265,46.875000
266,46.875000
267,46.875000
268,46.875000
269,46.875000
270,46.875000
271,46.875000
272,46.875000
273,46.875000
274,46.875000
275,46.875000
276,46.875000
277,46.875000
278,46.875000
279,46.875000
280,46.875000
281,46.875000
282,46.875000
283,46.875000
284,46.875000
285,46.875000
286,46.875000
287,46.875000
288,46.875000
289,50.781250
290,46.875000
291,50.781250
292,50.781250
293,50.781250
294,50.781250
295,50.781250
296,50.781250
297,50.781250
298,50.781250
299,50.781250
300,50.781250
301,50.781250
302,50.781250
303,50.781250
304,50.781250
305,50.781250
306,50.781250
307,50.781250
308,50.781250
309,50.781250
310,50.781250
311,50.781250
312,50.781250
313,50.781250
314,50.781250
315,50.781250
316,50.781250
317,50.781250
318,50.781250
319,50.781250
320,50.781250
321,50.781250
322,50.781250
323,50.781250
324,50.781250
325,50.781250
326,50.781250
327,50.781250
328,50.781250
329,50.781250
330,50.781250
331,50.781250
332,50.781250
333,50.781250
334,50.781250
335,50.781250
336,50.781250
337,50.781250
338,50.781250
339,50.781250
340,50.781250
341,50.781250
342,50.781250
343,50.781250
344,50.781250
345,50.781250
346,50.781250
347,50.781250
348,50.781250
349,50.781250
350,50.781250
351,50.781250
352,50.781250
353,46.875000
354,50.781250
355,50.781250
356,50.781250
357,46.875000
358,46.875000
359,46.875000
360,46.875000
361,46.875000
362,46.875000
363,46.875000
364,46.875000
365,46.875000
366,46.875000
367,46.875000
368,46.875000
369,46.875000
370,46.875000
371,46.875000
372,46.875000
373,46.875000
374,46.875000
375,46.875000
376,46.875000
377,46.875000
378,46.875000
379,46.875000
380,46.875000
381,46.875000
382,46.875000
383,46.875000
384,46.875000
385,42.968750
386,42.968750
387,42.968750
388,46.875000
389,46.875000
390,42.968750
391,42.968750
392,42.968750
393,42.968750
394,42.968750
395,42.968750
396,42.968750
397,42.968750
398,42.968750
399,42.968750
400,42.968750
401,42.968750
402,42.968750
403,42.968750
404,42.968750
405,42.968750
406,39.062500
407,42.968750
408,39.062500
409,39.062500
410,42.968750
411,39.062500
412,39.062500
413,39.062500
414,39.062500
415,39.062500
416,39.062500
417,39.062500
418,39.062500
419,39.062500
420,39.062500
421,39.062500
422,39.062500
423,39.062500
424,39.062500
425,39.062500
426,39.062500
427,39.062500
428,35.156250
429,35.156250
430,35.156250
431,35.156250
432,35.156250
433,35.156250
434,35.156250
435,35.156250
436,35.156250
437,35.156250
438,35.156250
439,35.156250
440,35.156250
441,35.156250
442,35.156250
443,31.250000
444,35.156250
445,31.250000
446,31.250000
447,31.250000
448,31.250000
449,31.250000
450,31.250000
451,31.250000
452,31.250000
453,31.250000
454,31.250000
455,27.343750
456,31.250000
457,31.250000
458,31.250000
459,27.343750
460,27.343750
461,27.343750
462,27.343750
463,27.343750
464,27.343750
465,27.343750
466,27.343750
467,27.343750
468,27.343750
469,23.437500
470,23.437500
471,23.437500
472,27.343750
473,23.437500
474,23.437500
475,23.437500
476,23.437500
477,23.437500
478,23.437500
479,23.437500
480,23.437500
481,23.437500
482,23.437500
483,19.531250
484,19.531250
485,19.531250
486,19.531250
487,19.531250
488,19.531250
489,19.531250
490,19.531250
491,19.531250
492,19.531250
493,15.625000
494,15.625000
495,15.625000
496,15.625000
497,15.625000
498,15.625000
499,15.625000
500,15.625000
501,15.625000
502,15.625000
503,15.625000
504,11.718750
505,11.718750
506,11.718750
507,11.718750
508,11.718750
509,11.718750
510,11.718750
511,11.718750
512,11.718750
513,11.718750
514,11.718750
515,11.718750
516,7.812500
517,7.812500
518,7.812500
519,7.812500
520,7.812500
521,7.812500
522,7.812500
523,7.812500
524,7.812500
525,3.906250
526,3.906250
527,3.906250
528,3.906250
529,3.906250
530,3.906250
531,3.906250
532,3.906250
533,3.906250
534,3.906250
535,0.000000
536,3.906250
537,0.000000
538,0.000000
539,0.000000
540,0.000000
541,0.000000
542,0.000000
543,0.000000
544,0.000000
545,-3.906250
546,0.000000
547,0.000000
548,-3.906250
549,-3.906250
550,-3.906250
551,-3.906250
552,-3.906250
553,-3.906250
554,-3.906250
555,-3.906250
556,-3.906250
557,-7.812500
558,-7.812500
559,-7.812500
560,-7.812500
561,-7.812500
562,-7.812500
563,-7.812500
564,-7.812500
565,-7.812500
566,-11.718750
567,-11.718750
568,-11.718750
569,-11.718750
570,-11.718750
571,-11.718750
572,-11.718750
573,-11.718750
574,-11.718750
575,-11.718750
576,-15.625000
577,-15.625000
578,-15.625000
579,-15.625000
580,-15.625000
581,-15.625000
582,-15.625000
583,-15.625000
584,-15.625000
585,-15.625000
586,-15.625000
587,-15.625000
588,-19.531250
589,-19.531250
590,-19.531250
591,-19.531250
592,-19.531250
593,-19.531250
594,-19.531250
595,-19.531250
596,-23.437500
597,-23.437500
598,-23.437500
599,-23.437500
600,-23.437500
601,-23.437500
602,-23.437500
603,-23.437500
604,-23.437500
605,-27.343750
606,-27.343750
607,-27.343750
608,-27.343750
609,-27.343750
610,-27.343750
611,-27.343750
612,-27.343750
613,-27.343750
614,-27.343750
615,-27.343750
616,-31.250000
617,-31.250000
618,-31.250000
619,-31.250000
620,-31.250000
621,-31.250000
622,-31.250000
623,-31.250000
624,-31.250000
625,-35.156250
626,-35.156250
627,-35.156250
628,-35.156250
629,-35.156250
630,-35.156250
631,-35.156250
632,-35.156250
633,-35.156250
634,-39.062500
635,-39.062500
636,-39.062500
637,-39.062500
638,-39.062500
639,-39.062500
640,-39.062500
641,-39.062500
642,-39.062500
643,-39.062500
644,-42.968750
645,-42.968750
646,-42.968750
647,-42.968750
648,-42.968750
649,-42.968750
650,-42.968750
651,-42.968750
652,-42.968750
653,-46.875000
654,-46.875000
655,-42.968750
656,-42.968750
657,-46.875000
658,-46.875000
659,-46.875000
660,-46.875000
661,-46.875000
662,-46.875000
663,-46.875000
664,-46.875000
665,-50.781250
666,-50.781250
667,-50.781250
668,-50.781250
669,-50.781250
670,-50.781250
671,-50.781250
672,-50.781250
673,-50.781250
674,-54.687500
675,-54.687500
676,-54.687500
677,-54.687500
678,-54.687500
679,-54.687500
680,-54.687500
681,-54.687500
682,-54.687500
683,-54.687500
684,-54.687500
685,-54.687500
686,-54.687500
687,-54.687500
688,-54.687500
689,-58.593750
690,-58.593750
691,-58.593750
692,-58.593750
693,-58.593750
694,-58.593750
695,-58.593750
696,-58.593750
697,-58.593750
698,-58.593750
699,-58.593750
700,-58.593750
701,-62.500000
702,-62.500000
703,-62.500000
704,-62.500000
705,-62.500000
706,-62.500000
707,-62.500000
708,-62.500000
709,-62.500000
710,-62.500000
711,-62.500000
712,-62.500000
713,-62.500000
714,-62.500000
715,-66.406250
716,-62.500000
717,-66.406250
718,-66.406250
719,-66.406250
720,-66.406250
721,-66.406250
722,-66.406250
723,-66.406250
724,-66.406250
725,-66.406250
726,-66.406250
727,-66.406250
728,-66.406250
729,-66.406250
730,-70.312500
731,-70.312500
732,-70.312500
733,-70.312500
734,-70.312500
735,-70.312500
736,-70.312500
737,-70.312500
738,-70.312500
739,-70.312500
740,-70.312500
741,-70.312500
742,-70.312500
743,-70.312500
744,-70.312500
745,-74.218750
746,-74.218750
747,-74.218750
748,-74.218750
749,-74.218750
750,-74.218750
751,-74.218750
752,-74.218750
753,-74.218750
754,-74.218750
755,-74.218750
756,-74.218750
757,-74.218750
758,-74.218750
759,-74.218750
760,-74.218750
761,-74.218750
762,-74.218750
763,-74.218750
764,-74.218750
765,-74.218750
766,-74.218750
767,-74.218750
768,-74.218750
769,-74.218750
770,-74.218750
771,-78.125000
772,-74.218750
773,-78.125000
774,-78.125000
775,-78.125000
776,-78.125000
777,-78.125000
778,-78.125000
779,-78.125000
780,-78.125000
781,-78.125000
782,-78.125000
783,-78.125000
784,-78.125000
785,-78.125000
786,-78.125000
787,-78.125000
788,-78.125000
789,-78.125000
790,-78.125000
791,-78.125000
792,-78.125000
793,-78.125000
794,-78.125000
795,-78.125000
796,-78.125000
797,-78.125000
798,-78.125000
799,-78.125000
800,-78.125000
801,-78.125000
802,-78.125000
803,-78.125000
804,-78.125000
805,-78.125000
806,-78.125000
807,-78.125000
808,-78.125000
809,-78.125000
810,-78.125000
811,-78.125000
812,-78.125000
813,-78.125000
814,-78.125000
815,-78.125000
816,-78.125000
817,-78.125000
818,-78.125000
819,-78.125000
820,-78.125000
821,-78.125000
822,-78.125000
823,-78.125000
824,-82.031250
825,-78.125000
826,-78.125000
827,-78.125000
828,-78.125000
829,-78.125000
830,-78.125000
831,-78.125000
832,-78.125000
833,-78.125000
834,-78.125000
835,-78.125000
836,-78.125000
837,-78.125000
838,-78.125000
839,-78.125000
840,-78.125000
841,-78.125000
842,-78.125000
843,-78.125000
844,-78.125000
845,-78.125000
846,-78.125000
847,-78.125000
848,-78.125000
849,-78.125000
850,-78.125000
851,-78.125000
852,-78.125000
853,-78.125000
854,-78.125000
855,-78.125000
856,-78.125000
857,-78.125000
858,-78.125000
859,-78.125000
860,-78.125000
861,-78.125000
862,-78.125000
863,-78.125000
864,-78.125000
865,-74.218750
866,-74.218750
867,-74.218750
868,-74.218750
869,-74.218750
870,-74.218750
871,-74.218750
872,-74.218750
873,-74.218750
874,-74.218750
875,-74.218750
876,-74.218750
877,-74.218750
878,-74.218750
879,-74.218750
880,-74.218750
881,-74.218750
882,-74.218750
883,-74.218750
884,-74.218750
885,-74.218750
886,-74.218750
887,-74.218750
888,-70.312500
889,-74.218750
890,-70.312500
891,-70.312500
892,-74.218750
893,-70.312500
894,-70.312500
895,-70.312500
896,-70.312500
897,-70.312500
898,-70.312500
899,-70.312500
900,-70.312500
901,-70.312500
902,-70.312500
903,-70.312500
904,-70.312500
905,-70.312500
906,-70.312500
907,-70.312500
908,-66.406250
909,-66.406250
910,-66.406250
911,-66.406250
912,-66.406250
913,-66.406250
914,-66.406250
915,-66.406250
916,-66.406250
917,-66.406250
918,-66.406250
919,-66.406250
920,-66.406250
921,-66.406250
922,-66.406250
923,-66.406250
924,-62.500000
925,-62.500000
926,-62.500000
927,-62.500000
928,-62.500000
929,-62.500000
930,-62.500000
931,-62.500000
932,-62.500000
933,-62.500000
934,-62.500000
935,-62.500000
936,-62.500000
937,-58.593750
938,-58.593750
939,-58.593750
940,-58.593750
941,-58.593750
942,-58.593750
943,-58.593750
944,-58.593750
945,-58.593750
946,-58.593750
947,-58.593750
948,-54.687500
949,-54.687500
950,-54.687500
951,-54.687500
952,-54.687500
953,-54.687500
954,-54.687500
955,-54.687500
956,-54.687500
957,-54.687500
958,-54.687500
959,-54.687500
960,-54.687500
961,-50.781250
962,-50.781250
963,-50.781250
964,-50.781250
965,-50.781250
966,-50.781250
967,-50.781250
968,-50.781250
969,-50.781250
970,-46.875000
971,-46.875000
972,-46.875000
973,-46.875000
974,-46.875000
975,-46.875000
976,-46.875000
977,-46.875000
978,-46.875000
979,-46.875000
980,-46.875000
981,-42.968750
982,-42.968750
983,-42.968750
984,-42.968750
985,-42.968750
986,-42.968750
987,-42.968750
988,-42.968750
989,-42.968750
990,-42.968750
991,-39.062500
992,-39.062500
993,-39.062500
994,-39.062500
995,-39.062500
996,-39.062500
997,-39.062500
998,-39.062500
999,-39.062500
1000,-39.062500
1001,-39.062500
1002,-39.062500
1003,-39.062500
1004,-35.156250
1005,-35.156250
1006,-35.156250
1007,-35.156250
1008,-35.156250
1009,-35.156250
1010,-35.156250
1011,-35.156250
1012,-31.250000
1013,-31.250000
1014,-31.250000
1015,-31.250000
1016,-31.250000
1017,-31.250000
1018,-31.250000
1019,-31.250000
1020,-31.250000
1021,-31.250000
1022,-27.343750
1023,-27.343750
1024,-31.250000
1025,-27.343750
1026,-27.343750
1027,-27.343750
1028,-27.343750
1029,-27.343750
1030,-23.437500
1031,-27.343750
1032,-23.437500
1033,-23.437500
1034,-23.437500
1035,-23.437500
1036,-23.437500
1037,-23.437500
1038,-23.437500
1039,-23.437500
1040,-23.437500
1041,-19.531250
1042,-19.531250
1043,-19.531250
1044,-19.531250
1045,-19.531250
1046,-19.531250
1047,-19.531250
1048,-15.625000
1049,-19.531250
1050,-15.625000
1051,-15.625000
1052,-15.625000
1053,-15.625000
1054,-15.625000
1055,-15.625000
1056,-15.625000
1057,-15.625000
1058,-15.625000
1059,-15.625000
1060,-11.718750
1061,-11.718750
1062,-11.718750
1063,-11.718750
1064,-11.718750
1065,-11.718750
1066,-11.718750
1067,-11.718750
1068,-7.812500
1069,-11.718750
1070,-7.812500
1071,-7.812500
1072,-7.812500
1073,-7.812500
1074,-7.812500
1075,-7.812500
1076,-7.812500
1077,-7.812500
1078,-7.812500
1079,-3.906250
1080,-3.906250
1081,-3.906250
1082,-3.906250
1083,-3.906250
1084,-3.906250
1085,-3.906250
1086,-3.906250
1087,-3.906250
1088,0.000000
1089,0.000000
1090,0.000000
1091,0.000000
1092,0.000000
1093,0.000000
1094,0.000000
1095,0.000000
1096,3.906250
1097,3.906250
1098,3.906250
1099,3.906250
1100,3.906250
1101,3.906250
1102,3.906250
1103,3.906250
1104,3.906250
1105,3.906250
1106,3.906250
1107,3.906250
1108,7.812500
1109,7.812500
1110,7.812500
1111,7.812500
1112,7.812500
1113,7.812500
1114,7.812500
1115,7.812500
1116,7.812500
1117,11.718750
1118,11.718750
1119,11.718750
1120,11.718750
1121,11.718750
1122,11.718750
1123,11.718750
1124,11.718750
1125,11.718750
1126,15.625000
1127,15.625000
1128,15.625000
1129,15.625000
1130,15.625000
1131,15.625000
1132,15.625000
1133,15.625000
1134,15.625000
1135,15.625000
1136,15.625000
1137,15.625000
1138,15.625000
1139,19.531250
1140,19.531250
1141,19.531250
1142,19.531250
1143,19.531250
1144,19.531250
1145,19.531250
1146,19.531250
1147,19.531250
1148,19.531250
1149,19.531250
1150,23.437500
1151,19.531250
1152,23.437500
1153,23.437500
1154,23.437500
1155,23.437500
1156,23.437500
1157,23.437500
1158,23.437500
1159,23.437500
1160,23.437500
1161,23.437500
1162,27.343750
1163,27.343750
1164,27.343750
1165,27.343750
1166,27.343750
1167,27.343750
1168,27.343750
1169,27.343750
1170,27.343750
1171,27.343750
1172,31.250000
1173,31.250000
1174,31.250000
1175,31.250000
1176,31.250000
1177,31.250000
1178,31.250000
1179,31.250000
1180,31.250000
1181,31.250000
1182,31.250000
1183,31.250000
1184,31.250000
1185,31.250000
1186,31.250000
1187,31.250000
1188,35.156250
1189,35.156250
1190,35.156250
1191,35.156250
1192,35.156250
1193,35.156250
1194,35.156250
1195,35.156250
1196,35.156250
1197,35.156250
1198,35.156250
1199,35.156250
1200,35.156250
1201,35.156250
1202,35.156250
1203,39.062500
1204,35.156250
1205,39.062500
1206,39.062500
1207,39.062500
1208,39.062500
1209,39.062500
1210,39.062500
1211,39.062500
1212,39.062500
1213,39.062500
1214,39.062500
1215,39.062500
1216,39.062500
1217,39.062500
1218,39.062500
1219,39.062500
1220,39.062500
1221,42.968750
1222,42.968750
1223,42.968750
1224,42.968750
1225,42.968750
1226,42.968750
1227,42.968750
1228,42.968750
1229,42.968750
1230,42.968750
1231,42.968750
1232,42.968750
1233,42.968750
1234,42.968750
1235,42.968750
1236,42.968750
1237,42.968750
1238,42.968750
1239,42.968750
1240,42.968750
1241,46.875000
1242,46.875000
1243,46.875000
1244,46.875000
1245,46.875000
1246,46.875000
1247,46.875000
1248,46.875000
1249,46.875000
1250,46.875000
1251,46.875000
1252,46.875000
1253,46.875000
1254,46.875000
1255,46.875000
1256,46.875000
1257,46.875000
1258,46.875000
1259,46.875000
1260,46.875000
1261,46.875000
1262,46.875000
1263,46.875000
1264,50.781250
1265,50.781250
1266,46.875000
1267,46.875000
1268,46.875000
1269,46.875000
1270,46.875000
1271,46.875000
1272,46.875000
1273,46.875000
1274,46.875000
1275,50.781250
1276,50.781250
1277,50.781250
1278,50.781250
1279,50.781250
1280,50.781250
1281,50.781250
1282,50.781250
1283,50.781250
1284,50.781250
1285,46.875000
1286,50.781250
1287,50.781250
1288,50.781250
1289,50.781250
1290,50.781250
1291,50.781250
1292,50.781250
1293,50.781250
1294,50.781250
1295,50.781250
1296,50.781250
1297,50.781250
1298,50.781250
1299,50.781250
1300,50.781250
1301,50.781250
1302,50.781250
1303,50.781250
1304,50.781250
1305,50.781250
1306,50.781250
1307,50.781250
1308,50.781250
1309,50.781250
1310,50.781250
1311,50.781250
1312,50.781250
1313,50.781250
1314,50.781250
1315,50.781250
1316,50.781250
1317,50.781250
1318,50.781250
1319,50.781250
1320,50.781250
1321,50.781250
1322,50.781250
1323,50.781250
1324,50.781250
1325,50.781250
1326,50.781250
1327,50.781250
1328,50.781250
1329,50.781250
1330,50.781250
1331,50.781250
1332,50.781250
1333,50.781250
1334,50.781250
1335,50.781250
1336,46.875000
1337,50.781250
1338,46.875000
1339,46.875000
1340,46.875000
1341,50.781250
1342,50.781250
1343,50.781250
1344,46.875000
1345,50.781250
1346,50.781250
1347,46.875000
1348,46.875000
1349,46.875000
1350,46.875000
1351,46.875000
1352,46.875000
1353,46.875000
1354,46.875000
1355,46.875000
1356,46.875000
1357,46.875000
1358,46.875000
1359,46.875000
1360,46.875000
1361,46.875000
1362,46.875000
1363,46.875000
1364,46.875000
1365,46.875000
1366,46.875000
1367,46.875000
1368,46.875000
1369,46.875000
1370,46.875000
1371,46.875000
1372,46.875000
1373,46.875000
1374,46.875000
1375,46.875000
1376,42.968750
1377,42.968750
1378,42.968750
1379,42.968750
1380,42.968750
1381,42.968750
1382,42.968750
1383,42.968750
1384,42.968750
1385,42.968750
1386,42.968750
1387,42.968750
1388,42.968750
1389,42.968750
1390,42.968750
1391,42.968750
1392,42.968750
1393,42.968750
1394,42.968750
1395,42.968750
1396,42.968750
1397,42.968750
1398,39.062500
1399,39.062500
1400,39.062500
1401,39.062500
1402,39.062500
1403,39.062500
1404,39.062500
1405,39.062500
1406,39.062500
1407,39.062500
1408,39.062500
1409,39.062500
1410,39.062500
1411,39.062500
1412,39.062500
1413,39.062500
1414,39.062500
1415,39.062500
1416,39.062500
1417,35.156250
1418,35.156250
1419,35.156250
1420,35.156250
1421,35.156250
1422,35.156250
1423,35.156250
1424,35.156250
1425,35.156250
1426,35.156250
1427,35.156250
1428,35.156250
1429,35.156250
1430,35.156250
1431,35.156250
1432,35.156250
1433,31.250000
1434,31.250000
1435,31.250000
1436,31.250000
1437,31.250000
1438,31.250000
1439,31.250000
1440,31.250000
1441,31.250000
1442,31.250000
1443,31.250000
1444,31.250000
1445,31.250000
1446,27.343750
1447,27.343750
1448,27.343750
1449,27.343750
1450,27.343750
1451,27.343750
1452,27.343750
1453,27.343750
1454,27.343750
1455,27.343750
1456,27.343750
1457,27.343750
1458,27.343750
1459,27.343750
1460,23.437500
1461,23.437500
1462,23.437500
1463,23.437500
1464,23.437500
1465,23.437500
1466,23.437500
1467,23.437500
1468,23.437500
1469,23.437500
1470,23.437500
1471,19.531250
1472,19.531250
1473,19.531250
1474,19.531250
1475,19.531250
1476,19.531250
1477,19.531250
1478,19.531250
1479,19.531250
1480,19.531250
1481,19.531250
1482,19.531250
1483,19.531250
1484,19.531250
1485,15.625000
1486,15.625000
1487,15.625000
1488,15.625000
1489,15.625000
1490,15.625000
1491,15.625000
1492,15.625000
1493,15.625000
1494,15.625000
1495,11.718750
1496,11.718750
1497,11.718750
1498,11.718750
1499,11.718750
1500,11.718750
1501,11.718750
1502,11.718750
1503,11.718750
1504,11.718750
1505,11.718750
1506,7.812500
1507,7.812500
1508,7.812500
1509,7.812500
1510,7.812500
1511,7.812500
1512,7.812500
1513,7.812500
1514,7.812500
1515,7.812500
1516,3.906250
1517,3.906250
1518,3.906250
1519,3.906250
1520,3.906250
1521,3.906250
1522,3.906250
1523,3.906250
1524,3.906250
1525,3.906250
1526,3.906250
1527,0.000000
1528,0.000000
1529,0.000000
1530,0.000000
1531,0.000000
1532,0.000000
1533,0.000000
1534,0.000000
1535,0.000000
1536,0.000000
1537,-3.906250
1538,-3.906250
1539,-3.906250
1540,-3.906250
1541,-3.906250
1542,-3.906250
1543,-3.906250
1544,-3.906250
1545,-3.906250
1546,-7.812500
1547,-7.812500
1548,-7.812500
1549,-7.812500
1550,-7.812500
1551,-7.812500
1552,-7.812500
1553,-7.812500
1554,-7.812500
1555,-11.718750
1556,-11.718750
1557,-11.718750
1558,-11.718750
1559,-11.718750
1560,-11.718750
1561,-11.718750
1562,-11.718750
1563,-15.625000
1564,-11.718750
1565,-15.625000
1566,-15.625000
1567,-15.625000
1568,-15.625000
1569,-15.625000
1570,-15.625000
1571,-15.625000
1572,-15.625000
1573,-15.625000
1574,-19.531250
1575,-15.625000
1576,-19.531250
1577,-19.531250
1578,-19.531250
1579,-19.531250
1580,-19.531250
1581,-19.531250
1582,-19.531250
1583,-19.531250
1584,-23.437500
1585,-19.531250
1586,-23.437500
1587,-23.437500
1588,-23.437500
1589,-23.437500
1590,-23.437500
1591,-23.437500
1592,-23.437500
1593,-23.437500
1594,-23.437500
1595,-27.343750
1596,-27.343750
1597,-27.343750
1598,-27.343750
1599,-27.343750
1600,-27.343750
1601,-27.343750
1602,-27.343750
1603,-27.343750
1604,-31.250000
1605,-31.250000
1606,-31.250000
1607,-31.250000
1608,-31.250000
1609,-31.250000
1610,-31.250000
1611,-31.250000
1612,-31.250000
1613,-31.250000
1614,-31.250000
1615,-35.156250
1616,-35.156250
1617,-35.156250
1618,-35.156250
1619,-35.156250
1620,-35.156250
1621,-35.156250
1622,-35.156250
1623,-35.156250
1624,-39.062500
1625,-39.062500
1626,-39.062500
1627,-39.062500
1628,-39.062500
1629,-39.062500
1630,-39.062500
1631,-39.062500
1632,-39.062500
1633,-39.062500
1634,-39.062500
1635,-39.062500
1636,-42.968750
1637,-42.968750
1638,-42.968750
1639,-42.968750
1640,-42.968750
1641,-42.968750
1642,-42.968750
1643,-42.968750
1644,-42.968750
1645,-46.875000
1646,-46.875000
1647,-46.875000
1648,-46.875000
1649,-46.875000
1650,-46.875000
1651,-46.875000
1652,-46.875000
1653,-46.875000
1654,-46.875000
1655,-46.875000
1656,-46.875000
1657,-50.781250
1658,-50.781250
1659,-50.781250
1660,-50.781250
1661,-50.781250
1662,-50.781250
1663,-50.781250
1664,-50.781250
1665,-50.781250
1666,-50.781250
1667,-50.781250
1668,-54.687500
1669,-54.687500
1670,-54.687500
1671,-54.687500
1672,-54.687500
1673,-54.687500
1674,-54.687500
1675,-54.687500
1676,-54.687500
1677,-54.687500
1678,-54.687500
1679,-58.593750
1680,-58.593750
1681,-58.593750
1682,-58.593750
1683,-58.593750
1684,-58.593750
1685,-58.593750
1686,-58.593750
1687,-58.593750
1688,-58.593750
1689,-58.593750
1690,-58.593750
1691,-62.500000
1692,-62.500000
1693,-62.500000
1694,-62.500000
1695,-62.500000
1696,-62.500000
1697,-62.500000
1698,-62.500000
1699,-62.500000
1700,-62.500000
1701,-62.500000
1702,-62.500000
1703,-62.500000
1704,-66.406250
1705,-66.406250
1706,-62.500000
1707,-66.406250
1708,-66.406250
1709,-66.406250
1710,-66.406250
1711,-66.406250
1712,-66.406250
1713,-66.406250
1714,-66.406250
1715,-66.406250
1716,-66.406250
1717,-66.406250
1718,-66.406250
1719,-66.406250
1720,-70.312500
1721,-70.312500
1722,-70.312500
1723,-70.312500
1724,-70.312500
1725,-70.312500
1726,-70.312500
1727,-70.312500
1728,-70.312500
1729,-70.312500
1730,-70.312500
1731,-70.312500
1732,-70.312500
1733,-70.312500
1734,-70.312500
1735,-70.312500
1736,-70.312500
1737,-70.312500
1738,-74.218750
1739,-70.312500
1740,-70.312500
1741,-70.312500
1742,-70.312500
1743,-74.218750
1744,-74.218750
1745,-74.218750
1746,-74.218750
1747,-74.218750
1748,-74.218750
1749,-74.218750
1750,-74.218750
1751,-74.218750
1752,-74.218750
1753,-74.218750
1754,-74.218750
1755,-74.218750
1756,-74.218750
1757,-74.218750
1758,-74.218750
1759,-74.218750
1760,-74.218750
1761,-78.125000
1762,-74.218750
1763,-74.218750
1764,-74.218750
1765,-78.125000
1766,-74.218750
1767,-78.125000
1768,-78.125000
1769,-78.125000
1770,-78.125000
1771,-78.125000
1772,-78.125000
1773,-78.125000
1774,-78.125000
1775,-78.125000
1776,-78.125000
1777,-78.125000
1778,-78.125000
1779,-78.125000
1780,-78.125000
1781,-78.125000
1782,-78.125000
1783,-78.125000
1784,-78.125000
1785,-78.125000
1786,-78.125000
1787,-78.125000
1788,-78.125000
1789,-78.125000
1790,-78.125000
1791,-78.125000
1792,-78.125000
1793,-78.125000
1794,-78.125000
1795,-78.125000
1796,-78.125000
1797,-78.125000
1798,-78.125000
1799,-78.125000
1800,-78.125000
1801,-78.125000
1802,-78.125000
1803,-78.125000
1804,-78.125000
1805,-78.125000
1806,-82.031250
1807,-78.125000
1808,-78.125000
1809,-78.125000
1810,-78.125000
1811,-78.125000
1812,-78.125000
1813,-78.125000
1814,-78.125000
1815,-78.125000
1816,-78.125000
1817,-82.031250
1818,-78.125000
1819,-78.125000
1820,-78.125000
1821,-78.125000
1822,-78.125000
1823,-78.125000
1824,-78.125000
1825,-78.125000
1826,-78.125000
1827,-78.125000
1828,-78.125000
1829,-78.125000
1830,-78.125000
1831,-78.125000
1832,-78.125000
1833,-78.125000
1834,-78.125000
1835,-78.125000
1836,-78.125000
1837,-78.125000
1838,-78.125000
1839,-78.125000
1840,-78.125000
1841,-78.125000
1842,-78.125000
1843,-78.125000
1844,-78.125000
1845,-78.125000
1846,-78.125000
1847,-78.125000
1848,-78.125000
1849,-78.125000
1850,-78.125000
1851,-78.125000
1852,-78.125000
1853,-78.125000
1854,-74.218750
1855,-78.125000
1856,-74.218750
1857,-78.125000
1858,-78.125000
1859,-74.218750
1860,-74.218750
1861,-74.218750
1862,-74.218750
1863,-74.218750
1864,-74.218750
1865,-74.218750
1866,-74.218750
1867,-74.218750
1868,-74.218750
1869,-74.218750
1870,-74.218750
1871,-74.218750
1872,-74.218750
1873,-74.218750
1874,-74.218750
1875,-74.218750
1876,-74.218750
1877,-74.218750
1878,-74.218750
1879,-74.218750
1880,-70.312500
1881,-70.312500
1882,-70.312500
1883,-70.312500
1884,-70.312500
1885,-70.312500
1886,-70.312500
1887,-70.312500
1888,-70.312500
1889,-70.312500
1890,-70.312500
1891,-70.312500
1892,-70.312500
1893,-70.312500
1894,-70.312500
1895,-70.312500
1896,-70.312500
1897,-70.312500
1898,-70.312500
1899,-66.406250
1900,-66.406250
1901,-66.406250
1902,-66.406250
1903,-66.406250
1904,-66.406250
1905,-66.406250
1906,-66.406250
1907,-66.406250
1908,-66.406250
1909,-66.406250
1910,-66.406250
1911,-66.406250
1912,-62.500000
1913,-62.500000
1914,-62.500000
1915,-62.500000
1916,-62.500000
1917,-62.500000
1918,-62.500000
1919,-62.500000
1920,-62.500000
1921,-62.500000
1922,-62.500000
1923,-62.500000
1924,-62.500000
1925,-62.500000
1926,-58.593750
1927,-62.500000
1928,-58.593750
1929,-58.593750
1930,-58.593750
1931,-58.593750
1932,-58.593750
1933,-58.593750
1934,-58.593750
1935,-58.593750
1936,-58.593750
1937,-58.593750
1938,-58.593750
1939,-54.687500
1940,-58.593750
1941,-54.687500
1942,-54.687500
1943,-54.687500
1944,-54.687500
1945,-54.687500
1946,-54.687500
1947,-54.687500
1948,-54.687500
1949,-54.687500
1950,-54.687500
1951,-54.687500
1952,-50.781250
1953,-50.781250
1954,-50.781250
1955,-50.781250
1956,-50.781250
1957,-50.781250
1958,-50.781250
1959,-50.781250
1960,-46.875000
1961,-50.781250
1962,-46.875000
1963,-46.875000
1964,-46.875000
1965,-46.875000
1966,-46.875000
1967,-46.875000
1968,-46.875000
1969,-46.875000
1970,-46.875000
1971,-46.875000
1972,-46.875000
1973,-42.968750
1974,-42.968750
1975,-42.968750
1976,-42.968750
1977,-42.968750
1978,-42.968750
1979,-42.968750
1980,-42.968750
1981,-42.968750
1982,-42.968750
1983,-39.062500
1984,-39.062500
1985,-39.062500
1986,-39.062500
1987,-39.062500
1988,-39.062500
1989,-39.062500
1990,-39.062500
1991,-39.062500
1992,-39.062500
1993,-39.062500
1994,-35.156250
1995,-35.156250
1996,-35.156250
1997,-35.156250
1998,-35.156250
1999,-35.156250
2000,-35.156250
2001,-35.156250
2002,-31.250000
2003,-35.156250
2004,-31.250000
2005,-31.250000
2006,-31.250000
2007,-31.250000
2008,-31.250000
2009,-31.250000
2010,-31.250000
2011,-31.250000
2012,-27.343750
2013,-27.343750
2014,-27.343750
2015,-27.343750
2016,-27.343750
2017,-27.343750
2018,-27.343750
2019,-27.343750
2020,-23.437500
2021,-23.437500
2022,-23.437500
2023,-23.437500
2024,-23.437500
2025,-23.437500
2026,-23.437500
2027,-23.437500
2028,-23.437500
2029,-23.437500
2030,-23.437500
2031,-19.531250
2032,-19.531250
2033,-19.531250
2034,-19.531250
2035,-19.531250
2036,-19.531250
2037,-19.531250
2038,-19.531250
2039,-19.531250
2040,-19.531250
2041,-15.625000
2042,-15.625000
2043,-15.625000
2044,-15.625000
2045,-15.625000
2046,-15.625000
2047,-15.625000
2048,-15.625000
2049,-11.718750
2050,-11.718750
2051,-11.718750
2052,-11.718750
2053,-11.718750
2054,-11.718750
2055,-11.718750
2056,-11.718750
2057,-11.718750
2058,-11.718750
2059,-11.718750
2060,-7.812500
2061,-7.812500
2062,-7.812500
2063,-7.812500
2064,-7.812500
2065,-7.812500
2066,-7.812500
2067,-3.906250
2068,-7.812500
2069,-3.906250
2070,-3.906250
2071,-3.906250
2072,-3.906250
2073,-3.906250
2074,-3.906250
2075,-3.906250
2076,-3.906250
2077,0.000000
2078,0.000000
2079,0.000000
2080,0.000000
2081,0.000000
2082,0.000000
2083,0.000000
2084,0.000000
2085,0.000000
2086,0.000000
2087,0.000000
2088,3.906250
2089,3.906250
2090,3.906250
2091,3.906250
2092,3.906250
2093,3.906250
2094,3.906250
2095,3.906250
2096,7.812500
2097,7.812500
2098,7.812500
2099,7.812500
2100,7.812500
2101,7.812500
2102,7.812500
2103,7.812500
2104,7.812500
2105,7.812500
2106,7.812500
2107,7.812500
2108,11.718750
2109,11.718750
2110,11.718750
2111,11.718750
2112,11.718750
2113,11.718750
2114,11.718750
2115,11.718750
2116,11.718750
2117,11.718750
2118,11.718750
2119,15.625000
2120,15.625000
2121,15.625000
2122,15.625000
2123,15.625000
2124,15.625000
2125,15.625000
2126,15.625000
2127,19.531250
2128,15.625000
2129,19.531250
2130,19.531250
2131,19.531250
2132,19.531250
2133,19.531250
2134,19.531250
2135,19.531250
2136,19.531250
2137,19.531250
2138,19.531250
2139,23.437500
2140,23.437500
2141,23.437500
2142,23.437500
2143,23.437500
2144,23.437500
2145,23.437500
2146,23.437500
2147,23.437500
2148,23.437500
2149,23.437500
2150,23.437500
2151,23.437500
2152,23.437500
2153,27.343750
2154,27.343750
2155,27.343750
2156,27.343750
2157,27.343750
2158,27.343750
2159,27.343750
2160,27.343750
2161,27.343750
2162,27.343750
2163,31.250000
2164,31.250000
2165,27.343750
2166,31.250000
2167,31.250000
2168,31.250000
2169,31.250000
2170,31.250000
2171,31.250000
2172,31.250000
2173,31.250000
2174,31.250000
2175,31.250000
2176,31.250000
2177,35.156250
2178,35.156250
2179,35.156250
2180,35.156250
2181,35.156250
2182,35.156250
2183,35.156250
2184,35.156250
2185,35.156250
2186,35.156250
2187,35.156250
2188,35.156250
2189,35.156250
2190,35.156250
2191,35.156250
2192,35.156250
2193,39.062500
2194,39.062500
2195,39.062500
2196,39.062500
2197,39.062500
2198,39.062500
2199,39.062500
2200,39.062500
2201,39.062500
2202,39.062500
2203,39.062500
2204,39.062500
2205,39.062500
2206,39.062500
2207,39.062500
2208,39.062500
2209,39.062500
2210,42.968750
2211,42.968750
2212,42.968750
2213,42.968750
2214,42.968750
2215,42.968750
2216,42.968750
2217,42.968750
2218,42.968750
2219,42.968750
2220,42.968750
2221,42.968750
2222,42.968750
2223,42.968750
2224,42.968750
2225,42.968750
2226,42.968750
2227,42.968750
2228,42.968750
2229,42.968750
2230,42.968750
2231,46.875000
2232,46.875000
2233,46.875000
2234,46.875000
2235,42.968750
2236,46.875000
2237,46.875000
2238,46.875000
2239,46.875000
2240,46.875000
2241,46.875000
2242,46.875000
2243,46.875000
2244,46.875000
2245,46.875000
2246,46.875000
2247,46.875000
2248,46.875000
2249,46.875000
2250,46.875000
2251,46.875000
2252,46.875000
2253,46.875000
2254,46.875000
2255,46.875000
2256,46.875000
2257,46.875000
2258,46.875000
2259,46.875000
2260,46.875000
2261,50.781250
2262,46.875000
2263,46.875000
2264,50.781250
2265,46.875000
2266,46.875000
2267,50.781250
2268,50.781250
2269,50.781250
2270,50.781250
2271,50.781250
2272,50.781250
2273,50.781250
2274,50.781250
2275,50.781250
2276,50.781250
2277,50.781250
2278,50.781250
2279,50.781250
2280,50.781250
2281,50.781250
2282,50.781250
2283,50.781250
2284,50.781250
2285,50.781250
2286,50.781250
2287,50.781250
2288,50.781250
2289,50.781250
2290,50.781250
2291,50.781250
2292,50.781250
2293,50.781250
2294,50.781250
2295,50.781250
2296,50.781250
2297,50.781250
2298,50.781250
2299,50.781250
2300,50.781250
2301,50.781250
2302,50.781250
2303,50.781250
2304,50.781250
2305,50.781250
2306,50.781250
2307,50.781250
2308,50.781250
2309,50.781250
2310,50.781250
2311,50.781250
2312,50.781250
2313,50.781250
2314,50.781250
2315,50.781250
2316,50.781250
2317,50.781250
2318,50.781250
2319,50.781250
2320,50.781250
2321,50.781250
2322,50.781250
2323,50.781250
2324,50.781250
2325,50.781250
2326,50.781250
2327,46.875000
2328,50.781250
2329,50.781250
2330,46.875000
2331,46.875000
2332,46.875000
2333,46.875000
2334,50.781250
2335,46.875000
2336,46.875000
2337,50.781250
2338,46.875000
2339,46.875000
2340,46.875000
2341,46.875000
2342,46.875000
2343,46.875000
2344,46.875000
2345,46.875000
2346,46.875000
2347,46.875000
2348,46.875000
2349,46.875000
2350,46.875000
2351,46.875000
2352,46.875000
2353,46.875000
2354,46.875000
2355,46.875000
2356,46.875000
2357,46.875000
2358,46.875000
2359,46.875000
2360,46.875000
2361,46.875000
2362,46.875000
2363,46.875000
2364,46.875000
2365,42.968750
2366,46.875000
2367,42.968750
2368,42.968750
2369,42.968750
2370,42.968750
2371,42.968750
2372,42.968750
2373,42.968750
2374,42.968750
2375,42.968750
2376,42.968750
2377,42.968750
2378,42.968750
2379,42.968750
2380,42.968750
2381,42.968750
2382,42.968750
2383,42.968750
2384,42.968750
2385,42.968750
2386,42.968750
2387,42.968750
2388,42.968750
2389,42.968750
2390,39.062500
2391,39.062500
2392,39.062500
2393,39.062500
2394,39.062500
2395,39.062500
2396,39.062500
2397,39.062500
2398,39.062500
2399,39.062500
2400,39.062500
2401,39.062500
2402,39.062500
2403,39.062500
2404,39.062500
2405,39.062500
2406,35.156250
2407,35.156250
2408,39.062500
2409,35.156250
2410,35.156250
2411,35.156250
2412,35.156250
2413,35.156250
2414,35.156250
2415,35.156250
2416,35.156250
2417,35.156250
2418,35.156250
2419,35.156250
2420,35.156250
2421,35.156250
2422,31.250000
2423,35.156250
2424,31.250000
2425,31.250000
2426,31.250000
2427,31.250000
2428,31.250000
2429,31.250000
2430,31.250000
2431,31.250000
2432,31.250000
2433,31.250000
2434,31.250000
2435,31.250000
2436,27.343750
2437,27.343750
2438,27.343750
2439,27.343750
2440,27.343750
2441,27.343750
2442,27.343750
2443,27.343750
2444,27.343750
2445,27.343750
2446,27.343750
2447,27.343750
2448,27.343750
2449,23.437500
2450,23.437500
2451,23.437500
2452,23.437500
2453,23.437500
2454,23.437500
2455,23.437500
2456,23.437500
2457,23.437500
2458,23.437500
2459,23.437500
2460,23.437500
2461,19.531250
2462,19.531250
2463,19.531250
2464,19.531250
2465,19.531250
2466,19.531250
2467,19.531250
2468,19.531250
2469,19.531250
2470,19.531250
2471,19.531250
2472,19.531250
2473,15.625000
2474,15.625000
2475,15.625000
2476,15.625000
2477,15.625000
2478,15.625000
2479,15.625000
2480,15.625000
2481,15.625000
2482,15.625000
2483,15.625000
2484,15.625000
2485,11.718750
2486,11.718750
2487,11.718750
2488,11.718750
2489,11.718750
2490,11.718750
2491,11.718750
2492,11.718750
2493,11.718750
2494,11.718750
2495,11.718750
2496,7.812500
2497,7.812500
2498,7.812500
2499,7.812500
2500,7.812500
2501,7.812500
2502,7.812500
2503,7.812500
2504,7.812500
2505,7.812500
2506,7.812500
2507,3.906250
2508,3.906250
2509,3.906250
2510,3.906250
2511,3.906250
2512,3.906250
2513,3.906250
2514,3.906250
2515,3.906250
2516,0.000000
2517,0.000000
2518,0.000000
2519,3.906250
2520,0.000000
2521,0.000000
2522,0.000000
2523,0.000000
2524,0.000000
2525,0.000000
2526,-3.906250
2527,-3.906250
2528,-3.906250
2529,-3.906250
2530,-3.906250
2531,-3.906250
2532,-3.906250
2533,-3.906250
2534,-3.906250
2535,-3.906250
2536,-7.812500
2537,-7.812500
2538,-7.812500
2539,-7.812500
2540,-7.812500
2541,-7.812500
2542,-7.812500
2543,-7.812500
2544,-7.812500
2545,-7.812500
2546,-7.812500
2547,-11.718750
2548,-11.718750
2549,-11.718750
2550,-11.718750
2551,-11.718750
2552,-11.718750
2553,-11.718750
2554,-11.718750
2555,-11.718750
2556,-15.625000
2557,-15.625000
2558,-15.625000
2559,-15.625000
2560,-15.625000
2561,-15.625000
2562,-15.625000
2563,-15.625000
2564,-15.625000
2565,-19.531250
2566,-15.625000
2567,-19.531250
2568,-19.531250
2569,-19.531250
2570,-19.531250
2571,-19.531250
2572,-19.531250
2573,-19.531250
2574,-19.531250
2575,-19.531250
2576,-19.531250
2577,-23.437500
2578,-23.437500
2579,-23.437500
2580,-23.437500
2581,-23.437500
2582,-23.437500
2583,-23.437500
2584,-23.437500
2585,-23.437500
2586,-27.343750
2587,-27.343750
2588,-27.343750
2589,-27.343750
2590,-27.343750
2591,-27.343750
2592,-27.343750
2593,-27.343750
2594,-27.343750
2595,-31.250000
2596,-31.250000
2597,-31.250000
2598,-31.250000
2599,-31.250000
2600,-31.250000
2601,-31.250000
2602,-31.250000
2603,-35.156250
2604,-35.156250
2605,-35.156250
2606,-35.156250
2607,-35.156250
2608,-35.156250
2609,-35.156250
2610,-35.156250
2611,-35.156250
2612,-35.156250
2613,-35.156250
2614,-39.062500
2615,-39.062500
2616,-39.062500
2617,-39.062500
2618,-39.062500
2619,-39.062500
2620,-39.062500
2621,-39.062500
2622,-39.062500
2623,-39.062500
2624,-42.968750
2625,-42.968750
2626,-42.968750
2627,-42.968750
2628,-42.968750
2629,-42.968750
2630,-42.968750
2631,-42.968750
2632,-42.968750
2633,-46.875000
2634,-42.968750
2635,-46.875000
2636,-46.875000
2637,-46.875000
2638,-46.875000
2639,-46.875000
2640,-46.875000
2641,-46.875000
2642,-46.875000
2643,-46.875000
2644,-46.875000
2645,-46.875000
2646,-50.781250
2647,-50.781250
2648,-50.781250
2649,-50.781250
2650,-50.781250
2651,-50.781250
2652,-50.781250
2653,-50.781250
2654,-50.781250
2655,-50.781250
2656,-50.781250
2657,-50.781250
2658,-50.781250
2659,-54.687500
2660,-54.687500
2661,-54.687500
2662,-54.687500
2663,-54.687500
2664,-54.687500
2665,-54.687500
2666,-54.687500
2667,-54.687500
2668,-54.687500
2669,-54.687500
2670,-58.593750
2671,-58.593750
2672,-58.593750
2673,-58.593750
2674,-58.593750
2675,-58.593750
2676,-58.593750
2677,-58.593750
2678,-58.593750
2679,-58.593750
2680,-58.593750
2681,-62.500000
2682,-62.500000
2683,-62.500000
2684,-62.500000
2685,-62.500000
2686,-62.500000
2687,-62.500000
2688,-62.500000
2689,-62.500000
2690,-62.500000
2691,-62.500000
2692,-62.500000
2693,-62.500000
2694,-62.500000
2695,-66.406250
2696,-62.500000
2697,-62.500000
2698,-66.406250
2699,-66.406250
2700,-66.406250
2701,-66.406250
2702,-66.406250
2703,-66.406250
2704,-66.406250
2705,-66.406250
2706,-66.406250
2707,-66.406250
2708,-66.406250
2709,-66.406250
2710,-66.406250
2711,-66.406250
2712,-70.312500
2713,-70.312500
2714,-70.312500
2715,-70.312500
2716,-70.312500
2717,-70.312500
2718,-70.312500
2719,-70.312500
2720,-70.312500
2721,-70.312500
2722,-70.312500
2723,-70.312500
2724,-70.312500
2725,-70.312500
2726,-70.312500
2727,-74.218750
2728,-70.312500
2729,-74.218750
2730,-74.218750
2731,-74.218750
2732,-74.218750
2733,-74.218750
2734,-74.218750
2735,-74.218750
2736,-74.218750
2737,-74.218750
2738,-74.218750
2739,-74.218750
2740,-74.218750
2741,-74.218750
2742,-74.218750
2743,-74.218750
2744,-74.218750
2745,-74.218750
2746,-74.218750
2747,-74.218750
2748,-74.218750
2749,-74.218750
2750,-74.218750
2751,-74.218750
2752,-74.218750
2753,-74.218750
2754,-78.125000
2755,-78.125000
2756,-74.218750
2757,-78.125000
2758,-78.125000
2759,-78.125000
2760,-78.125000
2761,-78.125000
2762,-78.125000
2763,-78.125000
2764,-78.125000
2765,-78.125000
2766,-78.125000
2767,-78.125000
2768,-78.125000
2769,-78.125000
2770,-78.125000
2771,-78.125000
2772,-78.125000
2773,-78.125000
2774,-78.125000
2775,-78.125000
2776,-78.125000
2777,-78.125000
2778,-78.125000
2779,-78.125000
2780,-78.125000
2781,-78.125000
2782,-78.125000
2783,-78.125000
2784,-78.125000
2785,-78.125000
2786,-78.125000
2787,-78.125000
2788,-78.125000
2789,-78.125000
2790,-78.125000
2791,-78.125000
2792,-78.125000
2793,-78.125000
2794,-78.125000
2795,-78.125000
2796,-78.125000
2797,-78.125000
2798,-78.125000
2799,-78.125000
2800,-78.125000
2801,-78.125000
2802,-78.125000
2803,-78.125000
2804,-78.125000
2805,-78.125000
2806,-78.125000
2807,-78.125000
2808,-78.125000
2809,-78.125000
2810,-78.125000
2811,-78.125000
2812,-78.125000
2813,-78.125000
2814,-78.125000
2815,-78.125000
2816,-78.125000
2817,-78.125000
2818,-78.125000
2819,-78.125000
2820,-78.125000
2821,-78.125000
2822,-78.125000
2823,-78.125000
2824,-78.125000
2825,-78.125000
2826,-78.125000
2827,-78.125000
2828,-78.125000
2829,-78.125000
2830,-78.125000
2831,-78.125000
2832,-78.125000
2833,-78.125000
2834,-78.125000
2835,-78.125000
2836,-78.125000
2837,-78.125000
2838,-78.125000
2839,-78.125000
2840,-78.125000
2841,-78.125000
2842,-78.125000
2843,-78.125000
2844,-78.125000
2845,-78.125000
2846,-74.218750
2847,-74.218750
2848,-74.218750
2849,-74.218750
2850,-74.218750
2851,-74.218750
2852,-74.218750
2853,-74.218750
2854,-74.218750
2855,-74.218750
2856,-74.218750
2857,-74.218750
2858,-74.218750
2859,-74.218750
2860,-74.218750
2861,-74.218750
2862,-74.218750
2863,-74.218750
2864,-74.218750
2865,-74.218750
2866,-74.218750
2867,-70.312500
2868,-74.218750
2869,-74.218750
2870,-70.312500
2871,-70.312500
2872,-74.218750
2873,-70.312500
2874,-74.218750
2875,-70.312500
2876,-70.312500
2877,-70.312500
2878,-70.312500
2879,-70.312500
2880,-70.312500
2881,-70.312500
2882,-70.312500
2883,-70.312500
2884,-70.312500
2885,-70.312500
2886,-70.312500
2887,-70.312500
2888,-70.312500
2889,-70.312500
2890,-66.406250
2891,-66.406250
2892,-66.406250
2893,-66.406250
2894,-66.406250
2895,-66.406250
2896,-66.406250
2897,-66.406250
2898,-66.406250
2899,-66.406250
2900,-66.406250
2901,-66.406250
2902,-62.500000
2903,-66.406250
2904,-62.500000
2905,-62.500000
2906,-62.500000
2907,-62.500000
2908,-62.500000
2909,-62.500000
2910,-62.500000
2911,-62.500000
2912,-62.500000
2913,-62.500000
2914,-62.500000
2915,-58.593750
2916,-58.593750
2917,-58.593750
2918,-58.593750
2919,-58.593750
2920,-58.593750
2921,-58.593750
2922,-58.593750
2923,-58.593750
2924,-58.593750
2925,-58.593750
2926,-58.593750
2927,-58.593750
2928,-54.687500
2929,-54.687500
2930,-54.687500
2931,-54.687500
2932,-54.687500
2933,-54.687500
2934,-54.687500
2935,-54.687500
2936,-54.687500
2937,-54.687500
2938,-54.687500
2939,-54.687500
2940,-54.687500
2941,-50.781250
2942,-50.781250
2943,-50.781250
2944,-50.781250
2945,-50.781250
2946,-50.781250
2947,-50.781250
2948,-50.781250
2949,-50.781250
2950,-50.781250
2951,-50.781250
2952,-50.781250
2953,-46.875000
2954,-46.875000
2955,-46.875000
2956,-46.875000
2957,-46.875000
2958,-46.875000
2959,-46.875000
2960,-46.875000
2961,-46.875000
2962,-46.875000
2963,-42.968750
2964,-42.968750
2965,-42.968750
2966,-42.968750
2967,-42.968750
2968,-42.968750
2969,-42.968750
2970,-42.968750
2971,-39.062500
2972,-42.968750
2973,-39.062500
2974,-42.968750
2975,-39.062500
2976,-39.062500
2977,-39.062500
2978,-39.062500
2979,-39.062500
2980,-39.062500
2981,-39.062500
2982,-39.062500
2983,-39.062500
2984,-39.062500
2985,-35.156250
2986,-35.156250
2987,-35.156250
2988,-35.156250
2989,-35.156250
2990,-35.156250
2991,-35.156250
2992,-35.156250
2993,-35.156250
2994,-31.250000
2995,-31.250000
2996,-31.250000
2997,-31.250000
2998,-31.250000
2999,-31.250000
3000,-31.250000
3001,-27.343750
3002,-27.343750
3003,-27.343750
3004,-27.343750
3005,-27.343750
3006,-27.343750
3007,-27.343750
3008,-27.343750
3009,-27.343750
3010,-27.343750
3011,-23.437500
3012,-23.437500
3013,-23.437500
3014,-23.437500
3015,-23.437500
3016,-23.437500
3017,-23.437500
3018,-23.437500
3019,-23.437500
3020,-19.531250
3021,-19.531250
3022,-19.531250
3023,-19.531250
3024,-19.531250
3025,-19.531250
3026,-19.531250
3027,-19.531250
3028,-19.531250
3029,-19.531250
3030,-15.625000
3031,-15.625000
3032,-15.625000
3033,-15.625000
3034,-15.625000
3035,-15.625000
3036,-15.625000
3037,-15.625000
3038,-15.625000
3039,-11.718750
3040,-11.718750
3041,-11.718750
3042,-11.718750
3043,-11.718750
3044,-11.718750
3045,-11.718750
3046,-11.718750
3047,-11.718750
3048,-7.812500
3049,-7.812500
3050,-7.812500
3051,-7.812500
3052,-7.812500
3053,-7.812500
3054,-7.812500
3055,-7.812500
3056,-7.812500
3057,-3.906250
3058,-3.906250
3059,-3.906250
3060,-3.906250
3061,-3.906250
3062,-3.906250
3063,-3.906250
3064,-3.906250
3065,-3.906250
3066,-3.906250
3067,-3.906250
3068,0.000000
3069,0.000000
3070,0.000000
3071,0.000000
3072,0.000000
3073,0.000000
3074,0.000000
3075,0.000000
3076,3.906250
3077,3.906250
3078,3.906250
3079,3.906250
3080,3.906250
3081,3.906250
3082,3.906250
3083,3.906250
3084,3.906250
3085,3.906250
3086,7.812500
3087,7.812500
3088,7.812500
3089,7.812500
3090,7.812500
3091,7.812500
3092,7.812500
3093,7.812500
3094,7.812500
3095,7.812500
3096,7.812500
3097,11.718750
3098,11.718750
3099,11.718750
3100,11.718750
3101,11.718750
3102,11.718750
3103,11.718750
3104,11.718750
3105,11.718750
3106,11.718750
3107,15.625000
3108,15.625000
3109,15.625000
3110,15.625000
3111,15.625000
3112,15.625000
3113,15.625000
3114,15.625000
3115,15.625000
3116,15.625000
3117,15.625000
3118,15.625000
3119,19.531250
3120,19.531250
3121,19.531250
3122,19.531250
3123,19.531250
3124,19.531250
3125,19.531250
3126,19.531250
3127,19.531250
3128,19.531250
3129,19.531250
3130,23.437500
3131,23.437500
3132,23.437500
3133,23.437500
3134,23.437500
3135,23.437500
3136,23.437500
3137,23.437500
3138,23.437500
3139,23.437500
3140,23.437500
3141,27.343750
3142,27.343750
3143,27.343750
3144,27.343750
3145,27.343750
3146,27.343750
3147,27.343750
3148,27.343750
3149,27.343750
3150,27.343750
3151,27.343750
3152,27.343750
3153,27.343750
3154,31.250000
3155,31.250000
3156,31.250000
3157,31.250000
3158,31.250000
3159,31.250000
3160,31.250000
3161,31.250000
3162,31.250000
3163,31.250000
3164,31.250000
3165,31.250000
3166,31.250000
3167,31.250000
3168,35.156250
3169,35.156250
3170,35.156250
3171,35.156250
3172,35.156250
3173,35.156250
3174,35.156250
3175,35.156250
3176,35.156250
3177,35.156250
3178,35.156250
3179,35.156250
3180,35.156250
3181,35.156250
3182,39.062500
3183,39.062500
3184,39.062500
3185,39.062500
3186,39.062500
3187,39.062500
3188,39.062500
3189,39.062500
3190,39.062500
3191,39.062500
3192,39.062500
3193,39.062500
3194,39.062500
3195,39.062500
3196,39.062500
3197,39.062500
3198,39.062500
3199,39.062500
3200,39.062500
3201,42.968750
3202,42.968750
3203,42.968750
3204,42.968750
3205,42.968750
3206,42.968750
3207,42.968750
3208,42.968750
3209,42.968750
3210,42.968750
3211,42.968750
3212,42.968750
3213,42.968750
3214,42.968750
3215,42.968750
3216,42.968750
3217,42.968750
3218,42.968750
3219,42.968750
3220,42.968750
3221,42.968750
3222,46.875000
3223,42.968750
3224,46.875000
3225,46.875000
3226,46.875000
3227,46.875000
3228,46.875000
3229,46.875000
3230,46.875000
3231,46.875000
3232,46.875000
3233,46.875000
3234,46.875000
3235,46.875000
3236,46.875000
3237,46.875000
3238,46.875000
3239,46.875000
3240,46.875000
3241,46.875000
3242,46.875000
3243,46.875000
3244,46.875000
3245,46.875000
3246,46.875000
3247,46.875000
3248,46.875000
3249,46.875000
3250,46.875000
3251,46.875000
3252,46.875000
3253,46.875000
3254,46.875000
3255,46.875000
3256,50.781250
3257,46.875000
3258,46.875000
3259,46.875000
3260,50.781250
3261,50.781250
3262,50.781250
3263,50.781250
3264,50.781250
3265,50.781250
3266,50.781250
3267,50.781250
3268,50.781250
3269,50.781250
3270,50.781250
3271,50.781250
3272,50.781250
3273,50.781250
3274,50.781250
3275,54.687500
3276,50.781250
3277,50.781250
3278,54.687500
3279,50.781250
3280,50.781250
3281,50.781250
3282,50.781250
3283,50.781250
3284,50.781250
3285,50.781250
3286,50.781250
3287,50.781250
3288,50.781250
3289,50.781250
3290,50.781250
3291,50.781250
3292,50.781250
3293,50.781250
3294,50.781250
3295,50.781250
3296,50.781250
3297,50.781250
3298,50.781250
3299,50.781250
3300,50.781250
3301,50.781250
3302,50.781250
3303,50.781250
3304,50.781250
3305,50.781250
3306,50.781250
3307,50.781250
3308,50.781250
3309,50.781250
3310,50.781250
3311,50.781250
3312,50.781250
3313,50.781250
3314,50.781250
3315,50.781250
3316,50.781250
3317,50.781250
3318,50.781250
3319,50.781250
3320,50.781250
3321,50.781250
3322,50.781250
3323,46.875000
3324,50.781250
3325,46.875000
3326,46.875000
3327,46.875000
3328,46.875000
3329,46.875000
3330,46.875000
3331,46.875000
3332,46.875000
3333,46.875000
3334,46.875000
3335,46.875000
3336,46.875000
3337,46.875000
3338,46.875000
3339,46.875000
3340,46.875000
3341,46.875000
3342,46.875000
3343,46.875000
3344,46.875000
3345,46.875000
3346,46.875000
3347,46.875000
3348,46.875000
3349,46.875000
3350,46.875000
3351,46.875000
3352,46.875000
3353,46.875000
3354,42.968750
3355,42.968750
3356,46.875000
3357,46.875000
3358,46.875000
3359,42.968750
3360,42.968750
3361,42.968750
3362,42.968750
3363,42.968750
3364,42.968750
3365,42.968750
3366,42.968750
3367,42.968750
3368,42.968750
3369,42.968750
3370,42.968750
3371,42.968750
3372,42.968750
3373,42.968750
3374,42.968750
3375,42.968750
3376,42.968750
3377,39.062500
3378,42.968750
3379,42.968750
3380,39.062500
3381,39.062500
3382,39.062500
3383,39.062500
3384,39.062500
3385,39.062500
3386,39.062500
3387,39.062500
3388,39.062500
3389,39.062500
3390,39.062500
3391,39.062500
3392,39.062500
3393,39.062500
3394,39.062500
3395,39.062500
3396,35.156250
3397,35.156250
3398,35.156250
3399,35.156250
3400,35.156250
3401,35.156250
3402,35.156250
3403,35.156250
3404,35.156250
3405,35.156250
3406,35.156250
3407,35.156250
3408,35.156250
3409,35.156250
3410,35.156250
3411,35.156250
3412,35.156250
3413,31.250000
3414,31.250000
3415,31.250000
3416,31.250000
3417,31.250000
3418,31.250000
3419,31.250000
3420,31.250000
3421,31.250000
3422,31.250000
3423,31.250000
3424,31.250000
3425,31.250000
3426,31.250000
3427,27.343750
3428,27.343750
3429,27.343750
3430,27.343750
3431,27.343750
3432,27.343750
3433,27.343750
3434,27.343750
3435,27.343750
3436,27.343750
3437,27.343750
3438,27.343750
3439,27.343750
3440,27.343750
3441,23.437500
3442,23.437500
3443,23.437500
3444,23.437500
3445,23.437500
3446,23.437500
3447,23.437500
3448,23.437500
3449,23.437500
3450,23.437500
3451,23.437500
3452,19.531250
3453,19.531250
3454,19.531250
3455,19.531250
3456,19.531250
3457,19.531250
3458,19.531250
3459,19.531250
3460,19.531250
3461,19.531250
3462,19.531250
3463,19.531250
3464,19.531250
3465,15.625000
3466,15.625000
3467,15.625000
3468,15.625000
3469,15.625000
3470,15.625000
3471,15.625000
3472,15.625000
3473,15.625000
3474,15.625000
3475,11.718750
3476,15.625000
3477,11.718750
3478,11.718750
3479,11.718750
3480,11.718750
3481,11.718750
3482,11.718750
3483,11.718750
3484,11.718750
3485,11.718750
3486,7.812500
3487,7.812500
3488,7.812500
3489,7.812500
3490,7.812500
3491,7.812500
3492,7.812500
3493,7.812500
3494,7.812500
3495,7.812500
3496,7.812500
3497,3.906250
3498,3.906250
3499,3.906250
3500,3.906250
3501,3.906250
3502,3.906250
3503,3.906250
3504,3.906250
3505,3.906250
3506,3.906250
3507,0.000000
3508,0.000000
3509,0.000000
3510,0.000000
3511,0.000000
3512,0.000000
3513,0.000000
3514,0.000000
3515,0.000000
3516,0.000000
3517,-3.906250
3518,-3.906250
3519,-3.906250
3520,-3.906250
3521,-3.906250
3522,-3.906250
3523,-3.906250
3524,-3.906250
3525,-3.906250
3526,-7.812500
3527,-3.906250
3528,-7.812500
3529,-7.812500
3530,-7.812500
3531,-7.812500
3532,-7.812500
3533,-7.812500
3534,-7.812500
3535,-7.812500
3536,-11.718750
3537,-11.718750
3538,-11.718750
3539,-11.718750
3540,-11.718750
3541,-11.718750
3542,-11.718750
3543,-11.718750
3544,-11.718750
3545,-11.718750
3546,-15.625000
3547,-15.625000
3548,-15.625000
3549,-15.625000
3550,-15.625000
3551,-15.625000
3552,-15.625000
3553,-15.625000
3554,-15.625000
3555,-19.531250
3556,-19.531250
3557,-19.531250
3558,-19.531250
3559,-19.531250
3560,-19.531250
3561,-19.531250
3562,-19.531250
3563,-19.531250
3564,-19.531250
3565,-19.531250
3566,-19.531250
3567,-23.437500
3568,-23.437500
3569,-23.437500
3570,-23.437500
3571,-23.437500
3572,-23.437500
3573,-27.343750
3574,-27.343750
3575,-27.343750
3576,-27.343750
3577,-27.343750
3578,-27.343750
3579,-27.343750
3580,-27.343750
3581,-27.343750
3582,-27.343750
3583,-27.343750
3584,-27.343750
3585,-31.250000
3586,-31.250000
3587,-31.250000
3588,-31.250000
3589,-31.250000
3590,-31.250000
3591,-31.250000
3592,-31.250000
3593,-31.250000
3594,-35.156250
3595,-35.156250
3596,-35.156250
3597,-35.156250
3598,-35.156250
3599,-35.156250
3600,-35.156250
3601,-35.156250
3602,-35.156250
3603,-35.156250
3604,-39.062500
3605,-39.062500
3606,-39.062500
3607,-39.062500
3608,-39.062500
3609,-39.062500
3610,-39.062500
3611,-39.062500
3612,-39.062500
3613,-39.062500
3614,-39.062500
3615,-42.968750
3616,-42.968750
3617,-42.968750
3618,-42.968750
3619,-42.968750
3620,-42.968750
3621,-42.968750
3622,-42.968750
3623,-42.968750
3624,-46.875000
3625,-46.875000
3626,-46.875000
3627,-46.875000
3628,-46.875000
3629,-46.875000
3630,-46.875000
3631,-46.875000
3632,-46.875000
3633,-46.875000
3634,-46.875000
3635,-50.781250
3636,-50.781250
3637,-50.781250
3638,-50.781250
3639,-50.781250
3640,-50.781250
3641,-50.781250
3642,-50.781250
3643,-50.781250
3644,-50.781250
3645,-50.781250
3646,-54.687500
3647,-54.687500
3648,-54.687500
3649,-54.687500
3650,-54.687500
3651,-54.687500
3652,-54.687500
3653,-54.687500
3654,-54.687500
3655,-54.687500
3656,-54.687500
3657,-54.687500
3658,-54.687500
3659,-58.593750
3660,-58.593750
3661,-58.593750
3662,-58.593750
3663,-58.593750
3664,-58.593750
3665,-58.593750
3666,-58.593750
3667,-58.593750
3668,-58.593750
3669,-58.593750
3670,-58.593750
3671,-58.593750
3672,-58.593750
3673,-62.500000
3674,-62.500000
3675,-62.500000
3676,-62.500000
3677,-62.500000
3678,-62.500000
3679,-62.500000
3680,-62.500000
3681,-62.500000
3682,-62.500000
3683,-62.500000
3684,-62.500000
3685,-62.500000
3686,-66.406250
3687,-66.406250
3688,-66.406250
3689,-66.406250
3690,-66.406250
3691,-66.406250
3692,-66.406250
3693,-66.406250
3694,-66.406250
3695,-66.406250
3696,-66.406250
3697,-66.406250
3698,-66.406250
3699,-70.312500
3700,-66.406250
3701,-70.312500
3702,-66.406250
3703,-70.312500
3704,-70.312500
3705,-70.312500
3706,-70.312500
3707,-70.312500
3708,-70.312500
3709,-70.312500
3710,-70.312500
3711,-70.312500
3712,-70.312500
3713,-70.312500
3714,-70.312500
3715,-70.312500
3716,-70.312500
3717,-70.312500
3718,-70.312500
3719,-74.218750
3720,-74.218750
3721,-74.218750
3722,-74.218750
3723,-74.218750
3724,-74.218750
3725,-74.218750
3726,-74.218750
3727,-74.218750
3728,-74.218750
3729,-74.218750
3730,-74.218750
3731,-74.218750
3732,-74.218750
3733,-74.218750
3734,-74.218750
3735,-74.218750
3736,-74.218750
3737,-74.218750
3738,-74.218750
3739,-74.218750
3740,-74.218750
3741,-74.218750
3742,-74.218750
3743,-74.218750
3744,-74.218750
3745,-78.125000
3746,-78.125000
3747,-78.125000
3748,-78.125000
3749,-78.125000
3750,-78.125000
3751,-78.125000
3752,-78.125000
3753,-78.125000
3754,-78.125000
3755,-78.125000
3756,-78.125000
3757,-78.125000
3758,-78.125000
3759,-78.125000
3760,-78.125000
3761,-78.125000
3762,-78.125000
3763,-78.125000
3764,-78.125000
3765,-78.125000
3766,-78.125000
3767,-78.125000
3768,-78.125000
3769,-78.125000
3770,-78.125000
3771,-78.125000
3772,-78.125000
3773,-78.125000
3774,-78.125000
3775,-78.125000
3776,-78.125000
3777,-78.125000
3778,-78.125000
3779,-78.125000
3780,-78.125000
3781,-78.125000
3782,-78.125000
3783,-78.125000
3784,-78.125000
3785,-78.125000
3786,-78.125000
3787,-78.125000
3788,-78.125000
3789,-78.125000
3790,-78.125000
3791,-78.125000
3792,-78.125000
3793,-78.125000
3794,-78.125000
3795,-78.125000
3796,-78.125000
3797,-78.125000
3798,-78.125000
3799,-78.125000
3800,-78.125000
3801,-78.125000
3802,-78.125000
3803,-78.125000
3804,-78.125000
3805,-78.125000
3806,-78.125000
3807,-78.125000
3808,-78.125000
3809,-78.125000
3810,-78.125000
3811,-78.125000
3812,-78.125000
3813,-78.125000
3814,-78.125000
3815,-78.125000
3816,-78.125000
3817,-78.125000
3818,-78.125000
3819,-78.125000
3820,-78.125000
3821,-78.125000
3822,-78.125000
3823,-78.125000
3824,-78.125000
3825,-78.125000
3826,-78.125000
3827,-78.125000
3828,-78.125000
3829,-78.125000
3830,-78.125000
3831,-78.125000
3832,-74.218750
3833,-74.218750
3834,-78.125000
3835,-74.218750
3836,-74.218750
3837,-74.218750
3838,-78.125000
3839,-74.218750
3840,-74.218750
3841,-74.218750
3842,-74.218750
3843,-74.218750
3844,-74.218750
3845,-74.218750
3846,-74.218750
3847,-74.218750
3848,-74.218750
3849,-74.218750
3850,-74.218750
3851,-74.218750
3852,-74.218750
3853,-74.218750
3854,-74.218750
3855,-74.218750
3856,-74.218750
3857,-74.218750
3858,-74.218750
3859,-74.218750
3860,-70.312500
3861,-74.218750
3862,-70.312500
3863,-70.312500
3864,-70.312500
3865,-70.312500
3866,-70.312500
3867,-70.312500
3868,-70.312500
3869,-70.312500
3870,-70.312500
3871,-70.312500
3872,-70.312500
3873,-70.312500
3874,-66.406250
3875,-70.312500
3876,-70.312500
3877,-70.312500
3878,-70.312500
3879,-70.312500
3880,-66.406250
3881,-66.406250
3882,-66.406250
3883,-66.406250
3884,-66.406250
3885,-66.406250
3886,-66.406250
3887,-66.406250
3888,-66.406250
3889,-66.406250
3890,-66.406250
3891,-66.406250
3892,-66.406250
3893,-66.406250
3894,-62.500000
3895,-62.500000
3896,-62.500000
3897,-62.500000
3898,-62.500000
3899,-62.500000
3900,-62.500000
3901,-62.500000
3902,-62.500000
3903,-62.500000
3904,-62.500000
3905,-62.500000
3906,-62.500000
3907,-62.500000
3908,-58.593750
3909,-58.593750
3910,-58.593750
3911,-58.593750
3912,-58.593750
3913,-58.593750
3914,-58.593750
3915,-58.593750
3916,-58.593750
3917,-58.593750
3918,-58.593750
3919,-58.593750
3920,-54.687500
3921,-54.687500
3922,-54.687500
3923,-54.687500
3924,-54.687500
3925,-54.687500
3926,-54.687500
3927,-54.687500
3928,-54.687500
3929,-54.687500
3930,-54.687500
3931,-50.781250
3932,-50.781250
3933,-50.781250
3934,-50.781250
3935,-50.781250
3936,-50.781250
3937,-50.781250
3938,-50.781250
3939,-50.781250
3940,-50.781250
3941,-50.781250
3942,-46.875000
3943,-46.875000
3944,-46.875000
3945,-46.875000
3946,-46.875000
3947,-46.875000
3948,-46.875000
3949,-46.875000
3950,-46.875000
3951,-46.875000
3952,-42.968750
3953,-42.968750
3954,-42.968750
3955,-42.968750
3956,-42.968750
3957,-42.968750
3958,-42.968750
3959,-42.968750
3960,-42.968750
3961,-42.968750
3962,-42.968750
3963,-42.968750
3964,-39.062500
3965,-39.062500
3966,-39.062500
3967,-39.062500
3968,-39.062500
3969,-39.062500
3970,-39.062500
3971,-39.062500
3972,-39.062500
3973,-35.156250
3974,-35.156250
3975,-35.156250
3976,-35.156250
3977,-35.156250
3978,-35.156250
3979,-35.156250
3980,-35.156250
3981,-35.156250
3982,-35.156250
3983,-35.156250
3984,-31.250000
3985,-31.250000
3986,-31.250000
3987,-31.250000
3988,-31.250000
3989,-31.250000
3990,-31.250000
3991,-31.250000
3992,-31.250000
3993,-27.343750
3994,-27.343750
3995,-27.343750
3996,-27.343750
3997,-27.343750
3998,-27.343750
3999,-27.343750
4000,-27.343750
4001,-27.343750
4002,-23.437500
4003,-23.437500
4004,-23.437500
4005,-23.437500
4006,-23.437500
4007,-23.437500
4008,-23.437500
4009,-23.437500
4010,-23.437500
4011,-19.531250
4012,-19.531250
4013,-19.531250
4014,-19.531250
4015,-19.531250
4016,-19.531250
4017,-19.531250
4018,-19.531250
4019,-15.625000
4020,-15.625000
4021,-15.625000
4022,-15.625000
4023,-15.625000
4024,-15.625000
4025,-15.625000
4026,-15.625000
4027,-15.625000
4028,-15.625000
4029,-11.718750
4030,-11.718750
4031,-15.625000
4032,-11.718750
4033,-11.718750
4034,-11.718750
4035,-11.718750
4036,-11.718750
4037,-11.718750
4038,-11.718750
4039,-7.812500
4040,-7.812500
4041,-7.812500
4042,-7.812500
4043,-7.812500
4044,-7.812500
4045,-7.812500
4046,-7.812500
4047,-7.812500
4048,-3.906250
4049,-3.906250
4050,-3.906250
4051,-3.906250
4052,-3.906250
4053,-3.906250
4054,-3.906250
4055,-3.906250
4056,-3.906250
4057,-3.906250
4058,0.000000
4059,0.000000
4060,0.000000
4061,0.000000
4062,0.000000
4063,0.000000
4064,0.000000
4065,0.000000
4066,0.000000
4067,0.000000
4068,3.906250
4069,3.906250
4070,3.906250
4071,3.906250
4072,3.906250
4073,3.906250
4074,3.906250
4075,3.906250
4076,7.812500
4077,7.812500
4078,7.812500
4079,7.812500
4080,11.718750
4081,7.812500
4082,7.812500
4083,7.812500
4084,7.812500
4085,7.812500
4086,11.718750
4087,11.718750
4088,11.718750
4089,11.718750
4090,11.718750
4091,11.718750
4092,11.718750
4093,11.718750
4094,11.718750
4095,11.718750
4096,11.718750
4097,11.718750
4098,15.625000
4099,15.625000
4100,15.625000
4101,15.625000
4102,15.625000
4103,15.625000
4104,15.625000
4105,15.625000
4106,15.625000
4107,19.531250
4108,19.531250
4109,19.531250
4110,19.531250
4111,19.531250
4112,19.531250
4113,19.531250
4114,19.531250
4115,19.531250
4116,19.531250
4117,19.531250
4118,19.531250
4119,23.437500
4120,23.437500
4121,23.437500
4122,23.437500
4123,23.437500
4124,23.437500
4125,23.437500
4126,23.437500
4127,23.437500
4128,23.437500
4129,23.437500
4130,23.437500
4131,23.437500
4132,23.437500
4133,27.343750
4134,27.343750
4135,27.343750
4136,27.343750
4137,27.343750
4138,27.343750
4139,27.343750
4140,27.343750
4141,27.343750
4142,27.343750
4143,27.343750
4144,31.250000
4145,31.250000
4146,31.250000
4147,31.250000
4148,27.343750
4149,31.250000
4150,31.250000
4151,31.250000
4152,31.250000
4153,31.250000
4154,31.250000
4155,31.250000
4156,35.156250
4157,35.156250
4158,31.250000
4159,35.156250
4160,35.156250
4161,35.156250
4162,35.156250
4163,35.156250
4164,35.156250
4165,35.156250
4166,35.156250
4167,35.156250
4168,35.156250
4169,35.156250
4170,35.156250
4171,35.156250
4172,35.156250
4173,39.062500
4174,39.062500
4175,39.062500
4176,39.062500
4177,39.062500
4178,39.062500
4179,39.062500
4180,39.062500
4181,39.062500
4182,39.062500
4183,39.062500
4184,39.062500
4185,39.062500
4186,39.062500
4187,39.062500
4188,42.968750
4189,39.062500
4190,39.062500
4191,42.968750
4192,42.968750
4193,42.968750
4194,42.968750
4195,42.968750
4196,42.968750
4197,42.968750
4198,42.968750
4199,42.968750
4200,42.968750
4201,42.968750
4202,42.968750
4203,42.968750
4204,42.968750
4205,42.968750
4206,42.968750
4207,42.968750
4208,42.968750
4209,42.968750
4210,42.968750
4211,42.968750
4212,42.968750
4213,42.968750
4214,46.875000
4215,46.875000
4216,46.875000
4217,46.875000
4218,46.875000
4219,46.875000
4220,46.875000
4221,46.875000
4222,46.875000
4223,46.875000
4224,46.875000
4225,46.875000
4226,46.875000
4227,46.875000
4228,46.875000
4229,46.875000
4230,46.875000
4231,46.875000
4232,46.875000
4233,46.875000
4234,46.875000
4235,46.875000
4236,46.875000
4237,46.875000
4238,46.875000
4239,46.875000
4240,46.875000
4241,46.875000
4242,50.781250
4243,46.875000
4244,46.875000
4245,50.781250
4246,50.781250
4247,50.781250
4248,46.875000
4249,46.875000
4250,50.781250
4251,50.781250
4252,50.781250
4253,50.781250
4254,50.781250
4255,50.781250
4256,50.781250
4257,50.781250
4258,50.781250
4259,50.781250
4260,50.781250
4261,50.781250
4262,50.781250
4263,50.781250
4264,50.781250
4265,50.781250
4266,50.781250
4267,50.781250
4268,50.781250
4269,50.781250
4270,50.781250
4271,50.781250
4272,50.781250
4273,50.781250
4274,50.781250
4275,50.781250
4276,50.781250
4277,50.781250
4278,50.781250
4279,50.781250
4280,50.781250
4281,50.781250
4282,50.781250
4283,50.781250
4284,50.781250
4285,50.781250
4286,50.781250
4287,50.781250
4288,50.781250
4289,50.781250
4290,50.781250
4291,50.781250
4292,50.781250
4293,50.781250
4294,50.781250
4295,50.781250
4296,50.781250
4297,50.781250
4298,50.781250
4299,50.781250
4300,50.781250
4301,50.781250
4302,50.781250
4303,46.875000
4304,46.875000
4305,50.781250
4306,46.875000
4307,50.781250
4308,50.781250
4309,50.781250
4310,50.781250
4311,50.781250
4312,46.875000
4313,50.781250
4314,46.875000
4315,46.875000
4316,50.781250
4317,46.875000
4318,46.875000
4319,46.875000
4320,46.875000
4321,46.875000
4322,46.875000
4323,46.875000
4324,46.875000
4325,46.875000
4326,46.875000
4327,46.875000
4328,46.875000
4329,46.875000
4330,46.875000
4331,46.875000
4332,46.875000
4333,46.875000
4334,46.875000
4335,46.875000
4336,46.875000
4337,46.875000
4338,46.875000
4339,46.875000
4340,46.875000
4341,46.875000
4342,46.875000
4343,46.875000
4344,46.875000
4345,46.875000
4346,46.875000
4347,46.875000
4348,42.968750
4349,42.968750
4350,42.968750
4351,42.968750
4352,42.968750
4353,42.968750
4354,42.968750
4355,42.968750
4356,42.968750
4357,42.968750
4358,42.968750
4359,42.968750
4360,42.968750
4361,42.968750
4362,42.968750
4363,42.968750
4364,42.968750
4365,42.968750
4366,42.968750
4367,42.968750
4368,39.062500
4369,39.062500
4370,39.062500
4371,42.968750
4372,39.062500
4373,39.062500
4374,39.062500
4375,39.062500
4376,39.062500
4377,39.062500
4378,39.062500
4379,39.062500
4380,39.062500
4381,39.062500
4382,39.062500
4383,39.062500
4384,39.062500
4385,39.062500
4386,39.062500
4387,39.062500
4388,35.156250
4389,35.156250
4390,35.156250
4391,35.156250
4392,35.156250
4393,35.156250
4394,35.156250
4395,35.156250
4396,35.156250
4397,35.156250
4398,35.156250
4399,35.156250
4400,31.250000
4401,31.250000
4402,31.250000
4403,31.250000
4404,31.250000
4405,31.250000
4406,31.250000
4407,31.250000
4408,31.250000
4409,31.250000
4410,31.250000
4411,31.250000
4412,31.250000
4413,27.343750
4414,31.250000
4415,31.250000
4416,27.343750
4417,31.250000
4418,27.343750
4419,27.343750
4420,27.343750
4421,27.343750
4422,27.343750
4423,23.437500
4424,27.343750
4425,27.343750
4426,23.437500
4427,27.343750
4428,27.343750
4429,23.437500
4430,23.437500
4431,23.437500
4432,23.437500
4433,23.437500
4434,23.437500
4435,23.437500
4436,23.437500
4437,23.437500
4438,23.437500
4439,23.437500
4440,23.437500
4441,19.531250
4442,19.531250
4443,19.531250
4444,19.531250
4445,19.531250
4446,19.531250
4447,19.531250
4448,19.531250
4449,19.531250
4450,19.531250
4451,19.531250
4452,19.531250
4453,15.625000
4454,15.625000
4455,15.625000
4456,11.718750
4457,15.625000
4458,15.625000
4459,15.625000
4460,15.625000
4461,15.625000
4462,15.625000
4463,15.625000
4464,15.625000
4465,11.718750
4466,11.718750
4467,11.718750
4468,11.718750
4469,11.718750
4470,11.718750
4471,11.718750
4472,11.718750
4473,11.718750
4474,11.718750
4475,11.718750
4476,7.812500
4477,7.812500
4478,7.812500
4479,7.812500
4480,7.812500
4481,7.812500
4482,7.812500
4483,7.812500
4484,7.812500
4485,7.812500
4486,3.906250
4487,3.906250
4488,3.906250
4489,3.906250
4490,3.906250
4491,3.906250
4492,3.906250
4493,3.906250
4494,0.000000
4495,0.000000
4496,0.000000
4497,0.000000
4498,0.000000
4499,0.000000
4500,0.000000
4501,0.000000
4502,0.000000
4503,0.000000
4504,0.000000
4505,0.000000
4506,-3.906250
4507,-3.906250
4508,-3.906250
4509,-3.906250
4510,-3.906250
4511,-3.906250
4512,-3.906250
4513,-3.906250
4514,-3.906250
4515,-7.812500
4516,-7.812500
4517,-7.812500
4518,-7.812500
4519,-7.812500
4520,-7.812500
4521,-7.812500
4522,-7.812500
4523,-7.812500
4524,-7.812500
4525,-7.812500
4526,-11.718750
4527,-11.718750
4528,-11.718750
4529,-11.718750
4530,-11.718750
4531,-11.718750
4532,-11.718750
4533,-11.718750
4534,-11.718750
4535,-15.625000
4536,-15.625000
4537,-15.625000
4538,-15.625000
4539,-15.625000
4540,-15.625000
4541,-15.625000
4542,-15.625000
4543,-15.625000
4544,-19.531250
4545,-19.531250
4546,-19.531250
4547,-19.531250
4548,-19.531250
4549,-19.531250
4550,-19.531250
4551,-19.531250
4552,-19.531250
4553,-19.531250
4554,-23.437500
4555,-19.531250
4556,-23.437500
4557,-23.437500
4558,-23.437500
4559,-23.437500
4560,-23.437500
4561,-23.437500
4562,-23.437500
4563,-23.437500
4564,-23.437500
4565,-27.343750
4566,-27.343750
4567,-27.343750
4568,-27.343750
4569,-27.343750
4570,-27.343750
4571,-27.343750
4572,-27.343750
4573,-31.250000
4574,-31.250000
4575,-31.250000
4576,-31.250000
4577,-31.250000
4578,-31.250000
4579,-31.250000
4580,-31.250000
4581,-31.250000
4582,-31.250000
4583,-35.156250
4584,-31.250000
4585,-35.156250
4586,-35.156250
4587,-35.156250
4588,-35.156250
4589,-35.156250
4590,-35.156250
4591,-35.156250
4592,-35.156250
4593,-35.156250
4594,-39.062500
4595,-39.062500
4596,-39.062500
4597,-39.062500
4598,-39.062500
4599,-39.062500
4600,-39.062500
4601,-39.062500
4602,-42.968750
4603,-42.968750
4604,-42.968750
4605,-42.968750
4606,-42.968750
4607,-42.968750
4608,-42.968750
4609,-42.968750
4610,-42.968750
4611,-42.968750
4612,-42.968750
4613,-42.968750
4614,-42.968750
4615,-46.875000
4616,-46.875000
4617,-46.875000
4618,-46.875000
4619,-46.875000
4620,-46.875000
4621,-46.875000
4622,-46.875000
4623,-46.875000
4624,-50.781250
4625,-50.781250
4626,-50.781250
4627,-50.781250
4628,-50.781250
4629,-50.781250
4630,-50.781250
4631,-50.781250
4632,-50.781250
4633,-50.781250
4634,-50.781250
4635,-50.781250
4636,-54.687500
4637,-54.687500
4638,-54.687500
4639,-54.687500
4640,-54.687500
4641,-54.687500
4642,-54.687500
4643,-54.687500
4644,-54.687500
4645,-54.687500
4646,-54.687500
4647,-54.687500
4648,-54.687500
4649,-58.593750
4650,-58.593750
4651,-58.593750
4652,-58.593750
4653,-58.593750
4654,-58.593750
4655,-58.593750
4656,-58.593750
4657,-58.593750
4658,-58.593750
4659,-58.593750
4660,-58.593750
4661,-62.500000
4662,-62.500000
4663,-62.500000
4664,-62.500000
4665,-62.500000
4666,-62.500000
4667,-62.500000
4668,-62.500000
4669,-62.500000
4670,-62.500000
4671,-62.500000
4672,-62.500000
4673,-62.500000
4674,-66.406250
4675,-66.406250
4676,-66.406250
4677,-66.406250
4678,-66.406250
4679,-66.406250
4680,-66.406250
4681,-66.406250
4682,-66.406250
4683,-66.406250
4684,-66.406250
4685,-66.406250
4686,-66.406250
4687,-66.406250
4688,-66.406250
4689,-66.406250
4690,-66.406250
4691,-70.312500
4692,-70.312500
4693,-70.312500
4694,-70.312500
4695,-70.312500
4696,-70.312500
4697,-70.312500
4698,-70.312500
4699,-70.312500
4700,-70.312500
4701,-70.312500
4702,-70.312500
4703,-70.312500
4704,-70.312500
4705,-70.312500
4706,-70.312500
4707,-70.312500
4708,-70.312500
4709,-70.312500
4710,-74.218750
4711,-74.218750
4712,-74.218750
4713,-74.218750
4714,-70.312500
4715,-74.218750
4716,-74.218750
4717,-74.218750
4718,-74.218750
4719,-74.218750
4720,-74.218750
4721,-74.218750
4722,-74.218750
4723,-74.218750
4724,-74.218750
4725,-74.218750
4726,-74.218750
4727,-74.218750
4728,-74.218750
4729,-74.218750
4730,-74.218750
4731,-74.218750
4732,-74.218750
4733,-74.218750
4734,-74.218750
4735,-78.125000
4736,-78.125000
4737,-74.218750
4738,-74.218750
4739,-78.125000
4740,-78.125000
4741,-74.218750
4742,-78.125000
4743,-78.125000
4744,-78.125000
4745,-78.125000
4746,-78.125000
4747,-78.125000
4748,-78.125000
4749,-78.125000
4750,-78.125000
4751,-78.125000
4752,-78.125000
4753,-78.125000
4754,-78.125000
4755,-78.125000
4756,-78.125000
4757,-78.125000
4758,-78.125000
4759,-78.125000
4760,-78.125000
4761,-78.125000
4762,-78.125000
4763,-78.125000
4764,-78.125000
4765,-78.125000
4766,-82.031250
4767,-78.125000
4768,-78.125000
4769,-78.125000
4770,-78.125000
4771,-78.125000
4772,-78.125000
4773,-78.125000
4774,-78.125000
4775,-78.125000
4776,-78.125000
4777,-78.125000
4778,-78.125000
4779,-78.125000
4780,-78.125000
4781,-78.125000
4782,-78.125000
4783,-78.125000
4784,-78.125000
4785,-78.125000
4786,-78.125000
4787,-78.125000
4788,-78.125000
4789,-78.125000
4790,-78.125000
4791,-78.125000
4792,-78.125000
4793,-78.125000
4794,-78.125000
4795,-78.125000
4796,-78.125000
4797,-78.125000
4798,-78.125000
4799,-78.125000
4800,-78.125000
4801,-78.125000
4802,-78.125000
4803,-78.125000
4804,-78.125000
4805,-78.125000
4806,-78.125000
4807,-78.125000
4808,-78.125000
4809,-78.125000
4810,-78.125000
4811,-78.125000
4812,-78.125000
4813,-78.125000
4814,-78.125000
4815,-78.125000
4816,-78.125000
4817,-78.125000
4818,-78.125000
4819,-78.125000
4820,-78.125000
4821,-78.125000
4822,-78.125000
4823,-78.125000
4824,-78.125000
4825,-78.125000
4826,-78.125000
4827,-78.125000
4828,-74.218750
4829,-74.218750
4830,-74.218750
4831,-78.125000
4832,-74.218750
4833,-74.218750
4834,-74.218750
4835,-74.218750
4836,-74.218750
4837,-74.218750
4838,-74.218750
4839,-74.218750
4840,-74.218750
4841,-74.218750
4842,-74.218750
4843,-70.312500
4844,-74.218750
4845,-74.218750
4846,-74.218750
4847,-74.218750
4848,-74.218750
4849,-74.218750
4850,-74.218750
4851,-74.218750
4852,-70.312500
4853,-70.312500
4854,-70.312500
4855,-70.312500
4856,-70.312500
4857,-70.312500
4858,-70.312500
4859,-70.312500
4860,-70.312500
4861,-70.312500
4862,-70.312500
4863,-70.312500
4864,-70.312500
4865,-70.312500
4866,-70.312500
4867,-70.312500
4868,-66.406250
4869,-66.406250
4870,-66.406250
4871,-66.406250
4872,-66.406250
4873,-66.406250
4874,-66.406250
4875,-66.406250
4876,-66.406250
4877,-66.406250
4878,-66.406250
4879,-66.406250
4880,-66.406250
4881,-66.406250
4882,-62.500000
4883,-66.406250
4884,-62.500000
4885,-62.500000
4886,-62.500000
4887,-62.500000
4888,-62.500000
4889,-62.500000
4890,-62.500000
4891,-62.500000
4892,-62.500000
4893,-62.500000
4894,-62.500000
4895,-62.500000
4896,-62.500000
4897,-62.500000
4898,-58.593750
4899,-58.593750
4900,-58.593750
4901,-58.593750
4902,-62.500000
4903,-58.593750
4904,-58.593750
4905,-58.593750
4906,-58.593750
4907,-58.593750
4908,-58.593750
4909,-58.593750
4910,-58.593750
4911,-54.687500
4912,-54.687500
4913,-54.687500
4914,-54.687500
4915,-54.687500
4916,-54.687500
4917,-54.687500
4918,-54.687500
4919,-54.687500
4920,-54.687500
4921,-50.781250
4922,-50.781250
4923,-50.781250
4924,-50.781250
4925,-50.781250
4926,-50.781250
4927,-50.781250
4928,-50.781250
4929,-50.781250
4930,-50.781250
4931,-50.781250
4932,-50.781250
4933,-46.875000
4934,-46.875000
4935,-46.875000
4936,-46.875000
4937,-46.875000
4938,-46.875000
4939,-46.875000
4940,-46.875000
4941,-46.875000
4942,-46.875000
4943,-46.875000
4944,-42.968750
4945,-42.968750
4946,-42.968750
4947,-42.968750
4948,-42.968750
4949,-42.968750
4950,-42.968750
4951,-42.968750
4952,-42.968750
4953,-42.968750
4954,-39.062500
4955,-39.062500
4956,-39.062500
4957,-39.062500
4958,-39.062500
4959,-39.062500
4960,-39.062500
4961,-39.062500
4962,-39.062500
4963,-35.156250
4964,-35.156250
4965,-35.156250
4966,-35.156250
4967,-35.156250
4968,-35.156250
4969,-35.156250
4970,-35.156250
4971,-35.156250
4972,-31.250000
4973,-35.156250
4974,-31.250000
4975,-31.250000
4976,-31.250000
4977,-31.250000
4978,-31.250000
4979,-31.250000
4980,-31.250000
4981,-31.250000
4982,-31.250000
4983,-27.343750
4984,-27.343750
4985,-27.343750
4986,-27.343750
4987,-27.343750
4988,-27.343750
4989,-27.343750
4990,-27.343750
4991,-27.343750
4992,-23.437500
4993,-23.437500
4994,-23.437500
4995,-23.437500
4996,-23.437500
4997,-23.437500
4998,-23.437500
4999,-23.437500
5000,-23.437500
5001,-23.437500
5002,-19.531250
5003,-19.531250
5004,-19.531250
5005,-19.531250
5006,-19.531250
5007,-19.531250
5008,-19.531250
5009,-19.531250
5010,-15.625000
5011,-15.625000
5012,-15.625000
5013,-15.625000
5014,-15.625000
5015,-15.625000
5016,-15.625000
5017,-15.625000
5018,-15.625000
5019,-15.625000
5020,-15.625000
5021,-11.718750
5022,-11.718750
5023,-11.718750
5024,-11.718750
5025,-11.718750
5026,-11.718750
5027,-7.812500
5028,-11.718750
5029,-7.812500
5030,-7.812500
5031,-7.812500
5032,-7.812500
5033,-7.812500
5034,-7.812500
5035,-7.812500
5036,-3.906250
5037,-7.812500
5038,-3.906250
5039,-3.906250
5040,-3.906250
5041,-3.906250
5042,-3.906250
5043,-3.906250
5044,-3.906250
5045,-3.906250
5046,-3.906250
5047,-3.906250
5048,0.000000
5049,0.000000
5050,0.000000
5051,0.000000
5052,0.000000
5053,0.000000
5054,0.000000
5055,0.000000
5056,0.000000
5057,3.906250
5058,3.906250
5059,3.906250
5060,3.906250
5061,3.906250
5062,3.906250
5063,3.906250
5064,3.906250
5065,3.906250
5066,3.906250
5067,3.906250
5068,7.812500
5069,7.812500
5070,7.812500
5071,7.812500
5072,7.812500
5073,7.812500
5074,7.812500
5075,7.812500
5076,7.812500
5077,7.812500
5078,11.718750
5079,11.718750
5080,11.718750
5081,11.718750
5082,11.718750
5083,11.718750
5084,11.718750
5085,11.718750
5086,11.718750
5087,11.718750
5088,15.625000
5089,15.625000
5090,15.625000
5091,15.625000
5092,15.625000
5093,15.625000
5094,15.625000
5095,15.625000
5096,15.625000
5097,19.531250
5098,15.625000
5099,19.531250
5100,19.531250
5101,19.531250
5102,19.531250
5103,19.531250
5104,19.531250
5105,19.531250
5106,19.531250
5107,19.531250
5108,23.437500
5109,23.437500
5110,23.437500
5111,23.437500
5112,23.437500
5113,23.437500
5114,23.437500
5115,23.437500
5116,23.437500
5117,23.437500
5118,23.437500
5119,23.437500
5120,23.437500
5121,23.437500
5122,27.343750
5123,27.343750
5124,27.343750
5125,27.343750
5126,27.343750
5127,27.343750
5128,27.343750
5129,27.343750
5130,27.343750
5131,27.343750
5132,27.343750
5133,31.250000
5134,31.250000
5135,31.250000
5136,31.250000
5137,31.250000
5138,31.250000
5139,31.250000
5140,31.250000
5141,31.250000
5142,31.250000
5143,31.250000
5144,31.250000
5145,31.250000
5146,31.250000
5147,31.250000
5148,35.156250
5149,31.250000
5150,35.156250
5151,35.156250
5152,35.156250
5153,35.156250
5154,35.156250
5155,35.156250
5156,35.156250
5157,35.156250
5158,35.156250
5159,35.156250
5160,35.156250
5161,35.156250
5162,39.062500
5163,39.062500
5164,39.062500
5165,39.062500
5166,39.062500
5167,39.062500
5168,39.062500
5169,39.062500
5170,39.062500
5171,39.062500
5172,39.062500
5173,39.062500
5174,39.062500
5175,39.062500
5176,39.062500
5177,39.062500
5178,39.062500
5179,39.062500
5180,39.062500
5181,39.062500
5182,42.968750
5183,42.968750
5184,42.968750
5185,42.968750
5186,42.968750
5187,42.968750
5188,42.968750
5189,42.968750
5190,42.968750
5191,42.968750
5192,42.968750
5193,42.968750
5194,42.968750
5195,42.968750
5196,42.968750
5197,42.968750
5198,42.968750
5199,42.968750
5200,42.968750
5201,42.968750
5202,42.968750
5203,46.875000
5204,46.875000
5205,46.875000
5206,46.875000
5207,46.875000
5208,46.875000
5209,46.875000
5210,46.875000
5211,46.875000
5212,46.875000
5213,46.875000
5214,46.875000
5215,46.875000
5216,46.875000
5217,46.875000
5218,46.875000
5219,46.875000
5220,46.875000
5221,46.875000
5222,46.875000
5223,46.875000
5224,46.875000
5225,46.875000
5226,46.875000
5227,46.875000
5228,46.875000
5229,46.875000
5230,46.875000
5231,46.875000
5232,50.781250
5233,50.781250
5234,46.875000
5235,46.875000
5236,50.781250
5237,50.781250
5238,50.781250
5239,50.781250
5240,50.781250
5241,50.781250
5242,50.781250
5243,50.781250
5244,46.875000
5245,50.781250
5246,50.781250
5247,50.781250
5248,50.781250
5249,50.781250
5250,50.781250
5251,50.781250
5252,50.781250
5253,50.781250
5254,50.781250
5255,50.781250
5256,50.781250
5257,50.781250
5258,50.781250
5259,50.781250
5260,50.781250
5261,50.781250
5262,50.781250
5263,50.781250
5264,50.781250
5265,50.781250
5266,50.781250
5267,50.781250
5268,50.781250
5269,50.781250
5270,50.781250
5271,50.781250
5272,50.781250
5273,50.781250
5274,50.781250
5275,50.781250
5276,50.781250
5277,50.781250
5278,50.781250
5279,50.781250
5280,50.781250
5281,50.781250
5282,50.781250
5283,50.781250
5284,50.781250
5285,50.781250
5286,50.781250
5287,50.781250
5288,50.781250
5289,50.781250
5290,50.781250
5291,50.781250
5292,50.781250
5293,50.781250
5294,50.781250
5295,50.781250
5296,50.781250
5297,50.781250
5298,50.781250
5299,50.781250
5300,50.781250
5301,50.781250
5302,46.875000
5303,50.781250
5304,50.781250
5305,46.875000
5306,46.875000
5307,46.875000
5308,46.875000
5309,46.875000
5310,46.875000
5311,46.875000
5312,46.875000
5313,46.875000
5314,46.875000
5315,46.875000
5316,46.875000
5317,46.875000
5318,46.875000
5319,46.875000
5320,46.875000
5321,46.875000
5322,46.875000
5323,46.875000
5324,46.875000
5325,46.875000
5326,46.875000
5327,46.875000
5328,46.875000
5329,46.875000
5330,46.875000
5331,46.875000
5332,46.875000
5333,46.875000
5334,46.875000
5335,42.968750
5336,42.968750
5337,42.968750
5338,42.968750
5339,46.875000
5340,42.968750
5341,42.968750
5342,42.968750
5343,42.968750
5344,42.968750
5345,42.968750
5346,42.968750
5347,42.968750
5348,42.968750
5349,42.968750
5350,42.968750
5351,42.968750
5352,42.968750
5353,42.968750
5354,42.968750
5355,42.968750
5356,42.968750
5357,39.062500
5358,42.968750
5359,42.968750
5360,42.968750
5361,39.062500
5362,39.062500
5363,39.062500
5364,39.062500
5365,39.062500
5366,39.062500
5367,39.062500
5368,39.062500
5369,39.062500
5370,39.062500
5371,39.062500
5372,39.062500
5373,39.062500
5374,39.062500
5375,35.156250
5376,39.062500
5377,35.156250
5378,35.156250
5379,35.156250
5380,35.156250
5381,35.156250
5382,35.156250
5383,35.156250
5384,35.156250
5385,35.156250
5386,35.156250
5387,35.156250
5388,35.156250
5389,35.156250
5390,35.156250
5391,31.250000
5392,35.156250
5393,31.250000
5394,31.250000
5395,31.250000
5396,31.250000
5397,31.250000
5398,31.250000
5399,31.250000
5400,31.250000
5401,31.250000
5402,31.250000
5403,31.250000
5404,31.250000
5405,31.250000
5406,31.250000
5407,31.250000
5408,27.343750
5409,27.343750
5410,27.343750
5411,27.343750
5412,27.343750
5413,27.343750
5414,27.343750
5415,27.343750
5416,27.343750
5417,27.343750
5418,23.437500
5419,23.437500
5420,23.437500
5421,23.437500
5422,23.437500
5423,23.437500
5424,23.437500
5425,23.437500
5426,23.437500
5427,23.437500
5428,23.437500
5429,23.437500
5430,23.437500
5431,23.437500
5432,23.437500
5433,19.531250
5434,19.531250
5435,19.531250
5436,19.531250
5437,19.531250
5438,19.531250
5439,19.531250
5440,19.531250
5441,19.531250
5442,19.531250
5443,19.531250
5444,15.625000
5445,15.625000
5446,15.625000
5447,15.625000
5448,15.625000
5449,15.625000
5450,15.625000
5451,15.625000
5452,15.625000
5453,11.718750
5454,11.718750
5455,15.625000
5456,11.718750
5457,11.718750
5458,11.718750
5459,11.718750
5460,11.718750
5461,11.718750
5462,11.718750
5463,11.718750
5464,11.718750
5465,7.812500
5466,7.812500
5467,7.812500
5468,7.812500
5469,7.812500
5470,7.812500
5471,7.812500
5472,7.812500
5473,7.812500
5474,7.812500
5475,3.906250
5476,3.906250
5477,3.906250
5478,3.906250
5479,3.906250
5480,3.906250
5481,3.906250
5482,3.906250
5483,3.906250
5484,3.906250
5485,3.906250
5486,0.000000
5487,0.000000
5488,0.000000
5489,0.000000
5490,0.000000
5491,0.000000
5492,0.000000
5493,0.000000
5494,0.000000
5495,0.000000
5496,-3.906250
5497,-3.906250
5498,-3.906250
5499,-3.906250
5500,-3.906250
5501,-3.906250
5502,-3.906250
5503,-3.906250
5504,-3.906250
5505,-3.906250
5506,-7.812500
5507,-7.812500
5508,-7.812500
5509,-7.812500
5510,-7.812500
5511,-7.812500
5512,-7.812500
5513,-7.812500
5514,-7.812500
5515,-11.718750
5516,-11.718750
5517,-11.718750
5518,-11.718750
5519,-11.718750
5520,-11.718750
5521,-11.718750
5522,-11.718750
5523,-11.718750
5524,-11.718750
5525,-15.625000
5526,-15.625000
5527,-15.625000
5528,-15.625000
5529,-15.625000
5530,-15.625000
5531,-15.625000
5532,-15.625000
5533,-15.625000
5534,-19.531250
5535,-19.531250
5536,-19.531250
5537,-19.531250
5538,-19.531250
5539,-19.531250
5540,-19.531250
5541,-19.531250
5542,-19.531250
5543,-19.531250
5544,-19.531250
5545,-23.437500
5546,-23.437500
5547,-23.437500
5548,-23.437500
5549,-23.437500
5550,-23.437500
5551,-23.437500
5552,-23.437500
5553,-23.437500
5554,-27.343750
5555,-27.343750
5556,-27.343750
5557,-27.343750
5558,-27.343750
5559,-27.343750
5560,-27.343750
5561,-27.343750
5562,-31.250000
5563,-31.250000
5564,-31.250000
5565,-31.250000
5566,-31.250000
5567,-31.250000
5568,-31.250000
5569,-31.250000
5570,-31.250000
5571,-35.156250
5572,-35.156250
5573,-31.250000
5574,-35.156250
5575,-35.156250
5576,-35.156250
5577,-35.156250
5578,-35.156250
5579,-35.156250
5580,-35.156250
5581,-35.156250
5582,-35.156250
5583,-39.062500
5584,-39.062500
5585,-39.062500
5586,-39.062500
5587,-39.062500
5588,-39.062500
5589,-39.062500
5590,-39.062500
5591,-39.062500
5592,-39.062500
5593,-42.968750
5594,-39.062500
5595,-42.968750
5596,-42.968750
5597,-42.968750
5598,-42.968750
5599,-42.968750
5600,-42.968750
5601,-46.875000
5602,-42.968750
5603,-46.875000
5604,-42.968750
5605,-46.875000
5606,-46.875000
5607,-46.875000
5608,-46.875000
5609,-46.875000
5610,-46.875000
5611,-46.875000
5612,-46.875000
5613,-46.875000
5614,-46.875000
5615,-50.781250
5616,-50.781250
5617,-50.781250
5618,-50.781250
5619,-50.781250
5620,-50.781250
5621,-50.781250
5622,-50.781250
5623,-50.781250
5624,-50.781250
5625,-50.781250
5626,-54.687500
5627,-54.687500
5628,-54.687500
5629,-54.687500
5630,-54.687500
5631,-54.687500
5632,-54.687500
5633,-54.687500
5634,-54.687500
5635,-54.687500
5636,-54.687500
5637,-58.593750
5638,-58.593750
5639,-54.687500
5640,-58.593750
5641,-58.593750
5642,-58.593750
5643,-58.593750
5644,-58.593750
5645,-58.593750
5646,-58.593750
5647,-58.593750
5648,-58.593750
5649,-58.593750
5650,-62.500000
5651,-62.500000
5652,-62.500000
5653,-62.500000
5654,-62.500000
5655,-62.500000
5656,-62.500000
5657,-62.500000
5658,-62.500000
5659,-62.500000
5660,-62.500000
5661,-62.500000
5662,-62.500000
5663,-62.500000
5664,-66.406250
5665,-66.406250
5666,-66.406250
5667,-62.500000
5668,-66.406250
5669,-66.406250
5670,-66.406250
5671,-66.406250
5672,-66.406250
5673,-66.406250
5674,-66.406250
5675,-66.406250
5676,-66.406250
5677,-66.406250
5678,-70.312500
5679,-66.406250
5680,-70.312500
5681,-70.312500
5682,-70.312500
5683,-70.312500
5684,-70.312500
5685,-70.312500
5686,-70.312500
5687,-70.312500
5688,-70.312500
5689,-70.312500
5690,-70.312500
5691,-70.312500
5692,-70.312500
5693,-70.312500
5694,-70.312500
5695,-70.312500
5696,-70.312500
5697,-70.312500
5698,-70.312500
5699,-74.218750
5700,-74.218750
5701,-74.218750
5702,-74.218750
5703,-74.218750
5704,-74.218750
5705,-74.218750
5706,-74.218750
5707,-74.218750
5708,-74.218750
5709,-74.218750
5710,-74.218750
5711,-74.218750
5712,-74.218750
5713,-74.218750
5714,-74.218750
5715,-74.218750
5716,-74.218750
5717,-74.218750
5718,-74.218750
5719,-78.125000
5720,-74.218750
5721,-78.125000
5722,-78.125000
5723,-78.125000
5724,-78.125000
5725,-78.125000
5726,-78.125000
5727,-78.125000
5728,-78.125000
5729,-78.125000
5730,-78.125000
5731,-78.125000
5732,-78.125000
5733,-78.125000
5734,-78.125000
5735,-78.125000
5736,-78.125000
5737,-78.125000
5738,-78.125000
5739,-78.125000
5740,-78.125000
5741,-78.125000
5742,-78.125000
5743,-78.125000
5744,-78.125000
5745,-78.125000
5746,-78.125000
5747,-78.125000
5748,-78.125000
5749,-78.125000
5750,-78.125000
5751,-78.125000
5752,-78.125000
5753,-78.125000
5754,-78.125000
5755,-78.125000
5756,-78.125000
5757,-78.125000
5758,-78.125000
5759,-78.125000
5760,-78.125000
5761,-78.125000
5762,-78.125000
5763,-78.125000
5764,-78.125000
5765,-78.125000
5766,-78.125000
5767,-78.125000
5768,-78.125000
5769,-78.125000
5770,-78.125000
5771,-78.125000
5772,-78.125000
5773,-78.125000
5774,-78.125000
5775,-78.125000
5776,-78.125000
5777,-78.125000
5778,-78.125000
5779,-78.125000
5780,-78.125000
5781,-78.125000
5782,-78.125000
5783,-78.125000
5784,-78.125000
5785,-78.125000
5786,-78.125000
5787,-78.125000
5788,-78.125000
5789,-78.125000
5790,-78.125000
5791,-78.125000
5792,-78.125000
5793,-78.125000
5794,-78.125000
5795,-78.125000
5796,-78.125000
5797,-78.125000
5798,-78.125000
5799,-78.125000
5800,-78.125000
5801,-78.125000
5802,-78.125000
5803,-78.125000
5804,-78.125000
5805,-78.125000
5806,-78.125000
5807,-78.125000
5808,-78.125000
5809,-78.125000
5810,-78.125000
5811,-78.125000
5812,-78.125000
5813,-74.218750
5814,-78.125000
5815,-78.125000
5816,-78.125000
5817,-78.125000
5818,-78.125000
5819,-74.218750
5820,-74.218750
5821,-74.218750
5822,-74.218750
5823,-74.218750
5824,-74.218750
5825,-74.218750
5826,-74.218750
5827,-74.218750
5828,-74.218750
5829,-74.218750
5830,-74.218750
5831,-74.218750
5832,-74.218750
5833,-74.218750
5834,-74.218750
5835,-74.218750
5836,-74.218750
5837,-74.218750
5838,-74.218750
5839,-74.218750
5840,-74.218750
5841,-70.312500
5842,-70.312500
5843,-70.312500
5844,-70.312500
5845,-70.312500
5846,-70.312500
5847,-70.312500
5848,-70.312500
5849,-70.312500
5850,-70.312500
5851,-70.312500
5852,-70.312500
5853,-70.312500
5854,-70.312500
5855,-70.312500
5856,-66.406250
5857,-70.312500
5858,-66.406250
5859,-66.406250
5860,-70.312500
5861,-66.406250
5862,-66.406250
5863,-66.406250
5864,-66.406250
5865,-66.406250
5866,-66.406250
5867,-66.406250
5868,-66.406250
5869,-66.406250
5870,-66.406250
5871,-66.406250
5872,-66.406250
5873,-66.406250
5874,-66.406250
5875,-62.500000
5876,-62.500000
5877,-62.500000
5878,-62.500000
5879,-62.500000
5880,-62.500000
5881,-62.500000
5882,-62.500000
5883,-62.500000
5884,-58.593750
5885,-62.500000
5886,-62.500000
5887,-58.593750
5888,-58.593750
5889,-58.593750
5890,-58.593750
5891,-58.593750
5892,-58.593750
5893,-58.593750
5894,-58.593750
5895,-58.593750
5896,-58.593750
5897,-58.593750
5898,-58.593750
5899,-58.593750
5900,-54.687500
5901,-54.687500
5902,-54.687500
5903,-54.687500
5904,-54.687500
5905,-54.687500
5906,-54.687500
5907,-54.687500
5908,-54.687500
5909,-54.687500
5910,-54.687500
5911,-54.687500
5912,-50.781250
5913,-50.781250
5914,-50.781250
5915,-50.781250
5916,-50.781250
5917,-50.781250
5918,-50.781250
5919,-50.781250
5920,-50.781250
5921,-46.875000
5922,-46.875000
5923,-46.875000
5924,-46.875000
5925,-46.875000
5926,-46.875000
5927,-46.875000
5928,-46.875000
5929,-46.875000
5930,-46.875000
5931,-46.875000
5932,-46.875000
5933,-42.968750
5934,-42.968750
5935,-42.968750
5936,-42.968750
5937,-42.968750
5938,-42.968750
5939,-42.968750
5940,-42.968750
5941,-42.968750
5942,-39.062500
5943,-39.062500
5944,-39.062500
5945,-39.062500
5946,-39.062500
5947,-39.062500
5948,-39.062500
5949,-39.062500
5950,-39.062500
5951,-39.062500
5952,-39.062500
5953,-39.062500
5954,-35.156250
5955,-35.156250
5956,-35.156250
5957,-35.156250
5958,-35.156250
5959,-35.156250
5960,-35.156250
5961,-35.156250
5962,-35.156250
5963,-31.250000
5964,-31.250000
5965,-31.250000
5966,-31.250000
5967,-31.250000
5968,-31.250000
5969,-31.250000
5970,-31.250000
5971,-31.250000
5972,-27.343750
5973,-27.343750
5974,-27.343750
5975,-27.343750
5976,-27.343750
5977,-27.343750
5978,-27.343750
5979,-27.343750
5980,-23.437500
5981,-27.343750
5982,-23.437500
5983,-23.437500
5984,-23.437500
5985,-23.437500
5986,-23.437500
5987,-23.437500
5988,-23.437500
5989,-23.437500
5990,-19.531250
5991,-19.531250
5992,-19.531250
5993,-19.531250
5994,-19.531250
5995,-19.531250
5996,-19.531250
5997,-19.531250
5998,-19.531250
5999,-15.625000
6000,-15.625000
6001,-15.625000
6002,-15.625000
6003,-15.625000
6004,-15.625000
6005,-15.625000
6006,-15.625000
6007,-15.625000
6008,-11.718750
6009,-15.625000
6010,-11.718750
6011,-11.718750
6012,-11.718750
6013,-11.718750
6014,-11.718750
6015,-11.718750
6016,-11.718750
6017,-11.718750
6018,-11.718750
6019,-7.812500
6020,-7.812500
6021,-7.812500
6022,-7.812500
6023,-7.812500
6024,-7.812500
6025,-7.812500
6026,-7.812500
6027,-7.812500
6028,-7.812500
6029,-3.906250
6030,-3.906250
6031,-3.906250
6032,-3.906250
6033,-3.906250
6034,-3.906250
6035,-3.906250
6036,-3.906250
6037,-3.906250
6038,0.000000
6039,0.000000
6040,0.000000
6041,0.000000
6042,0.000000
6043,0.000000
6044,0.000000
6045,0.000000
6046,0.000000
6047,0.000000
6048,0.000000
6049,3.906250
6050,3.906250
6051,3.906250
6052,3.906250
6053,3.906250
6054,3.906250
6055,3.906250
6056,3.906250
6057,3.906250
6058,7.812500
6059,7.812500
6060,7.812500
6061,7.812500
6062,7.812500
6063,7.812500
6064,7.812500
6065,7.812500
6066,7.812500
6067,11.718750
6068,11.718750
6069,11.718750
6070,11.718750
6071,11.718750
6072,11.718750
6073,11.718750
6074,11.718750
6075,11.718750
6076,11.718750
6077,11.718750
6078,15.625000
6079,15.625000
6080,15.625000
6081,15.625000
6082,15.625000
6083,15.625000
6084,11.718750
6085,15.625000
6086,15.625000
6087,19.531250
6088,15.625000
6089,19.531250
6090,19.531250
6091,19.531250
6092,19.531250
6093,19.531250
6094,19.531250
6095,19.531250
6096,19.531250
6097,19.531250
6098,19.531250
6099,19.531250
6100,19.531250
6101,23.437500
6102,23.437500
6103,23.437500
6104,23.437500
6105,23.437500
6106,23.437500
6107,23.437500
6108,23.437500
6109,23.437500
6110,23.437500
6111,23.437500
6112,23.437500
6113,27.343750
6114,27.343750
6115,27.343750
6116,27.343750
6117,27.343750
6118,27.343750
6119,27.343750
6120,27.343750
6121,27.343750
6122,27.343750
6123,27.343750
6124,27.343750
6125,31.250000
6126,31.250000
6127,31.250000
6128,31.250000
6129,31.250000
6130,31.250000
6131,31.250000
6132,31.250000
6133,31.250000
6134,31.250000
6135,31.250000
6136,35.156250
6137,31.250000
6138,31.250000
6139,35.156250
6140,35.156250
6141,35.156250
6142,35.156250
6143,35.156250
6144,35.156250
6145,35.156250
6146,35.156250
6147,35.156250
6148,35.156250
6149,35.156250
6150,35.156250
6151,35.156250
6152,39.062500
6153,39.062500
6154,39.062500
6155,39.062500
6156,39.062500
6157,39.062500
6158,39.062500
6159,39.062500
6160,39.062500
6161,39.062500
6162,39.062500
6163,39.062500
6164,39.062500
6165,39.062500
6166,39.062500
6167,39.062500
6168,39.062500
6169,42.968750
6170,42.968750
6171,42.968750
6172,42.968750
6173,42.968750
6174,42.968750
6175,42.968750
6176,42.968750
6177,42.968750
6178,42.968750
6179,42.968750
6180,42.968750
6181,42.968750
6182,42.968750
6183,42.968750
6184,42.968750
6185,42.968750
6186,42.968750
6187,42.968750
6188,46.875000
6189,46.875000
6190,46.875000
6191,42.968750
6192,46.875000
6193,46.875000
6194,46.875000
6195,46.875000
6196,46.875000
6197,46.875000
6198,46.875000
6199,46.875000
6200,46.875000
6201,46.875000
6202,46.875000
6203,46.875000
6204,46.875000
6205,46.875000
6206,46.875000
6207,46.875000
6208,46.875000
6209,46.875000
6210,46.875000
6211,46.875000
6212,46.875000
6213,46.875000
6214,46.875000
6215,46.875000
6216,46.875000
6217,46.875000
6218,46.875000
6219,46.875000
6220,46.875000
6221,50.781250
6222,50.781250
6223,46.875000
6224,50.781250
6225,50.781250
6226,46.875000
6227,46.875000
6228,46.875000
6229,46.875000
6230,46.875000
6231,50.781250
6232,50.781250
6233,50.781250
6234,50.781250
6235,50.781250
6236,50.781250
6237,50.781250
6238,50.781250
6239,50.781250
6240,50.781250
6241,50.781250
6242,50.781250
6243,50.781250
6244,50.781250
6245,50.781250
6246,50.781250
6247,50.781250
6248,50.781250
6249,50.781250
6250,50.781250
6251,50.781250
6252,50.781250
6253,50.781250
6254,50.781250
6255,50.781250
6256,50.781250
6257,50.781250
6258,50.781250
6259,50.781250
6260,50.781250
6261,50.781250
6262,50.781250
6263,50.781250
6264,50.781250
6265,50.781250
6266,50.781250
6267,50.781250
6268,50.781250
6269,50.781250
6270,50.781250
6271,50.781250
6272,50.781250
6273,50.781250
6274,50.781250
6275,50.781250
6276,50.781250
6277,50.781250
6278,50.781250
6279,50.781250
6280,50.781250
6281,50.781250
6282,50.781250
6283,50.781250
6284,50.781250
6285,50.781250
6286,46.875000
6287,50.781250
6288,50.781250
6289,50.781250
6290,50.781250
6291,50.781250
6292,50.781250
6293,50.781250
6294,50.781250
6295,46.875000
6296,50.781250
6297,46.875000
6298,50.781250
6299,46.875000
6300,46.875000
6301,46.875000
6302,46.875000
6303,46.875000
6304,46.875000
6305,46.875000
6306,46.875000
6307,46.875000
6308,46.875000
6309,46.875000
6310,46.875000
6311,46.875000
6312,46.875000
6313,46.875000
6314,46.875000
6315,46.875000
6316,46.875000
6317,46.875000
6318,46.875000
6319,42.968750
6320,46.875000
6321,46.875000
6322,46.875000
6323,46.875000
6324,46.875000
6325,42.968750
6326,46.875000
6327,42.968750
6328,46.875000
6329,42.968750
6330,46.875000
6331,42.968750
6332,42.968750
6333,42.968750
6334,42.968750
6335,42.968750
6336,42.968750
6337,42.968750
6338,42.968750
6339,42.968750
6340,42.968750
6341,42.968750
6342,42.968750
6343,42.968750
6344,42.968750
6345,42.968750
6346,42.968750
6347,39.062500
6348,42.968750
6349,39.062500
6350,39.062500
6351,39.062500
6352,39.062500
6353,39.062500
6354,39.062500
6355,39.062500
6356,39.062500
6357,39.062500
6358,39.062500
6359,39.062500
6360,39.062500
6361,39.062500
6362,39.062500
6363,39.062500
6364,39.062500
6365,39.062500
6366,39.062500
6367,35.156250
6368,35.156250
6369,35.156250
6370,35.156250
6371,35.156250
6372,35.156250
6373,35.156250
6374,35.156250
6375,35.156250
6376,35.156250
6377,35.156250
6378,35.156250
6379,35.156250
6380,35.156250
6381,35.156250
6382,35.156250
6383,31.250000
6384,31.250000
6385,31.250000
6386,31.250000
6387,31.250000
6388,31.250000
6389,31.250000
6390,31.250000
6391,31.250000
6392,31.250000
6393,31.250000
6394,31.250000
6395,31.250000
6396,31.250000
6397,31.250000
6398,31.250000
6399,27.343750
6400,27.343750
6401,27.343750
6402,27.343750
6403,27.343750
6404,27.343750
6405,27.343750
6406,27.343750
6407,27.343750
6408,27.343750
6409,27.343750
6410,23.437500
6411,23.437500
6412,23.437500
6413,23.437500
6414,23.437500
6415,27.343750
6416,23.437500
6417,23.437500
6418,23.437500
6419,23.437500
6420,23.437500
6421,23.437500
6422,23.437500
6423,23.437500
6424,19.531250
6425,19.531250
6426,19.531250
6427,19.531250
6428,19.531250
6429,19.531250
6430,19.531250
6431,19.531250
6432,19.531250
6433,19.531250
6434,15.625000
6435,15.625000
6436,15.625000
6437,15.625000
6438,15.625000
6439,15.625000
6440,15.625000
6441,15.625000
6442,15.625000
6443,15.625000
6444,11.718750
6445,15.625000
6446,11.718750
6447,11.718750
6448,11.718750
6449,11.718750
6450,11.718750
6451,11.718750
6452,11.718750
6453,11.718750
6454,7.812500
6455,11.718750
6456,7.812500
6457,11.718750
6458,7.812500
6459,7.812500
6460,7.812500
6461,7.812500
6462,7.812500
6463,7.812500
6464,7.812500
6465,7.812500
6466,7.812500
6467,3.906250
6468,3.906250
6469,3.906250
6470,3.906250
6471,3.906250
6472,3.906250
6473,3.906250
6474,3.906250
6475,0.000000
6476,0.000000
6477,0.000000
6478,0.000000
6479,0.000000
6480,0.000000
6481,0.000000
6482,0.000000
6483,0.000000
6484,0.000000
6485,0.000000
6486,-3.906250
6487,-3.906250
6488,-3.906250
6489,-3.906250
6490,-3.906250
6491,-3.906250
6492,-3.906250
6493,-3.906250
6494,-3.906250
6495,-7.812500
6496,-7.812500
6497,-7.812500
6498,-7.812500
6499,-7.812500
6500,-7.812500
6501,-7.812500
6502,-7.812500
6503,-7.812500
6504,-7.812500
6505,-7.812500
6506,-7.812500
6507,-7.812500
6508,-11.718750
6509,-11.718750
6510,-11.718750
6511,-11.718750
6512,-11.718750
6513,-15.625000
6514,-11.718750
6515,-11.718750
6516,-15.625000
6517,-15.625000
6518,-15.625000
6519,-15.625000
6520,-15.625000
6521,-15.625000
6522,-15.625000
6523,-15.625000
6524,-15.625000
6525,-15.625000
6526,-19.531250
6527,-19.531250
6528,-19.531250
6529,-19.531250
6530,-19.531250
6531,-19.531250
6532,-19.531250
6533,-19.531250
6534,-19.531250
6535,-19.531250
6536,-23.437500
6537,-23.437500
6538,-23.437500
6539,-23.437500
6540,-23.437500
6541,-23.437500
6542,-23.437500
6543,-23.437500
6544,-23.437500
6545,-27.343750
6546,-27.343750
6547,-27.343750
6548,-27.343750
6549,-27.343750
6550,-27.343750
6551,-27.343750
6552,-27.343750
6553,-27.343750
6554,-31.250000
6555,-31.250000
6556,-31.250000
6557,-31.250000
6558,-31.250000
6559,-31.250000
6560,-31.250000
6561,-31.250000
6562,-31.250000
6563,-31.250000
6564,-35.156250
6565,-35.156250
6566,-35.156250
6567,-35.156250
6568,-35.156250
6569,-35.156250
6570,-35.156250
6571,-35.156250
6572,-35.156250
6573,-35.156250
6574,-35.156250
6575,-39.062500
6576,-39.062500
6577,-39.062500
6578,-39.062500
6579,-39.062500
6580,-39.062500
6581,-39.062500
6582,-39.062500
6583,-39.062500
6584,-39.062500
6585,-39.062500
6586,-42.968750
6587,-42.968750
6588,-42.968750
6589,-42.968750
6590,-42.968750
6591,-42.968750
6592,-42.968750
6593,-42.968750
6594,-42.968750
6595,-46.875000
6596,-46.875000
6597,-46.875000
6598,-46.875000
6599,-46.875000
6600,-46.875000
6601,-46.875000
6602,-46.875000
6603,-46.875000
6604,-50.781250
6605,-50.781250
6606,-50.781250
6607,-50.781250
6608,-50.781250
6609,-50.781250
6610,-50.781250
6611,-50.781250
6612,-50.781250
6613,-50.781250
6614,-50.781250
6615,-54.687500
6616,-54.687500
6617,-54.687500
6618,-54.687500
6619,-54.687500
6620,-54.687500
6621,-54.687500
6622,-54.687500
6623,-54.687500
6624,-54.687500
6625,-54.687500
6626,-54.687500
6627,-54.687500
6628,-54.687500
6629,-58.593750
6630,-58.593750
6631,-58.593750
6632,-58.593750
6633,-58.593750
6634,-58.593750
6635,-58.593750
6636,-58.593750
6637,-58.593750
6638,-58.593750
6639,-62.500000
6640,-58.593750
6641,-62.500000
6642,-62.500000
6643,-62.500000
6644,-62.500000
6645,-62.500000
6646,-62.500000
6647,-62.500000
6648,-62.500000
6649,-62.500000
6650,-62.500000
6651,-62.500000
6652,-62.500000
6653,-66.406250
6654,-62.500000
6655,-66.406250
6656,-66.406250
6657,-66.406250
6658,-66.406250
6659,-66.406250
6660,-66.406250
6661,-66.406250
6662,-66.406250
6663,-66.406250
6664,-66.406250
6665,-66.406250
6666,-66.406250
6667,-66.406250
6668,-66.406250
6669,-70.312500
6670,-70.312500
6671,-70.312500
6672,-70.312500
6673,-70.312500
6674,-70.312500
6675,-70.312500
6676,-70.312500
6677,-70.312500
6678,-70.312500
6679,-70.312500
6680,-70.312500
6681,-70.312500
6682,-70.312500
6683,-70.312500
6684,-70.312500
6685,-70.312500
6686,-74.218750
6687,-70.312500
6688,-74.218750
6689,-74.218750
6690,-74.218750
6691,-74.218750
6692,-74.218750
6693,-74.218750
6694,-74.218750
6695,-74.218750
6696,-74.218750
6697,-74.218750
6698,-74.218750
6699,-74.218750
6700,-74.218750
6701,-74.218750
6702,-74.218750
6703,-74.218750
6704,-74.218750
6705,-74.218750
6706,-74.218750
6707,-78.125000
6708,-78.125000
6709,-78.125000
6710,-78.125000
6711,-78.125000
6712,-78.125000
6713,-78.125000
6714,-78.125000
6715,-78.125000
6716,-78.125000
6717,-78.125000
6718,-78.125000
6719,-78.125000
6720,-78.125000
6721,-78.125000
6722,-78.125000
6723,-78.125000
6724,-78.125000
6725,-78.125000
6726,-78.125000
6727,-78.125000
6728,-78.125000
6729,-78.125000
6730,-78.125000
6731,-78.125000
6732,-78.125000
6733,-78.125000
6734,-78.125000
6735,-78.125000
6736,-78.125000
6737,-78.125000
6738,-78.125000
6739,-78.125000
6740,-78.125000
6741,-78.125000
6742,-78.125000
6743,-78.125000
6744,-78.125000
6745,-78.125000
6746,-78.125000
6747,-78.125000
6748,-78.125000
6749,-78.125000
6750,-82.031250
6751,-78.125000
6752,-78.125000
6753,-78.125000
6754,-78.125000
6755,-78.125000
6756,-78.125000
6757,-82.031250
6758,-78.125000
6759,-78.125000
6760,-78.125000
6761,-78.125000
6762,-78.125000
6763,-82.031250
6764,-78.125000
6765,-82.031250
6766,-78.125000
6767,-78.125000
6768,-78.125000
6769,-78.125000
6770,-78.125000
6771,-78.125000
6772,-78.125000
6773,-78.125000
6774,-78.125000
6775,-78.125000
6776,-78.125000
6777,-78.125000
6778,-78.125000
6779,-78.125000
6780,-78.125000
6781,-78.125000
6782,-78.125000
6783,-78.125000
6784,-78.125000
6785,-78.125000
6786,-78.125000
6787,-78.125000
6788,-78.125000
6789,-78.125000
6790,-78.125000
6791,-78.125000
6792,-78.125000
6793,-78.125000
6794,-78.125000
6795,-78.125000
6796,-78.125000
6797,-78.125000
6798,-78.125000
6799,-78.125000
6800,-78.125000
6801,-78.125000
6802,-78.125000
6803,-78.125000
6804,-78.125000
6805,-78.125000
6806,-74.218750
6807,-74.218750
6808,-74.218750
6809,-74.218750
6810,-74.218750
6811,-74.218750
6812,-74.218750
6813,-74.218750
6814,-74.218750
6815,-74.218750
6816,-74.218750
6817,-74.218750
6818,-74.218750
6819,-74.218750
6820,-74.218750
6821,-74.218750
6822,-74.218750
6823,-74.218750
6824,-74.218750
6825,-74.218750
6826,-74.218750
6827,-74.218750
6828,-74.218750
6829,-74.218750
6830,-74.218750
6831,-70.312500
6832,-70.312500
6833,-70.312500
6834,-70.312500
6835,-70.312500
6836,-70.312500
6837,-70.312500
6838,-70.312500
6839,-70.312500
6840,-70.312500
6841,-70.312500
6842,-70.312500
6843,-70.312500
6844,-70.312500
6845,-70.312500
6846,-70.312500
6847,-70.312500
6848,-66.406250
6849,-66.406250
6850,-66.406250
6851,-66.406250
6852,-66.406250
6853,-70.312500
6854,-66.406250
6855,-66.406250
6856,-66.406250
6857,-66.406250
6858,-66.406250
6859,-66.406250
6860,-66.406250
6861,-66.406250
6862,-66.406250
6863,-66.406250
6864,-66.406250
6865,-62.500000
6866,-62.500000
6867,-62.500000
6868,-62.500000
6869,-62.500000
6870,-62.500000
6871,-62.500000
6872,-62.500000
6873,-62.500000
6874,-62.500000
6875,-62.500000
6876,-58.593750
6877,-62.500000
6878,-58.593750
6879,-58.593750
6880,-58.593750
6881,-58.593750
6882,-58.593750
6883,-58.593750
6884,-58.593750
6885,-58.593750
6886,-58.593750
6887,-58.593750
6888,-58.593750
6889,-58.593750
6890,-54.687500
6891,-54.687500
6892,-54.687500
6893,-54.687500
6894,-54.687500
6895,-54.687500
6896,-54.687500
6897,-54.687500
6898,-54.687500
6899,-54.687500
6900,-54.687500
6901,-54.687500
6902,-54.687500
6903,-50.781250
6904,-50.781250
6905,-50.781250
6906,-50.781250
6907,-50.781250
6908,-50.781250
6909,-50.781250
6910,-50.781250
6911,-50.781250
6912,-46.875000
6913,-46.875000
6914,-46.875000
6915,-46.875000
6916,-46.875000
6917,-46.875000
6918,-46.875000
6919,-46.875000
6920,-46.875000
6921,-46.875000
6922,-46.875000
6923,-42.968750
6924,-42.968750
6925,-46.875000
6926,-42.968750
6927,-42.968750
6928,-42.968750
6929,-42.968750
6930,-42.968750
6931,-42.968750
6932,-42.968750
6933,-42.968750
6934,-39.062500
6935,-39.062500
6936,-39.062500
6937,-39.062500
6938,-39.062500
6939,-39.062500
6940,-39.062500
6941,-39.062500
6942,-39.062500
6943,-35.156250
6944,-35.156250
6945,-35.156250
6946,-35.156250
6947,-35.156250
6948,-35.156250
6949,-35.156250
6950,-35.156250
6951,-35.156250
6952,-35.156250
6953,-31.250000
6954,-31.250000
6955,-31.250000
6956,-31.250000
6957,-31.250000
6958,-31.250000
6959,-31.250000
6960,-31.250000
6961,-31.250000
6962,-31.250000
6963,-27.343750
6964,-27.343750
6965,-27.343750
6966,-27.343750
6967,-27.343750
6968,-27.343750
6969,-27.343750
6970,-27.343750
6971,-27.343750
6972,-23.437500
6973,-23.437500
6974,-23.437500
6975,-23.437500
6976,-23.437500
6977,-23.437500
6978,-23.437500
6979,-23.437500
6980,-19.531250
6981,-19.531250
6982,-19.531250
6983,-19.531250
6984,-19.531250
6985,-19.531250
6986,-19.531250
6987,-19.531250
6988,-19.531250
6989,-19.531250
6990,-15.625000
6991,-19.531250
6992,-15.625000
6993,-15.625000
6994,-15.625000
6995,-15.625000
6996,-15.625000
6997,-15.625000
6998,-15.625000
6999,-11.718750
7000,-11.718750
7001,-11.718750
7002,-11.718750
7003,-11.718750
7004,-11.718750
7005,-11.718750
7006,-11.718750
7007,-11.718750
7008,-7.812500
7009,-7.812500
7010,-7.812500
7011,-7.812500
7012,-7.812500
7013,-7.812500
7014,-7.812500
7015,-7.812500
7016,-7.812500
7017,-7.812500
7018,-3.906250
7019,-3.906250
7020,-3.906250
7021,-3.906250
7022,-3.906250
7023,-3.906250
7024,-3.906250
7025,-3.906250
7026,-3.906250
7027,-3.906250
7028,-3.906250
7029,0.000000
7030,0.000000
7031,0.000000
7032,0.000000
7033,0.000000
7034,0.000000
7035,0.000000
7036,3.906250
7037,3.906250
7038,3.906250
7039,3.906250
7040,3.906250
7041,3.906250
7042,3.906250
7043,3.906250
7044,3.906250
7045,3.906250
7046,3.906250
7047,7.812500
7048,7.812500
7049,7.812500
7050,7.812500
7051,7.812500
7052,7.812500
7053,7.812500
7054,7.812500
7055,7.812500
7056,7.812500
7057,11.718750
7058,11.718750
7059,11.718750
7060,11.718750
7061,11.718750
7062,11.718750
7063,11.718750
7064,11.718750
7065,15.625000
7066,11.718750
7067,15.625000
7068,15.625000
7069,15.625000
7070,15.625000
7071,15.625000
7072,15.625000
7073,15.625000
7074,15.625000
7075,15.625000
7076,15.625000
7077,15.625000
7078,19.531250
7079,19.531250
7080,19.531250
7081,19.531250
7082,19.531250
7083,19.531250
7084,19.531250
7085,19.531250
7086,19.531250
7087,19.531250
7088,19.531250
7089,19.531250
7090,19.531250
7091,23.437500
7092,23.437500
7093,23.437500
7094,23.437500
7095,23.437500
7096,23.437500
7097,23.437500
7098,23.437500
7099,23.437500
7100,27.343750
7101,23.437500
7102,27.343750
7103,27.343750
7104,27.343750
7105,27.343750
7106,27.343750
7107,27.343750
7108,27.343750
7109,27.343750
7110,27.343750
7111,27.343750
7112,27.343750
7113,31.250000
7114,27.343750
7115,31.250000
7116,31.250000
7117,31.250000
7118,31.250000
7119,31.250000
7120,31.250000
7121,31.250000
7122,31.250000
7123,31.250000
7124,31.250000
7125,31.250000
7126,31.250000
7127,31.250000
7128,31.250000
7129,35.156250
7130,35.156250
7131,35.156250
7132,35.156250
7133,35.156250
7134,35.156250
7135,35.156250
7136,35.156250
7137,35.156250
7138,35.156250
7139,35.156250
7140,35.156250
7141,35.156250
7142,35.156250
7143,39.062500
7144,39.062500
7145,39.062500
7146,39.062500
7147,39.062500
7148,39.062500
7149,39.062500
7150,39.062500
7151,39.062500
7152,39.062500
7153,39.062500
7154,39.062500
7155,39.062500
7156,39.062500
7157,39.062500
7158,42.968750
7159,39.062500
7160,42.968750
7161,42.968750
7162,42.968750
7163,39.062500
7164,42.968750
7165,42.968750
7166,42.968750
7167,42.968750
7168,42.968750
7169,42.968750
7170,42.968750
7171,42.968750
7172,42.968750
7173,42.968750
7174,46.875000
7175,42.968750
7176,42.968750
7177,42.968750
7178,42.968750
7179,42.968750
7180,42.968750
7181,46.875000
7182,46.875000
7183,46.875000
7184,46.875000
7185,46.875000
7186,46.875000
7187,46.875000
7188,46.875000
7189,46.875000
7190,46.875000
7191,46.875000
7192,46.875000
7193,46.875000
7194,46.875000
7195,46.875000
7196,46.875000
7197,46.875000
7198,46.875000
7199,46.875000
7200,46.875000
7201,46.875000
7202,46.875000
7203,46.875000
7204,46.875000
7205,46.875000
7206,46.875000
7207,46.875000
7208,46.875000
7209,46.875000
7210,50.781250
7211,46.875000
7212,46.875000
7213,50.781250
7214,46.875000
7215,46.875000
7216,50.781250
7217,50.781250
7218,50.781250
7219,50.781250
7220,50.781250
7221,50.781250
7222,50.781250
7223,46.875000
7224,50.781250
7225,50.781250
7226,50.781250
7227,50.781250
7228,50.781250
7229,50.781250
7230,50.781250
7231,50.781250
7232,50.781250
7233,50.781250
7234,50.781250
7235,50.781250
7236,50.781250
7237,50.781250
7238,50.781250
7239,50.781250
7240,50.781250
7241,46.875000
7242,50.781250
7243,50.781250
7244,50.781250
7245,50.781250
7246,50.781250
7247,50.781250
7248,50.781250
7249,50.781250
7250,50.781250
7251,50.781250
7252,50.781250
7253,50.781250
7254,50.781250
7255,50.781250
7256,50.781250
7257,50.781250
7258,50.781250
7259,50.781250
7260,50.781250
7261,50.781250
7262,50.781250
7263,50.781250
7264,50.781250
7265,50.781250
7266,50.781250
7267,50.781250
7268,50.781250
7269,50.781250
7270,50.781250
7271,50.781250
7272,50.781250
7273,50.781250
7274,50.781250
7275,50.781250
7276,50.781250
7277,50.781250
7278,50.781250
7279,50.781250
7280,50.781250
7281,46.875000
7282,50.781250
7283,50.781250
7284,50.781250
7285,50.781250
7286,46.875000
7287,46.875000
7288,46.875000
7289,46.875000
7290,46.875000
7291,46.875000
7292,50.781250
7293,46.875000
7294,46.875000
7295,46.875000
7296,46.875000
7297,46.875000
7298,46.875000
7299,46.875000
7300,46.875000
7301,46.875000
7302,46.875000
7303,46.875000
7304,46.875000
7305,46.875000
7306,46.875000
7307,46.875000
7308,46.875000
7309,46.875000
7310,46.875000
7311,46.875000
7312,46.875000
7313,46.875000
7314,46.875000
7315,46.875000
7316,46.875000
7317,42.968750
7318,46.875000
7319,42.968750
7320,42.968750
7321,42.968750
7322,42.968750
7323,42.968750
7324,42.968750
7325,42.968750
7326,42.968750
7327,42.968750
7328,42.968750
7329,42.968750
7330,42.968750
7331,42.968750
7332,42.968750
7333,42.968750
7334,42.968750
7335,42.968750
7336,42.968750
7337,42.968750
7338,42.968750
7339,42.968750
7340,42.968750
7341,42.968750
7342,39.062500
7343,39.062500
7344,39.062500
7345,39.062500
7346,39.062500
7347,39.062500
7348,39.062500
7349,39.062500
7350,39.062500
7351,39.062500
7352,39.062500
7353,39.062500
7354,39.062500
7355,39.062500
7356,39.062500
7357,35.156250
7358,39.062500
7359,35.156250
7360,35.156250
7361,35.156250
7362,35.156250
7363,35.156250
7364,35.156250
7365,35.156250
7366,35.156250
7367,35.156250
7368,35.156250
7369,35.156250
7370,35.156250
7371,35.156250
7372,31.250000
7373,31.250000
7374,31.250000
7375,31.250000
7376,31.250000
7377,31.250000
7378,31.250000
7379,31.250000
7380,31.250000
7381,31.250000
7382,31.250000
7383,31.250000
7384,31.250000
7385,27.343750
7386,31.250000
7387,27.343750
7388,27.343750
7389,27.343750
7390,27.343750
7391,27.343750
7392,27.343750
7393,27.343750
7394,27.343750
7395,27.343750
7396,27.343750
7397,27.343750
7398,23.437500
7399,23.437500
7400,23.437500
7401,23.437500
7402,23.437500
7403,23.437500
7404,23.437500
7405,23.437500
7406,23.437500
7407,23.437500
7408,23.437500
7409,23.437500
7410,19.531250
7411,23.437500
7412,23.437500
7413,19.531250
7414,19.531250
7415,19.531250
7416,19.531250
7417,19.531250
7418,19.531250
7419,19.531250
7420,19.531250
7421,19.531250
7422,15.625000
7423,15.625000
7424,15.625000
7425,15.625000
7426,15.625000
7427,15.625000
7428,15.625000
7429,15.625000
7430,15.625000
7431,15.625000
7432,15.625000
7433,15.625000
7434,11.718750
7435,15.625000
7436,11.718750
7437,11.718750
7438,11.718750
7439,11.718750
7440,11.718750
7441,11.718750
7442,11.718750
7443,11.718750
7444,11.718750
7445,11.718750
7446,11.718750
7447,7.812500
7448,7.812500
7449,7.812500
7450,7.812500
7451,7.812500
7452,7.812500
7453,7.812500
7454,7.812500
7455,7.812500
7456,3.906250
7457,3.906250
7458,3.906250
7459,3.906250
7460,3.906250
7461,3.906250
7462,3.906250
7463,3.906250
7464,3.906250
7465,3.906250
7466,0.000000
7467,0.000000
7468,0.000000
7469,0.000000
7470,0.000000
7471,0.000000
7472,0.000000
7473,0.000000
7474,0.000000
7475,-3.906250
7476,-3.906250
7477,-3.906250
7478,-3.906250
7479,-3.906250
7480,-3.906250
7481,-3.906250
7482,-3.906250
7483,-3.906250
7484,-3.906250
7485,-7.812500
7486,-7.812500
7487,-7.812500
7488,-7.812500
7489,-7.812500
7490,-7.812500
7491,-7.812500
7492,-7.812500
7493,-7.812500
7494,-7.812500
7495,-11.718750
7496,-11.718750
7497,-11.718750
7498,-11.718750
7499,-11.718750
7500,-11.718750
7501,-11.718750
7502,-11.718750
7503,-11.718750
7504,-11.718750
7505,-15.625000
7506,-15.625000
7507,-15.625000
7508,-15.625000
7509,-15.625000
7510,-15.625000
7511,-15.625000
7512,-15.625000
7513,-15.625000
7514,-19.531250
7515,-19.531250
7516,-19.531250
7517,-19.531250
7518,-19.531250
7519,-19.531250
7520,-19.531250
7521,-19.531250
7522,-19.531250
7523,-23.437500
7524,-23.437500
7525,-23.437500
7526,-23.437500
7527,-23.437500
7528,-23.437500
7529,-23.437500
7530,-23.437500
7531,-23.437500
7532,-23.437500
7533,-27.343750
7534,-27.343750
7535,-27.343750
7536,-27.343750
7537,-27.343750
7538,-27.343750
7539,-27.343750
7540,-27.343750
7541,-27.343750
7542,-27.343750
7543,-31.250000
7544,-31.250000
7545,-31.250000
7546,-31.250000
7547,-31.250000
7548,-31.250000
7549,-31.250000
7550,-31.250000
7551,-31.250000
7552,-31.250000
7553,-35.156250
7554,-35.156250
7555,-35.156250
7556,-35.156250
7557,-35.156250
7558,-35.156250
7559,-35.156250
7560,-35.156250
7561,-39.062500
7562,-35.156250
7563,-39.062500
7564,-39.062500
7565,-35.156250
7566,-39.062500
7567,-39.062500
7568,-39.062500
7569,-39.062500
7570,-39.062500
7571,-39.062500
7572,-39.062500
7573,-42.968750
7574,-42.968750
7575,-42.968750
7576,-42.968750
7577,-42.968750
7578,-42.968750
7579,-42.968750
7580,-42.968750
7581,-42.968750
7582,-42.968750
7583,-46.875000
7584,-42.968750
7585,-46.875000
7586,-46.875000
7587,-46.875000
7588,-46.875000
7589,-46.875000
7590,-46.875000
7591,-46.875000
7592,-46.875000
7593,-46.875000
7594,-46.875000
7595,-50.781250
7596,-50.781250
7597,-50.781250
7598,-50.781250
7599,-50.781250
7600,-50.781250
7601,-50.781250
7602,-50.781250
7603,-50.781250
7604,-50.781250
7605,-50.781250
7606,-50.781250
7607,-54.687500
7608,-54.687500
7609,-54.687500
7610,-54.687500
7611,-54.687500
7612,-54.687500
7613,-54.687500
7614,-54.687500
7615,-54.687500
7616,-54.687500
7617,-54.687500
7618,-54.687500
7619,-58.593750
7620,-58.593750
7621,-58.593750
7622,-58.593750
7623,-58.593750
7624,-58.593750
7625,-58.593750
7626,-58.593750
7627,-58.593750
7628,-58.593750
7629,-62.500000
7630,-58.593750
7631,-62.500000
7632,-62.500000
7633,-62.500000
7634,-62.500000
7635,-62.500000
7636,-62.500000
7637,-62.500000
7638,-62.500000
7639,-62.500000
7640,-62.500000
7641,-62.500000
7642,-62.500000
7643,-62.500000
7644,-66.406250
7645,-66.406250
7646,-66.406250
7647,-66.406250
7648,-66.406250
7649,-66.406250
7650,-66.406250
7651,-66.406250
7652,-66.406250
7653,-66.406250
7654,-66.406250
7655,-66.406250
7656,-66.406250
7657,-66.406250
7658,-66.406250
7659,-66.406250
7660,-70.312500
7661,-70.312500
7662,-70.312500
7663,-70.312500
7664,-70.312500
7665,-70.312500
7666,-70.312500
7667,-70.312500
7668,-70.312500
7669,-70.312500
7670,-70.312500
7671,-70.312500
7672,-70.312500
7673,-70.312500
7674,-70.312500
7675,-70.312500
7676,-70.312500
7677,-70.312500
7678,-74.218750
7679,-74.218750
7680,-74.218750
7681,-74.218750
7682,-74.218750
7683,-74.218750
7684,-74.218750
7685,-74.218750
7686,-74.218750
7687,-74.218750
7688,-74.218750
7689,-74.218750
7690,-74.218750
7691,-74.218750
7692,-74.218750
7693,-74.218750
7694,-74.218750
7695,-74.218750
7696,-74.218750
7697,-78.125000
7698,-74.218750
7699,-74.218750
7700,-74.218750
7701,-74.218750
7702,-74.218750
7703,-78.125000
7704,-78.125000
7705,-78.125000
7706,-78.125000
7707,-78.125000
7708,-78.125000
7709,-78.125000
7710,-78.125000
7711,-78.125000
7712,-78.125000
7713,-78.125000
7714,-78.125000
7715,-78.125000
7716,-78.125000
7717,-78.125000
7718,-78.125000
7719,-78.125000
7720,-78.125000
7721,-78.125000
7722,-78.125000
7723,-78.125000
7724,-78.125000
7725,-78.125000
7726,-78.125000
7727,-78.125000
7728,-78.125000
7729,-78.125000
7730,-78.125000
7731,-78.125000
7732,-78.125000
7733,-78.125000
7734,-78.125000
7735,-78.125000
7736,-78.125000
7737,-78.125000
7738,-78.125000
7739,-78.125000
7740,-78.125000
7741,-78.125000
7742,-78.125000
7743,-78.125000
7744,-78.125000
7745,-78.125000
7746,-78.125000
7747,-78.125000
7748,-78.125000
7749,-78.125000
7750,-78.125000
7751,-78.125000
7752,-78.125000
7753,-78.125000
7754,-78.125000
7755,-78.125000
7756,-78.125000
7757,-78.125000
7758,-78.125000
7759,-78.125000
7760,-78.125000
7761,-78.125000
7762,-78.125000
7763,-78.125000
7764,-78.125000
7765,-78.125000
7766,-78.125000
7767,-78.125000
7768,-78.125000
7769,-78.125000
7770,-78.125000
7771,-78.125000
7772,-78.125000
7773,-78.125000
7774,-78.125000
7775,-78.125000
7776,-78.125000
7777,-78.125000
7778,-78.125000
7779,-78.125000
7780,-78.125000
7781,-78.125000
7782,-78.125000
7783,-78.125000
7784,-78.125000
7785,-78.125000
7786,-78.125000
7787,-78.125000
7788,-78.125000
7789,-78.125000
7790,-78.125000
7791,-78.125000
7792,-78.125000
7793,-78.125000
7794,-74.218750
7795,-78.125000
7796,-74.218750
7797,-78.125000
7798,-74.218750
7799,-78.125000
7800,-78.125000
7801,-74.218750
7802,-74.218750
7803,-74.218750
7804,-74.218750
7805,-74.218750
7806,-74.218750
7807,-74.218750
7808,-74.218750
7809,-74.218750
7810,-74.218750
7811,-74.218750
7812,-74.218750
7813,-74.218750
7814,-74.218750
7815,-74.218750
7816,-74.218750
7817,-74.218750
7818,-74.218750
7819,-74.218750
7820,-70.312500
7821,-70.312500
7822,-70.312500
7823,-70.312500
7824,-70.312500
7825,-70.312500
7826,-70.312500
7827,-70.312500
7828,-70.312500
7829,-70.312500
7830,-70.312500
7831,-70.312500
7832,-70.312500
7833,-70.312500
7834,-70.312500
7835,-70.312500
7836,-70.312500
7837,-70.312500
7838,-70.312500
7839,-66.406250
7840,-66.406250
7841,-66.406250
7842,-66.406250
7843,-66.406250
7844,-66.406250
7845,-66.406250
7846,-66.406250
7847,-66.406250
7848,-66.406250
7849,-66.406250
7850,-66.406250
7851,-66.406250
7852,-66.406250
7853,-66.406250
7854,-62.500000
7855,-62.500000
7856,-62.500000
7857,-66.406250
7858,-62.500000
7859,-62.500000
7860,-62.500000
7861,-62.500000
7862,-62.500000
7863,-62.500000
7864,-62.500000
7865,-58.593750
7866,-58.593750
7867,-58.593750
7868,-62.500000
7869,-62.500000
7870,-58.593750
7871,-58.593750
7872,-58.593750
7873,-58.593750
7874,-58.593750
7875,-58.593750
7876,-58.593750
7877,-58.593750
7878,-54.687500
7879,-54.687500
7880,-54.687500
7881,-54.687500
7882,-54.687500
7883,-54.687500
7884,-54.687500
7885,-54.687500
7886,-54.687500
7887,-54.687500
7888,-54.687500
7889,-54.687500
7890,-54.687500
7891,-54.687500
7892,-50.781250
7893,-50.781250
7894,-50.781250
7895,-50.781250
7896,-50.781250
7897,-50.781250
7898,-50.781250
7899,-50.781250
7900,-50.781250
7901,-50.781250
7902,-50.781250
7903,-46.875000
7904,-46.875000
7905,-46.875000
7906,-46.875000
7907,-46.875000
7908,-46.875000
7909,-46.875000
7910,-46.875000
7911,-46.875000
7912,-46.875000
7913,-42.968750
7914,-42.968750
7915,-42.968750
7916,-42.968750
7917,-42.968750
7918,-42.968750
7919,-42.968750
7920,-42.968750
7921,-42.968750
7922,-42.968750
7923,-39.062500
7924,-39.062500
7925,-42.968750
7926,-39.062500
7927,-39.062500
7928,-39.062500
7929,-39.062500
7930,-39.062500
7931,-39.062500
7932,-39.062500
7933,-39.062500
7934,-35.156250
7935,-35.156250
7936,-35.156250
7937,-35.156250
7938,-35.156250
7939,-35.156250
7940,-35.156250
7941,-35.156250
7942,-31.250000
7943,-31.250000
7944,-31.250000
7945,-31.250000
7946,-31.250000
7947,-31.250000
7948,-31.250000
7949,-31.250000
7950,-31.250000
7951,-31.250000
7952,-35.156250
7953,-27.343750
7954,-27.343750
7955,-27.343750
7956,-27.343750
7957,-27.343750
7958,-27.343750
7959,-27.343750
7960,-27.343750
7961,-23.437500
7962,-27.343750
7963,-23.437500
7964,-23.437500
7965,-23.437500
7966,-23.437500
7967,-23.437500
7968,-23.437500
7969,-23.437500
7970,-23.437500
7971,-23.437500
7972,-19.531250
7973,-19.531250
7974,-19.531250
7975,-19.531250
7976,-19.531250
7977,-19.531250
7978,-19.531250
7979,-19.531250
7980,-19.531250
7981,-19.531250
7982,-19.531250
7983,-15.625000
7984,-15.625000
7985,-15.625000
7986,-15.625000
7987,-15.625000
7988,-15.625000
7989,-15.625000
7990,-15.625000
7991,-15.625000
7992,-11.718750
7993,-11.718750
7994,-11.718750
7995,-11.718750
7996,-11.718750
7997,-11.718750
7998,-7.812500
7999,-11.718750
8000,-7.812500
8001,-11.718750
8002,-7.812500
8003,-7.812500
8004,-7.812500
8005,-7.812500
8006,-7.812500
8007,-7.812500
8008,-3.906250
8009,-3.906250
8010,-3.906250
8011,-3.906250
8012,-3.906250
8013,-3.906250
8014,-3.906250
8015,-3.906250
8016,0.000000
8017,-3.906250
8018,0.000000
8019,-3.906250
8020,0.000000
8021,0.000000
8022,0.000000
8023,0.000000
8024,0.000000
8025,0.000000
8026,3.906250
8027,0.000000
8028,3.906250
8029,3.906250
8030,3.906250
8031,3.906250
8032,3.906250
8033,3.906250
8034,3.906250
8035,3.906250
8036,3.906250
8037,3.906250
8038,3.906250
8039,7.812500
8040,7.812500
8041,7.812500
8042,7.812500
8043,7.812500
8044,7.812500
8045,7.812500
8046,7.812500
8047,11.718750
8048,7.812500
8049,11.718750
8050,11.718750
8051,11.718750
8052,11.718750
8053,11.718750
8054,11.718750
8055,11.718750
8056,11.718750
8057,15.625000
8058,15.625000
8059,15.625000
8060,15.625000
8061,15.625000
8062,15.625000
8063,15.625000
8064,15.625000
8065,15.625000
8066,15.625000
8067,15.625000
8068,15.625000
8069,19.531250
8070,19.531250
8071,19.531250
8072,19.531250
8073,19.531250
8074,19.531250
8075,19.531250
8076,19.531250
8077,19.531250
8078,19.531250
8079,19.531250
8080,23.437500
8081,23.437500
8082,23.437500
8083,23.437500
8084,23.437500
8085,23.437500
8086,23.437500
8087,23.437500
8088,23.437500
8089,23.437500
8090,23.437500
8091,27.343750
8092,27.343750
8093,27.343750
8094,27.343750
8095,27.343750
8096,27.343750
8097,27.343750
8098,27.343750
8099,27.343750
8100,27.343750
8101,27.343750
8102,31.250000
8103,27.343750
8104,31.250000
8105,31.250000
8106,31.250000
8107,31.250000
8108,31.250000
8109,31.250000
8110,31.250000
8111,31.250000
8112,31.250000
8113,31.250000
8114,31.250000
8115,31.250000
8116,31.250000
8117,35.156250
8118,35.156250
8119,35.156250
8120,35.156250
8121,35.156250
8122,35.156250
8123,35.156250
8124,35.156250
8125,35.156250
8126,35.156250
8127,35.156250
8128,35.156250
8129,35.156250
8130,35.156250
8131,35.156250
8132,39.062500
8133,39.062500
8134,39.062500
8135,39.062500
8136,39.062500
8137,39.062500
8138,39.062500
8139,39.062500
8140,39.062500
8141,39.062500
8142,39.062500
8143,39.062500
8144,39.062500
8145,39.062500
8146,39.062500
8147,39.062500
8148,39.062500
8149,39.062500
8150,42.968750
8151,42.968750
8152,42.968750
8153,42.968750
8154,42.968750
8155,42.968750
8156,42.968750
8157,42.968750
8158,42.968750
8159,42.968750
8160,42.968750
8161,42.968750
8162,42.968750
8163,42.968750
8164,42.968750
8165,42.968750
8166,42.968750
8167,42.968750
8168,46.875000
8169,42.968750
8170,42.968750
8171,42.968750
8172,46.875000
8173,46.875000
8174,46.875000
8175,46.875000
8176,46.875000
8177,46.875000
8178,46.875000
8179,46.875000
8180,46.875000
8181,46.875000
8182,46.875000
8183,46.875000
8184,46.875000
8185,46.875000
8186,46.875000
8187,46.875000
8188,46.875000
8189,46.875000
8190,46.875000
8191,46.875000
8192,46.875000
8193,46.875000
8194,46.875000
8195,46.875000
8196,46.875000
8197,46.875000
8198,50.781250
8199,46.875000
8200,46.875000
8201,46.875000
8202,50.781250
8203,46.875000
8204,50.781250
8205,50.781250
8206,50.781250
8207,50.781250
8208,50.781250
8209,50.781250
8210,50.781250
8211,50.781250
8212,50.781250
8213,50.781250
8214,50.781250
8215,50.781250
8216,50.781250
8217,50.781250
8218,50.781250
8219,50.781250
8220,50.781250
8221,50.781250
8222,50.781250
8223,50.781250
8224,50.781250
8225,50.781250
8226,50.781250
8227,50.781250
8228,50.781250
8229,50.781250
8230,50.781250
8231,50.781250
8232,50.781250
8233,50.781250
8234,50.781250
8235,50.781250
8236,50.781250
8237,50.781250
8238,50.781250
8239,50.781250
8240,50.781250
8241,50.781250
8242,50.781250
8243,50.781250
8244,50.781250
8245,50.781250
8246,50.781250
8247,50.781250
8248,50.781250
8249,50.781250
8250,50.781250
8251,50.781250
8252,50.781250
8253,50.781250
8254,50.781250
8255,50.781250
8256,50.781250
8257,50.781250
8258,50.781250
8259,46.875000
8260,50.781250
8261,50.781250
8262,50.781250
8263,50.781250
8264,50.781250
8265,50.781250
8266,50.781250
8267,46.875000
8268,50.781250
8269,46.875000
8270,50.781250
8271,50.781250
8272,50.781250
8273,50.781250
8274,50.781250
8275,50.781250
8276,46.875000
8277,50.781250
8278,46.875000
8279,46.875000
8280,46.875000
8281,46.875000
8282,46.875000
8283,46.875000
8284,46.875000
8285,46.875000
8286,46.875000
8287,46.875000
8288,46.875000
8289,46.875000
8290,46.875000
8291,46.875000
8292,46.875000
8293,46.875000
8294,46.875000
8295,46.875000
8296,46.875000
8297,46.875000
8298,46.875000
8299,46.875000
8300,46.875000
8301,42.968750
8302,46.875000
8303,46.875000
8304,46.875000
8305,46.875000
8306,46.875000
8307,46.875000
8308,46.875000
8309,42.968750
8310,42.968750
8311,42.968750
8312,42.968750
8313,42.968750
8314,42.968750
8315,42.968750
8316,42.968750
8317,42.968750
8318,42.968750
8319,42.968750
8320,42.968750
8321,42.968750
8322,42.968750
8323,42.968750
8324,42.968750
8325,42.968750
8326,42.968750
8327,42.968750
8328,42.968750
8329,42.968750
8330,39.062500
8331,39.062500
8332,39.062500
8333,39.062500
8334,39.062500
8335,39.062500
8336,39.062500
8337,39.062500
8338,39.062500
8339,39.062500
8340,39.062500
8341,39.062500
8342,39.062500
8343,39.062500
8344,39.062500
8345,39.062500
8346,39.062500
8347,35.156250
8348,35.156250
8349,35.156250
8350,35.156250
8351,39.062500
8352,35.156250
8353,35.156250
8354,35.156250
8355,35.156250
8356,35.156250
8357,35.156250
8358,35.156250
8359,35.156250
8360,35.156250
8361,35.156250
8362,31.250000
8363,31.250000
8364,31.250000
8365,31.250000
8366,31.250000
8367,31.250000
8368,31.250000
8369,31.250000
8370,31.250000
8371,31.250000
8372,31.250000
8373,31.250000
8374,31.250000
8375,31.250000
8376,31.250000
8377,27.343750
8378,27.343750
8379,27.343750
8380,27.343750
8381,27.343750
8382,27.343750
8383,27.343750
8384,27.343750
8385,27.343750
8386,27.343750
8387,27.343750
8388,27.343750
8389,27.343750
8390,23.437500
8391,23.437500
8392,23.437500
8393,23.437500
8394,23.437500
8395,23.437500
8396,23.437500
8397,23.437500
8398,23.437500
8399,23.437500
8400,23.437500
8401,19.531250
8402,23.437500
8403,19.531250
8404,19.531250
8405,19.531250
8406,19.531250
8407,19.531250
8408,19.531250
8409,19.531250
8410,19.531250
8411,19.531250
8412,19.531250
8413,15.625000
8414,15.625000
8415,15.625000
8416,15.625000
8417,15.625000
8418,15.625000
8419,15.625000
8420,15.625000
8421,15.625000
8422,15.625000
8423,15.625000
8424,11.718750
8425,11.718750
8426,11.718750
8427,11.718750
8428,11.718750
8429,11.718750
8430,11.718750
8431,11.718750
8432,11.718750
8433,7.812500
8434,11.718750
8435,7.812500
8436,7.812500
8437,7.812500
8438,7.812500
8439,7.812500
8440,7.812500
8441,7.812500
8442,7.812500
8443,7.812500
8444,7.812500
8445,3.906250
8446,3.906250
8447,3.906250
8448,3.906250
8449,3.906250
8450,3.906250
8451,3.906250
8452,3.906250
8453,3.906250
8454,3.906250
8455,0.000000
8456,0.000000
8457,0.000000
8458,0.000000
8459,0.000000
8460,0.000000
8461,0.000000
8462,0.000000
8463,0.000000
8464,-3.906250
8465,-3.906250
8466,-3.906250
8467,-3.906250
8468,-3.906250
8469,-3.906250
8470,-3.906250
8471,-3.906250
8472,-3.906250
8473,-3.906250
8474,-3.906250
8475,-7.812500
8476,-7.812500
8477,-7.812500
8478,-7.812500
8479,-7.812500
8480,-7.812500
8481,-7.812500
8482,-7.812500
8483,-7.812500
8484,-7.812500
8485,-11.718750
8486,-11.718750
8487,-11.718750
8488,-11.718750
8489,-11.718750
8490,-11.718750
8491,-11.718750
8492,-11.718750
8493,-11.718750
8494,-11.718750
8495,-11.718750
8496,-15.625000
8497,-15.625000
8498,-15.625000
8499,-15.625000
8500,-15.625000
8501,-15.625000
8502,-15.625000
8503,-15.625000
8504,-15.625000
8505,-19.531250
8506,-19.531250
8507,-19.531250
8508,-19.531250
8509,-19.531250
8510,-19.531250
8511,-19.531250
8512,-19.531250
8513,-19.531250
8514,-23.437500
8515,-23.437500
8516,-23.437500
8517,-23.437500
8518,-23.437500
8519,-23.437500
8520,-23.437500
8521,-23.437500
8522,-23.437500
8523,-23.437500
8524,-27.343750
8525,-27.343750
8526,-27.343750
8527,-27.343750
8528,-27.343750
8529,-27.343750
8530,-27.343750
8531,-31.250000
8532,-31.250000
8533,-31.250000
8534,-27.343750
8535,-31.250000
8536,-31.250000
8537,-31.250000
8538,-31.250000
8539,-31.250000
8540,-31.250000
8541,-35.156250
8542,-31.250000
8543,-35.156250
8544,-35.156250
8545,-35.156250
8546,-35.156250
8547,-35.156250
8548,-35.156250
8549,-35.156250
8550,-35.156250
8551,-35.156250
8552,-35.156250
8553,-35.156250
8554,-39.062500
8555,-39.062500
8556,-39.062500
8557,-39.062500
8558,-39.062500
8559,-39.062500
8560,-39.062500
8561,-39.062500
8562,-39.062500
8563,-42.968750
8564,-42.968750
8565,-42.968750
8566,-42.968750
8567,-42.968750
8568,-42.968750
8569,-42.968750
8570,-42.968750
8571,-42.968750
8572,-42.968750
8573,-42.968750
8574,-46.875000
8575,-46.875000
8576,-46.875000
8577,-46.875000
8578,-46.875000
8579,-46.875000
8580,-46.875000
8581,-46.875000
8582,-46.875000
8583,-46.875000
8584,-50.781250
8585,-50.781250
8586,-50.781250
8587,-50.781250
8588,-50.781250
8589,-50.781250
8590,-50.781250
8591,-50.781250
8592,-50.781250
8593,-50.781250
8594,-50.781250
8595,-54.687500
8596,-54.687500
8597,-54.687500
8598,-54.687500
8599,-54.687500
8600,-54.687500
8601,-54.687500
8602,-54.687500
8603,-54.687500
8604,-54.687500
8605,-54.687500
8606,-54.687500
8607,-54.687500
8608,-58.593750
8609,-58.593750
8610,-58.593750
8611,-58.593750
8612,-58.593750
8613,-58.593750
8614,-58.593750
8615,-58.593750
8616,-58.593750
8617,-58.593750
8618,-58.593750
8619,-58.593750
8620,-58.593750
8621,-62.500000
8622,-62.500000
8623,-62.500000
8624,-62.500000
8625,-62.500000
8626,-62.500000
8627,-62.500000
8628,-62.500000
8629,-62.500000
8630,-62.500000
8631,-62.500000
8632,-62.500000
8633,-62.500000
8634,-66.406250
8635,-66.406250
8636,-66.406250
8637,-66.406250
8638,-66.406250
8639,-66.406250
8640,-66.406250
8641,-66.406250
8642,-66.406250
8643,-66.406250
8644,-66.406250
8645,-66.406250
8646,-66.406250
8647,-66.406250
8648,-66.406250
8649,-66.406250
8650,-70.312500
8651,-70.312500
8652,-70.312500
8653,-70.312500
8654,-70.312500
8655,-70.312500
8656,-70.312500
8657,-70.312500
8658,-70.312500
8659,-70.312500
8660,-70.312500
8661,-70.312500
8662,-70.312500
8663,-70.312500
8664,-70.312500
8665,-70.312500
8666,-74.218750
8667,-74.218750
8668,-74.218750
8669,-74.218750
8670,-74.218750
8671,-74.218750
8672,-74.218750
8673,-74.218750
8674,-74.218750
8675,-74.218750
8676,-74.218750
8677,-74.218750
8678,-74.218750
8679,-74.218750
8680,-74.218750
8681,-74.218750
8682,-74.218750
8683,-74.218750
8684,-74.218750
8685,-78.125000
8686,-78.125000
8687,-78.125000
8688,-74.218750
8689,-78.125000
8690,-78.125000
8691,-78.125000
8692,-74.218750
8693,-78.125000
8694,-78.125000
8695,-78.125000
8696,-78.125000
8697,-78.125000
8698,-78.125000
8699,-78.125000
8700,-78.125000
8701,-78.125000
8702,-78.125000
8703,-78.125000
8704,-78.125000
8705,-78.125000
8706,-78.125000
8707,-78.125000
8708,-78.125000
8709,-78.125000
8710,-78.125000
8711,-78.125000
8712,-78.125000
8713,-78.125000
8714,-78.125000
8715,-78.125000
8716,-78.125000
8717,-78.125000
8718,-78.125000
8719,-78.125000
8720,-78.125000
8721,-78.125000
8722,-78.125000
8723,-78.125000
8724,-78.125000
8725,-78.125000
8726,-78.125000
8727,-78.125000
8728,-78.125000
8729,-78.125000
8730,-78.125000
8731,-78.125000
8732,-78.125000
8733,-78.125000
8734,-82.031250
8735,-78.125000
8736,-78.125000
8737,-78.125000
8738,-78.125000
8739,-78.125000
8740,-78.125000
8741,-78.125000
8742,-78.125000
8743,-78.125000
8744,-78.125000
8745,-82.031250
8746,-78.125000
8747,-78.125000
8748,-78.125000
8749,-78.125000
8750,-78.125000
8751,-78.125000
8752,-78.125000
8753,-78.125000
8754,-78.125000
8755,-78.125000
8756,-78.125000
8757,-78.125000
8758,-78.125000
8759,-78.125000
8760,-78.125000
8761,-78.125000
8762,-78.125000
8763,-78.125000
8764,-78.125000
8765,-78.125000
8766,-78.125000
8767,-78.125000
8768,-78.125000
8769,-78.125000
8770,-78.125000
8771,-78.125000
8772,-78.125000
8773,-78.125000
8774,-78.125000
8775,-78.125000
8776,-78.125000
8777,-78.125000
8778,-78.125000
8779,-78.125000
8780,-78.125000
8781,-78.125000
8782,-78.125000
8783,-78.125000
8784,-78.125000
8785,-78.125000
8786,-74.218750
8787,-78.125000
8788,-74.218750
8789,-78.125000
8790,-74.218750
8791,-74.218750
8792,-74.218750
8793,-74.218750
8794,-74.218750
8795,-74.218750
8796,-74.218750
8797,-74.218750
8798,-74.218750
8799,-74.218750
8800,-74.218750
8801,-74.218750
8802,-74.218750
8803,-74.218750
8804,-74.218750
8805,-74.218750
8806,-74.218750
8807,-74.218750
8808,-74.218750
8809,-74.218750
8810,-70.312500
8811,-74.218750
8812,-74.218750
8813,-74.218750
8814,-70.312500
8815,-70.312500
8816,-70.312500
8817,-70.312500
8818,-70.312500
8819,-70.312500
8820,-70.312500
8821,-70.312500
8822,-70.312500
8823,-70.312500
8824,-70.312500
8825,-70.312500
8826,-70.312500
8827,-70.312500
8828,-70.312500
8829,-66.406250
8830,-70.312500
8831,-66.406250
8832,-66.406250
8833,-66.406250
8834,-66.406250
8835,-66.406250
8836,-66.406250
8837,-66.406250
8838,-66.406250
8839,-66.406250
8840,-66.406250
8841,-66.406250
8842,-66.406250
8843,-66.406250
8844,-62.500000
8845,-62.500000
8846,-62.500000
8847,-62.500000
8848,-62.500000
8849,-62.500000
8850,-62.500000
8851,-62.500000
8852,-62.500000
8853,-62.500000
8854,-62.500000
8855,-62.500000
8856,-62.500000
8857,-62.500000
8858,-58.593750
8859,-58.593750
8860,-58.593750
8861,-58.593750
8862,-58.593750
8863,-58.593750
8864,-58.593750
8865,-58.593750
8866,-58.593750
8867,-58.593750
8868,-54.687500
8869,-54.687500
8870,-54.687500
8871,-54.687500
8872,-54.687500
8873,-54.687500
8874,-54.687500
8875,-54.687500
8876,-54.687500
8877,-54.687500
8878,-54.687500
8879,-54.687500
8880,-54.687500
8881,-50.781250
8882,-50.781250
8883,-50.781250
8884,-50.781250
8885,-50.781250
8886,-50.781250
8887,-50.781250
8888,-50.781250
8889,-50.781250
8890,-50.781250
8891,-50.781250
8892,-46.875000
8893,-46.875000
8894,-46.875000
8895,-46.875000
8896,-46.875000
8897,-46.875000
8898,-46.875000
8899,-46.875000
8900,-46.875000
8901,-46.875000
8902,-42.968750
8903,-42.968750
8904,-42.968750
8905,-42.968750
8906,-42.968750
8907,-42.968750
8908,-42.968750
8909,-42.968750
8910,-42.968750
8911,-42.968750
8912,-42.968750
8913,-42.968750
8914,-39.062500
8915,-39.062500
8916,-39.062500
8917,-39.062500
8918,-39.062500
8919,-39.062500
8920,-39.062500
8921,-39.062500
8922,-39.062500
8923,-39.062500
8924,-35.156250
8925,-35.156250
8926,-35.156250
8927,-35.156250
8928,-35.156250
8929,-35.156250
8930,-35.156250
8931,-35.156250
8932,-35.156250
8933,-31.250000
8934,-31.250000
8935,-31.250000
8936,-31.250000
8937,-31.250000
8938,-31.250000
8939,-31.250000
8940,-31.250000
8941,-31.250000
8942,-27.343750
8943,-27.343750
8944,-27.343750
8945,-27.343750
8946,-27.343750
8947,-27.343750
8948,-27.343750
8949,-27.343750
8950,-27.343750
8951,-27.343750
8952,-27.343750
8953,-23.437500
8954,-23.437500
8955,-23.437500
8956,-23.437500
8957,-23.437500
8958,-23.437500
8959,-23.437500
8960,-23.437500
8961,-23.437500
8962,-19.531250
8963,-19.531250
8964,-19.531250
8965,-19.531250
8966,-19.531250
8967,-19.531250
8968,-19.531250
8969,-19.531250
8970,-19.531250
8971,-19.531250
8972,-15.625000
8973,-15.625000
8974,-15.625000
8975,-15.625000
8976,-15.625000
8977,-15.625000
8978,-15.625000
8979,-11.718750
8980,-11.718750
8981,-11.718750
8982,-11.718750
8983,-11.718750
8984,-11.718750
8985,-11.718750
8986,-11.718750
8987,-11.718750
8988,-11.718750
8989,-7.812500
8990,-7.812500
8991,-7.812500
8992,-7.812500
8993,-7.812500
8994,-7.812500
8995,-7.812500
8996,-7.812500
8997,-7.812500
8998,-7.812500
8999,-3.906250
9000,-3.906250
9001,-3.906250
9002,-3.906250
9003,-3.906250
9004,-3.906250
9005,-3.906250
9006,-3.906250
9007,0.000000
9008,0.000000
9009,0.000000
9010,0.000000
9011,0.000000
9012,0.000000
9013,0.000000
9014,0.000000
9015,0.000000
9016,3.906250
9017,3.906250
9018,3.906250
9019,3.906250
9020,3.906250
9021,3.906250
9022,3.906250
9023,3.906250
9024,3.906250
9025,3.906250
9026,7.812500
9027,7.812500
9028,7.812500
9029,7.812500
9030,7.812500
9031,7.812500
9032,7.812500
9033,7.812500
9034,7.812500
9035,7.812500
9036,11.718750
9037,7.812500
9038,11.718750
9039,11.718750
9040,11.718750
9041,11.718750
9042,11.718750
9043,11.718750
9044,11.718750
9045,11.718750
9046,11.718750
9047,15.625000
9048,15.625000
9049,15.625000
9050,15.625000
9051,15.625000
9052,15.625000
9053,15.625000
9054,15.625000
9055,15.625000
9056,15.625000
9057,15.625000
9058,19.531250
9059,19.531250
9060,19.531250
9061,19.531250
9062,19.531250
9063,19.531250
9064,19.531250
9065,19.531250
9066,19.531250
9067,19.531250
9068,19.531250
9069,19.531250
9070,19.531250
9071,23.437500
9072,23.437500
9073,23.437500
9074,23.437500
9075,23.437500
9076,23.437500
9077,23.437500
9078,23.437500
9079,27.343750
9080,23.437500
9081,23.437500
9082,27.343750
9083,27.343750
9084,27.343750
9085,27.343750
9086,27.343750
9087,27.343750
9088,27.343750
9089,27.343750
9090,27.343750
9091,27.343750
9092,27.343750
9093,27.343750
9094,31.250000
9095,27.343750
9096,31.250000
9097,31.250000
9098,27.343750
9099,31.250000
9100,31.250000
9101,31.250000
9102,31.250000
9103,31.250000
9104,31.250000
9105,31.250000
9106,31.250000
9107,35.156250
9108,31.250000
9109,31.250000
9110,35.156250
9111,35.156250
9112,35.156250
9113,35.156250
9114,35.156250
9115,35.156250
9116,35.156250
9117,35.156250
9118,35.156250
9119,35.156250
9120,35.156250
9121,39.062500
9122,39.062500
9123,39.062500
9124,39.062500
9125,39.062500
9126,39.062500
9127,39.062500
9128,39.062500
9129,39.062500
9130,39.062500
9131,39.062500
9132,39.062500
9133,39.062500
9134,39.062500
9135,39.062500
9136,39.062500
9137,42.968750
9138,42.968750
9139,42.968750
9140,42.968750
9141,42.968750
9142,42.968750
9143,42.968750
9144,42.968750
9145,42.968750
9146,42.968750
9147,42.968750
9148,42.968750
9149,42.968750
9150,42.968750
9151,42.968750
9152,42.968750
9153,42.968750
9154,42.968750
9155,42.968750
9156,42.968750
9157,42.968750
9158,46.875000
9159,42.968750
9160,42.968750
9161,42.968750
9162,46.875000
9163,46.875000
9164,46.875000
9165,46.875000
9166,46.875000
9167,46.875000
9168,46.875000
9169,46.875000
9170,46.875000
9171,46.875000
9172,46.875000
9173,46.875000
9174,46.875000
9175,46.875000
9176,46.875000
9177,46.875000
9178,46.875000
9179,46.875000
9180,46.875000
9181,46.875000
9182,46.875000
9183,46.875000
9184,46.875000
9185,46.875000
9186,46.875000
9187,46.875000
9188,46.875000
9189,46.875000
9190,46.875000
9191,46.875000
9192,50.781250
9193,50.781250
9194,46.875000
9195,46.875000
9196,50.781250
9197,50.781250
9198,50.781250
9199,46.875000
9200,50.781250
9201,50.781250
9202,50.781250
9203,50.781250
9204,50.781250
9205,50.781250
9206,50.781250
9207,50.781250
9208,50.781250
9209,50.781250
9210,50.781250
9211,50.781250
9212,50.781250
9213,50.781250
9214,50.781250
9215,50.781250
9216,50.781250
9217,50.781250
9218,50.781250
9219,50.781250
9220,50.781250
9221,50.781250
9222,50.781250
9223,50.781250
9224,50.781250
9225,50.781250
9226,50.781250
9227,50.781250
9228,50.781250
9229,50.781250
9230,50.781250
9231,50.781250
9232,50.781250
9233,50.781250
9234,50.781250
9235,50.781250
9236,50.781250
9237,50.781250
9238,50.781250
9239,50.781250
9240,50.781250
9241,50.781250
9242,50.781250
9243,50.781250
9244,50.781250
9245,50.781250
9246,50.781250
9247,50.781250
9248,50.781250
9249,50.781250
9250,50.781250
9251,50.781250
9252,50.781250
9253,50.781250
9254,50.781250
9255,50.781250
9256,50.781250
9257,50.781250
9258,50.781250
9259,50.781250
9260,50.781250
9261,46.875000
9262,46.875000
9263,50.781250
9264,50.781250
9265,50.781250
9266,46.875000
9267,46.875000
9268,50.781250
9269,46.875000
9270,46.875000
9271,46.875000
9272,46.875000
9273,46.875000
9274,46.875000
9275,46.875000
9276,46.875000
9277,46.875000
9278,46.875000
9279,46.875000
9280,46.875000
9281,46.875000
9282,46.875000
9283,46.875000
9284,46.875000
9285,46.875000
9286,46.875000
9287,46.875000
9288,46.875000
9289,46.875000
9290,46.875000
9291,46.875000
9292,46.875000
9293,46.875000
9294,46.875000
9295,42.968750
9296,42.968750
9297,42.968750
9298,42.968750
9299,42.968750
9300,42.968750
9301,42.968750
9302,42.968750
9303,42.968750
9304,42.968750
9305,42.968750
9306,42.968750
9307,42.968750
9308,42.968750
9309,42.968750
9310,42.968750
9311,42.968750
9312,42.968750
9313,42.968750
9314,42.968750
9315,39.062500
9316,42.968750
9317,39.062500
9318,39.062500
9319,39.062500
9320,39.062500
9321,39.062500
9322,39.062500
9323,39.062500
9324,39.062500
9325,39.062500
9326,39.062500
9327,39.062500
9328,39.062500
9329,39.062500
9330,39.062500
9331,39.062500
9332,39.062500
9333,35.156250
9334,39.062500
9335,39.062500
9336,35.156250
9337,35.156250
9338,39.062500
9339,35.156250
9340,35.156250
9341,35.156250
9342,35.156250
9343,35.156250
9344,35.156250
9345,35.156250
9346,35.156250
9347,35.156250
9348,35.156250
9349,35.156250
9350,35.156250
9351,31.250000
9352,31.250000
9353,31.250000
9354,31.250000
9355,31.250000
9356,31.250000
9357,31.250000
9358,31.250000
9359,31.250000
9360,31.250000
9361,31.250000
9362,31.250000
9363,31.250000
9364,31.250000
9365,31.250000
9366,27.343750
9367,27.343750
9368,27.343750
9369,27.343750
9370,27.343750
9371,27.343750
9372,27.343750
9373,27.343750
9374,27.343750
9375,27.343750
9376,27.343750
9377,27.343750
9378,23.437500
9379,23.437500
9380,23.437500
9381,23.437500
9382,23.437500
9383,23.437500
9384,23.437500
9385,23.437500
9386,23.437500
9387,23.437500
9388,23.437500
9389,23.437500
9390,19.531250
9391,19.531250
9392,19.531250
9393,19.531250
9394,19.531250
9395,19.531250
9396,19.531250
9397,19.531250
9398,19.531250
9399,19.531250
9400,19.531250
9401,19.531250
9402,15.625000
9403,15.625000
9404,15.625000
9405,15.625000
9406,15.625000
9407,15.625000
9408,15.625000
9409,15.625000
9410,15.625000
9411,15.625000
9412,11.718750
9413,11.718750
9414,11.718750
9415,15.625000
9416,11.718750
9417,11.718750
9418,11.718750
9419,11.718750
9420,11.718750
9421,11.718750
9422,11.718750
9423,11.718750
9424,7.812500
9425,7.812500
9426,7.812500
9427,7.812500
9428,7.812500
9429,7.812500
9430,7.812500
9431,7.812500
9432,7.812500
9433,7.812500
9434,7.812500
9435,3.906250
9436,3.906250
9437,3.906250
9438,3.906250
9439,3.906250
9440,3.906250
9441,3.906250
9442,3.906250
9443,3.906250
9444,3.906250
9445,3.906250
9446,0.000000
9447,0.000000
9448,0.000000
9449,0.000000
9450,0.000000
9451,0.000000
9452,0.000000
9453,0.000000
9454,0.000000
9455,-3.906250
9456,-3.906250
9457,-3.906250
9458,-3.906250
9459,-3.906250
9460,-3.906250
9461,-3.906250
9462,-3.906250
9463,-3.906250
9464,-3.906250
9465,-7.812500
9466,-7.812500
9467,-7.812500
9468,-7.812500
9469,-7.812500
9470,-7.812500
9471,-7.812500
9472,-7.812500
9473,-7.812500
9474,-7.812500
9475,-7.812500
9476,-11.718750
9477,-11.718750
9478,-11.718750
9479,-11.718750
9480,-11.718750
9481,-11.718750
9482,-15.625000
9483,-11.718750
9484,-11.718750
9485,-15.625000
9486,-15.625000
9487,-15.625000
9488,-15.625000
9489,-15.625000
9490,-15.625000
9491,-15.625000
9492,-15.625000
9493,-19.531250
9494,-19.531250
9495,-15.625000
9496,-19.531250
9497,-19.531250
9498,-19.531250
9499,-19.531250
9500,-19.531250
9501,-23.437500
9502,-19.531250
9503,-19.531250
9504,-23.437500
9505,-23.437500
9506,-23.437500
9507,-23.437500
9508,-23.437500
9509,-23.437500
9510,-23.437500
9511,-23.437500
9512,-23.437500
9513,-27.343750
9514,-23.437500
9515,-27.343750
9516,-27.343750
9517,-27.343750
9518,-27.343750
9519,-27.343750
9520,-27.343750
9521,-27.343750
9522,-31.250000
9523,-31.250000
9524,-27.343750
9525,-31.250000
9526,-31.250000
9527,-31.250000
9528,-31.250000
9529,-31.250000
9530,-31.250000
9531,-31.250000
9532,-31.250000
9533,-35.156250
9534,-31.250000
9535,-35.156250
9536,-35.156250
9537,-35.156250
9538,-35.156250
9539,-35.156250
9540,-35.156250
9541,-35.156250
9542,-35.156250
9543,-39.062500
9544,-39.062500
9545,-39.062500
9546,-39.062500
9547,-39.062500
9548,-39.062500
9549,-39.062500
9550,-39.062500
9551,-39.062500
9552,-39.062500
9553,-42.968750
9554,-42.968750
9555,-42.968750
9556,-42.968750
9557,-42.968750
9558,-42.968750
9559,-42.968750
9560,-42.968750
9561,-42.968750
9562,-42.968750
9563,-46.875000
9564,-46.875000
9565,-46.875000
9566,-46.875000
9567,-46.875000
9568,-46.875000
9569,-46.875000
9570,-46.875000
9571,-46.875000
9572,-46.875000
9573,-50.781250
9574,-46.875000
9575,-50.781250
9576,-50.781250
9577,-50.781250
9578,-50.781250
9579,-50.781250
9580,-50.781250
9581,-50.781250
9582,-50.781250
9583,-50.781250
9584,-54.687500
9585,-54.687500
9586,-54.687500
9587,-54.687500
9588,-54.687500
9589,-54.687500
9590,-54.687500
9591,-54.687500
9592,-54.687500
9593,-54.687500
9594,-54.687500
9595,-54.687500
9596,-58.593750
9597,-58.593750
9598,-54.687500
9599,-58.593750
9600,-58.593750
9601,-58.593750
9602,-58.593750
9603,-58.593750
9604,-58.593750
9605,-58.593750
9606,-58.593750
9607,-58.593750
9608,-58.593750
9609,-62.500000
9610,-62.500000
9611,-62.500000
9612,-62.500000
9613,-62.500000
9614,-62.500000
9615,-62.500000
9616,-62.500000
9617,-62.500000
9618,-62.500000
9619,-62.500000
9620,-62.500000
9621,-62.500000
9622,-62.500000
9623,-66.406250
9624,-62.500000
9625,-66.406250
9626,-66.406250
9627,-66.406250
9628,-66.406250
9629,-66.406250
9630,-66.406250
9631,-66.406250
9632,-66.406250
9633,-66.406250
9634,-66.406250
9635,-66.406250
9636,-66.406250
9637,-66.406250
9638,-70.312500
9639,-70.312500
9640,-70.312500
9641,-70.312500
9642,-70.312500
9643,-70.312500
9644,-70.312500
9645,-70.312500
9646,-70.312500
9647,-70.312500
9648,-70.312500
9649,-70.312500
9650,-70.312500
9651,-70.312500
9652,-70.312500
9653,-70.312500
9654,-70.312500
9655,-70.312500
9656,-70.312500
9657,-70.312500
9658,-74.218750
9659,-74.218750
9660,-74.218750
9661,-74.218750
9662,-74.218750
9663,-74.218750
9664,-74.218750
9665,-74.218750
9666,-74.218750
9667,-74.218750
9668,-74.218750
9669,-74.218750
9670,-74.218750
9671,-74.218750
9672,-74.218750
9673,-74.218750
9674,-74.218750
9675,-74.218750
9676,-74.218750
9677,-74.218750
9678,-78.125000
9679,-78.125000
9680,-78.125000
9681,-78.125000
9682,-78.125000
9683,-78.125000
9684,-78.125000
9685,-78.125000
9686,-78.125000
9687,-78.125000
9688,-78.125000
9689,-78.125000
9690,-78.125000
9691,-78.125000
9692,-78.125000
9693,-78.125000
9694,-78.125000
9695,-78.125000
9696,-78.125000
9697,-78.125000
9698,-78.125000
9699,-78.125000
9700,-78.125000
9701,-78.125000
9702,-78.125000
9703,-78.125000
9704,-78.125000
9705,-78.125000
9706,-78.125000
9707,-78.125000
9708,-78.125000
9709,-78.125000
9710,-78.125000
9711,-78.125000
9712,-78.125000
9713,-82.031250
9714,-78.125000
9715,-78.125000
9716,-78.125000
9717,-78.125000
9718,-78.125000
9719,-78.125000
9720,-78.125000
9721,-78.125000
9722,-78.125000
9723,-78.125000
9724,-78.125000
9725,-78.125000
9726,-78.125000
9727,-78.125000
9728,-78.125000
9729,-78.125000
9730,-78.125000
9731,-82.031250
9732,-78.125000
9733,-82.031250
9734,-82.031250
9735,-78.125000
9736,-78.125000
9737,-78.125000
9738,-78.125000
9739,-78.125000
9740,-82.031250
9741,-82.031250
9742,-78.125000
9743,-78.125000
9744,-82.031250
9745,-78.125000
9746,-78.125000
9747,-78.125000
9748,-78.125000
9749,-78.125000
9750,-78.125000
9751,-78.125000
9752,-78.125000
9753,-78.125000
9754,-78.125000
9755,-78.125000
9756,-78.125000
9757,-78.125000
9758,-78.125000
9759,-78.125000
9760,-78.125000
9761,-78.125000
9762,-78.125000
9763,-78.125000
9764,-78.125000
9765,-78.125000
9766,-78.125000
9767,-78.125000
9768,-78.125000
9769,-78.125000
9770,-78.125000
9771,-78.125000
9772,-78.125000
9773,-78.125000
9774,-78.125000
9775,-78.125000
9776,-78.125000
9777,-78.125000
9778,-78.125000
9779,-78.125000
9780,-74.218750
9781,-74.218750
9782,-74.218750
9783,-74.218750
9784,-74.218750
9785,-74.218750
9786,-74.218750
9787,-74.218750
9788,-74.218750
9789,-74.218750
9790,-74.218750
9791,-74.218750
9792,-74.218750
9793,-74.218750
9794,-74.218750
9795,-74.218750
9796,-74.218750
9797,-74.218750
9798,-74.218750
9799,-74.218750
9800,-74.218750
9801,-74.218750
9802,-74.218750
9803,-70.312500
9804,-70.312500
9805,-70.312500
9806,-70.312500
9807,-70.312500
9808,-70.312500
9809,-70.312500
9810,-70.312500
9811,-70.312500
9812,-70.312500
9813,-70.312500
9814,-70.312500
9815,-70.312500
9816,-70.312500
9817,-70.312500
9818,-66.406250
9819,-66.406250
9820,-66.406250
9821,-66.406250
9822,-70.312500
9823,-66.406250
9824,-66.406250
9825,-66.406250
9826,-66.406250
9827,-66.406250
9828,-66.406250
9829,-66.406250
9830,-66.406250
9831,-66.406250
9832,-66.406250
9833,-66.406250
9834,-66.406250
9835,-66.406250
9836,-62.500000
9837,-62.500000
9838,-62.500000
9839,-62.500000
9840,-62.500000
9841,-62.500000
9842,-62.500000
9843,-62.500000
9844,-62.500000
9845,-62.500000
9846,-62.500000
9847,-58.593750
9848,-58.593750
9849,-58.593750
9850,-58.593750
9851,-58.593750
9852,-58.593750
9853,-58.593750
9854,-58.593750
9855,-58.593750
9856,-58.593750
9857,-58.593750
9858,-58.593750
9859,-54.687500
9860,-54.687500
9861,-54.687500
9862,-54.687500
9863,-54.687500
9864,-54.687500
9865,-54.687500
9866,-54.687500
9867,-54.687500
9868,-54.687500
9869,-54.687500
9870,-54.687500
9871,-54.687500
9872,-50.781250
9873,-50.781250
9874,-50.781250
9875,-50.781250
9876,-50.781250
9877,-50.781250
9878,-50.781250
9879,-50.781250
9880,-50.781250
9881,-50.781250
9882,-50.781250
9883,-46.875000
9884,-46.875000
9885,-46.875000
9886,-46.875000
9887,-46.875000
9888,-46.875000
9889,-46.875000
9890,-46.875000
9891,-46.875000
9892,-46.875000
9893,-42.968750
9894,-42.968750
9895,-42.968750
9896,-42.968750
9897,-42.968750
9898,-42.968750
9899,-42.968750
9900,-42.968750
9901,-42.968750
9902,-42.968750
9903,-42.968750
9904,-39.062500
9905,-39.062500
9906,-39.062500
9907,-39.062500
9908,-39.062500
9909,-39.062500
9910,-39.062500
9911,-39.062500
9912,-39.062500
9913,-35.156250
9914,-35.156250
9915,-35.156250
9916,-35.156250
9917,-35.156250
9918,-35.156250
9919,-35.156250
9920,-35.156250
9921,-35.156250
9922,-31.250000
9923,-31.250000
9924,-31.250000
9925,-31.250000
9926,-31.250000
9927,-31.250000
9928,-31.250000
9929,-31.250000
9930,-31.250000
9931,-27.343750
9932,-27.343750
9933,-27.343750
9934,-27.343750
9935,-27.343750
9936,-27.343750
9937,-27.343750
9938,-27.343750
9939,-27.343750
9940,-27.343750
9941,-23.437500
9942,-23.437500
9943,-23.437500
9944,-23.437500
9945,-23.437500
9946,-23.437500
9947,-23.437500
9948,-23.437500
9949,-23.437500
9950,-23.437500
9951,-23.437500
9952,-19.531250
9953,-19.531250
9954,-19.531250
9955,-19.531250
9956,-19.531250
9957,-19.531250
9958,-19.531250
9959,-19.531250
9960,-15.625000
9961,-15.625000
9962,-15.625000
9963,-15.625000
9964,-15.625000
9965,-15.625000
9966,-15.625000
9967,-15.625000
9968,-15.625000
9969,-11.718750
9970,-11.718750
9971,-11.718750
9972,-11.718750
9973,-11.718750
9974,-11.718750
9975,-11.718750
9976,-11.718750
9977,-11.718750
9978,-11.718750
9979,-7.812500
9980,-7.812500
9981,-7.812500
9982,-7.812500
9983,-7.812500
9984,-7.812500
9985,-7.812500
9986,-7.812500
9987,-7.812500
9988,-3.906250
9989,-7.812500
9990,-3.906250
9991,-3.906250
9992,-3.906250
9993,-3.906250
9994,-3.906250
9995,-3.906250
9996,-3.906250
9997,0.000000
9998,0.000000
9999,0.000000
10000,0.000000
