Channel              :,CH1
Frequency            :,1.010kHz
Period               :,0.990ms
PK-PK                :,207.0mV
Probe attenuation    :,1X
Voltage per ADC value:,0.244141mV
Time interval        :,1.00000us

index,CH1_Voltage(mV)
1,-54.687500
2,-54.687500
3,-50.781250
4,-54.687500
5,-50.781250
6,-50.781250
7,-50.781250
8,-50.781250
9,-46.875000
10,-46.875000
11,-46.875000
12,-46.875000
13,-46.875000
14,-46.875000
15,-46.875000
16,-46.875000
17,-42.968750
18,-42.968750
19,-42.968750
20,-42.968750
21,-42.968750
22,-42.968750
23,-39.062500
24,-39.062500
25,-39.062500
26,-39.062500
27,-39.062500
28,-35.156250
29,-35.156250
30,-35.156250
31,-35.156250
32,-35.156250
33,-35.156250
34,-35.156250
35,-31.250000
36,-31.250000
37,-31.250000
38,-31.250000
39,-31.250000
40,-27.343750
41,-27.343750
42,-27.343750
43,-27.343750
44,-27.343750
45,-27.343750
46,-27.343750
47,-23.437500
48,-23.437500
49,-23.437500
50,-23.437500
51,-23.437500
52,-19.531250
53,-23.437500
54,-19.531250
55,-19.531250
56,-19.531250
57,-19.531250
58,-15.625000
59,-15.625000
60,-15.625000
61,-15.625000
62,-15.625000
63,-15.625000
64,-15.625000
65,-11.718750
66,-11.718750
67,-11.718750
68,-11.718750
69,-11.718750
70,-11.718750
71,-7.812500
72,-7.812500
73,-7.812500
74,-7.812500
75,-3.906250
76,-3.906250
77,-3.906250
78,-3.906250
79,-3.906250
80,-3.906250
81,-3.906250
82,-3.906250
83,0.000000
84,0.000000
85,0.000000
86,0.000000
87,0.000000
88,0.000000
89,0.000000
90,3.906250
91,3.906250
92,3.906250
93,3.906250
94,3.906250
95,3.906250
96,7.812500
97,7.812500
98,7.812500
99,7.812500
100,7.812500
101,7.812500
102,11.718750
103,11.718750
104,11.718750
105,11.718750
106,11.718750
107,11.718750
108,11.718750
109,15.625000
110,15.625000
111,15.625000
112,15.625000
113,15.625000
114,15.625000
115,15.625000
116,19.531250
117,19.531250
118,19.531250
119,19.531250
120,23.437500
121,19.531250
122,23.437500
123,23.437500
124,23.437500
125,23.437500
126,23.437500
127,23.437500
128,27.343750
129,27.343750
130,27.343750
131,27.343750
132,27.343750
133,27.343750
134,27.343750
135,27.343750
136,27.343750
137,31.250000
138,31.250000
139,31.250000
140,31.250000
141,31.250000
142,31.250000
143,31.250000
144,35.156250
145,35.156250
146,35.156250
147,35.156250
148,35.156250
149,35.156250
150,35.156250
151,35.156250
152,39.062500
153,39.062500
154,39.062500
155,39.062500
156,39.062500
157,42.968750
158,42.968750
159,42.968750
160,42.968750
161,42.968750
162,42.968750
163,42.968750
164,46.875000
165,46.875000
166,42.968750
167,46.875000
168,46.875000
169,46.875000
170,46.875000
171,46.875000
172,46.875000
173,50.781250
174,50.781250
175,50.781250
176,50.781250
177,50.781250
178,50.781250
179,50.781250
180,50.781250
181,50.781250
182,50.781250
183,54.687500
184,54.687500
185,54.687500
186,54.687500
187,54.687500
188,54.687500
189,54.687500
190,54.687500
191,58.593750
192,58.593750
193,58.593750
194,58.593750
195,58.593750
196,58.593750
197,58.593750
198,58.593750
199,58.593750
200,62.500000
201,58.593750
202,58.593750
203,62.500000
204,62.500000
205,62.500000
206,62.500000
207,62.500000
208,62.500000
209,62.500000
210,62.500000
211,62.500000
212,62.500000
213,66.406250
214,66.406250
215,66.406250
216,66.406250
217,66.406250
218,66.406250
219,66.406250
220,66.406250
221,66.406250
222,66.406250
223,70.312500
224,66.406250
225,70.312500
226,70.312500
227,70.312500
228,70.312500
229,70.312500
230,70.312500
231,70.312500
232,70.312500
233,70.312500
234,70.312500
235,70.312500
236,70.312500
237,70.312500
238,70.312500
239,74.218750
240,74.218750
241,74.218750
242,74.218750
243,74.218750
244,74.218750
245,74.218750
246,74.218750
247,74.218750
248,74.218750
249,74.218750
250,74.218750
251,74.218750
252,74.218750
253,74.218750
254,74.218750
255,74.218750
256,78.125000
257,78.125000
258,78.125000
259,78.125000
260,78.125000
261,78.125000
262,78.125000
263,78.125000
264,78.125000
265,78.125000
266,78.125000
267,82.031250
268,78.125000
269,78.125000
270,78.125000
271,78.125000
272,78.125000
273,78.125000
274,78.125000
275,82.031250
276,78.125000
277,78.125000
278,78.125000
279,78.125000
280,82.031250
281,82.031250
282,82.031250
283,82.031250
284,82.031250
285,82.031250
286,82.031250
287,82.031250
288,82.031250
289,82.031250
290,82.031250
291,82.031250
292,82.031250
293,82.031250
294,82.031250
295,82.031250
296,82.031250
297,82.031250
298,82.031250
299,82.031250
300,82.031250
301,82.031250
302,82.031250
303,82.031250
304,82.031250
305,82.031250
306,82.031250
307,82.031250
308,82.031250
309,82.031250
310,82.031250
311,82.031250
312,82.031250
313,82.031250
314,82.031250
315,82.031250
316,82.031250
317,82.031250
318,82.031250
319,82.031250
320,82.031250
321,82.031250
322,82.031250
323,82.031250
324,82.031250
325,82.031250
326,82.031250
327,82.031250
328,82.031250
329,82.031250
330,82.031250
331,82.031250
332,82.031250
333,82.031250
334,82.031250
335,82.031250
336,82.031250
337,82.031250
338,82.031250
339,82.031250
340,82.031250
341,82.031250
342,82.031250
343,82.031250
344,82.031250
345,82.031250
346,82.031250
347,82.031250
348,82.031250
349,82.031250
350,82.031250
351,82.031250
352,82.031250
353,82.031250
354,82.031250
355,78.125000
356,78.125000
357,78.125000
358,78.125000
359,78.125000
360,78.125000
361,78.125000
362,78.125000
363,78.125000
364,78.125000
365,78.125000
366,78.125000
367,78.125000
368,78.125000
369,78.125000
370,78.125000
371,78.125000
372,78.125000
373,78.125000
374,78.125000
375,78.125000
376,78.125000
377,74.218750
378,78.125000
379,74.218750
380,74.218750
381,74.218750
382,74.218750
383,74.218750
384,74.218750
385,74.218750
386,74.218750
387,74.218750
388,74.218750
389,74.218750
390,74.218750
391,70.312500
392,74.218750
393,74.218750
394,74.218750
395,74.218750
396,70.312500
397,70.312500
398,70.312500
399,70.312500
400,70.312500
401,70.312500
402,70.312500
403,70.312500
404,70.312500
405,70.312500
406,70.312500
407,70.312500
408,66.406250
409,66.406250
410,66.406250
411,66.406250
412,66.406250
413,66.406250
414,66.406250
415,66.406250
416,66.406250
417,66.406250
418,66.406250
419,62.500000
420,62.500000
421,62.500000
422,62.500000
423,62.500000
424,62.500000
425,62.500000
426,62.500000
427,62.500000
428,62.500000
429,62.500000
430,62.500000
431,62.500000
432,62.500000
433,58.593750
434,58.593750
435,58.593750
436,58.593750
437,58.593750
438,58.593750
439,58.593750
440,58.593750
441,58.593750
442,58.593750
443,54.687500
444,54.687500
445,54.687500
446,54.687500
447,54.687500
448,54.687500
449,54.687500
450,54.687500
451,50.781250
452,50.781250
453,50.781250
454,50.781250
455,50.781250
456,50.781250
457,50.781250
458,50.781250
459,50.781250
460,50.781250
461,46.875000
462,46.875000
463,46.875000
464,46.875000
465,46.875000
466,46.875000
467,46.875000
468,46.875000
469,46.875000
470,42.968750
471,42.968750
472,42.968750
473,42.968750
474,42.968750
475,42.968750
476,42.968750
477,39.062500
478,39.062500
479,39.062500
480,39.062500
481,39.062500
482,39.062500
483,39.062500
484,39.062500
485,35.156250
486,35.156250
487,35.156250
488,35.156250
489,35.156250
490,35.156250
491,31.250000
492,31.250000
493,31.250000
494,31.250000
495,31.250000
496,31.250000
497,31.250000
498,27.343750
499,27.343750
500,27.343750
501,27.343750
502,27.343750
503,27.343750
504,27.343750
505,27.343750
506,23.437500
507,23.437500
508,23.437500
509,23.437500
510,23.437500
511,23.437500
512,23.437500
513,19.531250
514,19.531250
515,19.531250
516,19.531250
517,19.531250
518,19.531250
519,15.625000
520,15.625000
521,15.625000
522,15.625000
523,15.625000
524,15.625000
525,15.625000
526,11.718750
527,11.718750
528,11.718750
529,11.718750
530,11.718750
531,11.718750
532,11.718750
533,7.812500
534,7.812500
535,7.812500
536,7.812500
537,7.812500
538,7.812500
539,3.906250
540,3.906250
541,3.906250
542,3.906250
543,3.906250
544,3.906250
545,0.000000
546,0.000000
547,0.000000
548,0.000000
549,0.000000
550,0.000000
551,0.000000
552,0.000000
553,-3.906250
554,-3.906250
555,-3.906250
556,-3.906250
557,-3.906250
558,-7.812500
559,-7.812500
560,-7.812500
561,-7.812500
562,-7.812500
563,-7.812500
564,-7.812500
565,-11.718750
566,-11.718750
567,-11.718750
568,-11.718750
569,-11.718750
570,-11.718750
571,-15.625000
572,-15.625000
573,-15.625000
574,-15.625000
575,-15.625000
576,-15.625000
577,-15.625000
578,-19.531250
579,-19.531250
580,-19.531250
581,-19.531250
582,-23.437500
583,-23.437500
584,-23.437500
585,-23.437500
586,-23.437500
587,-23.437500
588,-23.437500
589,-27.343750
590,-27.343750
591,-27.343750
592,-27.343750
593,-27.343750
594,-27.343750
595,-27.343750
596,-31.250000
597,-31.250000
598,-31.250000
599,-31.250000
600,-31.250000
601,-31.250000
602,-35.156250
603,-35.156250
604,-35.156250
605,-35.156250
606,-35.156250
607,-39.062500
608,-39.062500
609,-39.062500
610,-39.062500
611,-39.062500
612,-39.062500
613,-42.968750
614,-42.968750
615,-42.968750
616,-42.968750
617,-42.968750
618,-42.968750
619,-42.968750
620,-42.968750
621,-46.875000
622,-46.875000
623,-46.875000
624,-46.875000
625,-50.781250
626,-50.781250
627,-50.781250
628,-50.781250
629,-50.781250
630,-50.781250
631,-50.781250
632,-54.687500
633,-54.687500
634,-54.687500
635,-54.687500
636,-54.687500
637,-54.687500
638,-54.687500
639,-58.593750
640,-58.593750
641,-58.593750
642,-58.593750
643,-58.593750
644,-62.500000
645,-58.593750
646,-62.500000
647,-62.500000
648,-62.500000
649,-62.500000
650,-62.500000
651,-66.406250
652,-66.406250
653,-66.406250
654,-66.406250
655,-66.406250
656,-66.406250
657,-66.406250
658,-70.312500
659,-70.312500
660,-70.312500
661,-70.312500
662,-70.312500
663,-70.312500
664,-70.312500
665,-70.312500
666,-74.218750
667,-74.218750
668,-74.218750
669,-74.218750
670,-74.218750
671,-74.218750
672,-74.218750
673,-78.125000
674,-78.125000
675,-78.125000
676,-78.125000
677,-78.125000
678,-78.125000
679,-78.125000
680,-78.125000
681,-82.031250
682,-82.031250
683,-82.031250
684,-82.031250
685,-82.031250
686,-82.031250
687,-82.031250
688,-82.031250
689,-82.031250
690,-85.937500
691,-85.937500
692,-85.937500
693,-85.937500
694,-85.937500
695,-85.937500
696,-85.937500
697,-89.843750
698,-89.843750
699,-89.843750
700,-89.843750
701,-89.843750
702,-89.843750
703,-89.843750
704,-89.843750
705,-89.843750
706,-89.843750
707,-93.750000
708,-93.750000
709,-93.750000
710,-93.750000
711,-93.750000
712,-93.750000
713,-93.750000
714,-93.750000
715,-97.656250
716,-97.656250
717,-97.656250
718,-97.656250
719,-97.656250
720,-97.656250
721,-97.656250
722,-97.656250
723,-97.656250
724,-101.562500
725,-101.562500
726,-101.562500
727,-101.562500
728,-101.562500
729,-101.562500
730,-101.562500
731,-101.562500
732,-101.562500
733,-101.562500
734,-101.562500
735,-105.468750
736,-105.468750
737,-105.468750
738,-105.468750
739,-105.468750
740,-105.468750
741,-105.468750
742,-105.468750
743,-105.468750
744,-105.468750
745,-105.468750
746,-105.468750
747,-105.468750
748,-105.468750
749,-109.375000
750,-109.375000
751,-109.375000
752,-109.375000
753,-109.375000
754,-109.375000
755,-109.375000
756,-109.375000
757,-109.375000
758,-109.375000
759,-109.375000
760,-109.375000
761,-109.375000
762,-109.375000
763,-109.375000
764,-109.375000
765,-113.281250
766,-113.281250
767,-113.281250
768,-113.281250
769,-113.281250
770,-113.281250
771,-113.281250
772,-113.281250
773,-113.281250
774,-113.281250
775,-113.281250
776,-113.281250
777,-113.281250
778,-113.281250
779,-113.281250
780,-113.281250
781,-113.281250
782,-113.281250
783,-113.281250
784,-113.281250
785,-113.281250
786,-117.187500
787,-117.187500
788,-117.187500
789,-113.281250
790,-117.187500
791,-113.281250
792,-117.187500
793,-117.187500
794,-117.187500
795,-117.187500
796,-117.187500
797,-117.187500
798,-117.187500
799,-117.187500
800,-117.187500
801,-117.187500
802,-117.187500
803,-117.187500
804,-117.187500
805,-117.187500
806,-117.187500
807,-117.187500
808,-117.187500
809,-117.187500
810,-117.187500
811,-117.187500
812,-117.187500
813,-117.187500
814,-117.187500
815,-117.187500
816,-117.187500
817,-117.187500
818,-117.187500
819,-117.187500
820,-117.187500
821,-117.187500
822,-117.187500
823,-117.187500
824,-117.187500
825,-117.187500
826,-117.187500
827,-117.187500
828,-117.187500
829,-117.187500
830,-117.187500
831,-117.187500
832,-117.187500
833,-117.187500
834,-117.187500
835,-113.281250
836,-113.281250
837,-117.187500
838,-117.187500
839,-113.281250
840,-113.281250
841,-113.281250
842,-113.281250
843,-113.281250
844,-113.281250
845,-113.281250
846,-113.281250
847,-113.281250
848,-113.281250
849,-113.281250
850,-113.281250
851,-113.281250
852,-113.281250
853,-113.281250
854,-113.281250
855,-113.281250
856,-113.281250
857,-113.281250
858,-113.281250
859,-113.281250
860,-109.375000
861,-109.375000
862,-109.375000
863,-109.375000
864,-109.375000
865,-109.375000
866,-109.375000
867,-109.375000
868,-109.375000
869,-109.375000
870,-109.375000
871,-109.375000
872,-109.375000
873,-109.375000
874,-109.375000
875,-109.375000
876,-105.468750
877,-105.468750
878,-105.468750
879,-105.468750
880,-105.468750
881,-105.468750
882,-105.468750
883,-105.468750
884,-105.468750
885,-105.468750
886,-105.468750
887,-105.468750
888,-105.468750
889,-105.468750
890,-101.562500
891,-101.562500
892,-101.562500
893,-101.562500
894,-101.562500
895,-101.562500
896,-101.562500
897,-101.562500
898,-101.562500
899,-101.562500
900,-101.562500
901,-101.562500
902,-101.562500
903,-97.656250
904,-97.656250
905,-97.656250
906,-97.656250
907,-97.656250
908,-97.656250
909,-97.656250
910,-97.656250
911,-97.656250
912,-97.656250
913,-93.750000
914,-93.750000
915,-93.750000
916,-93.750000
917,-93.750000
918,-93.750000
919,-93.750000
920,-93.750000
921,-89.843750
922,-89.843750
923,-89.843750
924,-89.843750
925,-89.843750
926,-89.843750
927,-89.843750
928,-89.843750
929,-89.843750
930,-85.937500
931,-85.937500
932,-85.937500
933,-85.937500
934,-85.937500
935,-85.937500
936,-85.937500
937,-85.937500
938,-85.937500
939,-82.031250
940,-82.031250
941,-82.031250
942,-82.031250
943,-78.125000
944,-82.031250
945,-78.125000
946,-78.125000
947,-78.125000
948,-78.125000
949,-78.125000
950,-78.125000
951,-78.125000
952,-74.218750
953,-74.218750
954,-74.218750
955,-74.218750
956,-74.218750
957,-74.218750
958,-74.218750
959,-74.218750
960,-70.312500
961,-70.312500
962,-70.312500
963,-70.312500
964,-70.312500
965,-70.312500
966,-66.406250
967,-66.406250
968,-66.406250
969,-66.406250
970,-66.406250
971,-66.406250
972,-66.406250
973,-66.406250
974,-62.500000
975,-62.500000
976,-62.500000
977,-62.500000
978,-62.500000
979,-62.500000
980,-58.593750
981,-58.593750
982,-58.593750
983,-58.593750
984,-58.593750
985,-58.593750
986,-54.687500
987,-54.687500
988,-54.687500
989,-54.687500
990,-54.687500
991,-54.687500
992,-54.687500
993,-50.781250
994,-50.781250
995,-50.781250
996,-50.781250
997,-50.781250
998,-50.781250
999,-46.875000
1000,-46.875000
1001,-46.875000
1002,-46.875000
1003,-46.875000
1004,-46.875000
1005,-42.968750
1006,-42.968750
1007,-42.968750
1008,-42.968750
1009,-42.968750
1010,-42.968750
1011,-42.968750
1012,-39.062500
1013,-39.062500
1014,-39.062500
1015,-39.062500
1016,-39.062500
1017,-39.062500
1018,-35.156250
1019,-35.156250
1020,-35.156250
1021,-35.156250
1022,-35.156250
1023,-35.156250
1024,-31.250000
1025,-31.250000
1026,-31.250000
1027,-31.250000
1028,-31.250000
1029,-31.250000
1030,-31.250000
1031,-27.343750
1032,-27.343750
1033,-27.343750
1034,-27.343750
1035,-27.343750
1036,-27.343750
1037,-23.437500
1038,-23.437500
1039,-23.437500
1040,-23.437500
1041,-23.437500
1042,-19.531250
1043,-19.531250
1044,-19.531250
1045,-19.531250
1046,-19.531250
1047,-19.531250
1048,-15.625000
1049,-15.625000
1050,-15.625000
1051,-15.625000
1052,-15.625000
1053,-15.625000
1054,-11.718750
1055,-11.718750
1056,-11.718750
1057,-11.718750
1058,-11.718750
1059,-11.718750
1060,-7.812500
1061,-7.812500
1062,-7.812500
1063,-7.812500
1064,-7.812500
1065,-7.812500
1066,-3.906250
1067,-3.906250
1068,-3.906250
1069,-3.906250
1070,-3.906250
1071,-3.906250
1072,-3.906250
1073,-3.906250
1074,0.000000
1075,0.000000
1076,0.000000
1077,0.000000
1078,0.000000
1079,0.000000
1080,3.906250
1081,3.906250
1082,3.906250
1083,3.906250
1084,3.906250
1085,7.812500
1086,7.812500
1087,7.812500
1088,7.812500
1089,7.812500
1090,7.812500
1091,7.812500
1092,11.718750
1093,11.718750
1094,11.718750
1095,11.718750
1096,11.718750
1097,11.718750
1098,15.625000
1099,15.625000
1100,15.625000
1101,15.625000
1102,15.625000
1103,15.625000
1104,19.531250
1105,19.531250
1106,19.531250
1107,19.531250
1108,19.531250
1109,19.531250
1110,19.531250
1111,23.437500
1112,23.437500
1113,23.437500
1114,23.437500
1115,23.437500
1116,23.437500
1117,23.437500
1118,27.343750
1119,27.343750
1120,27.343750
1121,27.343750
1122,27.343750
1123,27.343750
1124,27.343750
1125,27.343750
1126,31.250000
1127,31.250000
1128,31.250000
1129,31.250000
1130,31.250000
1131,31.250000
1132,31.250000
1133,31.250000
1134,35.156250
1135,35.156250
1136,35.156250
1137,35.156250
1138,35.156250
1139,35.156250
1140,39.062500
1141,39.062500
1142,39.062500
1143,39.062500
1144,39.062500
1145,39.062500
1146,39.062500
1147,39.062500
1148,42.968750
1149,39.062500
1150,42.968750
1151,42.968750
1152,42.968750
1153,42.968750
1154,46.875000
1155,42.968750
1156,46.875000
1157,46.875000
1158,46.875000
1159,46.875000
1160,46.875000
1161,46.875000
1162,46.875000
1163,46.875000
1164,50.781250
1165,50.781250
1166,50.781250
1167,50.781250
1168,50.781250
1169,50.781250
1170,50.781250
1171,50.781250
1172,50.781250
1173,54.687500
1174,54.687500
1175,54.687500
1176,54.687500
1177,54.687500
1178,54.687500
1179,54.687500
1180,54.687500
1181,54.687500
1182,58.593750
1183,58.593750
1184,58.593750
1185,58.593750
1186,58.593750
1187,58.593750
1188,58.593750
1189,58.593750
1190,62.500000
1191,58.593750
1192,58.593750
1193,62.500000
1194,62.500000
1195,62.500000
1196,62.500000
1197,62.500000
1198,62.500000
1199,62.500000
1200,62.500000
1201,62.500000
1202,66.406250
1203,66.406250
1204,66.406250
1205,66.406250
1206,66.406250
1207,66.406250
1208,66.406250
1209,66.406250
1210,66.406250
1211,66.406250
1212,66.406250
1213,66.406250
1214,66.406250
1215,70.312500
1216,70.312500
1217,70.312500
1218,70.312500
1219,70.312500
1220,70.312500
1221,70.312500
1222,70.312500
1223,70.312500
1224,70.312500
1225,70.312500
1226,70.312500
1227,74.218750
1228,74.218750
1229,74.218750
1230,74.218750
1231,74.218750
1232,74.218750
1233,74.218750
1234,74.218750
1235,74.218750
1236,74.218750
1237,74.218750
1238,74.218750
1239,74.218750
1240,74.218750
1241,74.218750
1242,74.218750
1243,78.125000
1244,78.125000
1245,78.125000
1246,78.125000
1247,78.125000
1248,78.125000
1249,78.125000
1250,78.125000
1251,78.125000
1252,78.125000
1253,78.125000
1254,78.125000
1255,78.125000
1256,78.125000
1257,78.125000
1258,78.125000
1259,78.125000
1260,78.125000
1261,78.125000
1262,78.125000
1263,78.125000
1264,78.125000
1265,78.125000
1266,82.031250
1267,82.031250
1268,82.031250
1269,82.031250
1270,78.125000
1271,82.031250
1272,82.031250
1273,82.031250
1274,82.031250
1275,82.031250
1276,82.031250
1277,82.031250
1278,82.031250
1279,82.031250
1280,82.031250
1281,82.031250
1282,82.031250
1283,82.031250
1284,82.031250
1285,82.031250
1286,82.031250
1287,82.031250
1288,82.031250
1289,82.031250
1290,82.031250
1291,82.031250
1292,82.031250
1293,82.031250
1294,82.031250
1295,82.031250
1296,82.031250
1297,82.031250
1298,82.031250
1299,82.031250
1300,82.031250
1301,82.031250
1302,82.031250
1303,82.031250
1304,82.031250
1305,82.031250
1306,82.031250
1307,82.031250
1308,82.031250
1309,82.031250
1310,82.031250
1311,82.031250
1312,82.031250
1313,82.031250
1314,82.031250
1315,82.031250
1316,82.031250
1317,82.031250
1318,82.031250
1319,82.031250
1320,82.031250
1321,82.031250
1322,82.031250
1323,82.031250
1324,82.031250
1325,82.031250
1326,82.031250
1327,82.031250
1328,82.031250
1329,82.031250
1330,82.031250
1331,82.031250
1332,82.031250
1333,82.031250
1334,82.031250
1335,82.031250
1336,82.031250
1337,82.031250
1338,82.031250
1339,82.031250
1340,82.031250
1341,82.031250
1342,82.031250
1343,82.031250
1344,82.031250
1345,82.031250
1346,82.031250
1347,82.031250
1348,82.031250
1349,78.125000
1350,78.125000
1351,78.125000
1352,78.125000
1353,78.125000
1354,78.125000
1355,78.125000
1356,78.125000
1357,78.125000
1358,78.125000
1359,78.125000
1360,78.125000
1361,78.125000
1362,78.125000
1363,78.125000
1364,78.125000
1365,78.125000
1366,78.125000
1367,78.125000
1368,78.125000
1369,78.125000
1370,78.125000
1371,74.218750
1372,74.218750
1373,74.218750
1374,74.218750
1375,74.218750
1376,74.218750
1377,74.218750
1378,74.218750
1379,74.218750
1380,74.218750
1381,74.218750
1382,74.218750
1383,74.218750
1384,74.218750
1385,74.218750
1386,74.218750
1387,70.312500
1388,70.312500
1389,70.312500
1390,70.312500
1391,70.312500
1392,70.312500
1393,70.312500
1394,70.312500
1395,70.312500
1396,70.312500
1397,70.312500
1398,70.312500
1399,70.312500
1400,66.406250
1401,66.406250
1402,66.406250
1403,66.406250
1404,66.406250
1405,66.406250
1406,66.406250
1407,66.406250
1408,66.406250
1409,66.406250
1410,66.406250
1411,62.500000
1412,62.500000
1413,62.500000
1414,62.500000
1415,62.500000
1416,62.500000
1417,62.500000
1418,62.500000
1419,62.500000
1420,62.500000
1421,58.593750
1422,62.500000
1423,58.593750
1424,58.593750
1425,58.593750
1426,58.593750
1427,58.593750
1428,58.593750
1429,58.593750
1430,58.593750
1431,54.687500
1432,54.687500
1433,54.687500
1434,54.687500
1435,54.687500
1436,54.687500
1437,54.687500
1438,54.687500
1439,54.687500
1440,54.687500
1441,50.781250
1442,50.781250
1443,50.781250
1444,50.781250
1445,50.781250
1446,50.781250
1447,50.781250
1448,50.781250
1449,50.781250
1450,46.875000
1451,46.875000
1452,46.875000
1453,46.875000
1454,46.875000
1455,46.875000
1456,46.875000
1457,46.875000
1458,46.875000
1459,42.968750
1460,42.968750
1461,42.968750
1462,42.968750
1463,42.968750
1464,42.968750
1465,42.968750
1466,42.968750
1467,42.968750
1468,39.062500
1469,39.062500
1470,39.062500
1471,39.062500
1472,39.062500
1473,39.062500
1474,39.062500
1475,39.062500
1476,35.156250
1477,35.156250
1478,35.156250
1479,35.156250
1480,35.156250
1481,31.250000
1482,35.156250
1483,31.250000
1484,31.250000
1485,31.250000
1486,31.250000
1487,31.250000
1488,31.250000
1489,27.343750
1490,31.250000
1491,27.343750
1492,27.343750
1493,27.343750
1494,27.343750
1495,27.343750
1496,27.343750
1497,23.437500
1498,23.437500
1499,23.437500
1500,23.437500
1501,23.437500
1502,23.437500
1503,23.437500
1504,19.531250
1505,19.531250
1506,19.531250
1507,19.531250
1508,19.531250
1509,19.531250
1510,19.531250
1511,19.531250
1512,15.625000
1513,15.625000
1514,15.625000
1515,15.625000
1516,11.718750
1517,11.718750
1518,11.718750
1519,11.718750
1520,11.718750
1521,11.718750
1522,11.718750
1523,7.812500
1524,7.812500
1525,7.812500
1526,7.812500
1527,7.812500
1528,7.812500
1529,7.812500
1530,7.812500
1531,3.906250
1532,3.906250
1533,3.906250
1534,3.906250
1535,3.906250
1536,0.000000
1537,0.000000
1538,0.000000
1539,0.000000
1540,0.000000
1541,0.000000
1542,0.000000
1543,-3.906250
1544,-3.906250
1545,-3.906250
1546,-3.906250
1547,-3.906250
1548,-3.906250
1549,-7.812500
1550,-7.812500
1551,-7.812500
1552,-7.812500
1553,-7.812500
1554,-11.718750
1555,-11.718750
1556,-11.718750
1557,-11.718750
1558,-11.718750
1559,-11.718750
1560,-11.718750
1561,-15.625000
1562,-15.625000
1563,-15.625000
1564,-15.625000
1565,-15.625000
1566,-19.531250
1567,-19.531250
1568,-19.531250
1569,-19.531250
1570,-19.531250
1571,-19.531250
1572,-19.531250
1573,-23.437500
1574,-23.437500
1575,-23.437500
1576,-23.437500
1577,-23.437500
1578,-23.437500
1579,-27.343750
1580,-27.343750
1581,-27.343750
1582,-27.343750
1583,-27.343750
1584,-27.343750
1585,-27.343750
1586,-31.250000
1587,-31.250000
1588,-31.250000
1589,-31.250000
1590,-31.250000
1591,-35.156250
1592,-35.156250
1593,-35.156250
1594,-35.156250
1595,-35.156250
1596,-35.156250
1597,-35.156250
1598,-39.062500
1599,-39.062500
1600,-39.062500
1601,-39.062500
1602,-39.062500
1603,-39.062500
1604,-39.062500
1605,-42.968750
1606,-42.968750
1607,-42.968750
1608,-42.968750
1609,-42.968750
1610,-46.875000
1611,-46.875000
1612,-46.875000
1613,-46.875000
1614,-46.875000
1615,-46.875000
1616,-50.781250
1617,-50.781250
1618,-50.781250
1619,-50.781250
1620,-50.781250
1621,-50.781250
1622,-50.781250
1623,-54.687500
1624,-54.687500
1625,-54.687500
1626,-54.687500
1627,-54.687500
1628,-54.687500
1629,-54.687500
1630,-58.593750
1631,-58.593750
1632,-58.593750
1633,-58.593750
1634,-58.593750
1635,-58.593750
1636,-58.593750
1637,-62.500000
1638,-62.500000
1639,-62.500000
1640,-62.500000
1641,-62.500000
1642,-62.500000
1643,-62.500000
1644,-66.406250
1645,-66.406250
1646,-66.406250
1647,-66.406250
1648,-66.406250
1649,-70.312500
1650,-66.406250
1651,-70.312500
1652,-70.312500
1653,-70.312500
1654,-70.312500
1655,-70.312500
1656,-74.218750
1657,-74.218750
1658,-74.218750
1659,-74.218750
1660,-74.218750
1661,-74.218750
1662,-74.218750
1663,-74.218750
1664,-78.125000
1665,-78.125000
1666,-78.125000
1667,-78.125000
1668,-78.125000
1669,-78.125000
1670,-78.125000
1671,-78.125000
1672,-82.031250
1673,-82.031250
1674,-82.031250
1675,-82.031250
1676,-82.031250
1677,-82.031250
1678,-82.031250
1679,-82.031250
1680,-85.937500
1681,-85.937500
1682,-85.937500
1683,-85.937500
1684,-85.937500
1685,-85.937500
1686,-85.937500
1687,-89.843750
1688,-89.843750
1689,-89.843750
1690,-89.843750
1691,-89.843750
1692,-89.843750
1693,-89.843750
1694,-89.843750
1695,-89.843750
1696,-93.750000
1697,-93.750000
1698,-93.750000
1699,-93.750000
1700,-93.750000
1701,-93.750000
1702,-93.750000
1703,-93.750000
1704,-93.750000
1705,-97.656250
1706,-97.656250
1707,-97.656250
1708,-97.656250
1709,-97.656250
1710,-97.656250
1711,-97.656250
1712,-97.656250
1713,-97.656250
1714,-97.656250
1715,-101.562500
1716,-101.562500
1717,-101.562500
1718,-101.562500
1719,-101.562500
1720,-101.562500
1721,-101.562500
1722,-101.562500
1723,-101.562500
1724,-101.562500
1725,-101.562500
1726,-101.562500
1727,-105.468750
1728,-105.468750
1729,-105.468750
1730,-105.468750
1731,-105.468750
1732,-105.468750
1733,-105.468750
1734,-105.468750
1735,-105.468750
1736,-105.468750
1737,-105.468750
1738,-105.468750
1739,-109.375000
1740,-109.375000
1741,-109.375000
1742,-109.375000
1743,-109.375000
1744,-109.375000
1745,-109.375000
1746,-109.375000
1747,-109.375000
1748,-109.375000
1749,-109.375000
1750,-109.375000
1751,-109.375000
1752,-109.375000
1753,-109.375000
1754,-109.375000
1755,-109.375000
1756,-113.281250
1757,-113.281250
1758,-113.281250
1759,-113.281250
1760,-113.281250
1761,-113.281250
1762,-113.281250
1763,-113.281250
1764,-113.281250
1765,-113.281250
1766,-113.281250
1767,-113.281250
1768,-113.281250
1769,-113.281250
1770,-113.281250
1771,-113.281250
1772,-113.281250
1773,-113.281250
1774,-113.281250
1775,-113.281250
1776,-113.281250
1777,-113.281250
1778,-113.281250
1779,-113.281250
1780,-113.281250
1781,-113.281250
1782,-117.187500
1783,-113.281250
1784,-117.187500
1785,-117.187500
1786,-117.187500
1787,-117.187500
1788,-117.187500
1789,-117.187500
1790,-117.187500
1791,-117.187500
1792,-117.187500
1793,-117.187500
1794,-117.187500
1795,-117.187500
1796,-117.187500
1797,-117.187500
1798,-117.187500
1799,-117.187500
1800,-117.187500
1801,-117.187500
1802,-117.187500
1803,-117.187500
1804,-117.187500
1805,-117.187500
1806,-117.187500
1807,-117.187500
1808,-117.187500
1809,-117.187500
1810,-117.187500
1811,-117.187500
1812,-117.187500
1813,-117.187500
1814,-117.187500
1815,-117.187500
1816,-117.187500
1817,-117.187500
1818,-117.187500
1819,-117.187500
1820,-117.187500
1821,-117.187500
1822,-117.187500
1823,-117.187500
1824,-117.187500
1825,-117.187500
1826,-117.187500
1827,-117.187500
1828,-113.281250
1829,-113.281250
1830,-113.281250
1831,-113.281250
1832,-113.281250
1833,-113.281250
1834,-113.281250
1835,-113.281250
1836,-113.281250
1837,-113.281250
1838,-113.281250
1839,-113.281250
1840,-113.281250
1841,-113.281250
1842,-113.281250
1843,-113.281250
1844,-113.281250
1845,-113.281250
1846,-113.281250
1847,-113.281250
1848,-109.375000
1849,-113.281250
1850,-109.375000
1851,-109.375000
1852,-109.375000
1853,-109.375000
1854,-109.375000
1855,-109.375000
1856,-109.375000
1857,-109.375000
1858,-109.375000
1859,-109.375000
1860,-109.375000
1861,-109.375000
1862,-109.375000
1863,-109.375000
1864,-109.375000
1865,-109.375000
1866,-105.468750
1867,-105.468750
1868,-105.468750
1869,-105.468750
1870,-105.468750
1871,-105.468750
1872,-105.468750
1873,-105.468750
1874,-105.468750
1875,-105.468750
1876,-105.468750
1877,-105.468750
1878,-105.468750
1879,-105.468750
1880,-101.562500
1881,-101.562500
1882,-101.562500
1883,-101.562500
1884,-101.562500
1885,-101.562500
1886,-101.562500
1887,-101.562500
1888,-101.562500
1889,-101.562500
1890,-97.656250
1891,-97.656250
1892,-97.656250
1893,-97.656250
1894,-97.656250
1895,-97.656250
1896,-97.656250
1897,-97.656250
1898,-97.656250
1899,-97.656250
1900,-97.656250
1901,-93.750000
1902,-93.750000
1903,-93.750000
1904,-93.750000
1905,-93.750000
1906,-93.750000
1907,-93.750000
1908,-93.750000
1909,-93.750000
1910,-93.750000
1911,-89.843750
1912,-89.843750
1913,-89.843750
1914,-89.843750
1915,-89.843750
1916,-89.843750
1917,-89.843750
1918,-89.843750
1919,-85.937500
1920,-85.937500
1921,-85.937500
1922,-85.937500
1923,-85.937500
1924,-85.937500
1925,-85.937500
1926,-85.937500
1927,-82.031250
1928,-82.031250
1929,-82.031250
1930,-82.031250
1931,-82.031250
1932,-82.031250
1933,-82.031250
1934,-78.125000
1935,-78.125000
1936,-78.125000
1937,-78.125000
1938,-78.125000
1939,-78.125000
1940,-78.125000
1941,-78.125000
1942,-74.218750
1943,-74.218750
1944,-74.218750
1945,-74.218750
1946,-74.218750
1947,-74.218750
1948,-74.218750
1949,-74.218750
1950,-70.312500
1951,-70.312500
1952,-70.312500
1953,-70.312500
1954,-70.312500
1955,-70.312500
1956,-66.406250
1957,-66.406250
1958,-66.406250
1959,-66.406250
1960,-66.406250
1961,-66.406250
1962,-66.406250
1963,-62.500000
1964,-62.500000
1965,-62.500000
1966,-62.500000
1967,-62.500000
1968,-62.500000
1969,-62.500000
1970,-58.593750
1971,-58.593750
1972,-58.593750
1973,-58.593750
1974,-58.593750
1975,-58.593750
1976,-54.687500
1977,-54.687500
1978,-54.687500
1979,-54.687500
1980,-54.687500
1981,-54.687500
1982,-50.781250
1983,-50.781250
1984,-50.781250
1985,-50.781250
1986,-50.781250
1987,-50.781250
1988,-50.781250
1989,-50.781250
1990,-46.875000
1991,-46.875000
1992,-46.875000
1993,-46.875000
1994,-42.968750
1995,-42.968750
1996,-42.968750
1997,-42.968750
1998,-42.968750
1999,-42.968750
2000,-42.968750
2001,-42.968750
2002,-39.062500
2003,-39.062500
2004,-39.062500
2005,-39.062500
2006,-39.062500
2007,-39.062500
2008,-35.156250
2009,-35.156250
2010,-35.156250
2011,-35.156250
2012,-35.156250
2013,-31.250000
2014,-31.250000
2015,-31.250000
2016,-31.250000
2017,-31.250000
2018,-31.250000
2019,-31.250000
2020,-27.343750
2021,-27.343750
2022,-27.343750
2023,-27.343750
2024,-27.343750
2025,-27.343750
2026,-23.437500
2027,-23.437500
2028,-23.437500
2029,-23.437500
2030,-23.437500
2031,-23.437500
2032,-19.531250
2033,-19.531250
2034,-19.531250
2035,-19.531250
2036,-19.531250
2037,-19.531250
2038,-19.531250
2039,-15.625000
2040,-15.625000
2041,-15.625000
2042,-15.625000
2043,-15.625000
2044,-11.718750
2045,-11.718750
2046,-11.718750
2047,-11.718750
2048,-11.718750
2049,-11.718750
2050,-11.718750
2051,-7.812500
2052,-7.812500
2053,-7.812500
2054,-7.812500
2055,-7.812500
2056,-3.906250
2057,-3.906250
2058,-3.906250
2059,-3.906250
2060,-3.906250
2061,-3.906250
2062,-3.906250
2063,0.000000
2064,0.000000
2065,0.000000
2066,0.000000
2067,0.000000
2068,3.906250
2069,0.000000
2070,3.906250
2071,3.906250
2072,3.906250
2073,3.906250
2074,7.812500
2075,7.812500
2076,7.812500
2077,7.812500
2078,7.812500
2079,7.812500
2080,7.812500
2081,7.812500
2082,11.718750
2083,11.718750
2084,11.718750
2085,11.718750
2086,11.718750
2087,15.625000
2088,15.625000
2089,15.625000
2090,15.625000
2091,15.625000
2092,15.625000
2093,15.625000
2094,15.625000
2095,19.531250
2096,19.531250
2097,19.531250
2098,19.531250
2099,19.531250
2100,19.531250
2101,19.531250
2102,23.437500
2103,23.437500
2104,23.437500
2105,23.437500
2106,23.437500
2107,27.343750
2108,27.343750
2109,27.343750
2110,27.343750
2111,27.343750
2112,27.343750
2113,27.343750
2114,27.343750
2115,31.250000
2116,31.250000
2117,31.250000
2118,31.250000
2119,31.250000
2120,31.250000
2121,31.250000
2122,31.250000
2123,35.156250
2124,35.156250
2125,35.156250
2126,35.156250
2127,35.156250
2128,35.156250
2129,39.062500
2130,39.062500
2131,39.062500
2132,39.062500
2133,39.062500
2134,39.062500
2135,39.062500
2136,42.968750
2137,42.968750
2138,42.968750
2139,42.968750
2140,42.968750
2141,42.968750
2142,42.968750
2143,46.875000
2144,46.875000
2145,46.875000
2146,46.875000
2147,46.875000
2148,46.875000
2149,46.875000
2150,46.875000
2151,46.875000
2152,46.875000
2153,46.875000
2154,50.781250
2155,50.781250
2156,50.781250
2157,50.781250
2158,50.781250
2159,50.781250
2160,54.687500
2161,50.781250
2162,54.687500
2163,54.687500
2164,54.687500
2165,54.687500
2166,54.687500
2167,54.687500
2168,54.687500
2169,54.687500
2170,54.687500
2171,58.593750
2172,58.593750
2173,58.593750
2174,58.593750
2175,58.593750
2176,58.593750
2177,58.593750
2178,58.593750
2179,58.593750
2180,58.593750
2181,62.500000
2182,62.500000
2183,62.500000
2184,62.500000
2185,62.500000
2186,62.500000
2187,62.500000
2188,62.500000
2189,62.500000
2190,62.500000
2191,62.500000
2192,66.406250
2193,66.406250
2194,66.406250
2195,66.406250
2196,66.406250
2197,66.406250
2198,66.406250
2199,66.406250
2200,66.406250
2201,66.406250
2202,70.312500
2203,70.312500
2204,70.312500
2205,70.312500
2206,70.312500
2207,70.312500
2208,70.312500
2209,70.312500
2210,70.312500
2211,70.312500
2212,70.312500
2213,70.312500
2214,70.312500
2215,70.312500
2216,70.312500
2217,70.312500
2218,70.312500
2219,74.218750
2220,74.218750
2221,74.218750
2222,74.218750
2223,74.218750
2224,74.218750
2225,74.218750
2226,74.218750
2227,74.218750
2228,74.218750
2229,74.218750
2230,74.218750
2231,74.218750
2232,78.125000
2233,78.125000
2234,78.125000
2235,78.125000
2236,78.125000
2237,78.125000
2238,78.125000
2239,78.125000
2240,78.125000
2241,78.125000
2242,78.125000
2243,78.125000
2244,78.125000
2245,78.125000
2246,78.125000
2247,78.125000
2248,78.125000
2249,78.125000
2250,82.031250
2251,78.125000
2252,82.031250
2253,78.125000
2254,82.031250
2255,82.031250
2256,82.031250
2257,78.125000
2258,82.031250
2259,82.031250
2260,82.031250
2261,82.031250
2262,82.031250
2263,82.031250
2264,82.031250
2265,82.031250
2266,82.031250
2267,82.031250
2268,82.031250
2269,82.031250
2270,82.031250
2271,82.031250
2272,82.031250
2273,82.031250
2274,82.031250
2275,82.031250
2276,82.031250
2277,82.031250
2278,82.031250
2279,82.031250
2280,82.031250
2281,82.031250
2282,82.031250
2283,82.031250
2284,82.031250
2285,82.031250
2286,82.031250
2287,82.031250
2288,82.031250
2289,82.031250
2290,82.031250
2291,82.031250
2292,82.031250
2293,82.031250
2294,82.031250
2295,82.031250
2296,82.031250
2297,82.031250
2298,82.031250
2299,82.031250
2300,82.031250
2301,82.031250
2302,82.031250
2303,82.031250
2304,82.031250
2305,82.031250
2306,82.031250
2307,82.031250
2308,82.031250
2309,82.031250
2310,82.031250
2311,82.031250
2312,82.031250
2313,82.031250
2314,82.031250
2315,82.031250
2316,82.031250
2317,82.031250
2318,82.031250
2319,82.031250
2320,82.031250
2321,82.031250
2322,82.031250
2323,82.031250
2324,82.031250
2325,82.031250
2326,82.031250
2327,82.031250
2328,82.031250
2329,82.031250
2330,82.031250
2331,82.031250
2332,82.031250
2333,82.031250
2334,82.031250
2335,82.031250
2336,82.031250
2337,82.031250
2338,78.125000
2339,78.125000
2340,82.031250
2341,78.125000
2342,78.125000
2343,78.125000
2344,78.125000
2345,78.125000
2346,78.125000
2347,78.125000
2348,78.125000
2349,78.125000
2350,78.125000
2351,78.125000
2352,78.125000
2353,78.125000
2354,78.125000
2355,78.125000
2356,78.125000
2357,78.125000
2358,78.125000
2359,78.125000
2360,74.218750
2361,74.218750
2362,74.218750
2363,74.218750
2364,74.218750
2365,74.218750
2366,74.218750
2367,74.218750
2368,74.218750
2369,74.218750
2370,74.218750
2371,74.218750
2372,74.218750
2373,74.218750
2374,74.218750
2375,74.218750
2376,74.218750
2377,74.218750
2378,74.218750
2379,70.312500
2380,70.312500
2381,70.312500
2382,70.312500
2383,70.312500
2384,70.312500
2385,70.312500
2386,70.312500
2387,70.312500
2388,70.312500
2389,70.312500
2390,66.406250
2391,66.406250
2392,66.406250
2393,66.406250
2394,66.406250
2395,66.406250
2396,66.406250
2397,66.406250
2398,66.406250
2399,66.406250
2400,66.406250
2401,66.406250
2402,62.500000
2403,62.500000
2404,62.500000
2405,62.500000
2406,62.500000
2407,62.500000
2408,62.500000
2409,62.500000
2410,62.500000
2411,62.500000
2412,62.500000
2413,58.593750
2414,58.593750
2415,58.593750
2416,58.593750
2417,58.593750
2418,58.593750
2419,58.593750
2420,58.593750
2421,58.593750
2422,58.593750
2423,58.593750
2424,54.687500
2425,54.687500
2426,54.687500
2427,54.687500
2428,54.687500
2429,54.687500
2430,54.687500
2431,54.687500
2432,54.687500
2433,50.781250
2434,50.781250
2435,50.781250
2436,50.781250
2437,50.781250
2438,50.781250
2439,50.781250
2440,50.781250
2441,50.781250
2442,46.875000
2443,46.875000
2444,46.875000
2445,46.875000
2446,46.875000
2447,46.875000
2448,46.875000
2449,42.968750
2450,46.875000
2451,42.968750
2452,42.968750
2453,42.968750
2454,42.968750
2455,42.968750
2456,42.968750
2457,42.968750
2458,39.062500
2459,39.062500
2460,39.062500
2461,39.062500
2462,39.062500
2463,39.062500
2464,39.062500
2465,35.156250
2466,35.156250
2467,35.156250
2468,35.156250
2469,35.156250
2470,35.156250
2471,35.156250
2472,35.156250
2473,35.156250
2474,31.250000
2475,31.250000
2476,31.250000
2477,31.250000
2478,31.250000
2479,31.250000
2480,27.343750
2481,27.343750
2482,27.343750
2483,27.343750
2484,27.343750
2485,27.343750
2486,27.343750
2487,27.343750
2488,23.437500
2489,23.437500
2490,23.437500
2491,23.437500
2492,23.437500
2493,19.531250
2494,19.531250
2495,19.531250
2496,19.531250
2497,19.531250
2498,19.531250
2499,19.531250
2500,19.531250
2501,15.625000
2502,15.625000
2503,15.625000
2504,15.625000
2505,15.625000
2506,15.625000
2507,15.625000
2508,15.625000
2509,11.718750
2510,11.718750
2511,11.718750
2512,11.718750
2513,11.718750
2514,7.812500
2515,7.812500
2516,7.812500
2517,7.812500
2518,7.812500
2519,7.812500
2520,7.812500
2521,3.906250
2522,3.906250
2523,3.906250
2524,3.906250
2525,3.906250
2526,3.906250
2527,3.906250
2528,0.000000
2529,0.000000
2530,0.000000
2531,0.000000
2532,0.000000
2533,-3.906250
2534,0.000000
2535,-3.906250
2536,-3.906250
2537,-3.906250
2538,-3.906250
2539,-3.906250
2540,-7.812500
2541,-7.812500
2542,-7.812500
2543,-7.812500
2544,-7.812500
2545,-7.812500
2546,-11.718750
2547,-11.718750
2548,-11.718750
2549,-11.718750
2550,-11.718750
2551,-15.625000
2552,-11.718750
2553,-15.625000
2554,-15.625000
2555,-15.625000
2556,-15.625000
2557,-15.625000
2558,-19.531250
2559,-19.531250
2560,-19.531250
2561,-19.531250
2562,-19.531250
2563,-19.531250
2564,-19.531250
2565,-23.437500
2566,-23.437500
2567,-23.437500
2568,-23.437500
2569,-23.437500
2570,-27.343750
2571,-27.343750
2572,-27.343750
2573,-27.343750
2574,-27.343750
2575,-27.343750
2576,-27.343750
2577,-31.250000
2578,-31.250000
2579,-31.250000
2580,-31.250000
2581,-31.250000
2582,-31.250000
2583,-35.156250
2584,-35.156250
2585,-35.156250
2586,-35.156250
2587,-35.156250
2588,-35.156250
2589,-39.062500
2590,-39.062500
2591,-39.062500
2592,-39.062500
2593,-39.062500
2594,-39.062500
2595,-42.968750
2596,-42.968750
2597,-42.968750
2598,-42.968750
2599,-42.968750
2600,-42.968750
2601,-46.875000
2602,-46.875000
2603,-46.875000
2604,-46.875000
2605,-46.875000
2606,-50.781250
2607,-50.781250
2608,-50.781250
2609,-50.781250
2610,-50.781250
2611,-50.781250
2612,-50.781250
2613,-50.781250
2614,-54.687500
2615,-54.687500
2616,-54.687500
2617,-54.687500
2618,-54.687500
2619,-54.687500
2620,-58.593750
2621,-58.593750
2622,-58.593750
2623,-58.593750
2624,-58.593750
2625,-58.593750
2626,-62.500000
2627,-58.593750
2628,-62.500000
2629,-62.500000
2630,-62.500000
2631,-62.500000
2632,-62.500000
2633,-66.406250
2634,-66.406250
2635,-66.406250
2636,-66.406250
2637,-66.406250
2638,-66.406250
2639,-70.312500
2640,-70.312500
2641,-70.312500
2642,-70.312500
2643,-70.312500
2644,-70.312500
2645,-70.312500
2646,-70.312500
2647,-70.312500
2648,-74.218750
2649,-74.218750
2650,-74.218750
2651,-74.218750
2652,-74.218750
2653,-74.218750
2654,-74.218750
2655,-78.125000
2656,-78.125000
2657,-78.125000
2658,-78.125000
2659,-78.125000
2660,-78.125000
2661,-82.031250
2662,-82.031250
2663,-82.031250
2664,-82.031250
2665,-82.031250
2666,-82.031250
2667,-82.031250
2668,-82.031250
2669,-82.031250
2670,-82.031250
2671,-85.937500
2672,-85.937500
2673,-85.937500
2674,-85.937500
2675,-85.937500
2676,-85.937500
2677,-85.937500
2678,-89.843750
2679,-89.843750
2680,-89.843750
2681,-89.843750
2682,-89.843750
2683,-89.843750
2684,-89.843750
2685,-89.843750
2686,-89.843750
2687,-93.750000
2688,-93.750000
2689,-93.750000
2690,-93.750000
2691,-93.750000
2692,-93.750000
2693,-93.750000
2694,-93.750000
2695,-93.750000
2696,-97.656250
2697,-97.656250
2698,-97.656250
2699,-97.656250
2700,-97.656250
2701,-97.656250
2702,-97.656250
2703,-97.656250
2704,-97.656250
2705,-97.656250
2706,-97.656250
2707,-101.562500
2708,-101.562500
2709,-101.562500
2710,-101.562500
2711,-101.562500
2712,-105.468750
2713,-101.562500
2714,-101.562500
2715,-105.468750
2716,-101.562500
2717,-101.562500
2718,-105.468750
2719,-105.468750
2720,-105.468750
2721,-105.468750
2722,-105.468750
2723,-105.468750
2724,-105.468750
2725,-105.468750
2726,-105.468750
2727,-105.468750
2728,-105.468750
2729,-105.468750
2730,-105.468750
2731,-109.375000
2732,-109.375000
2733,-109.375000
2734,-109.375000
2735,-109.375000
2736,-109.375000
2737,-109.375000
2738,-109.375000
2739,-109.375000
2740,-109.375000
2741,-109.375000
2742,-109.375000
2743,-109.375000
2744,-109.375000
2745,-113.281250
2746,-113.281250
2747,-113.281250
2748,-113.281250
2749,-113.281250
2750,-113.281250
2751,-113.281250
2752,-113.281250
2753,-113.281250
2754,-113.281250
2755,-113.281250
2756,-113.281250
2757,-113.281250
2758,-113.281250
2759,-113.281250
2760,-113.281250
2761,-113.281250
2762,-113.281250
2763,-113.281250
2764,-113.281250
2765,-113.281250
2766,-113.281250
2767,-113.281250
2768,-113.281250
2769,-113.281250
2770,-113.281250
2771,-113.281250
2772,-113.281250
2773,-117.187500
2774,-113.281250
2775,-117.187500
2776,-117.187500
2777,-113.281250
2778,-113.281250
2779,-117.187500
2780,-117.187500
2781,-117.187500
2782,-117.187500
2783,-117.187500
2784,-117.187500
2785,-117.187500
2786,-117.187500
2787,-117.187500
2788,-117.187500
2789,-117.187500
2790,-117.187500
2791,-117.187500
2792,-117.187500
2793,-117.187500
2794,-117.187500
2795,-117.187500
2796,-117.187500
2797,-117.187500
2798,-117.187500
2799,-117.187500
2800,-117.187500
2801,-117.187500
2802,-117.187500
2803,-117.187500
2804,-117.187500
2805,-117.187500
2806,-117.187500
2807,-117.187500
2808,-117.187500
2809,-117.187500
2810,-117.187500
2811,-117.187500
2812,-117.187500
2813,-113.281250
2814,-117.187500
2815,-117.187500
2816,-117.187500
2817,-117.187500
2818,-113.281250
2819,-113.281250
2820,-113.281250
2821,-113.281250
2822,-113.281250
2823,-113.281250
2824,-113.281250
2825,-113.281250
2826,-113.281250
2827,-113.281250
2828,-113.281250
2829,-113.281250
2830,-113.281250
2831,-113.281250
2832,-113.281250
2833,-113.281250
2834,-113.281250
2835,-113.281250
2836,-113.281250
2837,-113.281250
2838,-113.281250
2839,-113.281250
2840,-113.281250
2841,-109.375000
2842,-109.375000
2843,-109.375000
2844,-109.375000
2845,-109.375000
2846,-109.375000
2847,-109.375000
2848,-109.375000
2849,-109.375000
2850,-109.375000
2851,-109.375000
2852,-109.375000
2853,-109.375000
2854,-109.375000
2855,-105.468750
2856,-105.468750
2857,-105.468750
2858,-105.468750
2859,-105.468750
2860,-105.468750
2861,-105.468750
2862,-105.468750
2863,-105.468750
2864,-105.468750
2865,-105.468750
2866,-105.468750
2867,-105.468750
2868,-101.562500
2869,-101.562500
2870,-101.562500
2871,-101.562500
2872,-101.562500
2873,-101.562500
2874,-101.562500
2875,-101.562500
2876,-101.562500
2877,-101.562500
2878,-101.562500
2879,-97.656250
2880,-101.562500
2881,-97.656250
2882,-97.656250
2883,-97.656250
2884,-97.656250
2885,-97.656250
2886,-97.656250
2887,-97.656250
2888,-97.656250
2889,-93.750000
2890,-93.750000
2891,-93.750000
2892,-93.750000
2893,-93.750000
2894,-93.750000
2895,-93.750000
2896,-93.750000
2897,-93.750000
2898,-93.750000
2899,-89.843750
2900,-89.843750
2901,-89.843750
2902,-89.843750
2903,-89.843750
2904,-89.843750
2905,-89.843750
2906,-89.843750
2907,-89.843750
2908,-85.937500
2909,-85.937500
2910,-85.937500
2911,-85.937500
2912,-85.937500
2913,-85.937500
2914,-82.031250
2915,-85.937500
2916,-85.937500
2917,-82.031250
2918,-82.031250
2919,-82.031250
2920,-82.031250
2921,-82.031250
2922,-82.031250
2923,-82.031250
2924,-78.125000
2925,-78.125000
2926,-78.125000
2927,-78.125000
2928,-78.125000
2929,-78.125000
2930,-78.125000
2931,-78.125000
2932,-74.218750
2933,-74.218750
2934,-74.218750
2935,-74.218750
2936,-74.218750
2937,-74.218750
2938,-74.218750
2939,-70.312500
2940,-70.312500
2941,-70.312500
2942,-70.312500
2943,-70.312500
2944,-70.312500
2945,-70.312500
2946,-70.312500
2947,-66.406250
2948,-66.406250
2949,-66.406250
2950,-66.406250
2951,-66.406250
2952,-66.406250
2953,-66.406250
2954,-66.406250
2955,-62.500000
2956,-62.500000
2957,-62.500000
2958,-62.500000
2959,-58.593750
2960,-58.593750
2961,-58.593750
2962,-58.593750
2963,-58.593750
2964,-58.593750
2965,-58.593750
2966,-58.593750
2967,-54.687500
2968,-54.687500
2969,-54.687500
2970,-54.687500
2971,-54.687500
2972,-50.781250
2973,-50.781250
2974,-50.781250
2975,-50.781250
2976,-50.781250
2977,-50.781250
2978,-50.781250
2979,-46.875000
2980,-46.875000
2981,-46.875000
2982,-46.875000
2983,-46.875000
2984,-46.875000
2985,-46.875000
2986,-42.968750
2987,-42.968750
2988,-42.968750
2989,-42.968750
2990,-42.968750
2991,-42.968750
2992,-39.062500
2993,-39.062500
2994,-39.062500
2995,-39.062500
2996,-39.062500
2997,-39.062500
2998,-35.156250
2999,-35.156250
3000,-35.156250
3001,-35.156250
3002,-35.156250
3003,-31.250000
3004,-31.250000
3005,-31.250000
3006,-31.250000
3007,-31.250000
3008,-31.250000
3009,-31.250000
3010,-31.250000
3011,-27.343750
3012,-27.343750
3013,-27.343750
3014,-27.343750
3015,-27.343750
3016,-23.437500
3017,-23.437500
3018,-23.437500
3019,-23.437500
3020,-23.437500
3021,-23.437500
3022,-23.437500
3023,-19.531250
3024,-19.531250
3025,-19.531250
3026,-19.531250
3027,-19.531250
3028,-19.531250
3029,-15.625000
3030,-15.625000
3031,-15.625000
3032,-15.625000
3033,-15.625000
3034,-15.625000
3035,-11.718750
3036,-11.718750
3037,-11.718750
3038,-11.718750
3039,-7.812500
3040,-7.812500
3041,-7.812500
3042,-7.812500
3043,-7.812500
3044,-7.812500
3045,-7.812500
3046,-3.906250
3047,-3.906250
3048,-3.906250
3049,-3.906250
3050,-3.906250
3051,-3.906250
3052,0.000000
3053,0.000000
3054,0.000000
3055,0.000000
3056,0.000000
3057,0.000000
3058,3.906250
3059,3.906250
3060,3.906250
3061,3.906250
3062,3.906250
3063,3.906250
3064,3.906250
3065,7.812500
3066,7.812500
3067,7.812500
3068,7.812500
3069,7.812500
3070,7.812500
3071,11.718750
3072,11.718750
3073,11.718750
3074,11.718750
3075,11.718750
3076,11.718750
3077,11.718750
3078,15.625000
3079,15.625000
3080,15.625000
3081,15.625000
3082,15.625000
3083,15.625000
3084,19.531250
3085,19.531250
3086,19.531250
3087,19.531250
3088,19.531250
3089,19.531250
3090,19.531250
3091,19.531250
3092,23.437500
3093,23.437500
3094,23.437500
3095,23.437500
3096,27.343750
3097,23.437500
3098,27.343750
3099,27.343750
3100,27.343750
3101,27.343750
3102,27.343750
3103,27.343750
3104,27.343750
3105,31.250000
3106,31.250000
3107,31.250000
3108,31.250000
3109,31.250000
3110,31.250000
3111,31.250000
3112,31.250000
3113,35.156250
3114,35.156250
3115,35.156250
3116,35.156250
3117,35.156250
3118,35.156250
3119,39.062500
3120,39.062500
3121,39.062500
3122,39.062500
3123,39.062500
3124,39.062500
3125,39.062500
3126,39.062500
3127,42.968750
3128,42.968750
3129,42.968750
3130,42.968750
3131,42.968750
3132,42.968750
3133,42.968750
3134,42.968750
3135,42.968750
3136,46.875000
3137,46.875000
3138,46.875000
3139,46.875000
3140,46.875000
3141,46.875000
3142,50.781250
3143,46.875000
3144,50.781250
3145,50.781250
3146,50.781250
3147,50.781250
3148,50.781250
3149,50.781250
3150,50.781250
3151,54.687500
3152,54.687500
3153,54.687500
3154,54.687500
3155,54.687500
3156,54.687500
3157,54.687500
3158,54.687500
3159,54.687500
3160,54.687500
3161,58.593750
3162,58.593750
3163,58.593750
3164,58.593750
3165,58.593750
3166,58.593750
3167,58.593750
3168,58.593750
3169,58.593750
3170,58.593750
3171,62.500000
3172,62.500000
3173,62.500000
3174,62.500000
3175,62.500000
3176,62.500000
3177,62.500000
3178,62.500000
3179,62.500000
3180,62.500000
3181,62.500000
3182,66.406250
3183,66.406250
3184,66.406250
3185,66.406250
3186,66.406250
3187,66.406250
3188,66.406250
3189,66.406250
3190,66.406250
3191,66.406250
3192,66.406250
3193,70.312500
3194,70.312500
3195,70.312500
3196,70.312500
3197,70.312500
3198,70.312500
3199,70.312500
3200,70.312500
3201,70.312500
3202,70.312500
3203,70.312500
3204,70.312500
3205,70.312500
3206,70.312500
3207,70.312500
3208,74.218750
3209,74.218750
3210,74.218750
3211,74.218750
3212,74.218750
3213,74.218750
3214,74.218750
3215,74.218750
3216,74.218750
3217,74.218750
3218,74.218750
3219,74.218750
3220,74.218750
3221,74.218750
3222,78.125000
3223,78.125000
3224,78.125000
3225,78.125000
3226,78.125000
3227,78.125000
3228,78.125000
3229,78.125000
3230,78.125000
3231,78.125000
3232,78.125000
3233,78.125000
3234,78.125000
3235,78.125000
3236,78.125000
3237,78.125000
3238,78.125000
3239,78.125000
3240,78.125000
3241,78.125000
3242,78.125000
3243,78.125000
3244,82.031250
3245,82.031250
3246,82.031250
3247,82.031250
3248,82.031250
3249,82.031250
3250,82.031250
3251,82.031250
3252,82.031250
3253,82.031250
3254,82.031250
3255,82.031250
3256,82.031250
3257,82.031250
3258,82.031250
3259,82.031250
3260,82.031250
3261,82.031250
3262,82.031250
3263,82.031250
3264,82.031250
3265,82.031250
3266,82.031250
3267,82.031250
3268,82.031250
3269,82.031250
3270,82.031250
3271,82.031250
3272,82.031250
3273,82.031250
3274,82.031250
3275,82.031250
3276,82.031250
3277,82.031250
3278,82.031250
3279,82.031250
3280,82.031250
3281,82.031250
3282,85.937500
3283,82.031250
3284,85.937500
3285,82.031250
3286,82.031250
3287,82.031250
3288,82.031250
3289,82.031250
3290,82.031250
3291,82.031250
3292,82.031250
3293,82.031250
3294,82.031250
3295,82.031250
3296,82.031250
3297,82.031250
3298,82.031250
3299,82.031250
3300,82.031250
3301,82.031250
3302,82.031250
3303,82.031250
3304,82.031250
3305,82.031250
3306,82.031250
3307,82.031250
3308,82.031250
3309,82.031250
3310,82.031250
3311,82.031250
3312,82.031250
3313,82.031250
3314,82.031250
3315,82.031250
3316,82.031250
3317,82.031250
3318,82.031250
3319,82.031250
3320,82.031250
3321,82.031250
3322,82.031250
3323,82.031250
3324,82.031250
3325,82.031250
3326,82.031250
3327,82.031250
3328,82.031250
3329,82.031250
3330,82.031250
3331,78.125000
3332,78.125000
3333,78.125000
3334,82.031250
3335,78.125000
3336,78.125000
3337,78.125000
3338,78.125000
3339,78.125000
3340,78.125000
3341,78.125000
3342,78.125000
3343,78.125000
3344,78.125000
3345,78.125000
3346,78.125000
3347,78.125000
3348,78.125000
3349,78.125000
3350,78.125000
3351,78.125000
3352,78.125000
3353,74.218750
3354,74.218750
3355,74.218750
3356,74.218750
3357,74.218750
3358,74.218750
3359,74.218750
3360,74.218750
3361,74.218750
3362,74.218750
3363,74.218750
3364,74.218750
3365,74.218750
3366,74.218750
3367,70.312500
3368,70.312500
3369,70.312500
3370,70.312500
3371,70.312500
3372,70.312500
3373,70.312500
3374,70.312500
3375,70.312500
3376,70.312500
3377,70.312500
3378,70.312500
3379,70.312500
3380,66.406250
3381,66.406250
3382,66.406250
3383,66.406250
3384,66.406250
3385,66.406250
3386,66.406250
3387,66.406250
3388,66.406250
3389,66.406250
3390,66.406250
3391,66.406250
3392,66.406250
3393,62.500000
3394,62.500000
3395,62.500000
3396,62.500000
3397,62.500000
3398,62.500000
3399,62.500000
3400,62.500000
3401,62.500000
3402,62.500000
3403,58.593750
3404,62.500000
3405,58.593750
3406,58.593750
3407,58.593750
3408,58.593750
3409,58.593750
3410,58.593750
3411,58.593750
3412,58.593750
3413,54.687500
3414,54.687500
3415,54.687500
3416,54.687500
3417,54.687500
3418,54.687500
3419,54.687500
3420,54.687500
3421,54.687500
3422,50.781250
3423,50.781250
3424,50.781250
3425,50.781250
3426,50.781250
3427,50.781250
3428,50.781250
3429,50.781250
3430,50.781250
3431,50.781250
3432,46.875000
3433,46.875000
3434,46.875000
3435,46.875000
3436,46.875000
3437,46.875000
3438,46.875000
3439,46.875000
3440,42.968750
3441,42.968750
3442,42.968750
3443,42.968750
3444,42.968750
3445,42.968750
3446,42.968750
3447,42.968750
3448,42.968750
3449,39.062500
3450,39.062500
3451,39.062500
3452,39.062500
3453,39.062500
3454,39.062500
3455,35.156250
3456,35.156250
3457,35.156250
3458,35.156250
3459,35.156250
3460,35.156250
3461,35.156250
3462,35.156250
3463,35.156250
3464,31.250000
3465,31.250000
3466,31.250000
3467,31.250000
3468,31.250000
3469,27.343750
3470,31.250000
3471,27.343750
3472,27.343750
3473,27.343750
3474,27.343750
3475,27.343750
3476,27.343750
3477,23.437500
3478,23.437500
3479,23.437500
3480,23.437500
3481,23.437500
3482,23.437500
3483,23.437500
3484,19.531250
3485,19.531250
3486,19.531250
3487,19.531250
3488,19.531250
3489,19.531250
3490,19.531250
3491,15.625000
3492,15.625000
3493,15.625000
3494,15.625000
3495,15.625000
3496,15.625000
3497,11.718750
3498,11.718750
3499,7.812500
3500,11.718750
3501,7.812500
3502,11.718750
3503,11.718750
3504,7.812500
3505,7.812500
3506,7.812500
3507,7.812500
3508,7.812500
3509,3.906250
3510,3.906250
3511,3.906250
3512,3.906250
3513,3.906250
3514,3.906250
3515,3.906250
3516,3.906250
3517,0.000000
3518,0.000000
3519,0.000000
3520,0.000000
3521,0.000000
3522,0.000000
3523,-3.906250
3524,-3.906250
3525,-3.906250
3526,-3.906250
3527,-3.906250
3528,-3.906250
3529,-3.906250
3530,-7.812500
3531,-7.812500
3532,-7.812500
3533,-7.812500
3534,-7.812500
3535,-11.718750
3536,-11.718750
3537,-11.718750
3538,-11.718750
3539,-11.718750
3540,-11.718750
3541,-11.718750
3542,-15.625000
3543,-15.625000
3544,-15.625000
3545,-15.625000
3546,-15.625000
3547,-19.531250
3548,-15.625000
3549,-19.531250
3550,-19.531250
3551,-19.531250
3552,-19.531250
3553,-23.437500
3554,-23.437500
3555,-23.437500
3556,-23.437500
3557,-23.437500
3558,-23.437500
3559,-23.437500
3560,-27.343750
3561,-27.343750
3562,-27.343750
3563,-27.343750
3564,-27.343750
3565,-31.250000
3566,-31.250000
3567,-31.250000
3568,-31.250000
3569,-31.250000
3570,-31.250000
3571,-31.250000
3572,-31.250000
3573,-35.156250
3574,-35.156250
3575,-35.156250
3576,-35.156250
3577,-35.156250
3578,-39.062500
3579,-39.062500
3580,-39.062500
3581,-39.062500
3582,-39.062500
3583,-39.062500
3584,-39.062500
3585,-42.968750
3586,-42.968750
3587,-42.968750
3588,-42.968750
3589,-42.968750
3590,-42.968750
3591,-46.875000
3592,-46.875000
3593,-46.875000
3594,-46.875000
3595,-46.875000
3596,-46.875000
3597,-50.781250
3598,-50.781250
3599,-50.781250
3600,-50.781250
3601,-50.781250
3602,-50.781250
3603,-50.781250
3604,-54.687500
3605,-54.687500
3606,-54.687500
3607,-54.687500
3608,-54.687500
3609,-54.687500
3610,-58.593750
3611,-58.593750
3612,-58.593750
3613,-58.593750
3614,-58.593750
3615,-58.593750
3616,-62.500000
3617,-62.500000
3618,-62.500000
3619,-62.500000
3620,-62.500000
3621,-62.500000
3622,-62.500000
3623,-66.406250
3624,-66.406250
3625,-66.406250
3626,-66.406250
3627,-66.406250
3628,-66.406250
3629,-66.406250
3630,-70.312500
3631,-70.312500
3632,-70.312500
3633,-70.312500
3634,-70.312500
3635,-70.312500
3636,-70.312500
3637,-74.218750
3638,-74.218750
3639,-74.218750
3640,-74.218750
3641,-74.218750
3642,-74.218750
3643,-74.218750
3644,-78.125000
3645,-78.125000
3646,-78.125000
3647,-78.125000
3648,-78.125000
3649,-78.125000
3650,-78.125000
3651,-78.125000
3652,-82.031250
3653,-82.031250
3654,-82.031250
3655,-82.031250
3656,-82.031250
3657,-82.031250
3658,-82.031250
3659,-82.031250
3660,-82.031250
3661,-85.937500
3662,-85.937500
3663,-85.937500
3664,-85.937500
3665,-85.937500
3666,-85.937500
3667,-85.937500
3668,-85.937500
3669,-89.843750
3670,-89.843750
3671,-89.843750
3672,-89.843750
3673,-89.843750
3674,-89.843750
3675,-89.843750
3676,-89.843750
3677,-93.750000
3678,-93.750000
3679,-93.750000
3680,-93.750000
3681,-93.750000
3682,-93.750000
3683,-93.750000
3684,-93.750000
3685,-93.750000
3686,-97.656250
3687,-97.656250
3688,-97.656250
3689,-97.656250
3690,-97.656250
3691,-97.656250
3692,-97.656250
3693,-97.656250
3694,-97.656250
3695,-97.656250
3696,-101.562500
3697,-101.562500
3698,-101.562500
3699,-101.562500
3700,-101.562500
3701,-101.562500
3702,-101.562500
3703,-101.562500
3704,-101.562500
3705,-101.562500
3706,-101.562500
3707,-105.468750
3708,-105.468750
3709,-105.468750
3710,-105.468750
3711,-105.468750
3712,-105.468750
3713,-105.468750
3714,-105.468750
3715,-105.468750
3716,-105.468750
3717,-105.468750
3718,-105.468750
3719,-109.375000
3720,-105.468750
3721,-109.375000
3722,-109.375000
3723,-109.375000
3724,-109.375000
3725,-109.375000
3726,-109.375000
3727,-109.375000
3728,-109.375000
3729,-109.375000
3730,-109.375000
3731,-109.375000
3732,-109.375000
3733,-113.281250
3734,-109.375000
3735,-109.375000
3736,-113.281250
3737,-109.375000
3738,-113.281250
3739,-113.281250
3740,-113.281250
3741,-113.281250
3742,-113.281250
3743,-113.281250
3744,-113.281250
3745,-113.281250
3746,-113.281250
3747,-113.281250
3748,-113.281250
3749,-113.281250
3750,-113.281250
3751,-113.281250
3752,-113.281250
3753,-113.281250
3754,-113.281250
3755,-113.281250
3756,-113.281250
3757,-113.281250
3758,-113.281250
3759,-113.281250
3760,-113.281250
3761,-117.187500
3762,-113.281250
3763,-117.187500
3764,-117.187500
3765,-117.187500
3766,-117.187500
3767,-117.187500
3768,-117.187500
3769,-117.187500
3770,-117.187500
3771,-117.187500
3772,-117.187500
3773,-117.187500
3774,-117.187500
3775,-117.187500
3776,-117.187500
3777,-117.187500
3778,-117.187500
3779,-117.187500
3780,-117.187500
3781,-117.187500
3782,-117.187500
3783,-117.187500
3784,-117.187500
3785,-117.187500
3786,-117.187500
3787,-117.187500
3788,-117.187500
3789,-117.187500
3790,-117.187500
3791,-117.187500
3792,-117.187500
3793,-117.187500
3794,-113.281250
3795,-117.187500
3796,-117.187500
3797,-117.187500
3798,-117.187500
3799,-117.187500
3800,-117.187500
3801,-113.281250
3802,-117.187500
3803,-113.281250
3804,-113.281250
3805,-113.281250
3806,-113.281250
3807,-113.281250
3808,-113.281250
3809,-117.187500
3810,-113.281250
3811,-113.281250
3812,-113.281250
3813,-113.281250
3814,-113.281250
3815,-113.281250
3816,-113.281250
3817,-113.281250
3818,-113.281250
3819,-113.281250
3820,-113.281250
3821,-113.281250
3822,-113.281250
3823,-113.281250
3824,-113.281250
3825,-113.281250
3826,-109.375000
3827,-113.281250
3828,-109.375000
3829,-113.281250
3830,-109.375000
3831,-113.281250
3832,-109.375000
3833,-109.375000
3834,-109.375000
3835,-109.375000
3836,-109.375000
3837,-109.375000
3838,-109.375000
3839,-109.375000
3840,-109.375000
3841,-109.375000
3842,-109.375000
3843,-109.375000
3844,-105.468750
3845,-109.375000
3846,-105.468750
3847,-105.468750
3848,-105.468750
3849,-105.468750
3850,-105.468750
3851,-105.468750
3852,-105.468750
3853,-105.468750
3854,-105.468750
3855,-105.468750
3856,-105.468750
3857,-105.468750
3858,-105.468750
3859,-105.468750
3860,-101.562500
3861,-105.468750
3862,-101.562500
3863,-101.562500
3864,-101.562500
3865,-101.562500
3866,-101.562500
3867,-101.562500
3868,-101.562500
3869,-97.656250
3870,-101.562500
3871,-97.656250
3872,-97.656250
3873,-97.656250
3874,-97.656250
3875,-97.656250
3876,-97.656250
3877,-97.656250
3878,-97.656250
3879,-97.656250
3880,-97.656250
3881,-97.656250
3882,-93.750000
3883,-93.750000
3884,-93.750000
3885,-93.750000
3886,-93.750000
3887,-93.750000
3888,-93.750000
3889,-93.750000
3890,-89.843750
3891,-93.750000
3892,-89.843750
3893,-89.843750
3894,-89.843750
3895,-89.843750
3896,-89.843750
3897,-89.843750
3898,-85.937500
3899,-85.937500
3900,-85.937500
3901,-85.937500
3902,-85.937500
3903,-85.937500
3904,-85.937500
3905,-85.937500
3906,-85.937500
3907,-82.031250
3908,-82.031250
3909,-82.031250
3910,-82.031250
3911,-82.031250
3912,-82.031250
3913,-82.031250
3914,-82.031250
3915,-78.125000
3916,-78.125000
3917,-78.125000
3918,-78.125000
3919,-78.125000
3920,-78.125000
3921,-78.125000
3922,-78.125000
3923,-74.218750
3924,-74.218750
3925,-74.218750
3926,-74.218750
3927,-74.218750
3928,-74.218750
3929,-74.218750
3930,-70.312500
3931,-70.312500
3932,-70.312500
3933,-70.312500
3934,-70.312500
3935,-70.312500
3936,-66.406250
3937,-66.406250
3938,-66.406250
3939,-66.406250
3940,-66.406250
3941,-66.406250
3942,-66.406250
3943,-66.406250
3944,-62.500000
3945,-62.500000
3946,-62.500000
3947,-62.500000
3948,-62.500000
3949,-58.593750
3950,-58.593750
3951,-58.593750
3952,-58.593750
3953,-58.593750
3954,-58.593750
3955,-58.593750
3956,-54.687500
3957,-54.687500
3958,-54.687500
3959,-54.687500
3960,-54.687500
3961,-54.687500
3962,-54.687500
3963,-54.687500
3964,-50.781250
3965,-50.781250
3966,-50.781250
3967,-50.781250
3968,-50.781250
3969,-46.875000
3970,-46.875000
3971,-46.875000
3972,-46.875000
3973,-46.875000
3974,-46.875000
3975,-42.968750
3976,-42.968750
3977,-42.968750
3978,-42.968750
3979,-42.968750
3980,-42.968750
3981,-42.968750
3982,-39.062500
3983,-39.062500
3984,-39.062500
3985,-39.062500
3986,-39.062500
3987,-39.062500
3988,-35.156250
3989,-35.156250
3990,-35.156250
3991,-35.156250
3992,-35.156250
3993,-35.156250
3994,-31.250000
3995,-31.250000
3996,-31.250000
3997,-31.250000
3998,-31.250000
3999,-31.250000
4000,-27.343750
4001,-27.343750
4002,-27.343750
4003,-27.343750
4004,-27.343750
4005,-27.343750
4006,-27.343750
4007,-23.437500
4008,-23.437500
4009,-23.437500
4010,-23.437500
4011,-23.437500
4012,-19.531250
4013,-19.531250
4014,-19.531250
4015,-19.531250
4016,-19.531250
4017,-19.531250
4018,-15.625000
4019,-15.625000
4020,-15.625000
4021,-15.625000
4022,-15.625000
4023,-15.625000
4024,-11.718750
4025,-11.718750
4026,-11.718750
4027,-11.718750
4028,-11.718750
4029,-11.718750
4030,-7.812500
4031,-7.812500
4032,-7.812500
4033,-7.812500
4034,-7.812500
4035,-7.812500
4036,-7.812500
4037,-3.906250
4038,-3.906250
4039,-3.906250
4040,-3.906250
4041,-3.906250
4042,0.000000
4043,0.000000
4044,0.000000
4045,0.000000
4046,0.000000
4047,0.000000
4048,0.000000
4049,3.906250
4050,3.906250
4051,3.906250
4052,3.906250
4053,3.906250
4054,7.812500
4055,7.812500
4056,7.812500
4057,7.812500
4058,7.812500
4059,7.812500
4060,7.812500
4061,11.718750
4062,11.718750
4063,11.718750
4064,11.718750
4065,11.718750
4066,11.718750
4067,15.625000
4068,15.625000
4069,15.625000
4070,15.625000
4071,15.625000
4072,15.625000
4073,19.531250
4074,19.531250
4075,19.531250
4076,19.531250
4077,19.531250
4078,19.531250
4079,19.531250
4080,23.437500
4081,23.437500
4082,23.437500
4083,23.437500
4084,23.437500
4085,23.437500
4086,23.437500
4087,27.343750
4088,27.343750
4089,27.343750
4090,27.343750
4091,27.343750
4092,27.343750
4093,27.343750
4094,31.250000
4095,31.250000
4096,31.250000
4097,31.250000
4098,31.250000
4099,31.250000
4100,31.250000
4101,35.156250
4102,35.156250
4103,35.156250
4104,35.156250
4105,35.156250
4106,35.156250
4107,35.156250
4108,35.156250
4109,39.062500
4110,39.062500
4111,39.062500
4112,39.062500
4113,39.062500
4114,39.062500
4115,39.062500
4116,42.968750
4117,42.968750
4118,42.968750
4119,42.968750
4120,42.968750
4121,42.968750
4122,46.875000
4123,42.968750
4124,46.875000
4125,46.875000
4126,46.875000
4127,46.875000
4128,46.875000
4129,46.875000
4130,46.875000
4131,50.781250
4132,46.875000
4133,50.781250
4134,50.781250
4135,50.781250
4136,50.781250
4137,50.781250
4138,50.781250
4139,50.781250
4140,50.781250
4141,54.687500
4142,54.687500
4143,54.687500
4144,54.687500
4145,54.687500
4146,54.687500
4147,54.687500
4148,54.687500
4149,54.687500
4150,58.593750
4151,58.593750
4152,58.593750
4153,58.593750
4154,58.593750
4155,58.593750
4156,58.593750
4157,58.593750
4158,58.593750
4159,62.500000
4160,62.500000
4161,62.500000
4162,62.500000
4163,62.500000
4164,62.500000
4165,62.500000
4166,62.500000
4167,62.500000
4168,62.500000
4169,62.500000
4170,62.500000
4171,62.500000
4172,66.406250
4173,66.406250
4174,66.406250
4175,66.406250
4176,66.406250
4177,66.406250
4178,66.406250
4179,66.406250
4180,66.406250
4181,66.406250
4182,66.406250
4183,70.312500
4184,70.312500
4185,70.312500
4186,70.312500
4187,74.218750
4188,70.312500
4189,70.312500
4190,70.312500
4191,74.218750
4192,70.312500
4193,70.312500
4194,70.312500
4195,70.312500
4196,74.218750
4197,74.218750
4198,74.218750
4199,74.218750
4200,74.218750
4201,74.218750
4202,74.218750
4203,74.218750
4204,74.218750
4205,74.218750
4206,74.218750
4207,74.218750
4208,74.218750
4209,74.218750
4210,74.218750
4211,74.218750
4212,78.125000
4213,74.218750
4214,78.125000
4215,78.125000
4216,78.125000
4217,78.125000
4218,78.125000
4219,78.125000
4220,78.125000
4221,78.125000
4222,78.125000
4223,78.125000
4224,78.125000
4225,78.125000
4226,78.125000
4227,78.125000
4228,78.125000
4229,78.125000
4230,78.125000
4231,78.125000
4232,78.125000
4233,78.125000
4234,78.125000
4235,82.031250
4236,82.031250
4237,82.031250
4238,82.031250
4239,78.125000
4240,82.031250
4241,82.031250
4242,82.031250
4243,82.031250
4244,82.031250
4245,82.031250
4246,82.031250
4247,82.031250
4248,82.031250
4249,82.031250
4250,82.031250
4251,82.031250
4252,82.031250
4253,82.031250
4254,78.125000
4255,82.031250
4256,82.031250
4257,82.031250
4258,82.031250
4259,82.031250
4260,82.031250
4261,85.937500
4262,82.031250
4263,82.031250
4264,82.031250
4265,82.031250
4266,82.031250
4267,82.031250
4268,82.031250
4269,82.031250
4270,82.031250
4271,82.031250
4272,82.031250
4273,82.031250
4274,82.031250
4275,82.031250
4276,82.031250
4277,82.031250
4278,82.031250
4279,82.031250
4280,82.031250
4281,82.031250
4282,82.031250
4283,82.031250
4284,82.031250
4285,82.031250
4286,82.031250
4287,82.031250
4288,82.031250
4289,82.031250
4290,82.031250
4291,82.031250
4292,82.031250
4293,82.031250
4294,82.031250
4295,82.031250
4296,82.031250
4297,82.031250
4298,82.031250
4299,82.031250
4300,82.031250
4301,82.031250
4302,82.031250
4303,82.031250
4304,82.031250
4305,82.031250
4306,82.031250
4307,82.031250
4308,82.031250
4309,82.031250
4310,82.031250
4311,82.031250
4312,82.031250
4313,82.031250
4314,82.031250
4315,82.031250
4316,82.031250
4317,82.031250
4318,82.031250
4319,82.031250
4320,78.125000
4321,82.031250
4322,78.125000
4323,78.125000
4324,78.125000
4325,78.125000
4326,78.125000
4327,78.125000
4328,78.125000
4329,78.125000
4330,78.125000
4331,78.125000
4332,78.125000
4333,78.125000
4334,78.125000
4335,78.125000
4336,78.125000
4337,78.125000
4338,74.218750
4339,78.125000
4340,74.218750
4341,74.218750
4342,74.218750
4343,78.125000
4344,74.218750
4345,74.218750
4346,74.218750
4347,74.218750
4348,74.218750
4349,74.218750
4350,74.218750
4351,74.218750
4352,74.218750
4353,74.218750
4354,74.218750
4355,74.218750
4356,74.218750
4357,74.218750
4358,74.218750
4359,70.312500
4360,70.312500
4361,70.312500
4362,70.312500
4363,70.312500
4364,70.312500
4365,70.312500
4366,70.312500
4367,70.312500
4368,70.312500
4369,70.312500
4370,70.312500
4371,66.406250
4372,66.406250
4373,66.406250
4374,66.406250
4375,66.406250
4376,66.406250
4377,66.406250
4378,66.406250
4379,66.406250
4380,66.406250
4381,66.406250
4382,66.406250
4383,62.500000
4384,62.500000
4385,62.500000
4386,62.500000
4387,62.500000
4388,62.500000
4389,62.500000
4390,62.500000
4391,62.500000
4392,62.500000
4393,62.500000
4394,58.593750
4395,58.593750
4396,58.593750
4397,58.593750
4398,58.593750
4399,58.593750
4400,58.593750
4401,58.593750
4402,58.593750
4403,58.593750
4404,54.687500
4405,54.687500
4406,54.687500
4407,54.687500
4408,54.687500
4409,54.687500
4410,54.687500
4411,54.687500
4412,54.687500
4413,50.781250
4414,50.781250
4415,50.781250
4416,50.781250
4417,50.781250
4418,50.781250
4419,50.781250
4420,50.781250
4421,46.875000
4422,46.875000
4423,46.875000
4424,46.875000
4425,46.875000
4426,46.875000
4427,46.875000
4428,46.875000
4429,42.968750
4430,42.968750
4431,42.968750
4432,42.968750
4433,42.968750
4434,42.968750
4435,42.968750
4436,42.968750
4437,42.968750
4438,39.062500
4439,42.968750
4440,39.062500
4441,39.062500
4442,39.062500
4443,39.062500
4444,39.062500
4445,35.156250
4446,35.156250
4447,35.156250
4448,35.156250
4449,35.156250
4450,35.156250
4451,35.156250
4452,35.156250
4453,31.250000
4454,31.250000
4455,31.250000
4456,31.250000
4457,31.250000
4458,31.250000
4459,31.250000
4460,27.343750
4461,27.343750
4462,31.250000
4463,27.343750
4464,27.343750
4465,27.343750
4466,23.437500
4467,23.437500
4468,27.343750
4469,23.437500
4470,23.437500
4471,23.437500
4472,23.437500
4473,23.437500
4474,19.531250
4475,19.531250
4476,19.531250
4477,19.531250
4478,19.531250
4479,19.531250
4480,19.531250
4481,15.625000
4482,15.625000
4483,15.625000
4484,15.625000
4485,15.625000
4486,15.625000
4487,11.718750
4488,11.718750
4489,11.718750
4490,11.718750
4491,11.718750
4492,11.718750
4493,11.718750
4494,11.718750
4495,11.718750
4496,7.812500
4497,7.812500
4498,7.812500
4499,7.812500
4500,7.812500
4501,3.906250
4502,3.906250
4503,3.906250
4504,3.906250
4505,3.906250
4506,3.906250
4507,0.000000
4508,0.000000
4509,0.000000
4510,0.000000
4511,0.000000
4512,0.000000
4513,-3.906250
4514,-3.906250
4515,-3.906250
4516,-3.906250
4517,-3.906250
4518,-3.906250
4519,-3.906250
4520,-7.812500
4521,-7.812500
4522,-7.812500
4523,-7.812500
4524,-7.812500
4525,-11.718750
4526,-11.718750
4527,-11.718750
4528,-11.718750
4529,-11.718750
4530,-11.718750
4531,-15.625000
4532,-15.625000
4533,-15.625000
4534,-15.625000
4535,-15.625000
4536,-15.625000
4537,-15.625000
4538,-19.531250
4539,-19.531250
4540,-19.531250
4541,-19.531250
4542,-19.531250
4543,-23.437500
4544,-23.437500
4545,-23.437500
4546,-23.437500
4547,-23.437500
4548,-23.437500
4549,-23.437500
4550,-27.343750
4551,-27.343750
4552,-27.343750
4553,-27.343750
4554,-27.343750
4555,-27.343750
4556,-31.250000
4557,-31.250000
4558,-31.250000
4559,-31.250000
4560,-31.250000
4561,-31.250000
4562,-35.156250
4563,-35.156250
4564,-35.156250
4565,-35.156250
4566,-35.156250
4567,-35.156250
4568,-39.062500
4569,-39.062500
4570,-39.062500
4571,-39.062500
4572,-39.062500
4573,-39.062500
4574,-39.062500
4575,-42.968750
4576,-42.968750
4577,-42.968750
4578,-42.968750
4579,-42.968750
4580,-42.968750
4581,-46.875000
4582,-46.875000
4583,-46.875000
4584,-46.875000
4585,-46.875000
4586,-46.875000
4587,-46.875000
4588,-50.781250
4589,-50.781250
4590,-50.781250
4591,-50.781250
4592,-54.687500
4593,-54.687500
4594,-54.687500
4595,-54.687500
4596,-54.687500
4597,-54.687500
4598,-58.593750
4599,-54.687500
4600,-54.687500
4601,-58.593750
4602,-58.593750
4603,-58.593750
4604,-58.593750
4605,-58.593750
4606,-58.593750
4607,-62.500000
4608,-62.500000
4609,-62.500000
4610,-62.500000
4611,-62.500000
4612,-62.500000
4613,-66.406250
4614,-62.500000
4615,-66.406250
4616,-66.406250
4617,-66.406250
4618,-66.406250
4619,-66.406250
4620,-66.406250
4621,-70.312500
4622,-70.312500
4623,-70.312500
4624,-70.312500
4625,-70.312500
4626,-70.312500
4627,-70.312500
4628,-74.218750
4629,-74.218750
4630,-74.218750
4631,-74.218750
4632,-74.218750
4633,-78.125000
4634,-74.218750
4635,-78.125000
4636,-78.125000
4637,-78.125000
4638,-78.125000
4639,-78.125000
4640,-78.125000
4641,-82.031250
4642,-82.031250
4643,-82.031250
4644,-82.031250
4645,-82.031250
4646,-82.031250
4647,-82.031250
4648,-82.031250
4649,-85.937500
4650,-85.937500
4651,-85.937500
4652,-85.937500
4653,-85.937500
4654,-85.937500
4655,-85.937500
4656,-85.937500
4657,-85.937500
4658,-85.937500
4659,-89.843750
4660,-89.843750
4661,-89.843750
4662,-89.843750
4663,-89.843750
4664,-89.843750
4665,-89.843750
4666,-89.843750
4667,-89.843750
4668,-93.750000
4669,-93.750000
4670,-93.750000
4671,-93.750000
4672,-93.750000
4673,-93.750000
4674,-93.750000
4675,-93.750000
4676,-93.750000
4677,-97.656250
4678,-97.656250
4679,-97.656250
4680,-97.656250
4681,-97.656250
4682,-97.656250
4683,-97.656250
4684,-97.656250
4685,-97.656250
4686,-97.656250
4687,-97.656250
4688,-101.562500
4689,-101.562500
4690,-101.562500
4691,-101.562500
4692,-101.562500
4693,-101.562500
4694,-101.562500
4695,-101.562500
4696,-101.562500
4697,-105.468750
4698,-105.468750
4699,-105.468750
4700,-105.468750
4701,-105.468750
4702,-105.468750
4703,-105.468750
4704,-105.468750
4705,-105.468750
4706,-105.468750
4707,-105.468750
4708,-105.468750
4709,-109.375000
4710,-105.468750
4711,-105.468750
4712,-109.375000
4713,-109.375000
4714,-109.375000
4715,-109.375000
4716,-109.375000
4717,-109.375000
4718,-109.375000
4719,-109.375000
4720,-109.375000
4721,-109.375000
4722,-109.375000
4723,-109.375000
4724,-109.375000
4725,-109.375000
4726,-109.375000
4727,-109.375000
4728,-113.281250
4729,-113.281250
4730,-113.281250
4731,-113.281250
4732,-113.281250
4733,-113.281250
4734,-113.281250
4735,-113.281250
4736,-113.281250
4737,-113.281250
4738,-113.281250
4739,-113.281250
4740,-113.281250
4741,-113.281250
4742,-113.281250
4743,-113.281250
4744,-113.281250
4745,-113.281250
4746,-113.281250
4747,-113.281250
4748,-113.281250
4749,-113.281250
4750,-113.281250
4751,-113.281250
4752,-113.281250
4753,-113.281250
4754,-113.281250
4755,-117.187500
4756,-117.187500
4757,-117.187500
4758,-113.281250
4759,-117.187500
4760,-117.187500
4761,-117.187500
4762,-113.281250
4763,-117.187500
4764,-117.187500
4765,-117.187500
4766,-117.187500
4767,-117.187500
4768,-117.187500
4769,-117.187500
4770,-117.187500
4771,-117.187500
4772,-117.187500
4773,-117.187500
4774,-117.187500
4775,-117.187500
4776,-117.187500
4777,-117.187500
4778,-117.187500
4779,-117.187500
4780,-117.187500
4781,-117.187500
4782,-117.187500
4783,-117.187500
4784,-117.187500
4785,-117.187500
4786,-117.187500
4787,-117.187500
4788,-117.187500
4789,-117.187500
4790,-113.281250
4791,-113.281250
4792,-113.281250
4793,-113.281250
4794,-117.187500
4795,-117.187500
4796,-113.281250
4797,-113.281250
4798,-113.281250
4799,-113.281250
4800,-113.281250
4801,-113.281250
4802,-113.281250
4803,-113.281250
4804,-113.281250
4805,-113.281250
4806,-113.281250
4807,-113.281250
4808,-113.281250
4809,-113.281250
4810,-113.281250
4811,-113.281250
4812,-113.281250
4813,-113.281250
4814,-113.281250
4815,-113.281250
4816,-113.281250
4817,-113.281250
4818,-113.281250
4819,-113.281250
4820,-113.281250
4821,-113.281250
4822,-109.375000
4823,-109.375000
4824,-109.375000
4825,-109.375000
4826,-109.375000
4827,-109.375000
4828,-109.375000
4829,-109.375000
4830,-109.375000
4831,-109.375000
4832,-109.375000
4833,-109.375000
4834,-109.375000
4835,-105.468750
4836,-105.468750
4837,-105.468750
4838,-105.468750
4839,-105.468750
4840,-105.468750
4841,-105.468750
4842,-105.468750
4843,-105.468750
4844,-105.468750
4845,-105.468750
4846,-105.468750
4847,-105.468750
4848,-101.562500
4849,-101.562500
4850,-101.562500
4851,-101.562500
4852,-101.562500
4853,-101.562500
4854,-101.562500
4855,-101.562500
4856,-101.562500
4857,-101.562500
4858,-101.562500
4859,-97.656250
4860,-97.656250
4861,-97.656250
4862,-97.656250
4863,-97.656250
4864,-97.656250
4865,-97.656250
4866,-97.656250
4867,-97.656250
4868,-97.656250
4869,-97.656250
4870,-93.750000
4871,-93.750000
4872,-93.750000
4873,-93.750000
4874,-93.750000
4875,-93.750000
4876,-93.750000
4877,-93.750000
4878,-93.750000
4879,-93.750000
4880,-89.843750
4881,-89.843750
4882,-89.843750
4883,-89.843750
4884,-89.843750
4885,-89.843750
4886,-89.843750
4887,-89.843750
4888,-85.937500
4889,-85.937500
4890,-85.937500
4891,-85.937500
4892,-85.937500
4893,-85.937500
4894,-85.937500
4895,-85.937500
4896,-82.031250
4897,-82.031250
4898,-82.031250
4899,-82.031250
4900,-82.031250
4901,-82.031250
4902,-82.031250
4903,-82.031250
4904,-78.125000
4905,-78.125000
4906,-78.125000
4907,-78.125000
4908,-78.125000
4909,-78.125000
4910,-78.125000
4911,-78.125000
4912,-74.218750
4913,-74.218750
4914,-74.218750
4915,-74.218750
4916,-74.218750
4917,-74.218750
4918,-74.218750
4919,-70.312500
4920,-70.312500
4921,-70.312500
4922,-70.312500
4923,-70.312500
4924,-70.312500
4925,-66.406250
4926,-66.406250
4927,-66.406250
4928,-66.406250
4929,-66.406250
4930,-66.406250
4931,-66.406250
4932,-66.406250
4933,-62.500000
4934,-62.500000
4935,-62.500000
4936,-62.500000
4937,-62.500000
4938,-62.500000
4939,-62.500000
4940,-58.593750
4941,-58.593750
4942,-58.593750
4943,-58.593750
4944,-58.593750
4945,-58.593750
4946,-54.687500
4947,-54.687500
4948,-54.687500
4949,-54.687500
4950,-54.687500
4951,-54.687500
4952,-50.781250
4953,-50.781250
4954,-50.781250
4955,-50.781250
4956,-50.781250
4957,-50.781250
4958,-50.781250
4959,-46.875000
4960,-46.875000
4961,-46.875000
4962,-46.875000
4963,-46.875000
4964,-42.968750
4965,-46.875000
4966,-42.968750
4967,-42.968750
4968,-42.968750
4969,-42.968750
4970,-39.062500
4971,-39.062500
4972,-39.062500
4973,-39.062500
4974,-39.062500
4975,-39.062500
4976,-39.062500
4977,-35.156250
4978,-35.156250
4979,-35.156250
4980,-35.156250
4981,-35.156250
4982,-35.156250
4983,-31.250000
4984,-31.250000
4985,-31.250000
4986,-31.250000
4987,-31.250000
4988,-31.250000
4989,-27.343750
4990,-27.343750
4991,-27.343750
4992,-27.343750
4993,-27.343750
4994,-27.343750
4995,-27.343750
4996,-23.437500
4997,-23.437500
4998,-23.437500
4999,-23.437500
5000,-23.437500
5001,-23.437500
5002,-19.531250
5003,-19.531250
5004,-19.531250
5005,-19.531250
5006,-19.531250
5007,-19.531250
5008,-15.625000
5009,-15.625000
5010,-15.625000
5011,-15.625000
5012,-15.625000
5013,-15.625000
5014,-15.625000
5015,-11.718750
5016,-11.718750
5017,-11.718750
5018,-11.718750
5019,-11.718750
5020,-7.812500
5021,-7.812500
5022,-7.812500
5023,-7.812500
5024,-7.812500
5025,-7.812500
5026,-3.906250
5027,-3.906250
5028,-3.906250
5029,-3.906250
5030,-3.906250
5031,-3.906250
5032,-3.906250
5033,0.000000
5034,0.000000
5035,0.000000
5036,0.000000
5037,0.000000
5038,0.000000
5039,3.906250
5040,3.906250
5041,3.906250
5042,3.906250
5043,3.906250
5044,3.906250
5045,3.906250
5046,7.812500
5047,7.812500
5048,7.812500
5049,7.812500
5050,7.812500
5051,7.812500
5052,11.718750
5053,11.718750
5054,11.718750
5055,11.718750
5056,11.718750
5057,11.718750
5058,15.625000
5059,15.625000
5060,15.625000
5061,15.625000
5062,15.625000
5063,15.625000
5064,19.531250
5065,19.531250
5066,19.531250
5067,19.531250
5068,19.531250
5069,19.531250
5070,19.531250
5071,19.531250
5072,19.531250
5073,23.437500
5074,23.437500
5075,23.437500
5076,23.437500
5077,27.343750
5078,27.343750
5079,27.343750
5080,27.343750
5081,27.343750
5082,27.343750
5083,27.343750
5084,27.343750
5085,31.250000
5086,31.250000
5087,31.250000
5088,31.250000
5089,31.250000
5090,31.250000
5091,31.250000
5092,35.156250
5093,35.156250
5094,35.156250
5095,35.156250
5096,35.156250
5097,35.156250
5098,39.062500
5099,39.062500
5100,39.062500
5101,39.062500
5102,39.062500
5103,39.062500
5104,39.062500
5105,39.062500
5106,39.062500
5107,42.968750
5108,42.968750
5109,42.968750
5110,42.968750
5111,42.968750
5112,42.968750
5113,42.968750
5114,46.875000
5115,42.968750
5116,46.875000
5117,46.875000
5118,46.875000
5119,46.875000
5120,46.875000
5121,46.875000
5122,46.875000
5123,46.875000
5124,50.781250
5125,50.781250
5126,50.781250
5127,50.781250
5128,50.781250
5129,50.781250
5130,50.781250
5131,50.781250
5132,54.687500
5133,54.687500
5134,54.687500
5135,54.687500
5136,54.687500
5137,54.687500
5138,54.687500
5139,54.687500
5140,54.687500
5141,58.593750
5142,58.593750
5143,58.593750
5144,58.593750
5145,58.593750
5146,58.593750
5147,58.593750
5148,58.593750
5149,58.593750
5150,58.593750
5151,58.593750
5152,62.500000
5153,62.500000
5154,62.500000
5155,62.500000
5156,62.500000
5157,62.500000
5158,62.500000
5159,62.500000
5160,62.500000
5161,62.500000
5162,66.406250
5163,66.406250
5164,66.406250
5165,66.406250
5166,66.406250
5167,66.406250
5168,66.406250
5169,66.406250
5170,66.406250
5171,66.406250
5172,70.312500
5173,70.312500
5174,70.312500
5175,66.406250
5176,70.312500
5177,70.312500
5178,70.312500
5179,70.312500
5180,70.312500
5181,70.312500
5182,70.312500
5183,70.312500
5184,70.312500
5185,70.312500
5186,70.312500
5187,70.312500
5188,74.218750
5189,74.218750
5190,74.218750
5191,74.218750
5192,74.218750
5193,74.218750
5194,74.218750
5195,74.218750
5196,74.218750
5197,74.218750
5198,74.218750
5199,74.218750
5200,74.218750
5201,74.218750
5202,74.218750
5203,78.125000
5204,78.125000
5205,78.125000
5206,78.125000
5207,78.125000
5208,78.125000
5209,78.125000
5210,78.125000
5211,78.125000
5212,78.125000
5213,78.125000
5214,78.125000
5215,78.125000
5216,78.125000
5217,78.125000
5218,78.125000
5219,78.125000
5220,78.125000
5221,78.125000
5222,78.125000
5223,78.125000
5224,78.125000
5225,82.031250
5226,82.031250
5227,82.031250
5228,82.031250
5229,82.031250
5230,82.031250
5231,82.031250
5232,82.031250
5233,82.031250
5234,82.031250
5235,82.031250
5236,82.031250
5237,82.031250
5238,82.031250
5239,82.031250
5240,82.031250
5241,82.031250
5242,82.031250
5243,82.031250
5244,82.031250
5245,82.031250
5246,82.031250
5247,82.031250
5248,82.031250
5249,82.031250
5250,82.031250
5251,82.031250
5252,82.031250
5253,82.031250
5254,82.031250
5255,82.031250
5256,82.031250
5257,82.031250
5258,85.937500
5259,82.031250
5260,82.031250
5261,82.031250
5262,82.031250
5263,82.031250
5264,82.031250
5265,82.031250
5266,82.031250
5267,85.937500
5268,82.031250
5269,82.031250
5270,82.031250
5271,82.031250
5272,82.031250
5273,82.031250
5274,82.031250
5275,82.031250
5276,82.031250
5277,82.031250
5278,82.031250
5279,82.031250
5280,82.031250
5281,82.031250
5282,82.031250
5283,82.031250
5284,82.031250
5285,82.031250
5286,82.031250
5287,82.031250
5288,82.031250
5289,82.031250
5290,82.031250
5291,82.031250
5292,82.031250
5293,82.031250
5294,82.031250
5295,82.031250
5296,82.031250
5297,82.031250
5298,82.031250
5299,82.031250
5300,82.031250
5301,82.031250
5302,82.031250
5303,82.031250
5304,82.031250
5305,82.031250
5306,82.031250
5307,82.031250
5308,78.125000
5309,78.125000
5310,82.031250
5311,78.125000
5312,78.125000
5313,78.125000
5314,78.125000
5315,78.125000
5316,78.125000
5317,78.125000
5318,78.125000
5319,78.125000
5320,78.125000
5321,78.125000
5322,78.125000
5323,78.125000
5324,78.125000
5325,78.125000
5326,78.125000
5327,78.125000
5328,78.125000
5329,74.218750
5330,78.125000
5331,78.125000
5332,74.218750
5333,74.218750
5334,74.218750
5335,74.218750
5336,74.218750
5337,74.218750
5338,74.218750
5339,74.218750
5340,74.218750
5341,74.218750
5342,74.218750
5343,74.218750
5344,74.218750
5345,74.218750
5346,74.218750
5347,70.312500
5348,70.312500
5349,70.312500
5350,70.312500
5351,70.312500
5352,70.312500
5353,70.312500
5354,70.312500
5355,70.312500
5356,70.312500
5357,70.312500
5358,70.312500
5359,70.312500
5360,70.312500
5361,70.312500
5362,66.406250
5363,66.406250
5364,66.406250
5365,66.406250
5366,66.406250
5367,66.406250
5368,66.406250
5369,66.406250
5370,66.406250
5371,66.406250
5372,62.500000
5373,62.500000
5374,62.500000
5375,62.500000
5376,62.500000
5377,62.500000
5378,62.500000
5379,62.500000
5380,62.500000
5381,62.500000
5382,62.500000
5383,62.500000
5384,58.593750
5385,58.593750
5386,58.593750
5387,58.593750
5388,58.593750
5389,58.593750
5390,58.593750
5391,58.593750
5392,58.593750
5393,54.687500
5394,54.687500
5395,54.687500
5396,54.687500
5397,54.687500
5398,54.687500
5399,54.687500
5400,54.687500
5401,54.687500
5402,54.687500
5403,50.781250
5404,50.781250
5405,50.781250
5406,50.781250
5407,50.781250
5408,50.781250
5409,50.781250
5410,50.781250
5411,46.875000
5412,46.875000
5413,46.875000
5414,46.875000
5415,46.875000
5416,46.875000
5417,46.875000
5418,46.875000
5419,42.968750
5420,42.968750
5421,42.968750
5422,42.968750
5423,42.968750
5424,42.968750
5425,42.968750
5426,42.968750
5427,42.968750
5428,39.062500
5429,39.062500
5430,39.062500
5431,39.062500
5432,39.062500
5433,39.062500
5434,39.062500
5435,39.062500
5436,35.156250
5437,35.156250
5438,35.156250
5439,35.156250
5440,35.156250
5441,35.156250
5442,35.156250
5443,31.250000
5444,31.250000
5445,31.250000
5446,31.250000
5447,31.250000
5448,31.250000
5449,31.250000
5450,27.343750
5451,27.343750
5452,27.343750
5453,27.343750
5454,27.343750
5455,27.343750
5456,27.343750
5457,23.437500
5458,23.437500
5459,23.437500
5460,23.437500
5461,23.437500
5462,23.437500
5463,23.437500
5464,23.437500
5465,19.531250
5466,19.531250
5467,19.531250
5468,19.531250
5469,19.531250
5470,19.531250
5471,19.531250
5472,15.625000
5473,15.625000
5474,15.625000
5475,15.625000
5476,15.625000
5477,15.625000
5478,11.718750
5479,11.718750
5480,11.718750
5481,11.718750
5482,11.718750
5483,11.718750
5484,11.718750
5485,7.812500
5486,7.812500
5487,7.812500
5488,7.812500
5489,7.812500
5490,7.812500
5491,3.906250
5492,3.906250
5493,3.906250
5494,3.906250
5495,3.906250
5496,3.906250
5497,0.000000
5498,0.000000
5499,0.000000
5500,0.000000
5501,0.000000
5502,0.000000
5503,-3.906250
5504,-3.906250
5505,-3.906250
5506,-3.906250
5507,-3.906250
5508,-3.906250
5509,-7.812500
5510,-7.812500
5511,-7.812500
5512,-7.812500
5513,-7.812500
5514,-7.812500
5515,-11.718750
5516,-11.718750
5517,-11.718750
5518,-11.718750
5519,-11.718750
5520,-11.718750
5521,-11.718750
5522,-15.625000
5523,-15.625000
5524,-15.625000
5525,-15.625000
5526,-15.625000
5527,-19.531250
5528,-19.531250
5529,-19.531250
5530,-19.531250
5531,-19.531250
5532,-19.531250
5533,-19.531250
5534,-23.437500
5535,-23.437500
5536,-23.437500
5537,-23.437500
5538,-23.437500
5539,-23.437500
5540,-23.437500
5541,-27.343750
5542,-27.343750
5543,-27.343750
5544,-27.343750
5545,-31.250000
5546,-27.343750
5547,-31.250000
5548,-31.250000
5549,-31.250000
5550,-31.250000
5551,-31.250000
5552,-31.250000
5553,-35.156250
5554,-35.156250
5555,-35.156250
5556,-35.156250
5557,-35.156250
5558,-35.156250
5559,-39.062500
5560,-39.062500
5561,-39.062500
5562,-39.062500
5563,-39.062500
5564,-39.062500
5565,-42.968750
5566,-42.968750
5567,-42.968750
5568,-42.968750
5569,-42.968750
5570,-46.875000
5571,-46.875000
5572,-46.875000
5573,-46.875000
5574,-46.875000
5575,-46.875000
5576,-46.875000
5577,-46.875000
5578,-50.781250
5579,-50.781250
5580,-50.781250
5581,-50.781250
5582,-50.781250
5583,-54.687500
5584,-54.687500
5585,-54.687500
5586,-54.687500
5587,-54.687500
5588,-54.687500
5589,-58.593750
5590,-58.593750
5591,-58.593750
5592,-58.593750
5593,-58.593750
5594,-58.593750
5595,-58.593750
5596,-58.593750
5597,-62.500000
5598,-62.500000
5599,-62.500000
5600,-62.500000
5601,-62.500000
5602,-62.500000
5603,-62.500000
5604,-66.406250
5605,-66.406250
5606,-66.406250
5607,-66.406250
5608,-66.406250
5609,-66.406250
5610,-70.312500
5611,-70.312500
5612,-70.312500
5613,-70.312500
5614,-70.312500
5615,-70.312500
5616,-70.312500
5617,-74.218750
5618,-74.218750
5619,-74.218750
5620,-74.218750
5621,-74.218750
5622,-74.218750
5623,-74.218750
5624,-74.218750
5625,-78.125000
5626,-78.125000
5627,-78.125000
5628,-78.125000
5629,-78.125000
5630,-78.125000
5631,-78.125000
5632,-78.125000
5633,-82.031250
5634,-82.031250
5635,-82.031250
5636,-82.031250
5637,-82.031250
5638,-82.031250
5639,-85.937500
5640,-82.031250
5641,-85.937500
5642,-85.937500
5643,-85.937500
5644,-85.937500
5645,-85.937500
5646,-85.937500
5647,-89.843750
5648,-85.937500
5649,-85.937500
5650,-89.843750
5651,-89.843750
5652,-89.843750
5653,-89.843750
5654,-89.843750
5655,-89.843750
5656,-89.843750
5657,-93.750000
5658,-93.750000
5659,-93.750000
5660,-93.750000
5661,-93.750000
5662,-93.750000
5663,-93.750000
5664,-93.750000
5665,-93.750000
5666,-93.750000
5667,-97.656250
5668,-97.656250
5669,-97.656250
5670,-97.656250
5671,-97.656250
5672,-97.656250
5673,-97.656250
5674,-97.656250
5675,-101.562500
5676,-101.562500
5677,-101.562500
5678,-101.562500
5679,-101.562500
5680,-101.562500
5681,-101.562500
5682,-101.562500
5683,-101.562500
5684,-101.562500
5685,-101.562500
5686,-105.468750
5687,-105.468750
5688,-105.468750
5689,-105.468750
5690,-105.468750
5691,-105.468750
5692,-105.468750
5693,-105.468750
5694,-105.468750
5695,-105.468750
5696,-105.468750
5697,-105.468750
5698,-105.468750
5699,-109.375000
5700,-105.468750
5701,-109.375000
5702,-109.375000
5703,-109.375000
5704,-109.375000
5705,-109.375000
5706,-109.375000
5707,-109.375000
5708,-109.375000
5709,-109.375000
5710,-109.375000
5711,-109.375000
5712,-109.375000
5713,-109.375000
5714,-109.375000
5715,-113.281250
5716,-109.375000
5717,-113.281250
5718,-113.281250
5719,-113.281250
5720,-113.281250
5721,-113.281250
5722,-113.281250
5723,-113.281250
5724,-113.281250
5725,-113.281250
5726,-113.281250
5727,-113.281250
5728,-113.281250
5729,-113.281250
5730,-113.281250
5731,-113.281250
5732,-113.281250
5733,-113.281250
5734,-113.281250
5735,-113.281250
5736,-113.281250
5737,-113.281250
5738,-113.281250
5739,-113.281250
5740,-117.187500
5741,-117.187500
5742,-113.281250
5743,-117.187500
5744,-113.281250
5745,-113.281250
5746,-117.187500
5747,-117.187500
5748,-117.187500
5749,-117.187500
5750,-113.281250
5751,-117.187500
5752,-117.187500
5753,-117.187500
5754,-117.187500
5755,-117.187500
5756,-117.187500
5757,-117.187500
5758,-117.187500
5759,-117.187500
5760,-117.187500
5761,-117.187500
5762,-117.187500
5763,-117.187500
5764,-117.187500
5765,-117.187500
5766,-117.187500
5767,-117.187500
5768,-117.187500
5769,-113.281250
5770,-117.187500
5771,-117.187500
5772,-117.187500
5773,-117.187500
5774,-117.187500
5775,-113.281250
5776,-117.187500
5777,-117.187500
5778,-113.281250
5779,-117.187500
5780,-117.187500
5781,-113.281250
5782,-113.281250
5783,-117.187500
5784,-117.187500
5785,-117.187500
5786,-113.281250
5787,-117.187500
5788,-113.281250
5789,-113.281250
5790,-113.281250
5791,-113.281250
5792,-113.281250
5793,-113.281250
5794,-113.281250
5795,-113.281250
5796,-113.281250
5797,-113.281250
5798,-113.281250
5799,-113.281250
5800,-113.281250
5801,-113.281250
5802,-113.281250
5803,-113.281250
5804,-113.281250
5805,-113.281250
5806,-113.281250
5807,-113.281250
5808,-113.281250
5809,-113.281250
5810,-113.281250
5811,-109.375000
5812,-109.375000
5813,-109.375000
5814,-109.375000
5815,-109.375000
5816,-109.375000
5817,-109.375000
5818,-109.375000
5819,-109.375000
5820,-109.375000
5821,-109.375000
5822,-109.375000
5823,-109.375000
5824,-109.375000
5825,-109.375000
5826,-105.468750
5827,-105.468750
5828,-105.468750
5829,-105.468750
5830,-105.468750
5831,-105.468750
5832,-105.468750
5833,-105.468750
5834,-105.468750
5835,-105.468750
5836,-105.468750
5837,-105.468750
5838,-105.468750
5839,-105.468750
5840,-105.468750
5841,-105.468750
5842,-101.562500
5843,-101.562500
5844,-101.562500
5845,-101.562500
5846,-101.562500
5847,-101.562500
5848,-101.562500
5849,-101.562500
5850,-101.562500
5851,-101.562500
5852,-97.656250
5853,-97.656250
5854,-97.656250
5855,-97.656250
5856,-97.656250
5857,-97.656250
5858,-97.656250
5859,-97.656250
5860,-97.656250
5861,-97.656250
5862,-93.750000
5863,-93.750000
5864,-93.750000
5865,-93.750000
5866,-93.750000
5867,-93.750000
5868,-93.750000
5869,-93.750000
5870,-89.843750
5871,-89.843750
5872,-89.843750
5873,-89.843750
5874,-89.843750
5875,-89.843750
5876,-89.843750
5877,-89.843750
5878,-85.937500
5879,-85.937500
5880,-85.937500
5881,-85.937500
5882,-85.937500
5883,-85.937500
5884,-85.937500
5885,-85.937500
5886,-85.937500
5887,-82.031250
5888,-82.031250
5889,-82.031250
5890,-82.031250
5891,-82.031250
5892,-82.031250
5893,-82.031250
5894,-78.125000
5895,-78.125000
5896,-78.125000
5897,-78.125000
5898,-78.125000
5899,-78.125000
5900,-78.125000
5901,-78.125000
5902,-74.218750
5903,-74.218750
5904,-74.218750
5905,-74.218750
5906,-74.218750
5907,-74.218750
5908,-74.218750
5909,-74.218750
5910,-70.312500
5911,-70.312500
5912,-70.312500
5913,-70.312500
5914,-70.312500
5915,-70.312500
5916,-66.406250
5917,-66.406250
5918,-66.406250
5919,-66.406250
5920,-66.406250
5921,-66.406250
5922,-66.406250
5923,-66.406250
5924,-62.500000
5925,-62.500000
5926,-62.500000
5927,-62.500000
5928,-62.500000
5929,-62.500000
5930,-62.500000
5931,-58.593750
5932,-58.593750
5933,-58.593750
5934,-58.593750
5935,-58.593750
5936,-58.593750
5937,-54.687500
5938,-54.687500
5939,-54.687500
5940,-54.687500
5941,-54.687500
5942,-50.781250
5943,-54.687500
5944,-50.781250
5945,-50.781250
5946,-50.781250
5947,-50.781250
5948,-50.781250
5949,-50.781250
5950,-46.875000
5951,-46.875000
5952,-46.875000
5953,-46.875000
5954,-46.875000
5955,-42.968750
5956,-42.968750
5957,-42.968750
5958,-42.968750
5959,-42.968750
5960,-42.968750
5961,-42.968750
5962,-39.062500
5963,-39.062500
5964,-39.062500
5965,-39.062500
5966,-39.062500
5967,-39.062500
5968,-35.156250
5969,-35.156250
5970,-35.156250
5971,-35.156250
5972,-35.156250
5973,-35.156250
5974,-31.250000
5975,-31.250000
5976,-31.250000
5977,-31.250000
5978,-31.250000
5979,-31.250000
5980,-27.343750
5981,-27.343750
5982,-27.343750
5983,-27.343750
5984,-27.343750
5985,-27.343750
5986,-27.343750
5987,-27.343750
5988,-23.437500
5989,-23.437500
5990,-23.437500
5991,-23.437500
5992,-19.531250
5993,-19.531250
5994,-19.531250
5995,-19.531250
5996,-19.531250
5997,-19.531250
5998,-19.531250
5999,-15.625000
6000,-15.625000
6001,-15.625000
6002,-15.625000
6003,-15.625000
6004,-11.718750
6005,-11.718750
6006,-11.718750
6007,-11.718750
6008,-11.718750
6009,-11.718750
6010,-11.718750
6011,-7.812500
6012,-7.812500
6013,-7.812500
6014,-7.812500
6015,-7.812500
6016,-3.906250
6017,-3.906250
6018,-3.906250
6019,-3.906250
6020,-3.906250
6021,-3.906250
6022,-3.906250
6023,0.000000
6024,0.000000
6025,0.000000
6026,0.000000
6027,0.000000
6028,0.000000
6029,3.906250
6030,3.906250
6031,3.906250
6032,3.906250
6033,3.906250
6034,3.906250
6035,3.906250
6036,7.812500
6037,7.812500
6038,7.812500
6039,7.812500
6040,7.812500
6041,7.812500
6042,11.718750
6043,11.718750
6044,11.718750
6045,11.718750
6046,11.718750
6047,11.718750
6048,15.625000
6049,11.718750
6050,15.625000
6051,15.625000
6052,15.625000
6053,15.625000
6054,15.625000
6055,19.531250
6056,19.531250
6057,19.531250
6058,19.531250
6059,19.531250
6060,19.531250
6061,19.531250
6062,23.437500
6063,23.437500
6064,23.437500
6065,23.437500
6066,23.437500
6067,23.437500
6068,23.437500
6069,23.437500
6070,27.343750
6071,27.343750
6072,27.343750
6073,27.343750
6074,27.343750
6075,27.343750
6076,27.343750
6077,31.250000
6078,31.250000
6079,31.250000
6080,31.250000
6081,31.250000
6082,35.156250
6083,35.156250
6084,35.156250
6085,35.156250
6086,35.156250
6087,35.156250
6088,35.156250
6089,35.156250
6090,39.062500
6091,39.062500
6092,39.062500
6093,39.062500
6094,39.062500
6095,39.062500
6096,39.062500
6097,39.062500
6098,39.062500
6099,42.968750
6100,42.968750
6101,42.968750
6102,42.968750
6103,42.968750
6104,42.968750
6105,42.968750
6106,46.875000
6107,46.875000
6108,42.968750
6109,46.875000
6110,46.875000
6111,46.875000
6112,46.875000
6113,46.875000
6114,46.875000
6115,46.875000
6116,50.781250
6117,46.875000
6118,54.687500
6119,50.781250
6120,50.781250
6121,50.781250
6122,50.781250
6123,54.687500
6124,54.687500
6125,54.687500
6126,54.687500
6127,54.687500
6128,54.687500
6129,54.687500
6130,54.687500
6131,54.687500
6132,58.593750
6133,58.593750
6134,58.593750
6135,58.593750
6136,58.593750
6137,58.593750
6138,58.593750
6139,58.593750
6140,58.593750
6141,58.593750
6142,62.500000
6143,62.500000
6144,62.500000
6145,62.500000
6146,62.500000
6147,62.500000
6148,62.500000
6149,62.500000
6150,62.500000
6151,62.500000
6152,62.500000
6153,66.406250
6154,66.406250
6155,66.406250
6156,66.406250
6157,66.406250
6158,66.406250
6159,66.406250
6160,66.406250
6161,66.406250
6162,66.406250
6163,66.406250
6164,70.312500
6165,70.312500
6166,70.312500
6167,70.312500
6168,70.312500
6169,70.312500
6170,70.312500
6171,70.312500
6172,70.312500
6173,70.312500
6174,70.312500
6175,70.312500
6176,70.312500
6177,74.218750
6178,70.312500
6179,74.218750
6180,74.218750
6181,74.218750
6182,74.218750
6183,74.218750
6184,74.218750
6185,74.218750
6186,74.218750
6187,74.218750
6188,74.218750
6189,74.218750
6190,74.218750
6191,74.218750
6192,74.218750
6193,74.218750
6194,74.218750
6195,78.125000
6196,74.218750
6197,78.125000
6198,78.125000
6199,78.125000
6200,78.125000
6201,78.125000
6202,78.125000
6203,78.125000
6204,78.125000
6205,78.125000
6206,78.125000
6207,78.125000
6208,78.125000
6209,78.125000
6210,78.125000
6211,78.125000
6212,78.125000
6213,78.125000
6214,78.125000
6215,78.125000
6216,82.031250
6217,78.125000
6218,82.031250
6219,82.031250
6220,82.031250
6221,82.031250
6222,82.031250
6223,82.031250
6224,82.031250
6225,82.031250
6226,82.031250
6227,82.031250
6228,82.031250
6229,82.031250
6230,82.031250
6231,82.031250
6232,82.031250
6233,82.031250
6234,82.031250
6235,82.031250
6236,82.031250
6237,82.031250
6238,82.031250
6239,82.031250
6240,82.031250
6241,82.031250
6242,82.031250
6243,82.031250
6244,82.031250
6245,82.031250
6246,82.031250
6247,82.031250
6248,82.031250
6249,82.031250
6250,82.031250
6251,82.031250
6252,82.031250
6253,82.031250
6254,82.031250
6255,82.031250
6256,82.031250
6257,85.937500
6258,82.031250
6259,82.031250
6260,82.031250
6261,82.031250
6262,82.031250
6263,82.031250
6264,82.031250
6265,82.031250
6266,82.031250
6267,82.031250
6268,82.031250
6269,82.031250
6270,82.031250
6271,82.031250
6272,82.031250
6273,82.031250
6274,82.031250
6275,82.031250
6276,82.031250
6277,82.031250
6278,82.031250
6279,82.031250
6280,82.031250
6281,82.031250
6282,82.031250
6283,82.031250
6284,82.031250
6285,82.031250
6286,82.031250
6287,82.031250
6288,82.031250
6289,82.031250
6290,82.031250
6291,82.031250
6292,82.031250
6293,82.031250
6294,82.031250
6295,82.031250
6296,82.031250
6297,78.125000
6298,82.031250
6299,78.125000
6300,82.031250
6301,78.125000
6302,78.125000
6303,78.125000
6304,78.125000
6305,78.125000
6306,78.125000
6307,78.125000
6308,78.125000
6309,78.125000
6310,78.125000
6311,78.125000
6312,78.125000
6313,78.125000
6314,78.125000
6315,78.125000
6316,78.125000
6317,78.125000
6318,78.125000
6319,78.125000
6320,78.125000
6321,78.125000
6322,78.125000
6323,74.218750
6324,74.218750
6325,74.218750
6326,74.218750
6327,74.218750
6328,74.218750
6329,74.218750
6330,74.218750
6331,74.218750
6332,74.218750
6333,74.218750
6334,74.218750
6335,70.312500
6336,74.218750
6337,70.312500
6338,74.218750
6339,70.312500
6340,70.312500
6341,70.312500
6342,70.312500
6343,70.312500
6344,70.312500
6345,70.312500
6346,70.312500
6347,70.312500
6348,70.312500
6349,70.312500
6350,66.406250
6351,66.406250
6352,66.406250
6353,66.406250
6354,66.406250
6355,66.406250
6356,66.406250
6357,66.406250
6358,66.406250
6359,66.406250
6360,66.406250
6361,62.500000
6362,62.500000
6363,62.500000
6364,62.500000
6365,62.500000
6366,62.500000
6367,62.500000
6368,62.500000
6369,62.500000
6370,62.500000
6371,62.500000
6372,62.500000
6373,62.500000
6374,58.593750
6375,58.593750
6376,58.593750
6377,58.593750
6378,58.593750
6379,58.593750
6380,58.593750
6381,58.593750
6382,58.593750
6383,54.687500
6384,54.687500
6385,54.687500
6386,54.687500
6387,54.687500
6388,54.687500
6389,54.687500
6390,54.687500
6391,50.781250
6392,54.687500
6393,54.687500
6394,50.781250
6395,50.781250
6396,50.781250
6397,50.781250
6398,50.781250
6399,50.781250
6400,50.781250
6401,50.781250
6402,50.781250
6403,46.875000
6404,46.875000
6405,46.875000
6406,46.875000
6407,46.875000
6408,46.875000
6409,42.968750
6410,42.968750
6411,42.968750
6412,42.968750
6413,42.968750
6414,42.968750
6415,42.968750
6416,42.968750
6417,39.062500
6418,39.062500
6419,39.062500
6420,39.062500
6421,39.062500
6422,39.062500
6423,39.062500
6424,39.062500
6425,35.156250
6426,35.156250
6427,35.156250
6428,35.156250
6429,35.156250
6430,35.156250
6431,35.156250
6432,35.156250
6433,31.250000
6434,31.250000
6435,31.250000
6436,31.250000
6437,31.250000
6438,31.250000
6439,31.250000
6440,31.250000
6441,27.343750
6442,27.343750
6443,27.343750
6444,27.343750
6445,27.343750
6446,23.437500
6447,23.437500
6448,23.437500
6449,23.437500
6450,23.437500
6451,23.437500
6452,23.437500
6453,23.437500
6454,19.531250
6455,19.531250
6456,19.531250
6457,19.531250
6458,19.531250
6459,19.531250
6460,15.625000
6461,15.625000
6462,15.625000
6463,15.625000
6464,15.625000
6465,15.625000
6466,15.625000
6467,11.718750
6468,11.718750
6469,11.718750
6470,11.718750
6471,11.718750
6472,11.718750
6473,7.812500
6474,7.812500
6475,7.812500
6476,7.812500
6477,7.812500
6478,7.812500
6479,7.812500
6480,3.906250
6481,3.906250
6482,3.906250
6483,3.906250
6484,3.906250
6485,0.000000
6486,0.000000
6487,0.000000
6488,0.000000
6489,0.000000
6490,0.000000
6491,-3.906250
6492,-3.906250
6493,-3.906250
6494,-3.906250
6495,-3.906250
6496,-3.906250
6497,-3.906250
6498,-7.812500
6499,-7.812500
6500,-7.812500
6501,-7.812500
6502,-7.812500
6503,-7.812500
6504,-7.812500
6505,-11.718750
6506,-11.718750
6507,-11.718750
6508,-11.718750
6509,-11.718750
6510,-11.718750
6511,-15.625000
6512,-15.625000
6513,-15.625000
6514,-15.625000
6515,-15.625000
6516,-15.625000
6517,-19.531250
6518,-19.531250
6519,-19.531250
6520,-19.531250
6521,-19.531250
6522,-19.531250
6523,-23.437500
6524,-23.437500
6525,-23.437500
6526,-23.437500
6527,-23.437500
6528,-23.437500
6529,-27.343750
6530,-27.343750
6531,-27.343750
6532,-27.343750
6533,-27.343750
6534,-27.343750
6535,-27.343750
6536,-31.250000
6537,-31.250000
6538,-31.250000
6539,-31.250000
6540,-31.250000
6541,-31.250000
6542,-35.156250
6543,-35.156250
6544,-35.156250
6545,-35.156250
6546,-35.156250
6547,-39.062500
6548,-39.062500
6549,-39.062500
6550,-39.062500
6551,-39.062500
6552,-39.062500
6553,-42.968750
6554,-42.968750
6555,-42.968750
6556,-42.968750
6557,-42.968750
6558,-42.968750
6559,-46.875000
6560,-46.875000
6561,-46.875000
6562,-46.875000
6563,-46.875000
6564,-46.875000
6565,-46.875000
6566,-50.781250
6567,-50.781250
6568,-50.781250
6569,-50.781250
6570,-50.781250
6571,-50.781250
6572,-50.781250
6573,-50.781250
6574,-54.687500
6575,-54.687500
6576,-54.687500
6577,-54.687500
6578,-54.687500
6579,-54.687500
6580,-58.593750
6581,-58.593750
6582,-58.593750
6583,-58.593750
6584,-58.593750
6585,-58.593750
6586,-62.500000
6587,-62.500000
6588,-62.500000
6589,-62.500000
6590,-62.500000
6591,-62.500000
6592,-66.406250
6593,-66.406250
6594,-66.406250
6595,-66.406250
6596,-66.406250
6597,-66.406250
6598,-66.406250
6599,-70.312500
6600,-70.312500
6601,-70.312500
6602,-70.312500
6603,-70.312500
6604,-70.312500
6605,-74.218750
6606,-74.218750
6607,-74.218750
6608,-74.218750
6609,-74.218750
6610,-74.218750
6611,-74.218750
6612,-74.218750
6613,-78.125000
6614,-78.125000
6615,-78.125000
6616,-78.125000
6617,-78.125000
6618,-78.125000
6619,-78.125000
6620,-78.125000
6621,-82.031250
6622,-82.031250
6623,-82.031250
6624,-82.031250
6625,-82.031250
6626,-82.031250
6627,-82.031250
6628,-82.031250
6629,-85.937500
6630,-85.937500
6631,-85.937500
6632,-85.937500
6633,-85.937500
6634,-85.937500
6635,-85.937500
6636,-85.937500
6637,-89.843750
6638,-89.843750
6639,-89.843750
6640,-89.843750
6641,-89.843750
6642,-89.843750
6643,-89.843750
6644,-89.843750
6645,-89.843750
6646,-93.750000
6647,-93.750000
6648,-93.750000
6649,-93.750000
6650,-93.750000
6651,-93.750000
6652,-93.750000
6653,-93.750000
6654,-93.750000
6655,-97.656250
6656,-97.656250
6657,-97.656250
6658,-97.656250
6659,-97.656250
6660,-97.656250
6661,-97.656250
6662,-97.656250
6663,-97.656250
6664,-97.656250
6665,-97.656250
6666,-101.562500
6667,-101.562500
6668,-101.562500
6669,-101.562500
6670,-101.562500
6671,-101.562500
6672,-101.562500
6673,-101.562500
6674,-101.562500
6675,-101.562500
6676,-105.468750
6677,-105.468750
6678,-105.468750
6679,-105.468750
6680,-105.468750
6681,-105.468750
6682,-105.468750
6683,-105.468750
6684,-105.468750
6685,-105.468750
6686,-105.468750
6687,-109.375000
6688,-109.375000
6689,-109.375000
6690,-109.375000
6691,-109.375000
6692,-109.375000
6693,-109.375000
6694,-109.375000
6695,-109.375000
6696,-109.375000
6697,-109.375000
6698,-109.375000
6699,-109.375000
6700,-109.375000
6701,-109.375000
6702,-109.375000
6703,-113.281250
6704,-113.281250
6705,-113.281250
6706,-113.281250
6707,-113.281250
6708,-113.281250
6709,-113.281250
6710,-113.281250
6711,-113.281250
6712,-113.281250
6713,-113.281250
6714,-113.281250
6715,-113.281250
6716,-113.281250
6717,-113.281250
6718,-113.281250
6719,-113.281250
6720,-113.281250
6721,-113.281250
6722,-113.281250
6723,-113.281250
6724,-117.187500
6725,-117.187500
6726,-117.187500
6727,-117.187500
6728,-117.187500
6729,-117.187500
6730,-117.187500
6731,-117.187500
6732,-117.187500
6733,-117.187500
6734,-117.187500
6735,-117.187500
6736,-117.187500
6737,-117.187500
6738,-117.187500
6739,-117.187500
6740,-117.187500
6741,-117.187500
6742,-117.187500
6743,-117.187500
6744,-117.187500
6745,-117.187500
6746,-117.187500
6747,-117.187500
6748,-117.187500
6749,-117.187500
6750,-117.187500
6751,-117.187500
6752,-117.187500
6753,-117.187500
6754,-117.187500
6755,-117.187500
6756,-117.187500
6757,-117.187500
6758,-117.187500
6759,-117.187500
6760,-117.187500
6761,-117.187500
6762,-117.187500
6763,-117.187500
6764,-117.187500
6765,-117.187500
6766,-117.187500
6767,-117.187500
6768,-117.187500
6769,-117.187500
6770,-117.187500
6771,-117.187500
6772,-117.187500
6773,-117.187500
6774,-117.187500
6775,-117.187500
6776,-117.187500
6777,-113.281250
6778,-113.281250
6779,-117.187500
6780,-117.187500
6781,-117.187500
6782,-117.187500
6783,-113.281250
6784,-113.281250
6785,-113.281250
6786,-113.281250
6787,-113.281250
6788,-113.281250
6789,-113.281250
6790,-113.281250
6791,-113.281250
6792,-113.281250
6793,-113.281250
6794,-113.281250
6795,-113.281250
6796,-113.281250
6797,-113.281250
6798,-113.281250
6799,-113.281250
6800,-113.281250
6801,-113.281250
6802,-113.281250
6803,-109.375000
6804,-109.375000
6805,-109.375000
6806,-109.375000
6807,-109.375000
6808,-109.375000
6809,-109.375000
6810,-109.375000
6811,-109.375000
6812,-109.375000
6813,-109.375000
6814,-109.375000
6815,-109.375000
6816,-109.375000
6817,-109.375000
6818,-109.375000
6819,-105.468750
6820,-105.468750
6821,-105.468750
6822,-105.468750
6823,-105.468750
6824,-105.468750
6825,-105.468750
6826,-105.468750
6827,-105.468750
6828,-105.468750
6829,-105.468750
6830,-105.468750
6831,-105.468750
6832,-101.562500
6833,-101.562500
6834,-101.562500
6835,-101.562500
6836,-101.562500
6837,-101.562500
6838,-101.562500
6839,-101.562500
6840,-101.562500
6841,-101.562500
6842,-97.656250
6843,-101.562500
6844,-97.656250
6845,-97.656250
6846,-97.656250
6847,-97.656250
6848,-97.656250
6849,-97.656250
6850,-97.656250
6851,-97.656250
6852,-93.750000
6853,-93.750000
6854,-93.750000
6855,-93.750000
6856,-93.750000
6857,-93.750000
6858,-93.750000
6859,-93.750000
6860,-93.750000
6861,-93.750000
6862,-89.843750
6863,-89.843750
6864,-89.843750
6865,-89.843750
6866,-89.843750
6867,-89.843750
6868,-89.843750
6869,-85.937500
6870,-85.937500
6871,-85.937500
6872,-85.937500
6873,-85.937500
6874,-85.937500
6875,-85.937500
6876,-85.937500
6877,-85.937500
6878,-82.031250
6879,-82.031250
6880,-82.031250
6881,-82.031250
6882,-82.031250
6883,-82.031250
6884,-82.031250
6885,-78.125000
6886,-82.031250
6887,-78.125000
6888,-78.125000
6889,-78.125000
6890,-78.125000
6891,-78.125000
6892,-74.218750
6893,-74.218750
6894,-78.125000
6895,-74.218750
6896,-74.218750
6897,-74.218750
6898,-74.218750
6899,-74.218750
6900,-70.312500
6901,-70.312500
6902,-70.312500
6903,-70.312500
6904,-70.312500
6905,-70.312500
6906,-70.312500
6907,-70.312500
6908,-66.406250
6909,-66.406250
6910,-66.406250
6911,-66.406250
6912,-66.406250
6913,-62.500000
6914,-62.500000
6915,-62.500000
6916,-62.500000
6917,-62.500000
6918,-62.500000
6919,-62.500000
6920,-58.593750
6921,-58.593750
6922,-58.593750
6923,-58.593750
6924,-58.593750
6925,-58.593750
6926,-58.593750
6927,-54.687500
6928,-54.687500
6929,-54.687500
6930,-54.687500
6931,-54.687500
6932,-54.687500
6933,-50.781250
6934,-50.781250
6935,-50.781250
6936,-50.781250
6937,-50.781250
6938,-50.781250
6939,-50.781250
6940,-46.875000
6941,-46.875000
6942,-46.875000
6943,-46.875000
6944,-46.875000
6945,-46.875000
6946,-46.875000
6947,-42.968750
6948,-42.968750
6949,-42.968750
6950,-42.968750
6951,-42.968750
6952,-39.062500
6953,-39.062500
6954,-39.062500
6955,-39.062500
6956,-39.062500
6957,-39.062500
6958,-35.156250
6959,-35.156250
6960,-35.156250
6961,-35.156250
6962,-35.156250
6963,-35.156250
6964,-35.156250
6965,-31.250000
6966,-31.250000
6967,-31.250000
6968,-31.250000
6969,-31.250000
6970,-31.250000
6971,-27.343750
6972,-27.343750
6973,-27.343750
6974,-27.343750
6975,-27.343750
6976,-27.343750
6977,-23.437500
6978,-23.437500
6979,-23.437500
6980,-23.437500
6981,-23.437500
6982,-23.437500
6983,-19.531250
6984,-19.531250
6985,-19.531250
6986,-19.531250
6987,-19.531250
6988,-19.531250
6989,-15.625000
6990,-15.625000
6991,-15.625000
6992,-15.625000
6993,-15.625000
6994,-15.625000
6995,-15.625000
6996,-11.718750
6997,-11.718750
6998,-11.718750
6999,-11.718750
7000,-11.718750
7001,-11.718750
7002,-7.812500
7003,-7.812500
7004,-7.812500
7005,-7.812500
7006,-3.906250
7007,-7.812500
7008,-3.906250
7009,-3.906250
7010,-3.906250
7011,-3.906250
7012,-3.906250
7013,-3.906250
7014,0.000000
7015,0.000000
7016,0.000000
7017,0.000000
7018,0.000000
7019,0.000000
7020,3.906250
7021,3.906250
7022,3.906250
7023,3.906250
7024,3.906250
7025,3.906250
7026,7.812500
7027,7.812500
7028,7.812500
7029,7.812500
7030,7.812500
7031,7.812500
7032,7.812500
7033,11.718750
7034,11.718750
7035,11.718750
7036,11.718750
7037,15.625000
7038,15.625000
7039,15.625000
7040,15.625000
7041,15.625000
7042,15.625000
7043,15.625000
7044,15.625000
7045,19.531250
7046,19.531250
7047,19.531250
7048,19.531250
7049,19.531250
7050,19.531250
7051,19.531250
7052,23.437500
7053,23.437500
7054,23.437500
7055,23.437500
7056,23.437500
7057,23.437500
7058,27.343750
7059,27.343750
7060,27.343750
7061,27.343750
7062,27.343750
7063,27.343750
7064,27.343750
7065,27.343750
7066,31.250000
7067,31.250000
7068,31.250000
7069,31.250000
7070,31.250000
7071,31.250000
7072,31.250000
7073,35.156250
7074,35.156250
7075,35.156250
7076,35.156250
7077,35.156250
7078,35.156250
7079,35.156250
7080,39.062500
7081,39.062500
7082,39.062500
7083,39.062500
7084,39.062500
7085,39.062500
7086,39.062500
7087,39.062500
7088,42.968750
7089,42.968750
7090,42.968750
7091,42.968750
7092,42.968750
7093,42.968750
7094,42.968750
7095,42.968750
7096,46.875000
7097,46.875000
7098,46.875000
7099,46.875000
7100,46.875000
7101,46.875000
7102,46.875000
7103,46.875000
7104,46.875000
7105,50.781250
7106,50.781250
7107,50.781250
7108,50.781250
7109,50.781250
7110,50.781250
7111,50.781250
7112,50.781250
7113,54.687500
7114,54.687500
7115,54.687500
7116,54.687500
7117,54.687500
7118,54.687500
7119,54.687500
7120,54.687500
7121,54.687500
7122,54.687500
7123,58.593750
7124,58.593750
7125,58.593750
7126,58.593750
7127,58.593750
7128,58.593750
7129,58.593750
7130,58.593750
7131,62.500000
7132,62.500000
7133,62.500000
7134,62.500000
7135,62.500000
7136,62.500000
7137,62.500000
7138,62.500000
7139,62.500000
7140,62.500000
7141,62.500000
7142,62.500000
7143,66.406250
7144,66.406250
7145,66.406250
7146,66.406250
7147,66.406250
7148,66.406250
7149,66.406250
7150,66.406250
7151,66.406250
7152,66.406250
7153,66.406250
7154,70.312500
7155,70.312500
7156,70.312500
7157,70.312500
7158,70.312500
7159,70.312500
7160,70.312500
7161,70.312500
7162,70.312500
7163,70.312500
7164,70.312500
7165,70.312500
7166,70.312500
7167,70.312500
7168,74.218750
7169,74.218750
7170,74.218750
7171,74.218750
7172,74.218750
7173,74.218750
7174,74.218750
7175,74.218750
7176,74.218750
7177,74.218750
7178,74.218750
7179,74.218750
7180,74.218750
7181,74.218750
7182,78.125000
7183,78.125000
7184,78.125000
7185,78.125000
7186,78.125000
7187,78.125000
7188,78.125000
7189,78.125000
7190,78.125000
7191,78.125000
7192,78.125000
7193,78.125000
7194,78.125000
7195,78.125000
7196,78.125000
7197,78.125000
7198,78.125000
7199,78.125000
7200,78.125000
7201,78.125000
7202,82.031250
7203,82.031250
7204,78.125000
7205,78.125000
7206,78.125000
7207,78.125000
7208,78.125000
7209,82.031250
7210,78.125000
7211,82.031250
7212,82.031250
7213,82.031250
7214,82.031250
7215,82.031250
7216,82.031250
7217,82.031250
7218,82.031250
7219,82.031250
7220,82.031250
7221,82.031250
7222,82.031250
7223,82.031250
7224,82.031250
7225,82.031250
7226,82.031250
7227,82.031250
7228,82.031250
7229,82.031250
7230,82.031250
7231,82.031250
7232,82.031250
7233,82.031250
7234,82.031250
7235,82.031250
7236,82.031250
7237,82.031250
7238,82.031250
7239,82.031250
7240,82.031250
7241,82.031250
7242,82.031250
7243,82.031250
7244,82.031250
7245,82.031250
7246,82.031250
7247,82.031250
7248,82.031250
7249,82.031250
7250,82.031250
7251,82.031250
7252,82.031250
7253,82.031250
7254,82.031250
7255,82.031250
7256,82.031250
7257,82.031250
7258,82.031250
7259,82.031250
7260,82.031250
7261,82.031250
7262,82.031250
7263,82.031250
7264,82.031250
7265,82.031250
7266,82.031250
7267,82.031250
7268,82.031250
7269,82.031250
7270,82.031250
7271,82.031250
7272,82.031250
7273,82.031250
7274,82.031250
7275,82.031250
7276,82.031250
7277,82.031250
7278,82.031250
7279,82.031250
7280,82.031250
7281,82.031250
7282,82.031250
7283,82.031250
7284,82.031250
7285,82.031250
7286,78.125000
7287,78.125000
7288,78.125000
7289,78.125000
7290,78.125000
7291,78.125000
7292,78.125000
7293,78.125000
7294,78.125000
7295,78.125000
7296,78.125000
7297,78.125000
7298,78.125000
7299,78.125000
7300,78.125000
7301,78.125000
7302,78.125000
7303,78.125000
7304,78.125000
7305,78.125000
7306,78.125000
7307,74.218750
7308,74.218750
7309,74.218750
7310,74.218750
7311,74.218750
7312,74.218750
7313,74.218750
7314,74.218750
7315,74.218750
7316,74.218750
7317,74.218750
7318,74.218750
7319,74.218750
7320,74.218750
7321,70.312500
7322,74.218750
7323,74.218750
7324,74.218750
7325,70.312500
7326,70.312500
7327,70.312500
7328,70.312500
7329,70.312500
7330,70.312500
7331,70.312500
7332,70.312500
7333,70.312500
7334,70.312500
7335,70.312500
7336,70.312500
7337,66.406250
7338,66.406250
7339,66.406250
7340,66.406250
7341,66.406250
7342,66.406250
7343,66.406250
7344,66.406250
7345,66.406250
7346,66.406250
7347,66.406250
7348,62.500000
7349,62.500000
7350,62.500000
7351,62.500000
7352,62.500000
7353,62.500000
7354,62.500000
7355,62.500000
7356,58.593750
7357,62.500000
7358,62.500000
7359,58.593750
7360,58.593750
7361,62.500000
7362,58.593750
7363,58.593750
7364,58.593750
7365,62.500000
7366,58.593750
7367,58.593750
7368,58.593750
7369,58.593750
7370,58.593750
7371,54.687500
7372,54.687500
7373,54.687500
7374,54.687500
7375,54.687500
7376,54.687500
7377,54.687500
7378,54.687500
7379,50.781250
7380,54.687500
7381,54.687500
7382,50.781250
7383,50.781250
7384,50.781250
7385,50.781250
7386,50.781250
7387,50.781250
7388,50.781250
7389,46.875000
7390,46.875000
7391,46.875000
7392,46.875000
7393,46.875000
7394,46.875000
7395,46.875000
7396,42.968750
7397,42.968750
7398,42.968750
7399,42.968750
7400,42.968750
7401,42.968750
7402,42.968750
7403,42.968750
7404,42.968750
7405,42.968750
7406,39.062500
7407,39.062500
7408,39.062500
7409,39.062500
7410,39.062500
7411,39.062500
7412,39.062500
7413,39.062500
7414,35.156250
7415,35.156250
7416,35.156250
7417,35.156250
7418,35.156250
7419,35.156250
7420,35.156250
7421,31.250000
7422,31.250000
7423,31.250000
7424,31.250000
7425,31.250000
7426,31.250000
7427,31.250000
7428,27.343750
7429,27.343750
7430,27.343750
7431,27.343750
7432,27.343750
7433,27.343750
7434,27.343750
7435,23.437500
7436,23.437500
7437,23.437500
7438,23.437500
7439,23.437500
7440,23.437500
7441,23.437500
7442,23.437500
7443,23.437500
7444,19.531250
7445,19.531250
7446,19.531250
7447,19.531250
7448,19.531250
7449,15.625000
7450,15.625000
7451,15.625000
7452,15.625000
7453,15.625000
7454,15.625000
7455,15.625000
7456,15.625000
7457,11.718750
7458,11.718750
7459,11.718750
7460,11.718750
7461,11.718750
7462,11.718750
7463,7.812500
7464,7.812500
7465,7.812500
7466,7.812500
7467,7.812500
7468,3.906250
7469,3.906250
7470,3.906250
7471,3.906250
7472,3.906250
7473,3.906250
7474,3.906250
7475,0.000000
7476,0.000000
7477,0.000000
7478,0.000000
7479,0.000000
7480,0.000000
7481,-3.906250
7482,-3.906250
7483,-3.906250
7484,-3.906250
7485,-3.906250
7486,-3.906250
7487,-3.906250
7488,-7.812500
7489,-7.812500
7490,-7.812500
7491,-7.812500
7492,-7.812500
7493,-7.812500
7494,-11.718750
7495,-11.718750
7496,-11.718750
7497,-11.718750
7498,-11.718750
7499,-11.718750
7500,-15.625000
7501,-15.625000
7502,-15.625000
7503,-15.625000
7504,-15.625000
7505,-15.625000
7506,-19.531250
7507,-19.531250
7508,-19.531250
7509,-19.531250
7510,-19.531250
7511,-19.531250
7512,-23.437500
7513,-23.437500
7514,-23.437500
7515,-23.437500
7516,-23.437500
7517,-23.437500
7518,-27.343750
7519,-27.343750
7520,-27.343750
7521,-27.343750
7522,-27.343750
7523,-27.343750
7524,-27.343750
7525,-31.250000
7526,-31.250000
7527,-31.250000
7528,-31.250000
7529,-31.250000
7530,-35.156250
7531,-35.156250
7532,-35.156250
7533,-35.156250
7534,-35.156250
7535,-35.156250
7536,-39.062500
7537,-39.062500
7538,-39.062500
7539,-39.062500
7540,-39.062500
7541,-39.062500
7542,-39.062500
7543,-42.968750
7544,-42.968750
7545,-42.968750
7546,-42.968750
7547,-42.968750
7548,-42.968750
7549,-46.875000
7550,-46.875000
7551,-46.875000
7552,-46.875000
7553,-46.875000
7554,-46.875000
7555,-50.781250
7556,-50.781250
7557,-50.781250
7558,-50.781250
7559,-50.781250
7560,-50.781250
7561,-50.781250
7562,-50.781250
7563,-54.687500
7564,-54.687500
7565,-54.687500
7566,-54.687500
7567,-54.687500
7568,-58.593750
7569,-58.593750
7570,-58.593750
7571,-58.593750
7572,-58.593750
7573,-58.593750
7574,-58.593750
7575,-62.500000
7576,-62.500000
7577,-62.500000
7578,-62.500000
7579,-62.500000
7580,-62.500000
7581,-66.406250
7582,-66.406250
7583,-66.406250
7584,-66.406250
7585,-66.406250
7586,-66.406250
7587,-70.312500
7588,-70.312500
7589,-70.312500
7590,-70.312500
7591,-70.312500
7592,-70.312500
7593,-70.312500
7594,-70.312500
7595,-74.218750
7596,-74.218750
7597,-74.218750
7598,-78.125000
7599,-74.218750
7600,-74.218750
7601,-78.125000
7602,-78.125000
7603,-78.125000
7604,-78.125000
7605,-78.125000
7606,-78.125000
7607,-78.125000
7608,-78.125000
7609,-82.031250
7610,-82.031250
7611,-82.031250
7612,-82.031250
7613,-82.031250
7614,-82.031250
7615,-82.031250
7616,-82.031250
7617,-85.937500
7618,-85.937500
7619,-85.937500
7620,-85.937500
7621,-85.937500
7622,-85.937500
7623,-85.937500
7624,-85.937500
7625,-89.843750
7626,-89.843750
7627,-89.843750
7628,-89.843750
7629,-89.843750
7630,-89.843750
7631,-89.843750
7632,-89.843750
7633,-93.750000
7634,-93.750000
7635,-93.750000
7636,-93.750000
7637,-93.750000
7638,-93.750000
7639,-93.750000
7640,-93.750000
7641,-97.656250
7642,-97.656250
7643,-97.656250
7644,-93.750000
7645,-97.656250
7646,-97.656250
7647,-97.656250
7648,-97.656250
7649,-97.656250
7650,-97.656250
7651,-97.656250
7652,-101.562500
7653,-101.562500
7654,-101.562500
7655,-101.562500
7656,-101.562500
7657,-101.562500
7658,-101.562500
7659,-101.562500
7660,-101.562500
7661,-101.562500
7662,-101.562500
7663,-101.562500
7664,-101.562500
7665,-105.468750
7666,-105.468750
7667,-105.468750
7668,-105.468750
7669,-105.468750
7670,-105.468750
7671,-105.468750
7672,-105.468750
7673,-105.468750
7674,-105.468750
7675,-109.375000
7676,-105.468750
7677,-105.468750
7678,-109.375000
7679,-109.375000
7680,-109.375000
7681,-109.375000
7682,-109.375000
7683,-109.375000
7684,-109.375000
7685,-109.375000
7686,-109.375000
7687,-109.375000
7688,-109.375000
7689,-113.281250
7690,-105.468750
7691,-113.281250
7692,-113.281250
7693,-113.281250
7694,-113.281250
7695,-113.281250
7696,-113.281250
7697,-113.281250
7698,-113.281250
7699,-113.281250
7700,-113.281250
7701,-113.281250
7702,-113.281250
7703,-113.281250
7704,-113.281250
7705,-113.281250
7706,-113.281250
7707,-113.281250
7708,-113.281250
7709,-113.281250
7710,-113.281250
7711,-117.187500
7712,-113.281250
7713,-117.187500
7714,-117.187500
7715,-117.187500
7716,-117.187500
7717,-117.187500
7718,-117.187500
7719,-117.187500
7720,-117.187500
7721,-117.187500
7722,-117.187500
7723,-117.187500
7724,-117.187500
7725,-117.187500
7726,-117.187500
7727,-117.187500
7728,-117.187500
7729,-117.187500
7730,-117.187500
7731,-117.187500
7732,-117.187500
7733,-117.187500
7734,-117.187500
7735,-117.187500
7736,-117.187500
7737,-117.187500
7738,-117.187500
7739,-113.281250
7740,-117.187500
7741,-117.187500
7742,-117.187500
7743,-117.187500
7744,-117.187500
7745,-117.187500
7746,-117.187500
7747,-117.187500
7748,-117.187500
7749,-117.187500
7750,-117.187500
7751,-117.187500
7752,-117.187500
7753,-117.187500
7754,-121.093750
7755,-117.187500
7756,-117.187500
7757,-113.281250
7758,-117.187500
7759,-117.187500
7760,-117.187500
7761,-117.187500
7762,-117.187500
7763,-117.187500
7764,-117.187500
7765,-117.187500
7766,-117.187500
7767,-117.187500
7768,-117.187500
7769,-117.187500
7770,-117.187500
7771,-113.281250
7772,-117.187500
7773,-113.281250
7774,-113.281250
7775,-113.281250
7776,-113.281250
7777,-113.281250
7778,-113.281250
7779,-113.281250
7780,-113.281250
7781,-113.281250
7782,-113.281250
7783,-113.281250
7784,-113.281250
7785,-113.281250
7786,-113.281250
7787,-113.281250
7788,-113.281250
7789,-113.281250
7790,-113.281250
7791,-113.281250
7792,-113.281250
7793,-113.281250
7794,-109.375000
7795,-109.375000
7796,-109.375000
7797,-109.375000
7798,-109.375000
7799,-109.375000
7800,-109.375000
7801,-109.375000
7802,-109.375000
7803,-109.375000
7804,-109.375000
7805,-109.375000
7806,-109.375000
7807,-109.375000
7808,-105.468750
7809,-109.375000
7810,-109.375000
7811,-105.468750
7812,-105.468750
7813,-105.468750
7814,-105.468750
7815,-105.468750
7816,-105.468750
7817,-105.468750
7818,-105.468750
7819,-105.468750
7820,-105.468750
7821,-105.468750
7822,-105.468750
7823,-101.562500
7824,-101.562500
7825,-101.562500
7826,-101.562500
7827,-101.562500
7828,-101.562500
7829,-101.562500
7830,-101.562500
7831,-101.562500
7832,-97.656250
7833,-97.656250
7834,-97.656250
7835,-97.656250
7836,-97.656250
7837,-97.656250
7838,-97.656250
7839,-97.656250
7840,-97.656250
7841,-97.656250
7842,-93.750000
7843,-93.750000
7844,-93.750000
7845,-93.750000
7846,-93.750000
7847,-93.750000
7848,-93.750000
7849,-93.750000
7850,-93.750000
7851,-89.843750
7852,-89.843750
7853,-89.843750
7854,-89.843750
7855,-89.843750
7856,-89.843750
7857,-89.843750
7858,-89.843750
7859,-89.843750
7860,-89.843750
7861,-85.937500
7862,-85.937500
7863,-85.937500
7864,-85.937500
7865,-85.937500
7866,-85.937500
7867,-85.937500
7868,-82.031250
7869,-82.031250
7870,-82.031250
7871,-82.031250
7872,-82.031250
7873,-82.031250
7874,-82.031250
7875,-82.031250
7876,-78.125000
7877,-78.125000
7878,-78.125000
7879,-78.125000
7880,-78.125000
7881,-78.125000
7882,-78.125000
7883,-74.218750
7884,-74.218750
7885,-74.218750
7886,-74.218750
7887,-74.218750
7888,-74.218750
7889,-74.218750
7890,-70.312500
7891,-70.312500
7892,-70.312500
7893,-70.312500
7894,-70.312500
7895,-70.312500
7896,-70.312500
7897,-70.312500
7898,-66.406250
7899,-66.406250
7900,-66.406250
7901,-66.406250
7902,-66.406250
7903,-66.406250
7904,-66.406250
7905,-66.406250
7906,-62.500000
7907,-62.500000
7908,-62.500000
7909,-62.500000
7910,-62.500000
7911,-58.593750
7912,-58.593750
7913,-58.593750
7914,-58.593750
7915,-58.593750
7916,-58.593750
7917,-58.593750
7918,-58.593750
7919,-54.687500
7920,-54.687500
7921,-54.687500
7922,-54.687500
7923,-54.687500
7924,-50.781250
7925,-50.781250
7926,-50.781250
7927,-50.781250
7928,-50.781250
7929,-50.781250
7930,-46.875000
7931,-46.875000
7932,-46.875000
7933,-46.875000
7934,-46.875000
7935,-46.875000
7936,-46.875000
7937,-46.875000
7938,-42.968750
7939,-42.968750
7940,-42.968750
7941,-42.968750
7942,-39.062500
7943,-39.062500
7944,-39.062500
7945,-39.062500
7946,-39.062500
7947,-39.062500
7948,-39.062500
7949,-35.156250
7950,-35.156250
7951,-35.156250
7952,-35.156250
7953,-35.156250
7954,-35.156250
7955,-31.250000
7956,-31.250000
7957,-31.250000
7958,-31.250000
7959,-31.250000
7960,-31.250000
7961,-27.343750
7962,-27.343750
7963,-27.343750
7964,-27.343750
7965,-27.343750
7966,-27.343750
7967,-23.437500
7968,-23.437500
7969,-23.437500
7970,-23.437500
7971,-23.437500
7972,-23.437500
7973,-19.531250
7974,-19.531250
7975,-19.531250
7976,-19.531250
7977,-19.531250
7978,-19.531250
7979,-15.625000
7980,-15.625000
7981,-15.625000
7982,-15.625000
7983,-15.625000
7984,-15.625000
7985,-11.718750
7986,-11.718750
7987,-11.718750
7988,-11.718750
7989,-11.718750
7990,-7.812500
7991,-7.812500
7992,-7.812500
7993,-7.812500
7994,-7.812500
7995,-7.812500
7996,-7.812500
7997,-7.812500
7998,-3.906250
7999,-3.906250
8000,-3.906250
8001,-3.906250
8002,-3.906250
8003,0.000000
8004,0.000000
8005,0.000000
8006,0.000000
8007,0.000000
8008,0.000000
8009,3.906250
8010,3.906250
8011,3.906250
8012,3.906250
8013,3.906250
8014,3.906250
8015,3.906250
8016,7.812500
8017,7.812500
8018,7.812500
8019,7.812500
8020,7.812500
8021,11.718750
8022,7.812500
8023,11.718750
8024,11.718750
8025,11.718750
8026,11.718750
8027,11.718750
8028,11.718750
8029,15.625000
8030,15.625000
8031,15.625000
8032,15.625000
8033,15.625000
8034,15.625000
8035,15.625000
8036,19.531250
8037,19.531250
8038,19.531250
8039,19.531250
8040,19.531250
8041,19.531250
8042,23.437500
8043,23.437500
8044,23.437500
8045,23.437500
8046,23.437500
8047,23.437500
8048,23.437500
8049,23.437500
8050,27.343750
8051,27.343750
8052,27.343750
8053,27.343750
8054,27.343750
8055,31.250000
8056,31.250000
8057,31.250000
8058,31.250000
8059,31.250000
8060,31.250000
8061,31.250000
8062,35.156250
8063,35.156250
8064,35.156250
8065,35.156250
8066,35.156250
8067,35.156250
8068,35.156250
8069,35.156250
8070,35.156250
8071,39.062500
8072,39.062500
8073,39.062500
8074,39.062500
8075,39.062500
8076,39.062500
8077,39.062500
8078,39.062500
8079,42.968750
8080,42.968750
8081,42.968750
8082,42.968750
8083,42.968750
8084,42.968750
8085,42.968750
8086,46.875000
8087,46.875000
8088,46.875000
8089,46.875000
8090,46.875000
8091,46.875000
8092,46.875000
8093,50.781250
8094,50.781250
8095,50.781250
8096,50.781250
8097,50.781250
8098,50.781250
8099,50.781250
8100,50.781250
8101,50.781250
8102,50.781250
8103,54.687500
8104,54.687500
8105,54.687500
8106,54.687500
8107,54.687500
8108,54.687500
8109,54.687500
8110,54.687500
8111,54.687500
8112,54.687500
8113,58.593750
8114,58.593750
8115,58.593750
8116,58.593750
8117,58.593750
8118,58.593750
8119,58.593750
8120,58.593750
8121,58.593750
8122,62.500000
8123,62.500000
8124,62.500000
8125,62.500000
8126,62.500000
8127,62.500000
8128,62.500000
8129,62.500000
8130,62.500000
8131,62.500000
8132,62.500000
8133,66.406250
8134,66.406250
8135,66.406250
8136,66.406250
8137,66.406250
8138,66.406250
8139,66.406250
8140,66.406250
8141,66.406250
8142,66.406250
8143,66.406250
8144,66.406250
8145,70.312500
8146,70.312500
8147,70.312500
8148,70.312500
8149,70.312500
8150,70.312500
8151,70.312500
8152,70.312500
8153,70.312500
8154,70.312500
8155,70.312500
8156,70.312500
8157,70.312500
8158,74.218750
8159,70.312500
8160,74.218750
8161,74.218750
8162,74.218750
8163,74.218750
8164,74.218750
8165,74.218750
8166,74.218750
8167,74.218750
8168,74.218750
8169,74.218750
8170,74.218750
8171,74.218750
8172,74.218750
8173,74.218750
8174,74.218750
8175,74.218750
8176,78.125000
8177,78.125000
8178,78.125000
8179,78.125000
8180,78.125000
8181,78.125000
8182,78.125000
8183,78.125000
8184,78.125000
8185,78.125000
8186,78.125000
8187,78.125000
8188,78.125000
8189,78.125000
8190,78.125000
8191,78.125000
8192,78.125000
8193,78.125000
8194,78.125000
8195,78.125000
8196,78.125000
8197,78.125000
8198,82.031250
8199,82.031250
8200,82.031250
8201,82.031250
8202,82.031250
8203,82.031250
8204,82.031250
8205,82.031250
8206,82.031250
8207,82.031250
8208,82.031250
8209,82.031250
8210,82.031250
8211,82.031250
8212,82.031250
8213,82.031250
8214,82.031250
8215,82.031250
8216,82.031250
8217,82.031250
8218,82.031250
8219,82.031250
8220,82.031250
8221,82.031250
8222,82.031250
8223,82.031250
8224,82.031250
8225,82.031250
8226,82.031250
8227,82.031250
8228,82.031250
8229,82.031250
8230,82.031250
8231,82.031250
8232,82.031250
8233,82.031250
8234,82.031250
8235,82.031250
8236,82.031250
8237,82.031250
8238,82.031250
8239,82.031250
8240,82.031250
8241,82.031250
8242,82.031250
8243,82.031250
8244,82.031250
8245,82.031250
8246,82.031250
8247,82.031250
8248,82.031250
8249,82.031250
8250,82.031250
8251,82.031250
8252,82.031250
8253,82.031250
8254,82.031250
8255,82.031250
8256,82.031250
8257,82.031250
8258,82.031250
8259,82.031250
8260,82.031250
8261,82.031250
8262,82.031250
8263,82.031250
8264,82.031250
8265,82.031250
8266,82.031250
8267,82.031250
8268,82.031250
8269,82.031250
8270,82.031250
8271,82.031250
8272,82.031250
8273,82.031250
8274,82.031250
8275,78.125000
8276,78.125000
8277,78.125000
8278,78.125000
8279,78.125000
8280,78.125000
8281,78.125000
8282,78.125000
8283,78.125000
8284,78.125000
8285,78.125000
8286,78.125000
8287,78.125000
8288,78.125000
8289,78.125000
8290,78.125000
8291,78.125000
8292,78.125000
8293,78.125000
8294,74.218750
8295,74.218750
8296,74.218750
8297,78.125000
8298,78.125000
8299,74.218750
8300,74.218750
8301,74.218750
8302,74.218750
8303,74.218750
8304,74.218750
8305,74.218750
8306,74.218750
8307,74.218750
8308,74.218750
8309,74.218750
8310,74.218750
8311,74.218750
8312,74.218750
8313,74.218750
8314,70.312500
8315,70.312500
8316,70.312500
8317,70.312500
8318,70.312500
8319,70.312500
8320,70.312500
8321,70.312500
8322,70.312500
8323,70.312500
8324,70.312500
8325,70.312500
8326,70.312500
8327,66.406250
8328,70.312500
8329,66.406250
8330,66.406250
8331,66.406250
8332,66.406250
8333,66.406250
8334,66.406250
8335,66.406250
8336,66.406250
8337,66.406250
8338,66.406250
8339,66.406250
8340,62.500000
8341,62.500000
8342,66.406250
8343,62.500000
8344,62.500000
8345,62.500000
8346,62.500000
8347,62.500000
8348,62.500000
8349,62.500000
8350,62.500000
8351,58.593750
8352,62.500000
8353,58.593750
8354,58.593750
8355,58.593750
8356,58.593750
8357,58.593750
8358,58.593750
8359,58.593750
8360,58.593750
8361,58.593750
8362,58.593750
8363,54.687500
8364,54.687500
8365,54.687500
8366,54.687500
8367,54.687500
8368,54.687500
8369,50.781250
8370,54.687500
8371,50.781250
8372,50.781250
8373,50.781250
8374,50.781250
8375,50.781250
8376,50.781250
8377,50.781250
8378,50.781250
8379,46.875000
8380,46.875000
8381,46.875000
8382,46.875000
8383,46.875000
8384,46.875000
8385,46.875000
8386,46.875000
8387,46.875000
8388,46.875000
8389,42.968750
8390,42.968750
8391,42.968750
8392,42.968750
8393,42.968750
8394,42.968750
8395,42.968750
8396,39.062500
8397,39.062500
8398,39.062500
8399,39.062500
8400,39.062500
8401,39.062500
8402,39.062500
8403,35.156250
8404,35.156250
8405,35.156250
8406,35.156250
8407,35.156250
8408,35.156250
8409,35.156250
8410,35.156250
8411,31.250000
8412,31.250000
8413,31.250000
8414,31.250000
8415,31.250000
8416,31.250000
8417,31.250000
8418,31.250000
8419,27.343750
8420,27.343750
8421,27.343750
8422,27.343750
8423,27.343750
8424,27.343750
8425,23.437500
8426,23.437500
8427,23.437500
8428,23.437500
8429,23.437500
8430,23.437500
8431,23.437500
8432,19.531250
8433,19.531250
8434,19.531250
8435,19.531250
8436,19.531250
8437,19.531250
8438,19.531250
8439,15.625000
8440,15.625000
8441,15.625000
8442,15.625000
8443,15.625000
8444,15.625000
8445,15.625000
8446,11.718750
8447,11.718750
8448,11.718750
8449,11.718750
8450,11.718750
8451,7.812500
8452,7.812500
8453,7.812500
8454,7.812500
8455,7.812500
8456,7.812500
8457,7.812500
8458,7.812500
8459,3.906250
8460,7.812500
8461,3.906250
8462,3.906250
8463,0.000000
8464,3.906250
8465,0.000000
8466,0.000000
8467,0.000000
8468,0.000000
8469,0.000000
8470,0.000000
8471,-3.906250
8472,-3.906250
8473,-3.906250
8474,-3.906250
8475,-3.906250
8476,-3.906250
8477,-3.906250
8478,-7.812500
8479,-7.812500
8480,-7.812500
8481,-7.812500
8482,-7.812500
8483,-7.812500
8484,-11.718750
8485,-11.718750
8486,-11.718750
8487,-11.718750
8488,-11.718750
8489,-11.718750
8490,-15.625000
8491,-15.625000
8492,-15.625000
8493,-15.625000
8494,-15.625000
8495,-15.625000
8496,-19.531250
8497,-19.531250
8498,-19.531250
8499,-19.531250
8500,-19.531250
8501,-19.531250
8502,-23.437500
8503,-23.437500
8504,-23.437500
8505,-23.437500
8506,-23.437500
8507,-23.437500
8508,-27.343750
8509,-27.343750
8510,-27.343750
8511,-27.343750
8512,-27.343750
8513,-27.343750
8514,-31.250000
8515,-31.250000
8516,-31.250000
8517,-31.250000
8518,-31.250000
8519,-35.156250
8520,-31.250000
8521,-35.156250
8522,-35.156250
8523,-35.156250
8524,-35.156250
8525,-35.156250
8526,-39.062500
8527,-39.062500
8528,-39.062500
8529,-39.062500
8530,-39.062500
8531,-39.062500
8532,-42.968750
8533,-42.968750
8534,-42.968750
8535,-42.968750
8536,-42.968750
8537,-42.968750
8538,-46.875000
8539,-46.875000
8540,-46.875000
8541,-46.875000
8542,-46.875000
8543,-46.875000
8544,-46.875000
8545,-50.781250
8546,-50.781250
8547,-50.781250
8548,-50.781250
8549,-50.781250
8550,-50.781250
8551,-54.687500
8552,-54.687500
8553,-54.687500
8554,-54.687500
8555,-54.687500
8556,-54.687500
8557,-54.687500
8558,-58.593750
8559,-58.593750
8560,-58.593750
8561,-58.593750
8562,-58.593750
8563,-58.593750
8564,-58.593750
8565,-62.500000
8566,-62.500000
8567,-62.500000
8568,-62.500000
8569,-62.500000
8570,-62.500000
8571,-66.406250
8572,-66.406250
8573,-66.406250
8574,-66.406250
8575,-66.406250
8576,-66.406250
8577,-66.406250
8578,-70.312500
8579,-70.312500
8580,-70.312500
8581,-70.312500
8582,-70.312500
8583,-70.312500
8584,-70.312500
8585,-74.218750
8586,-74.218750
8587,-74.218750
8588,-74.218750
8589,-74.218750
8590,-74.218750
8591,-78.125000
8592,-78.125000
8593,-78.125000
8594,-78.125000
8595,-78.125000
8596,-78.125000
8597,-78.125000
8598,-78.125000
8599,-82.031250
8600,-82.031250
8601,-82.031250
8602,-82.031250
8603,-82.031250
8604,-82.031250
8605,-82.031250
8606,-82.031250
8607,-85.937500
8608,-85.937500
8609,-85.937500
8610,-85.937500
8611,-85.937500
8612,-85.937500
8613,-85.937500
8614,-85.937500
8615,-89.843750
8616,-85.937500
8617,-89.843750
8618,-89.843750
8619,-89.843750
8620,-89.843750
8621,-89.843750
8622,-89.843750
8623,-93.750000
8624,-93.750000
8625,-93.750000
8626,-93.750000
8627,-93.750000
8628,-93.750000
8629,-93.750000
8630,-93.750000
8631,-93.750000
8632,-93.750000
8633,-97.656250
8634,-97.656250
8635,-97.656250
8636,-97.656250
8637,-97.656250
8638,-97.656250
8639,-97.656250
8640,-97.656250
8641,-101.562500
8642,-97.656250
8643,-101.562500
8644,-101.562500
8645,-101.562500
8646,-101.562500
8647,-101.562500
8648,-101.562500
8649,-101.562500
8650,-101.562500
8651,-101.562500
8652,-101.562500
8653,-101.562500
8654,-105.468750
8655,-105.468750
8656,-105.468750
8657,-105.468750
8658,-105.468750
8659,-105.468750
8660,-105.468750
8661,-105.468750
8662,-105.468750
8663,-105.468750
8664,-105.468750
8665,-105.468750
8666,-109.375000
8667,-109.375000
8668,-109.375000
8669,-109.375000
8670,-109.375000
8671,-109.375000
8672,-109.375000
8673,-109.375000
8674,-109.375000
8675,-109.375000
8676,-109.375000
8677,-109.375000
8678,-109.375000
8679,-113.281250
8680,-109.375000
8681,-113.281250
8682,-109.375000
8683,-113.281250
8684,-113.281250
8685,-113.281250
8686,-113.281250
8687,-113.281250
8688,-113.281250
8689,-113.281250
8690,-113.281250
8691,-113.281250
8692,-113.281250
8693,-113.281250
8694,-113.281250
8695,-113.281250
8696,-113.281250
8697,-117.187500
8698,-113.281250
8699,-113.281250
8700,-113.281250
8701,-117.187500
8702,-113.281250
8703,-113.281250
8704,-113.281250
8705,-117.187500
8706,-117.187500
8707,-117.187500
8708,-117.187500
8709,-117.187500
8710,-117.187500
8711,-117.187500
8712,-117.187500
8713,-117.187500
8714,-117.187500
8715,-117.187500
8716,-117.187500
8717,-117.187500
8718,-117.187500
8719,-117.187500
8720,-117.187500
8721,-117.187500
8722,-117.187500
8723,-117.187500
8724,-117.187500
8725,-117.187500
8726,-117.187500
8727,-117.187500
8728,-117.187500
8729,-117.187500
8730,-117.187500
8731,-117.187500
8732,-117.187500
8733,-117.187500
8734,-117.187500
8735,-117.187500
8736,-117.187500
8737,-117.187500
8738,-117.187500
8739,-117.187500
8740,-117.187500
8741,-117.187500
8742,-117.187500
8743,-117.187500
8744,-117.187500
8745,-117.187500
8746,-117.187500
8747,-117.187500
8748,-117.187500
8749,-117.187500
8750,-117.187500
8751,-117.187500
8752,-117.187500
8753,-117.187500
8754,-117.187500
8755,-117.187500
8756,-117.187500
8757,-117.187500
8758,-113.281250
8759,-117.187500
8760,-117.187500
8761,-117.187500
8762,-117.187500
8763,-117.187500
8764,-117.187500
8765,-113.281250
8766,-113.281250
8767,-113.281250
8768,-113.281250
8769,-113.281250
8770,-113.281250
8771,-113.281250
8772,-113.281250
8773,-113.281250
8774,-113.281250
8775,-113.281250
8776,-113.281250
8777,-113.281250
8778,-113.281250
8779,-113.281250
8780,-113.281250
8781,-113.281250
8782,-113.281250
8783,-113.281250
8784,-113.281250
8785,-109.375000
8786,-109.375000
8787,-109.375000
8788,-109.375000
8789,-109.375000
8790,-109.375000
8791,-109.375000
8792,-109.375000
8793,-109.375000
8794,-109.375000
8795,-109.375000
8796,-109.375000
8797,-109.375000
8798,-109.375000
8799,-109.375000
8800,-105.468750
8801,-105.468750
8802,-105.468750
8803,-105.468750
8804,-105.468750
8805,-105.468750
8806,-105.468750
8807,-105.468750
8808,-105.468750
8809,-105.468750
8810,-105.468750
8811,-105.468750
8812,-101.562500
8813,-101.562500
8814,-101.562500
8815,-101.562500
8816,-101.562500
8817,-101.562500
8818,-101.562500
8819,-101.562500
8820,-101.562500
8821,-101.562500
8822,-101.562500
8823,-97.656250
8824,-97.656250
8825,-97.656250
8826,-97.656250
8827,-97.656250
8828,-97.656250
8829,-97.656250
8830,-97.656250
8831,-97.656250
8832,-93.750000
8833,-93.750000
8834,-93.750000
8835,-93.750000
8836,-93.750000
8837,-93.750000
8838,-93.750000
8839,-93.750000
8840,-93.750000
8841,-93.750000
8842,-89.843750
8843,-89.843750
8844,-89.843750
8845,-89.843750
8846,-89.843750
8847,-89.843750
8848,-89.843750
8849,-89.843750
8850,-85.937500
8851,-89.843750
8852,-85.937500
8853,-85.937500
8854,-85.937500
8855,-85.937500
8856,-85.937500
8857,-85.937500
8858,-85.937500
8859,-82.031250
8860,-82.031250
8861,-82.031250
8862,-82.031250
8863,-82.031250
8864,-82.031250
8865,-82.031250
8866,-78.125000
8867,-78.125000
8868,-78.125000
8869,-78.125000
8870,-78.125000
8871,-78.125000
8872,-78.125000
8873,-74.218750
8874,-74.218750
8875,-74.218750
8876,-74.218750
8877,-74.218750
8878,-74.218750
8879,-74.218750
8880,-74.218750
8881,-70.312500
8882,-70.312500
8883,-70.312500
8884,-70.312500
8885,-70.312500
8886,-70.312500
8887,-66.406250
8888,-66.406250
8889,-66.406250
8890,-66.406250
8891,-66.406250
8892,-66.406250
8893,-66.406250
8894,-66.406250
8895,-62.500000
8896,-62.500000
8897,-62.500000
8898,-62.500000
8899,-62.500000
8900,-62.500000
8901,-58.593750
8902,-58.593750
8903,-58.593750
8904,-58.593750
8905,-58.593750
8906,-58.593750
8907,-58.593750
8908,-54.687500
8909,-54.687500
8910,-54.687500
8911,-54.687500
8912,-54.687500
8913,-54.687500
8914,-54.687500
8915,-50.781250
8916,-50.781250
8917,-50.781250
8918,-50.781250
8919,-50.781250
8920,-46.875000
8921,-46.875000
8922,-46.875000
8923,-46.875000
8924,-46.875000
8925,-46.875000
8926,-46.875000
8927,-42.968750
8928,-42.968750
8929,-42.968750
8930,-42.968750
8931,-42.968750
8932,-42.968750
8933,-42.968750
8934,-39.062500
8935,-39.062500
8936,-39.062500
8937,-39.062500
8938,-39.062500
8939,-35.156250
8940,-39.062500
8941,-35.156250
8942,-35.156250
8943,-35.156250
8944,-35.156250
8945,-31.250000
8946,-31.250000
8947,-31.250000
8948,-31.250000
8949,-31.250000
8950,-31.250000
8951,-31.250000
8952,-27.343750
8953,-27.343750
8954,-27.343750
8955,-27.343750
8956,-27.343750
8957,-27.343750
8958,-23.437500
8959,-23.437500
8960,-23.437500
8961,-19.531250
8962,-23.437500
8963,-19.531250
8964,-19.531250
8965,-19.531250
8966,-19.531250
8967,-19.531250
8968,-19.531250
8969,-19.531250
8970,-15.625000
8971,-15.625000
8972,-15.625000
8973,-15.625000
8974,-15.625000
8975,-11.718750
8976,-11.718750
8977,-11.718750
8978,-11.718750
8979,-11.718750
8980,-11.718750
8981,-7.812500
8982,-7.812500
8983,-7.812500
8984,-7.812500
8985,-7.812500
8986,-7.812500
8987,-3.906250
8988,-3.906250
8989,-3.906250
8990,-3.906250
8991,-3.906250
8992,-3.906250
8993,0.000000
8994,0.000000
8995,0.000000
8996,0.000000
8997,0.000000
8998,3.906250
8999,0.000000
9000,3.906250
9001,3.906250
9002,3.906250
9003,3.906250
9004,3.906250
9005,3.906250
9006,7.812500
9007,7.812500
9008,7.812500
9009,7.812500
9010,7.812500
9011,11.718750
9012,11.718750
9013,11.718750
9014,11.718750
9015,11.718750
9016,11.718750
9017,11.718750
9018,15.625000
9019,15.625000
9020,15.625000
9021,15.625000
9022,15.625000
9023,15.625000
9024,15.625000
9025,15.625000
9026,19.531250
9027,19.531250
9028,19.531250
9029,19.531250
9030,19.531250
9031,23.437500
9032,23.437500
9033,23.437500
9034,23.437500
9035,23.437500
9036,23.437500
9037,23.437500
9038,23.437500
9039,27.343750
9040,27.343750
9041,27.343750
9042,27.343750
9043,27.343750
9044,27.343750
9045,27.343750
9046,31.250000
9047,31.250000
9048,31.250000
9049,31.250000
9050,31.250000
9051,31.250000
9052,35.156250
9053,35.156250
9054,35.156250
9055,35.156250
9056,35.156250
9057,35.156250
9058,35.156250
9059,35.156250
9060,35.156250
9061,39.062500
9062,39.062500
9063,39.062500
9064,39.062500
9065,39.062500
9066,39.062500
9067,39.062500
9068,42.968750
9069,42.968750
9070,42.968750
9071,42.968750
9072,42.968750
9073,42.968750
9074,42.968750
9075,42.968750
9076,46.875000
9077,46.875000
9078,46.875000
9079,46.875000
9080,46.875000
9081,46.875000
9082,46.875000
9083,50.781250
9084,50.781250
9085,50.781250
9086,50.781250
9087,50.781250
9088,50.781250
9089,50.781250
9090,50.781250
9091,50.781250
9092,54.687500
9093,54.687500
9094,54.687500
9095,54.687500
9096,54.687500
9097,54.687500
9098,54.687500
9099,54.687500
9100,54.687500
9101,54.687500
9102,54.687500
9103,58.593750
9104,58.593750
9105,58.593750
9106,58.593750
9107,58.593750
9108,58.593750
9109,58.593750
9110,62.500000
9111,58.593750
9112,62.500000
9113,62.500000
9114,62.500000
9115,62.500000
9116,62.500000
9117,62.500000
9118,62.500000
9119,62.500000
9120,62.500000
9121,62.500000
9122,66.406250
9123,66.406250
9124,66.406250
9125,66.406250
9126,66.406250
9127,66.406250
9128,66.406250
9129,66.406250
9130,66.406250
9131,66.406250
9132,66.406250
9133,66.406250
9134,70.312500
9135,66.406250
9136,70.312500
9137,70.312500
9138,66.406250
9139,70.312500
9140,70.312500
9141,70.312500
9142,70.312500
9143,70.312500
9144,70.312500
9145,70.312500
9146,70.312500
9147,74.218750
9148,74.218750
9149,74.218750
9150,74.218750
9151,74.218750
9152,74.218750
9153,74.218750
9154,74.218750
9155,74.218750
9156,74.218750
9157,74.218750
9158,74.218750
9159,74.218750
9160,78.125000
9161,78.125000
9162,78.125000
9163,74.218750
9164,74.218750
9165,78.125000
9166,78.125000
9167,78.125000
9168,78.125000
9169,78.125000
9170,78.125000
9171,78.125000
9172,78.125000
9173,78.125000
9174,78.125000
9175,78.125000
9176,78.125000
9177,78.125000
9178,78.125000
9179,78.125000
9180,78.125000
9181,78.125000
9182,78.125000
9183,78.125000
9184,82.031250
9185,82.031250
9186,82.031250
9187,82.031250
9188,78.125000
9189,78.125000
9190,82.031250
9191,82.031250
9192,82.031250
9193,82.031250
9194,82.031250
9195,82.031250
9196,82.031250
9197,82.031250
9198,82.031250
9199,82.031250
9200,82.031250
9201,82.031250
9202,82.031250
9203,82.031250
9204,82.031250
9205,82.031250
9206,82.031250
9207,82.031250
9208,82.031250
9209,82.031250
9210,82.031250
9211,82.031250
9212,82.031250
9213,82.031250
9214,82.031250
9215,82.031250
9216,82.031250
9217,82.031250
9218,82.031250
9219,82.031250
9220,82.031250
9221,82.031250
9222,82.031250
9223,82.031250
9224,85.937500
9225,82.031250
9226,82.031250
9227,82.031250
9228,82.031250
9229,82.031250
9230,82.031250
9231,82.031250
9232,82.031250
9233,82.031250
9234,82.031250
9235,82.031250
9236,82.031250
9237,82.031250
9238,82.031250
9239,82.031250
9240,82.031250
9241,82.031250
9242,82.031250
9243,82.031250
9244,82.031250
9245,82.031250
9246,82.031250
9247,82.031250
9248,82.031250
9249,82.031250
9250,82.031250
9251,82.031250
9252,82.031250
9253,82.031250
9254,82.031250
9255,82.031250
9256,82.031250
9257,82.031250
9258,82.031250
9259,82.031250
9260,82.031250
9261,82.031250
9262,82.031250
9263,82.031250
9264,82.031250
9265,78.125000
9266,78.125000
9267,78.125000
9268,78.125000
9269,78.125000
9270,78.125000
9271,82.031250
9272,82.031250
9273,78.125000
9274,78.125000
9275,78.125000
9276,78.125000
9277,78.125000
9278,78.125000
9279,78.125000
9280,78.125000
9281,78.125000
9282,78.125000
9283,78.125000
9284,78.125000
9285,78.125000
9286,78.125000
9287,78.125000
9288,78.125000
9289,78.125000
9290,78.125000
9291,78.125000
9292,74.218750
9293,74.218750
9294,74.218750
9295,74.218750
9296,74.218750
9297,74.218750
9298,74.218750
9299,74.218750
9300,74.218750
9301,74.218750
9302,74.218750
9303,78.125000
9304,74.218750
9305,74.218750
9306,74.218750
9307,70.312500
9308,70.312500
9309,70.312500
9310,70.312500
9311,70.312500
9312,70.312500
9313,70.312500
9314,70.312500
9315,70.312500
9316,70.312500
9317,70.312500
9318,70.312500
9319,66.406250
9320,66.406250
9321,66.406250
9322,66.406250
9323,66.406250
9324,66.406250
9325,66.406250
9326,66.406250
9327,66.406250
9328,66.406250
9329,66.406250
9330,62.500000
9331,66.406250
9332,62.500000
9333,62.500000
9334,62.500000
9335,62.500000
9336,62.500000
9337,62.500000
9338,62.500000
9339,62.500000
9340,62.500000
9341,58.593750
9342,58.593750
9343,58.593750
9344,58.593750
9345,62.500000
9346,58.593750
9347,58.593750
9348,58.593750
9349,58.593750
9350,58.593750
9351,58.593750
9352,58.593750
9353,54.687500
9354,54.687500
9355,54.687500
9356,54.687500
9357,54.687500
9358,54.687500
9359,54.687500
9360,54.687500
9361,54.687500
9362,50.781250
9363,50.781250
9364,50.781250
9365,50.781250
9366,50.781250
9367,50.781250
9368,50.781250
9369,50.781250
9370,50.781250
9371,50.781250
9372,46.875000
9373,46.875000
9374,46.875000
9375,46.875000
9376,46.875000
9377,46.875000
9378,46.875000
9379,42.968750
9380,42.968750
9381,42.968750
9382,42.968750
9383,42.968750
9384,42.968750
9385,42.968750
9386,42.968750
9387,42.968750
9388,39.062500
9389,39.062500
9390,39.062500
9391,39.062500
9392,39.062500
9393,39.062500
9394,39.062500
9395,35.156250
9396,35.156250
9397,35.156250
9398,35.156250
9399,35.156250
9400,35.156250
9401,35.156250
9402,35.156250
9403,31.250000
9404,31.250000
9405,31.250000
9406,31.250000
9407,31.250000
9408,31.250000
9409,27.343750
9410,31.250000
9411,27.343750
9412,27.343750
9413,27.343750
9414,27.343750
9415,27.343750
9416,27.343750
9417,23.437500
9418,23.437500
9419,23.437500
9420,23.437500
9421,23.437500
9422,23.437500
9423,23.437500
9424,19.531250
9425,19.531250
9426,19.531250
9427,19.531250
9428,19.531250
9429,19.531250
9430,15.625000
9431,15.625000
9432,15.625000
9433,15.625000
9434,15.625000
9435,15.625000
9436,15.625000
9437,11.718750
9438,11.718750
9439,11.718750
9440,11.718750
9441,11.718750
9442,11.718750
9443,7.812500
9444,7.812500
9445,7.812500
9446,7.812500
9447,7.812500
9448,7.812500
9449,3.906250
9450,3.906250
9451,3.906250
9452,3.906250
9453,3.906250
9454,3.906250
9455,3.906250
9456,3.906250
9457,0.000000
9458,0.000000
9459,0.000000
9460,0.000000
9461,0.000000
9462,-3.906250
9463,-3.906250
9464,-3.906250
9465,-3.906250
9466,-3.906250
9467,-3.906250
9468,-3.906250
9469,-7.812500
9470,-7.812500
9471,-7.812500
9472,-7.812500
9473,-7.812500
9474,-11.718750
9475,-11.718750
9476,-11.718750
9477,-11.718750
9478,-11.718750
9479,-11.718750
9480,-11.718750
9481,-15.625000
9482,-15.625000
9483,-15.625000
9484,-15.625000
9485,-15.625000
9486,-15.625000
9487,-19.531250
9488,-19.531250
9489,-19.531250
9490,-19.531250
9491,-19.531250
9492,-19.531250
9493,-23.437500
9494,-23.437500
9495,-23.437500
9496,-23.437500
9497,-23.437500
9498,-23.437500
9499,-27.343750
9500,-27.343750
9501,-27.343750
9502,-27.343750
9503,-27.343750
9504,-27.343750
9505,-31.250000
9506,-31.250000
9507,-31.250000
9508,-31.250000
9509,-31.250000
9510,-31.250000
9511,-35.156250
9512,-35.156250
9513,-35.156250
9514,-35.156250
9515,-35.156250
9516,-35.156250
9517,-35.156250
9518,-39.062500
9519,-39.062500
9520,-39.062500
9521,-39.062500
9522,-39.062500
9523,-39.062500
9524,-42.968750
9525,-42.968750
9526,-42.968750
9527,-42.968750
9528,-42.968750
9529,-46.875000
9530,-46.875000
9531,-46.875000
9532,-46.875000
9533,-46.875000
9534,-46.875000
9535,-46.875000
9536,-50.781250
9537,-50.781250
9538,-50.781250
9539,-50.781250
9540,-50.781250
9541,-50.781250
9542,-50.781250
9543,-54.687500
9544,-54.687500
9545,-54.687500
9546,-54.687500
9547,-54.687500
9548,-58.593750
9549,-58.593750
9550,-58.593750
9551,-58.593750
9552,-58.593750
9553,-58.593750
9554,-58.593750
9555,-62.500000
9556,-62.500000
9557,-62.500000
9558,-62.500000
9559,-62.500000
9560,-62.500000
9561,-66.406250
9562,-66.406250
9563,-66.406250
9564,-66.406250
9565,-66.406250
9566,-66.406250
9567,-66.406250
9568,-70.312500
9569,-70.312500
9570,-70.312500
9571,-70.312500
9572,-70.312500
9573,-70.312500
9574,-74.218750
9575,-74.218750
9576,-74.218750
9577,-74.218750
9578,-74.218750
9579,-74.218750
9580,-74.218750
9581,-74.218750
9582,-78.125000
9583,-78.125000
9584,-78.125000
9585,-78.125000
9586,-78.125000
9587,-78.125000
9588,-78.125000
9589,-82.031250
9590,-78.125000
9591,-82.031250
9592,-82.031250
9593,-82.031250
9594,-82.031250
9595,-82.031250
9596,-82.031250
9597,-85.937500
9598,-85.937500
9599,-85.937500
9600,-85.937500
9601,-85.937500
9602,-85.937500
9603,-85.937500
9604,-85.937500
9605,-85.937500
9606,-89.843750
9607,-89.843750
9608,-89.843750
9609,-89.843750
9610,-89.843750
9611,-89.843750
9612,-89.843750
9613,-89.843750
9614,-93.750000
9615,-93.750000
9616,-93.750000
9617,-93.750000
9618,-93.750000
9619,-93.750000
9620,-93.750000
9621,-93.750000
9622,-93.750000
9623,-93.750000
9624,-97.656250
9625,-97.656250
9626,-97.656250
9627,-97.656250
9628,-97.656250
9629,-97.656250
9630,-97.656250
9631,-97.656250
9632,-97.656250
9633,-97.656250
9634,-97.656250
9635,-101.562500
9636,-101.562500
9637,-101.562500
9638,-101.562500
9639,-101.562500
9640,-101.562500
9641,-101.562500
9642,-101.562500
9643,-101.562500
9644,-101.562500
9645,-105.468750
9646,-105.468750
9647,-105.468750
9648,-105.468750
9649,-105.468750
9650,-105.468750
9651,-105.468750
9652,-105.468750
9653,-105.468750
9654,-105.468750
9655,-105.468750
9656,-105.468750
9657,-105.468750
9658,-109.375000
9659,-109.375000
9660,-109.375000
9661,-109.375000
9662,-109.375000
9663,-109.375000
9664,-109.375000
9665,-109.375000
9666,-109.375000
9667,-109.375000
9668,-109.375000
9669,-109.375000
9670,-109.375000
9671,-109.375000
9672,-113.281250
9673,-113.281250
9674,-113.281250
9675,-113.281250
9676,-113.281250
9677,-113.281250
9678,-113.281250
9679,-113.281250
9680,-113.281250
9681,-113.281250
9682,-113.281250
9683,-113.281250
9684,-113.281250
9685,-113.281250
9686,-113.281250
9687,-113.281250
9688,-113.281250
9689,-113.281250
9690,-117.187500
9691,-117.187500
9692,-117.187500
9693,-117.187500
9694,-117.187500
9695,-117.187500
9696,-117.187500
9697,-117.187500
9698,-117.187500
9699,-117.187500
9700,-117.187500
9701,-117.187500
9702,-117.187500
9703,-117.187500
9704,-117.187500
9705,-117.187500
9706,-117.187500
9707,-117.187500
9708,-117.187500
9709,-117.187500
9710,-117.187500
9711,-117.187500
9712,-117.187500
9713,-117.187500
9714,-117.187500
9715,-117.187500
9716,-117.187500
9717,-117.187500
9718,-117.187500
9719,-117.187500
9720,-117.187500
9721,-117.187500
9722,-117.187500
9723,-117.187500
9724,-117.187500
9725,-117.187500
9726,-117.187500
9727,-117.187500
9728,-117.187500
9729,-117.187500
9730,-117.187500
9731,-117.187500
9732,-117.187500
9733,-117.187500
9734,-117.187500
9735,-117.187500
9736,-117.187500
9737,-117.187500
9738,-117.187500
9739,-117.187500
9740,-117.187500
9741,-117.187500
9742,-117.187500
9743,-117.187500
9744,-117.187500
9745,-117.187500
9746,-113.281250
9747,-117.187500
9748,-117.187500
9749,-117.187500
9750,-113.281250
9751,-113.281250
9752,-113.281250
9753,-113.281250
9754,-113.281250
9755,-113.281250
9756,-113.281250
9757,-113.281250
9758,-113.281250
9759,-113.281250
9760,-113.281250
9761,-113.281250
9762,-113.281250
9763,-113.281250
9764,-113.281250
9765,-113.281250
9766,-113.281250
9767,-113.281250
9768,-113.281250
9769,-113.281250
9770,-113.281250
9771,-113.281250
9772,-113.281250
9773,-109.375000
9774,-109.375000
9775,-109.375000
9776,-109.375000
9777,-109.375000
9778,-109.375000
9779,-109.375000
9780,-109.375000
9781,-109.375000
9782,-109.375000
9783,-109.375000
9784,-109.375000
9785,-109.375000
9786,-109.375000
9787,-105.468750
9788,-105.468750
9789,-109.375000
9790,-105.468750
9791,-105.468750
9792,-105.468750
9793,-105.468750
9794,-105.468750
9795,-105.468750
9796,-105.468750
9797,-105.468750
9798,-105.468750
9799,-105.468750
9800,-105.468750
9801,-101.562500
9802,-101.562500
9803,-101.562500
9804,-101.562500
9805,-101.562500
9806,-101.562500
9807,-101.562500
9808,-101.562500
9809,-101.562500
9810,-101.562500
9811,-101.562500
9812,-97.656250
9813,-97.656250
9814,-97.656250
9815,-97.656250
9816,-97.656250
9817,-97.656250
9818,-97.656250
9819,-97.656250
9820,-97.656250
9821,-97.656250
9822,-93.750000
9823,-93.750000
9824,-93.750000
9825,-93.750000
9826,-93.750000
9827,-93.750000
9828,-93.750000
9829,-93.750000
9830,-93.750000
9831,-89.843750
9832,-93.750000
9833,-89.843750
9834,-89.843750
9835,-89.843750
9836,-89.843750
9837,-89.843750
9838,-89.843750
9839,-85.937500
9840,-85.937500
9841,-85.937500
9842,-85.937500
9843,-85.937500
9844,-85.937500
9845,-85.937500
9846,-85.937500
9847,-82.031250
9848,-82.031250
9849,-82.031250
9850,-82.031250
9851,-82.031250
9852,-82.031250
9853,-82.031250
9854,-82.031250
9855,-78.125000
9856,-78.125000
9857,-78.125000
9858,-78.125000
9859,-78.125000
9860,-78.125000
9861,-78.125000
9862,-78.125000
9863,-78.125000
9864,-74.218750
9865,-74.218750
9866,-74.218750
9867,-74.218750
9868,-74.218750
9869,-74.218750
9870,-70.312500
9871,-70.312500
9872,-70.312500
9873,-70.312500
9874,-70.312500
9875,-70.312500
9876,-66.406250
9877,-66.406250
9878,-66.406250
9879,-66.406250
9880,-66.406250
9881,-66.406250
9882,-66.406250
9883,-62.500000
9884,-62.500000
9885,-62.500000
9886,-62.500000
9887,-62.500000
9888,-62.500000
9889,-62.500000
9890,-58.593750
9891,-58.593750
9892,-58.593750
9893,-58.593750
9894,-58.593750
9895,-58.593750
9896,-54.687500
9897,-54.687500
9898,-54.687500
9899,-54.687500
9900,-54.687500
9901,-50.781250
9902,-54.687500
9903,-50.781250
9904,-50.781250
9905,-50.781250
9906,-50.781250
9907,-50.781250
9908,-50.781250
9909,-50.781250
9910,-46.875000
9911,-46.875000
9912,-46.875000
9913,-46.875000
9914,-46.875000
9915,-42.968750
9916,-42.968750
9917,-42.968750
9918,-42.968750
9919,-42.968750
9920,-42.968750
9921,-39.062500
9922,-39.062500
9923,-39.062500
9924,-39.062500
9925,-39.062500
9926,-39.062500
9927,-39.062500
9928,-35.156250
9929,-35.156250
9930,-35.156250
9931,-35.156250
9932,-35.156250
9933,-31.250000
9934,-31.250000
9935,-31.250000
9936,-31.250000
9937,-31.250000
9938,-31.250000
9939,-31.250000
9940,-27.343750
9941,-27.343750
9942,-27.343750
9943,-27.343750
9944,-27.343750
9945,-23.437500
9946,-23.437500
9947,-23.437500
9948,-23.437500
9949,-23.437500
9950,-23.437500
9951,-19.531250
9952,-19.531250
9953,-19.531250
9954,-19.531250
9955,-19.531250
9956,-19.531250
9957,-15.625000
9958,-15.625000
9959,-15.625000
9960,-15.625000
9961,-15.625000
9962,-15.625000
9963,-15.625000
9964,-11.718750
9965,-11.718750
9966,-11.718750
9967,-11.718750
9968,-11.718750
9969,-11.718750
9970,-11.718750
9971,-7.812500
9972,-7.812500
9973,-7.812500
9974,-7.812500
9975,-7.812500
9976,-3.906250
9977,-3.906250
9978,-3.906250
9979,-3.906250
9980,-3.906250
9981,-3.906250
9982,-3.906250
9983,0.000000
9984,0.000000
9985,0.000000
9986,0.000000
9987,0.000000
9988,3.906250
9989,3.906250
9990,3.906250
9991,3.906250
9992,3.906250
9993,3.906250
9994,3.906250
9995,7.812500
9996,7.812500
9997,7.812500
9998,7.812500
9999,7.812500
10000,7.812500
