Channel              :,CH1
Frequency            :,1.010kHz
Period               :,0.990ms
PK-PK                :,89.84mV
Probe attenuation    :,1X
Voltage per ADC value:,0.244141mV
Time interval        :,1.00000us

index,CH1_Voltage(mV)
1,-35.156250
2,-35.156250
3,-35.156250
4,-35.156250
5,-35.156250
6,-35.156250
7,-35.156250
8,-35.156250
9,-35.156250
10,-35.156250
11,-35.156250
12,-31.250000
13,-31.250000
14,-31.250000
15,-31.250000
16,-31.250000
17,-31.250000
18,-31.250000
19,-31.250000
20,-31.250000
21,-31.250000
22,-31.250000
23,-31.250000
24,-31.250000
25,-27.343750
26,-31.250000
27,-31.250000
28,-27.343750
29,-27.343750
30,-27.343750
31,-27.343750
32,-27.343750
33,-27.343750
34,-27.343750
35,-27.343750
36,-27.343750
37,-27.343750
38,-27.343750
39,-27.343750
40,-23.437500
41,-23.437500
42,-23.437500
43,-23.437500
44,-23.437500
45,-23.437500
46,-23.437500
47,-23.437500
48,-23.437500
49,-23.437500
50,-23.437500
51,-23.437500
52,-23.437500
53,-23.437500
54,-19.531250
55,-23.437500
56,-19.531250
57,-19.531250
58,-19.531250
59,-19.531250
60,-19.531250
61,-19.531250
62,-19.531250
63,-19.531250
64,-19.531250
65,-19.531250
66,-19.531250
67,-19.531250
68,-19.531250
69,-19.531250
70,-15.625000
71,-15.625000
72,-15.625000
73,-15.625000
74,-15.625000
75,-15.625000
76,-15.625000
77,-15.625000
78,-15.625000
79,-15.625000
80,-15.625000
81,-11.718750
82,-15.625000
83,-11.718750
84,-11.718750
85,-11.718750
86,-11.718750
87,-11.718750
88,-11.718750
89,-11.718750
90,-11.718750
91,-11.718750
92,-11.718750
93,-11.718750
94,-11.718750
95,-11.718750
96,-7.812500
97,-11.718750
98,-7.812500
99,-7.812500
100,-7.812500
101,-7.812500
102,-7.812500
103,-7.812500
104,-7.812500
105,-7.812500
106,-7.812500
107,-7.812500
108,-7.812500
109,-7.812500
110,-7.812500
111,-7.812500
112,-3.906250
113,-7.812500
114,-3.906250
115,-3.906250
116,-3.906250
117,-3.906250
118,-3.906250
119,-3.906250
120,-3.906250
121,-3.906250
122,-3.906250
123,-3.906250
124,-3.906250
125,-3.906250
126,-3.906250
127,-3.906250
128,0.000000
129,0.000000
130,0.000000
131,0.000000
132,0.000000
133,0.000000
134,0.000000
135,0.000000
136,0.000000
137,0.000000
138,0.000000
139,0.000000
140,0.000000
141,0.000000
142,0.000000
143,3.906250
144,3.906250
145,3.906250
146,3.906250
147,3.906250
148,3.906250
149,3.906250
150,3.906250
151,3.906250
152,3.906250
153,3.906250
154,3.906250
155,3.906250
156,7.812500
157,3.906250
158,7.812500
159,7.812500
160,3.906250
161,3.906250
162,7.812500
163,7.812500
164,7.812500
165,7.812500
166,7.812500
167,7.812500
168,7.812500
169,7.812500
170,7.812500
171,7.812500
172,7.812500
173,7.812500
174,7.812500
175,7.812500
176,7.812500
177,7.812500
178,11.718750
179,11.718750
180,11.718750
181,11.718750
182,11.718750
183,11.718750
184,11.718750
185,11.718750
186,11.718750
187,11.718750
188,11.718750
189,11.718750
190,11.718750
191,11.718750
192,11.718750
193,15.625000
194,11.718750
195,15.625000
196,15.625000
197,15.625000
198,15.625000
199,11.718750
200,15.625000
201,15.625000
202,15.625000
203,15.625000
204,15.625000
205,15.625000
206,15.625000
207,15.625000
208,15.625000
209,15.625000
210,15.625000
211,15.625000
212,15.625000
213,15.625000
214,15.625000
215,15.625000
216,15.625000
217,19.531250
218,15.625000
219,19.531250
220,19.531250
221,19.531250
222,19.531250
223,19.531250
224,19.531250
225,19.531250
226,19.531250
227,19.531250
228,19.531250
229,19.531250
230,19.531250
231,19.531250
232,19.531250
233,19.531250
234,19.531250
235,19.531250
236,19.531250
237,19.531250
238,19.531250
239,19.531250
240,23.437500
241,19.531250
242,19.531250
243,23.437500
244,19.531250
245,19.531250
246,23.437500
247,23.437500
248,23.437500
249,23.437500
250,23.437500
251,23.437500
252,23.437500
253,23.437500
254,23.437500
255,23.437500
256,23.437500
257,23.437500
258,23.437500
259,23.437500
260,23.437500
261,23.437500
262,23.437500
263,23.437500
264,23.437500
265,23.437500
266,23.437500
267,23.437500
268,23.437500
269,23.437500
270,23.437500
271,23.437500
272,23.437500
273,27.343750
274,23.437500
275,23.437500
276,27.343750
277,27.343750
278,27.343750
279,27.343750
280,23.437500
281,27.343750
282,27.343750
283,27.343750
284,27.343750
285,27.343750
286,27.343750
287,27.343750
288,27.343750
289,27.343750
290,27.343750
291,27.343750
292,27.343750
293,27.343750
294,27.343750
295,27.343750
296,27.343750
297,27.343750
298,27.343750
299,27.343750
300,27.343750
301,27.343750
302,27.343750
303,27.343750
304,27.343750
305,27.343750
306,27.343750
307,27.343750
308,27.343750
309,27.343750
310,27.343750
311,27.343750
312,27.343750
313,27.343750
314,27.343750
315,27.343750
316,27.343750
317,27.343750
318,27.343750
319,27.343750
320,27.343750
321,27.343750
322,27.343750
323,27.343750
324,27.343750
325,27.343750
326,27.343750
327,27.343750
328,27.343750
329,27.343750
330,27.343750
331,27.343750
332,27.343750
333,27.343750
334,27.343750
335,27.343750
336,27.343750
337,27.343750
338,27.343750
339,27.343750
340,27.343750
341,27.343750
342,27.343750
343,27.343750
344,27.343750
345,27.343750
346,27.343750
347,27.343750
348,27.343750
349,27.343750
350,27.343750
351,27.343750
352,27.343750
353,27.343750
354,27.343750
355,27.343750
356,27.343750
357,27.343750
358,27.343750
359,27.343750
360,27.343750
361,27.343750
362,27.343750
363,27.343750
364,27.343750
365,27.343750
366,27.343750
367,27.343750
368,27.343750
369,27.343750
370,27.343750
371,27.343750
372,27.343750
373,27.343750
374,27.343750
375,27.343750
376,27.343750
377,27.343750
378,27.343750
379,27.343750
380,27.343750
381,27.343750
382,27.343750
383,27.343750
384,27.343750
385,27.343750
386,27.343750
387,27.343750
388,23.437500
389,27.343750
390,27.343750
391,27.343750
392,27.343750
393,23.437500
394,23.437500
395,23.437500
396,23.437500
397,23.437500
398,23.437500
399,23.437500
400,23.437500
401,23.437500
402,23.437500
403,23.437500
404,23.437500
405,23.437500
406,23.437500
407,23.437500
408,23.437500
409,23.437500
410,23.437500
411,23.437500
412,23.437500
413,23.437500
414,23.437500
415,23.437500
416,23.437500
417,23.437500
418,23.437500
419,23.437500
420,23.437500
421,23.437500
422,23.437500
423,23.437500
424,23.437500
425,23.437500
426,23.437500
427,23.437500
428,23.437500
429,23.437500
430,23.437500
431,23.437500
432,19.531250
433,23.437500
434,23.437500
435,19.531250
436,19.531250
437,19.531250
438,19.531250
439,19.531250
440,19.531250
441,19.531250
442,19.531250
443,19.531250
444,19.531250
445,19.531250
446,19.531250
447,19.531250
448,19.531250
449,19.531250
450,19.531250
451,19.531250
452,19.531250
453,19.531250
454,19.531250
455,19.531250
456,19.531250
457,19.531250
458,19.531250
459,15.625000
460,15.625000
461,15.625000
462,15.625000
463,15.625000
464,15.625000
465,15.625000
466,15.625000
467,15.625000
468,15.625000
469,15.625000
470,15.625000
471,15.625000
472,15.625000
473,15.625000
474,15.625000
475,15.625000
476,15.625000
477,15.625000
478,11.718750
479,15.625000
480,11.718750
481,15.625000
482,15.625000
483,11.718750
484,11.718750
485,11.718750
486,11.718750
487,11.718750
488,11.718750
489,11.718750
490,11.718750
491,11.718750
492,11.718750
493,11.718750
494,11.718750
495,11.718750
496,11.718750
497,11.718750
498,7.812500
499,7.812500
500,7.812500
501,7.812500
502,7.812500
503,7.812500
504,7.812500
505,7.812500
506,7.812500
507,7.812500
508,7.812500
509,7.812500
510,7.812500
511,7.812500
512,7.812500
513,7.812500
514,7.812500
515,3.906250
516,7.812500
517,3.906250
518,3.906250
519,3.906250
520,3.906250
521,3.906250
522,3.906250
523,3.906250
524,3.906250
525,3.906250
526,3.906250
527,3.906250
528,3.906250
529,3.906250
530,3.906250
531,0.000000
532,0.000000
533,0.000000
534,0.000000
535,0.000000
536,0.000000
537,0.000000
538,0.000000
539,0.000000
540,0.000000
541,0.000000
542,0.000000
543,0.000000
544,0.000000
545,0.000000
546,-3.906250
547,-3.906250
548,-3.906250
549,-3.906250
550,-3.906250
551,-3.906250
552,-3.906250
553,-3.906250
554,-3.906250
555,-3.906250
556,-3.906250
557,-3.906250
558,-3.906250
559,-3.906250
560,-3.906250
561,-7.812500
562,-3.906250
563,-7.812500
564,-7.812500
565,-7.812500
566,-7.812500
567,-7.812500
568,-7.812500
569,-7.812500
570,-7.812500
571,-7.812500
572,-7.812500
573,-7.812500
574,-7.812500
575,-7.812500
576,-11.718750
577,-11.718750
578,-11.718750
579,-11.718750
580,-11.718750
581,-11.718750
582,-11.718750
583,-11.718750
584,-11.718750
585,-11.718750
586,-11.718750
587,-11.718750
588,-11.718750
589,-11.718750
590,-15.625000
591,-11.718750
592,-15.625000
593,-11.718750
594,-15.625000
595,-15.625000
596,-15.625000
597,-15.625000
598,-15.625000
599,-15.625000
600,-15.625000
601,-15.625000
602,-15.625000
603,-15.625000
604,-15.625000
605,-15.625000
606,-19.531250
607,-19.531250
608,-19.531250
609,-19.531250
610,-19.531250
611,-19.531250
612,-19.531250
613,-19.531250
614,-19.531250
615,-19.531250
616,-19.531250
617,-19.531250
618,-19.531250
619,-23.437500
620,-23.437500
621,-23.437500
622,-23.437500
623,-23.437500
624,-23.437500
625,-23.437500
626,-23.437500
627,-23.437500
628,-23.437500
629,-23.437500
630,-23.437500
631,-23.437500
632,-23.437500
633,-23.437500
634,-23.437500
635,-27.343750
636,-27.343750
637,-27.343750
638,-27.343750
639,-27.343750
640,-27.343750
641,-27.343750
642,-27.343750
643,-27.343750
644,-27.343750
645,-27.343750
646,-27.343750
647,-27.343750
648,-27.343750
649,-31.250000
650,-31.250000
651,-31.250000
652,-31.250000
653,-31.250000
654,-31.250000
655,-31.250000
656,-31.250000
657,-31.250000
658,-31.250000
659,-31.250000
660,-31.250000
661,-31.250000
662,-31.250000
663,-35.156250
664,-35.156250
665,-35.156250
666,-35.156250
667,-35.156250
668,-35.156250
669,-35.156250
670,-35.156250
671,-35.156250
672,-35.156250
673,-35.156250
674,-35.156250
675,-35.156250
676,-35.156250
677,-39.062500
678,-39.062500
679,-39.062500
680,-39.062500
681,-39.062500
682,-39.062500
683,-39.062500
684,-39.062500
685,-39.062500
686,-39.062500
687,-39.062500
688,-39.062500
689,-39.062500
690,-39.062500
691,-39.062500
692,-39.062500
693,-39.062500
694,-39.062500
695,-42.968750
696,-42.968750
697,-42.968750
698,-42.968750
699,-42.968750
700,-42.968750
701,-42.968750
702,-42.968750
703,-42.968750
704,-42.968750
705,-42.968750
706,-42.968750
707,-42.968750
708,-42.968750
709,-42.968750
710,-42.968750
711,-42.968750
712,-42.968750
713,-46.875000
714,-46.875000
715,-46.875000
716,-46.875000
717,-46.875000
718,-46.875000
719,-46.875000
720,-46.875000
721,-46.875000
722,-46.875000
723,-46.875000
724,-46.875000
725,-46.875000
726,-46.875000
727,-46.875000
728,-46.875000
729,-46.875000
730,-46.875000
731,-46.875000
732,-46.875000
733,-50.781250
734,-50.781250
735,-50.781250
736,-50.781250
737,-50.781250
738,-50.781250
739,-50.781250
740,-50.781250
741,-50.781250
742,-50.781250
743,-50.781250
744,-50.781250
745,-50.781250
746,-50.781250
747,-50.781250
748,-50.781250
749,-50.781250
750,-50.781250
751,-50.781250
752,-50.781250
753,-50.781250
754,-54.687500
755,-50.781250
756,-50.781250
757,-54.687500
758,-54.687500
759,-50.781250
760,-54.687500
761,-54.687500
762,-54.687500
763,-54.687500
764,-54.687500
765,-54.687500
766,-54.687500
767,-54.687500
768,-54.687500
769,-54.687500
770,-54.687500
771,-54.687500
772,-54.687500
773,-54.687500
774,-54.687500
775,-54.687500
776,-54.687500
777,-54.687500
778,-54.687500
779,-54.687500
780,-54.687500
781,-54.687500
782,-54.687500
783,-54.687500
784,-54.687500
785,-54.687500
786,-54.687500
787,-54.687500
788,-54.687500
789,-54.687500
790,-54.687500
791,-54.687500
792,-54.687500
793,-54.687500
794,-58.593750
795,-54.687500
796,-58.593750
797,-58.593750
798,-54.687500
799,-54.687500
800,-54.687500
801,-58.593750
802,-54.687500
803,-58.593750
804,-58.593750
805,-58.593750
806,-58.593750
807,-58.593750
808,-58.593750
809,-58.593750
810,-58.593750
811,-58.593750
812,-58.593750
813,-58.593750
814,-58.593750
815,-58.593750
816,-58.593750
817,-58.593750
818,-58.593750
819,-58.593750
820,-58.593750
821,-58.593750
822,-58.593750
823,-58.593750
824,-58.593750
825,-58.593750
826,-58.593750
827,-58.593750
828,-58.593750
829,-58.593750
830,-58.593750
831,-58.593750
832,-58.593750
833,-58.593750
834,-58.593750
835,-58.593750
836,-58.593750
837,-58.593750
838,-58.593750
839,-58.593750
840,-58.593750
841,-58.593750
842,-58.593750
843,-58.593750
844,-58.593750
845,-58.593750
846,-58.593750
847,-58.593750
848,-58.593750
849,-58.593750
850,-58.593750
851,-58.593750
852,-58.593750
853,-58.593750
854,-58.593750
855,-58.593750
856,-58.593750
857,-58.593750
858,-58.593750
859,-58.593750
860,-54.687500
861,-58.593750
862,-58.593750
863,-54.687500
864,-54.687500
865,-58.593750
866,-54.687500
867,-58.593750
868,-54.687500
869,-54.687500
870,-54.687500
871,-54.687500
872,-54.687500
873,-54.687500
874,-54.687500
875,-54.687500
876,-54.687500
877,-54.687500
878,-54.687500
879,-54.687500
880,-54.687500
881,-54.687500
882,-54.687500
883,-54.687500
884,-54.687500
885,-54.687500
886,-54.687500
887,-54.687500
888,-54.687500
889,-54.687500
890,-54.687500
891,-54.687500
892,-54.687500
893,-54.687500
894,-54.687500
895,-54.687500
896,-54.687500
897,-54.687500
898,-54.687500
899,-54.687500
900,-54.687500
901,-54.687500
902,-54.687500
903,-54.687500
904,-54.687500
905,-54.687500
906,-54.687500
907,-50.781250
908,-50.781250
909,-50.781250
910,-50.781250
911,-50.781250
912,-50.781250
913,-50.781250
914,-50.781250
915,-50.781250
916,-50.781250
917,-50.781250
918,-50.781250
919,-50.781250
920,-50.781250
921,-50.781250
922,-50.781250
923,-50.781250
924,-50.781250
925,-50.781250
926,-50.781250
927,-50.781250
928,-50.781250
929,-50.781250
930,-46.875000
931,-46.875000
932,-46.875000
933,-46.875000
934,-46.875000
935,-46.875000
936,-46.875000
937,-46.875000
938,-46.875000
939,-46.875000
940,-46.875000
941,-46.875000
942,-46.875000
943,-46.875000
944,-46.875000
945,-46.875000
946,-46.875000
947,-46.875000
948,-46.875000
949,-46.875000
950,-42.968750
951,-42.968750
952,-42.968750
953,-42.968750
954,-42.968750
955,-42.968750
956,-42.968750
957,-42.968750
958,-42.968750
959,-42.968750
960,-42.968750
961,-42.968750
962,-42.968750
963,-42.968750
964,-42.968750
965,-42.968750
966,-42.968750
967,-42.968750
968,-42.968750
969,-42.968750
970,-39.062500
971,-39.062500
972,-39.062500
973,-39.062500
974,-39.062500
975,-39.062500
976,-39.062500
977,-39.062500
978,-39.062500
979,-39.062500
980,-39.062500
981,-39.062500
982,-39.062500
983,-39.062500
984,-35.156250
985,-35.156250
986,-35.156250
987,-35.156250
988,-35.156250
989,-35.156250
990,-35.156250
991,-35.156250
992,-35.156250
993,-35.156250
994,-35.156250
995,-35.156250
996,-35.156250
997,-35.156250
998,-35.156250
999,-35.156250
1000,-35.156250
1001,-35.156250
1002,-31.250000
1003,-31.250000
1004,-31.250000
1005,-31.250000
1006,-31.250000
1007,-31.250000
1008,-31.250000
1009,-31.250000
1010,-31.250000
1011,-31.250000
1012,-31.250000
1013,-31.250000
1014,-31.250000
1015,-31.250000
1016,-27.343750
1017,-27.343750
1018,-27.343750
1019,-27.343750
1020,-27.343750
1021,-27.343750
1022,-27.343750
1023,-27.343750
1024,-27.343750
1025,-27.343750
1026,-27.343750
1027,-27.343750
1028,-27.343750
1029,-27.343750
1030,-27.343750
1031,-23.437500
1032,-23.437500
1033,-23.437500
1034,-23.437500
1035,-23.437500
1036,-23.437500
1037,-23.437500
1038,-23.437500
1039,-23.437500
1040,-23.437500
1041,-23.437500
1042,-23.437500
1043,-23.437500
1044,-23.437500
1045,-19.531250
1046,-19.531250
1047,-19.531250
1048,-19.531250
1049,-19.531250
1050,-19.531250
1051,-19.531250
1052,-19.531250
1053,-19.531250
1054,-19.531250
1055,-19.531250
1056,-19.531250
1057,-19.531250
1058,-19.531250
1059,-15.625000
1060,-15.625000
1061,-15.625000
1062,-15.625000
1063,-15.625000
1064,-15.625000
1065,-15.625000
1066,-15.625000
1067,-15.625000
1068,-15.625000
1069,-15.625000
1070,-15.625000
1071,-15.625000
1072,-15.625000
1073,-15.625000
1074,-11.718750
1075,-15.625000
1076,-11.718750
1077,-11.718750
1078,-11.718750
1079,-11.718750
1080,-11.718750
1081,-11.718750
1082,-11.718750
1083,-11.718750
1084,-11.718750
1085,-11.718750
1086,-11.718750
1087,-7.812500
1088,-7.812500
1089,-7.812500
1090,-7.812500
1091,-7.812500
1092,-7.812500
1093,-7.812500
1094,-7.812500
1095,-7.812500
1096,-7.812500
1097,-7.812500
1098,-7.812500
1099,-7.812500
1100,-7.812500
1101,-3.906250
1102,-3.906250
1103,-7.812500
1104,-3.906250
1105,-3.906250
1106,-3.906250
1107,-3.906250
1108,-3.906250
1109,-3.906250
1110,-3.906250
1111,-3.906250
1112,-3.906250
1113,-3.906250
1114,-3.906250
1115,-3.906250
1116,-3.906250
1117,-3.906250
1118,-3.906250
1119,0.000000
1120,0.000000
1121,0.000000
1122,0.000000
1123,0.000000
1124,0.000000
1125,0.000000
1126,0.000000
1127,0.000000
1128,0.000000
1129,0.000000
1130,0.000000
1131,0.000000
1132,3.906250
1133,3.906250
1134,0.000000
1135,3.906250
1136,3.906250
1137,3.906250
1138,3.906250
1139,3.906250
1140,3.906250
1141,3.906250
1142,3.906250
1143,3.906250
1144,3.906250
1145,3.906250
1146,3.906250
1147,3.906250
1148,3.906250
1149,3.906250
1150,7.812500
1151,3.906250
1152,7.812500
1153,7.812500
1154,7.812500
1155,7.812500
1156,7.812500
1157,7.812500
1158,7.812500
1159,7.812500
1160,7.812500
1161,7.812500
1162,7.812500
1163,7.812500
1164,7.812500
1165,7.812500
1166,11.718750
1167,11.718750
1168,7.812500
1169,11.718750
1170,11.718750
1171,11.718750
1172,11.718750
1173,11.718750
1174,11.718750
1175,11.718750
1176,11.718750
1177,11.718750
1178,11.718750
1179,11.718750
1180,11.718750
1181,11.718750
1182,11.718750
1183,11.718750
1184,11.718750
1185,11.718750
1186,15.625000
1187,15.625000
1188,15.625000
1189,15.625000
1190,11.718750
1191,15.625000
1192,15.625000
1193,15.625000
1194,15.625000
1195,15.625000
1196,15.625000
1197,15.625000
1198,15.625000
1199,15.625000
1200,15.625000
1201,15.625000
1202,15.625000
1203,15.625000
1204,15.625000
1205,15.625000
1206,15.625000
1207,15.625000
1208,15.625000
1209,19.531250
1210,19.531250
1211,19.531250
1212,19.531250
1213,19.531250
1214,19.531250
1215,19.531250
1216,19.531250
1217,19.531250
1218,19.531250
1219,19.531250
1220,19.531250
1221,19.531250
1222,19.531250
1223,19.531250
1224,19.531250
1225,19.531250
1226,19.531250
1227,19.531250
1228,19.531250
1229,19.531250
1230,19.531250
1231,19.531250
1232,23.437500
1233,19.531250
1234,19.531250
1235,19.531250
1236,23.437500
1237,23.437500
1238,23.437500
1239,23.437500
1240,23.437500
1241,23.437500
1242,23.437500
1243,23.437500
1244,23.437500
1245,23.437500
1246,23.437500
1247,23.437500
1248,23.437500
1249,23.437500
1250,23.437500
1251,23.437500
1252,23.437500
1253,23.437500
1254,23.437500
1255,23.437500
1256,23.437500
1257,23.437500
1258,23.437500
1259,23.437500
1260,23.437500
1261,23.437500
1262,27.343750
1263,23.437500
1264,23.437500
1265,23.437500
1266,23.437500
1267,23.437500
1268,23.437500
1269,23.437500
1270,27.343750
1271,23.437500
1272,27.343750
1273,27.343750
1274,27.343750
1275,27.343750
1276,27.343750
1277,27.343750
1278,27.343750
1279,27.343750
1280,27.343750
1281,27.343750
1282,27.343750
1283,27.343750
1284,27.343750
1285,27.343750
1286,27.343750
1287,27.343750
1288,27.343750
1289,27.343750
1290,27.343750
1291,27.343750
1292,27.343750
1293,27.343750
1294,27.343750
1295,27.343750
1296,27.343750
1297,27.343750
1298,27.343750
1299,27.343750
1300,27.343750
1301,27.343750
1302,27.343750
1303,27.343750
1304,27.343750
1305,27.343750
1306,27.343750
1307,27.343750
1308,27.343750
1309,27.343750
1310,27.343750
1311,27.343750
1312,27.343750
1313,27.343750
1314,27.343750
1315,27.343750
1316,27.343750
1317,27.343750
1318,27.343750
1319,27.343750
1320,27.343750
1321,27.343750
1322,27.343750
1323,27.343750
1324,27.343750
1325,27.343750
1326,27.343750
1327,27.343750
1328,27.343750
1329,27.343750
1330,27.343750
1331,27.343750
1332,27.343750
1333,27.343750
1334,27.343750
1335,27.343750
1336,27.343750
1337,27.343750
1338,27.343750
1339,27.343750
1340,27.343750
1341,27.343750
1342,27.343750
1343,27.343750
1344,27.343750
1345,27.343750
1346,27.343750
1347,27.343750
1348,27.343750
1349,27.343750
1350,27.343750
1351,27.343750
1352,27.343750
1353,27.343750
1354,27.343750
1355,27.343750
1356,27.343750
1357,27.343750
1358,27.343750
1359,27.343750
1360,27.343750
1361,27.343750
1362,27.343750
1363,27.343750
1364,27.343750
1365,27.343750
1366,27.343750
1367,27.343750
1368,27.343750
1369,27.343750
1370,27.343750
1371,27.343750
1372,27.343750
1373,27.343750
1374,27.343750
1375,27.343750
1376,27.343750
1377,27.343750
1378,27.343750
1379,23.437500
1380,27.343750
1381,27.343750
1382,27.343750
1383,27.343750
1384,27.343750
1385,23.437500
1386,23.437500
1387,27.343750
1388,23.437500
1389,23.437500
1390,23.437500
1391,23.437500
1392,23.437500
1393,23.437500
1394,23.437500
1395,23.437500
1396,23.437500
1397,23.437500
1398,23.437500
1399,23.437500
1400,23.437500
1401,23.437500
1402,23.437500
1403,23.437500
1404,23.437500
1405,23.437500
1406,23.437500
1407,23.437500
1408,23.437500
1409,23.437500
1410,23.437500
1411,23.437500
1412,23.437500
1413,23.437500
1414,23.437500
1415,23.437500
1416,23.437500
1417,23.437500
1418,23.437500
1419,23.437500
1420,23.437500
1421,23.437500
1422,19.531250
1423,19.531250
1424,19.531250
1425,19.531250
1426,19.531250
1427,19.531250
1428,19.531250
1429,19.531250
1430,19.531250
1431,19.531250
1432,19.531250
1433,19.531250
1434,19.531250
1435,19.531250
1436,19.531250
1437,19.531250
1438,19.531250
1439,19.531250
1440,19.531250
1441,19.531250
1442,19.531250
1443,15.625000
1444,19.531250
1445,15.625000
1446,15.625000
1447,15.625000
1448,15.625000
1449,15.625000
1450,15.625000
1451,15.625000
1452,15.625000
1453,15.625000
1454,15.625000
1455,15.625000
1456,15.625000
1457,15.625000
1458,15.625000
1459,15.625000
1460,15.625000
1461,15.625000
1462,15.625000
1463,11.718750
1464,15.625000
1465,15.625000
1466,11.718750
1467,15.625000
1468,11.718750
1469,15.625000
1470,11.718750
1471,11.718750
1472,11.718750
1473,11.718750
1474,11.718750
1475,11.718750
1476,11.718750
1477,11.718750
1478,11.718750
1479,11.718750
1480,11.718750
1481,11.718750
1482,11.718750
1483,11.718750
1484,11.718750
1485,11.718750
1486,11.718750
1487,7.812500
1488,7.812500
1489,7.812500
1490,7.812500
1491,7.812500
1492,7.812500
1493,7.812500
1494,7.812500
1495,7.812500
1496,7.812500
1497,7.812500
1498,7.812500
1499,7.812500
1500,7.812500
1501,7.812500
1502,7.812500
1503,7.812500
1504,7.812500
1505,3.906250
1506,3.906250
1507,3.906250
1508,3.906250
1509,3.906250
1510,3.906250
1511,3.906250
1512,3.906250
1513,3.906250
1514,3.906250
1515,3.906250
1516,3.906250
1517,3.906250
1518,3.906250
1519,3.906250
1520,0.000000
1521,0.000000
1522,0.000000
1523,0.000000
1524,0.000000
1525,0.000000
1526,0.000000
1527,0.000000
1528,0.000000
1529,0.000000
1530,0.000000
1531,0.000000
1532,0.000000
1533,0.000000
1534,0.000000
1535,0.000000
1536,-3.906250
1537,-3.906250
1538,-3.906250
1539,-3.906250
1540,-3.906250
1541,-3.906250
1542,-3.906250
1543,-3.906250
1544,-3.906250
1545,-3.906250
1546,-3.906250
1547,-3.906250
1548,-3.906250
1549,-3.906250
1550,-3.906250
1551,-3.906250
1552,-7.812500
1553,-7.812500
1554,-7.812500
1555,-7.812500
1556,-7.812500
1557,-7.812500
1558,-7.812500
1559,-7.812500
1560,-7.812500
1561,-7.812500
1562,-7.812500
1563,-7.812500
1564,-7.812500
1565,-7.812500
1566,-11.718750
1567,-11.718750
1568,-11.718750
1569,-11.718750
1570,-11.718750
1571,-11.718750
1572,-11.718750
1573,-11.718750
1574,-11.718750
1575,-11.718750
1576,-11.718750
1577,-11.718750
1578,-11.718750
1579,-11.718750
1580,-11.718750
1581,-11.718750
1582,-15.625000
1583,-15.625000
1584,-15.625000
1585,-15.625000
1586,-15.625000
1587,-15.625000
1588,-15.625000
1589,-15.625000
1590,-15.625000
1591,-15.625000
1592,-15.625000
1593,-15.625000
1594,-15.625000
1595,-19.531250
1596,-19.531250
1597,-19.531250
1598,-19.531250
1599,-19.531250
1600,-19.531250
1601,-19.531250
1602,-19.531250
1603,-19.531250
1604,-19.531250
1605,-19.531250
1606,-19.531250
1607,-19.531250
1608,-19.531250
1609,-23.437500
1610,-19.531250
1611,-23.437500
1612,-23.437500
1613,-23.437500
1614,-23.437500
1615,-23.437500
1616,-23.437500
1617,-23.437500
1618,-23.437500
1619,-23.437500
1620,-23.437500
1621,-23.437500
1622,-23.437500
1623,-23.437500
1624,-27.343750
1625,-27.343750
1626,-27.343750
1627,-27.343750
1628,-27.343750
1629,-27.343750
1630,-27.343750
1631,-27.343750
1632,-27.343750
1633,-27.343750
1634,-27.343750
1635,-27.343750
1636,-27.343750
1637,-27.343750
1638,-27.343750
1639,-27.343750
1640,-27.343750
1641,-31.250000
1642,-31.250000
1643,-31.250000
1644,-31.250000
1645,-31.250000
1646,-31.250000
1647,-31.250000
1648,-31.250000
1649,-31.250000
1650,-31.250000
1651,-31.250000
1652,-31.250000
1653,-31.250000
1654,-35.156250
1655,-35.156250
1656,-35.156250
1657,-35.156250
1658,-35.156250
1659,-35.156250
1660,-35.156250
1661,-35.156250
1662,-35.156250
1663,-35.156250
1664,-35.156250
1665,-35.156250
1666,-35.156250
1667,-35.156250
1668,-35.156250
1669,-35.156250
1670,-39.062500
1671,-39.062500
1672,-39.062500
1673,-39.062500
1674,-39.062500
1675,-39.062500
1676,-39.062500
1677,-39.062500
1678,-39.062500
1679,-39.062500
1680,-39.062500
1681,-39.062500
1682,-39.062500
1683,-39.062500
1684,-39.062500
1685,-39.062500
1686,-42.968750
1687,-42.968750
1688,-42.968750
1689,-42.968750
1690,-42.968750
1691,-42.968750
1692,-42.968750
1693,-42.968750
1694,-42.968750
1695,-42.968750
1696,-42.968750
1697,-42.968750
1698,-42.968750
1699,-42.968750
1700,-42.968750
1701,-42.968750
1702,-42.968750
1703,-42.968750
1704,-42.968750
1705,-46.875000
1706,-46.875000
1707,-46.875000
1708,-46.875000
1709,-46.875000
1710,-46.875000
1711,-46.875000
1712,-46.875000
1713,-46.875000
1714,-46.875000
1715,-46.875000
1716,-46.875000
1717,-46.875000
1718,-46.875000
1719,-46.875000
1720,-46.875000
1721,-46.875000
1722,-46.875000
1723,-46.875000
1724,-46.875000
1725,-50.781250
1726,-46.875000
1727,-50.781250
1728,-50.781250
1729,-50.781250
1730,-50.781250
1731,-50.781250
1732,-50.781250
1733,-50.781250
1734,-50.781250
1735,-50.781250
1736,-50.781250
1737,-50.781250
1738,-50.781250
1739,-50.781250
1740,-50.781250
1741,-50.781250
1742,-50.781250
1743,-50.781250
1744,-50.781250
1745,-50.781250
1746,-50.781250
1747,-50.781250
1748,-50.781250
1749,-50.781250
1750,-54.687500
1751,-50.781250
1752,-50.781250
1753,-54.687500
1754,-50.781250
1755,-54.687500
1756,-54.687500
1757,-54.687500
1758,-54.687500
1759,-54.687500
1760,-54.687500
1761,-54.687500
1762,-54.687500
1763,-54.687500
1764,-54.687500
1765,-54.687500
1766,-54.687500
1767,-54.687500
1768,-54.687500
1769,-54.687500
1770,-54.687500
1771,-54.687500
1772,-54.687500
1773,-54.687500
1774,-54.687500
1775,-54.687500
1776,-54.687500
1777,-54.687500
1778,-54.687500
1779,-54.687500
1780,-54.687500
1781,-54.687500
1782,-54.687500
1783,-54.687500
1784,-54.687500
1785,-54.687500
1786,-54.687500
1787,-54.687500
1788,-54.687500
1789,-54.687500
1790,-54.687500
1791,-58.593750
1792,-58.593750
1793,-54.687500
1794,-54.687500
1795,-54.687500
1796,-54.687500
1797,-58.593750
1798,-58.593750
1799,-58.593750
1800,-58.593750
1801,-58.593750
1802,-58.593750
1803,-58.593750
1804,-58.593750
1805,-58.593750
1806,-58.593750
1807,-58.593750
1808,-58.593750
1809,-58.593750
1810,-58.593750
1811,-58.593750
1812,-58.593750
1813,-58.593750
1814,-58.593750
1815,-58.593750
1816,-58.593750
1817,-58.593750
1818,-58.593750
1819,-58.593750
1820,-58.593750
1821,-58.593750
1822,-58.593750
1823,-58.593750
1824,-58.593750
1825,-58.593750
1826,-58.593750
1827,-58.593750
1828,-58.593750
1829,-58.593750
1830,-58.593750
1831,-58.593750
1832,-58.593750
1833,-58.593750
1834,-58.593750
1835,-58.593750
1836,-58.593750
1837,-58.593750
1838,-58.593750
1839,-58.593750
1840,-58.593750
1841,-54.687500
1842,-58.593750
1843,-58.593750
1844,-58.593750
1845,-58.593750
1846,-58.593750
1847,-58.593750
1848,-58.593750
1849,-58.593750
1850,-58.593750
1851,-58.593750
1852,-54.687500
1853,-58.593750
1854,-58.593750
1855,-58.593750
1856,-58.593750
1857,-54.687500
1858,-58.593750
1859,-54.687500
1860,-54.687500
1861,-54.687500
1862,-54.687500
1863,-54.687500
1864,-54.687500
1865,-54.687500
1866,-54.687500
1867,-54.687500
1868,-54.687500
1869,-54.687500
1870,-54.687500
1871,-54.687500
1872,-54.687500
1873,-54.687500
1874,-54.687500
1875,-54.687500
1876,-54.687500
1877,-54.687500
1878,-54.687500
1879,-54.687500
1880,-54.687500
1881,-54.687500
1882,-54.687500
1883,-54.687500
1884,-54.687500
1885,-54.687500
1886,-54.687500
1887,-54.687500
1888,-54.687500
1889,-54.687500
1890,-54.687500
1891,-54.687500
1892,-54.687500
1893,-54.687500
1894,-50.781250
1895,-50.781250
1896,-50.781250
1897,-50.781250
1898,-50.781250
1899,-50.781250
1900,-50.781250
1901,-50.781250
1902,-50.781250
1903,-50.781250
1904,-50.781250
1905,-50.781250
1906,-50.781250
1907,-50.781250
1908,-50.781250
1909,-50.781250
1910,-50.781250
1911,-50.781250
1912,-50.781250
1913,-50.781250
1914,-50.781250
1915,-50.781250
1916,-50.781250
1917,-50.781250
1918,-50.781250
1919,-50.781250
1920,-50.781250
1921,-46.875000
1922,-46.875000
1923,-46.875000
1924,-46.875000
1925,-46.875000
1926,-46.875000
1927,-46.875000
1928,-46.875000
1929,-46.875000
1930,-46.875000
1931,-46.875000
1932,-46.875000
1933,-46.875000
1934,-46.875000
1935,-46.875000
1936,-46.875000
1937,-46.875000
1938,-46.875000
1939,-46.875000
1940,-46.875000
1941,-46.875000
1942,-46.875000
1943,-42.968750
1944,-42.968750
1945,-42.968750
1946,-42.968750
1947,-42.968750
1948,-42.968750
1949,-42.968750
1950,-42.968750
1951,-42.968750
1952,-42.968750
1953,-42.968750
1954,-42.968750
1955,-42.968750
1956,-42.968750
1957,-42.968750
1958,-42.968750
1959,-39.062500
1960,-39.062500
1961,-39.062500
1962,-39.062500
1963,-39.062500
1964,-39.062500
1965,-39.062500
1966,-39.062500
1967,-39.062500
1968,-39.062500
1969,-39.062500
1970,-39.062500
1971,-39.062500
1972,-39.062500
1973,-39.062500
1974,-39.062500
1975,-39.062500
1976,-35.156250
1977,-35.156250
1978,-35.156250
1979,-35.156250
1980,-35.156250
1981,-35.156250
1982,-35.156250
1983,-35.156250
1984,-35.156250
1985,-35.156250
1986,-35.156250
1987,-35.156250
1988,-35.156250
1989,-35.156250
1990,-35.156250
1991,-35.156250
1992,-31.250000
1993,-31.250000
1994,-31.250000
1995,-31.250000
1996,-31.250000
1997,-31.250000
1998,-31.250000
1999,-31.250000
2000,-31.250000
2001,-31.250000
2002,-31.250000
2003,-31.250000
2004,-31.250000
2005,-31.250000
2006,-27.343750
2007,-27.343750
2008,-27.343750
2009,-27.343750
2010,-27.343750
2011,-27.343750
2012,-27.343750
2013,-27.343750
2014,-27.343750
2015,-27.343750
2016,-27.343750
2017,-27.343750
2018,-27.343750
2019,-23.437500
2020,-23.437500
2021,-23.437500
2022,-23.437500
2023,-23.437500
2024,-23.437500
2025,-23.437500
2026,-23.437500
2027,-23.437500
2028,-23.437500
2029,-23.437500
2030,-23.437500
2031,-23.437500
2032,-23.437500
2033,-23.437500
2034,-19.531250
2035,-23.437500
2036,-19.531250
2037,-19.531250
2038,-19.531250
2039,-19.531250
2040,-19.531250
2041,-19.531250
2042,-19.531250
2043,-19.531250
2044,-19.531250
2045,-19.531250
2046,-19.531250
2047,-19.531250
2048,-19.531250
2049,-15.625000
2050,-15.625000
2051,-15.625000
2052,-15.625000
2053,-15.625000
2054,-15.625000
2055,-15.625000
2056,-15.625000
2057,-15.625000
2058,-15.625000
2059,-15.625000
2060,-15.625000
2061,-15.625000
2062,-15.625000
2063,-11.718750
2064,-15.625000
2065,-11.718750
2066,-11.718750
2067,-11.718750
2068,-11.718750
2069,-11.718750
2070,-11.718750
2071,-11.718750
2072,-11.718750
2073,-11.718750
2074,-11.718750
2075,-11.718750
2076,-11.718750
2077,-11.718750
2078,-11.718750
2079,-7.812500
2080,-7.812500
2081,-7.812500
2082,-7.812500
2083,-7.812500
2084,-7.812500
2085,-7.812500
2086,-7.812500
2087,-7.812500
2088,-7.812500
2089,-7.812500
2090,-7.812500
2091,-7.812500
2092,-7.812500
2093,-7.812500
2094,-3.906250
2095,-3.906250
2096,-3.906250
2097,-3.906250
2098,-3.906250
2099,-3.906250
2100,-3.906250
2101,-3.906250
2102,-3.906250
2103,-3.906250
2104,-3.906250
2105,-3.906250
2106,-3.906250
2107,0.000000
2108,0.000000
2109,0.000000
2110,0.000000
2111,0.000000
2112,0.000000
2113,0.000000
2114,0.000000
2115,-3.906250
2116,0.000000
2117,0.000000
2118,0.000000
2119,0.000000
2120,0.000000
2121,0.000000
2122,0.000000
2123,0.000000
2124,3.906250
2125,3.906250
2126,3.906250
2127,3.906250
2128,3.906250
2129,3.906250
2130,3.906250
2131,3.906250
2132,3.906250
2133,3.906250
2134,3.906250
2135,3.906250
2136,3.906250
2137,3.906250
2138,7.812500
2139,3.906250
2140,7.812500
2141,3.906250
2142,7.812500
2143,7.812500
2144,7.812500
2145,7.812500
2146,7.812500
2147,7.812500
2148,7.812500
2149,7.812500
2150,7.812500
2151,7.812500
2152,7.812500
2153,7.812500
2154,7.812500
2155,11.718750
2156,11.718750
2157,11.718750
2158,11.718750
2159,11.718750
2160,11.718750
2161,11.718750
2162,11.718750
2163,11.718750
2164,11.718750
2165,11.718750
2166,11.718750
2167,11.718750
2168,11.718750
2169,11.718750
2170,11.718750
2171,11.718750
2172,11.718750
2173,11.718750
2174,11.718750
2175,15.625000
2176,15.625000
2177,11.718750
2178,15.625000
2179,15.625000
2180,15.625000
2181,15.625000
2182,15.625000
2183,15.625000
2184,15.625000
2185,15.625000
2186,15.625000
2187,15.625000
2188,15.625000
2189,15.625000
2190,15.625000
2191,15.625000
2192,15.625000
2193,15.625000
2194,15.625000
2195,15.625000
2196,15.625000
2197,15.625000
2198,15.625000
2199,15.625000
2200,19.531250
2201,19.531250
2202,19.531250
2203,19.531250
2204,19.531250
2205,19.531250
2206,15.625000
2207,19.531250
2208,19.531250
2209,19.531250
2210,19.531250
2211,19.531250
2212,19.531250
2213,19.531250
2214,19.531250
2215,19.531250
2216,19.531250
2217,19.531250
2218,19.531250
2219,19.531250
2220,19.531250
2221,23.437500
2222,19.531250
2223,23.437500
2224,23.437500
2225,23.437500
2226,23.437500
2227,19.531250
2228,23.437500
2229,23.437500
2230,23.437500
2231,23.437500
2232,23.437500
2233,23.437500
2234,23.437500
2235,23.437500
2236,23.437500
2237,23.437500
2238,23.437500
2239,23.437500
2240,23.437500
2241,23.437500
2242,23.437500
2243,23.437500
2244,23.437500
2245,23.437500
2246,23.437500
2247,23.437500
2248,23.437500
2249,23.437500
2250,23.437500
2251,23.437500
2252,23.437500
2253,23.437500
2254,27.343750
2255,23.437500
2256,27.343750
2257,27.343750
2258,27.343750
2259,27.343750
2260,23.437500
2261,27.343750
2262,27.343750
2263,27.343750
2264,27.343750
2265,27.343750
2266,27.343750
2267,27.343750
2268,27.343750
2269,27.343750
2270,27.343750
2271,27.343750
2272,27.343750
2273,27.343750
2274,27.343750
2275,27.343750
2276,27.343750
2277,27.343750
2278,27.343750
2279,27.343750
2280,27.343750
2281,27.343750
2282,27.343750
2283,27.343750
2284,27.343750
2285,27.343750
2286,27.343750
2287,27.343750
2288,27.343750
2289,27.343750
2290,27.343750
2291,27.343750
2292,27.343750
2293,27.343750
2294,27.343750
2295,27.343750
2296,27.343750
2297,27.343750
2298,27.343750
2299,27.343750
2300,27.343750
2301,27.343750
2302,27.343750
2303,27.343750
2304,27.343750
2305,27.343750
2306,27.343750
2307,27.343750
2308,27.343750
2309,27.343750
2310,27.343750
2311,27.343750
2312,27.343750
2313,27.343750
2314,27.343750
2315,27.343750
2316,27.343750
2317,27.343750
2318,27.343750
2319,27.343750
2320,27.343750
2321,27.343750
2322,27.343750
2323,27.343750
2324,27.343750
2325,27.343750
2326,27.343750
2327,27.343750
2328,27.343750
2329,27.343750
2330,27.343750
2331,27.343750
2332,27.343750
2333,27.343750
2334,27.343750
2335,27.343750
2336,27.343750
2337,27.343750
2338,27.343750
2339,27.343750
2340,27.343750
2341,27.343750
2342,27.343750
2343,27.343750
2344,27.343750
2345,27.343750
2346,27.343750
2347,27.343750
2348,27.343750
2349,27.343750
2350,27.343750
2351,27.343750
2352,27.343750
2353,27.343750
2354,27.343750
2355,27.343750
2356,27.343750
2357,27.343750
2358,27.343750
2359,27.343750
2360,27.343750
2361,27.343750
2362,27.343750
2363,27.343750
2364,27.343750
2365,27.343750
2366,27.343750
2367,27.343750
2368,27.343750
2369,27.343750
2370,27.343750
2371,27.343750
2372,23.437500
2373,27.343750
2374,27.343750
2375,27.343750
2376,27.343750
2377,23.437500
2378,27.343750
2379,27.343750
2380,23.437500
2381,23.437500
2382,23.437500
2383,23.437500
2384,23.437500
2385,23.437500
2386,23.437500
2387,23.437500
2388,23.437500
2389,23.437500
2390,23.437500
2391,23.437500
2392,23.437500
2393,23.437500
2394,23.437500
2395,23.437500
2396,23.437500
2397,23.437500
2398,23.437500
2399,23.437500
2400,23.437500
2401,23.437500
2402,23.437500
2403,23.437500
2404,23.437500
2405,23.437500
2406,23.437500
2407,23.437500
2408,23.437500
2409,23.437500
2410,23.437500
2411,23.437500
2412,23.437500
2413,19.531250
2414,23.437500
2415,23.437500
2416,23.437500
2417,19.531250
2418,19.531250
2419,19.531250
2420,19.531250
2421,19.531250
2422,19.531250
2423,19.531250
2424,19.531250
2425,19.531250
2426,19.531250
2427,19.531250
2428,19.531250
2429,19.531250
2430,19.531250
2431,19.531250
2432,19.531250
2433,19.531250
2434,19.531250
2435,19.531250
2436,19.531250
2437,19.531250
2438,15.625000
2439,15.625000
2440,15.625000
2441,15.625000
2442,15.625000
2443,15.625000
2444,15.625000
2445,15.625000
2446,15.625000
2447,15.625000
2448,15.625000
2449,15.625000
2450,15.625000
2451,15.625000
2452,15.625000
2453,15.625000
2454,15.625000
2455,15.625000
2456,15.625000
2457,11.718750
2458,11.718750
2459,11.718750
2460,11.718750
2461,11.718750
2462,11.718750
2463,11.718750
2464,11.718750
2465,11.718750
2466,11.718750
2467,11.718750
2468,11.718750
2469,11.718750
2470,11.718750
2471,11.718750
2472,11.718750
2473,11.718750
2474,11.718750
2475,11.718750
2476,11.718750
2477,11.718750
2478,11.718750
2479,7.812500
2480,7.812500
2481,7.812500
2482,7.812500
2483,7.812500
2484,7.812500
2485,7.812500
2486,7.812500
2487,7.812500
2488,7.812500
2489,7.812500
2490,7.812500
2491,7.812500
2492,7.812500
2493,7.812500
2494,7.812500
2495,7.812500
2496,3.906250
2497,3.906250
2498,3.906250
2499,3.906250
2500,3.906250
2501,3.906250
2502,3.906250
2503,3.906250
2504,3.906250
2505,3.906250
2506,3.906250
2507,3.906250
2508,3.906250
2509,3.906250
2510,3.906250
2511,3.906250
2512,3.906250
2513,0.000000
2514,0.000000
2515,0.000000
2516,0.000000
2517,0.000000
2518,0.000000
2519,0.000000
2520,0.000000
2521,0.000000
2522,0.000000
2523,0.000000
2524,0.000000
2525,0.000000
2526,0.000000
2527,-3.906250
2528,-3.906250
2529,-3.906250
2530,-3.906250
2531,-3.906250
2532,-3.906250
2533,-3.906250
2534,-3.906250
2535,-3.906250
2536,-3.906250
2537,-3.906250
2538,-3.906250
2539,-3.906250
2540,-3.906250
2541,-3.906250
2542,-3.906250
2543,-7.812500
2544,-7.812500
2545,-7.812500
2546,-7.812500
2547,-7.812500
2548,-7.812500
2549,-7.812500
2550,-7.812500
2551,-7.812500
2552,-7.812500
2553,-7.812500
2554,-7.812500
2555,-7.812500
2556,-11.718750
2557,-7.812500
2558,-7.812500
2559,-11.718750
2560,-11.718750
2561,-11.718750
2562,-11.718750
2563,-11.718750
2564,-11.718750
2565,-11.718750
2566,-11.718750
2567,-11.718750
2568,-11.718750
2569,-11.718750
2570,-11.718750
2571,-15.625000
2572,-11.718750
2573,-15.625000
2574,-15.625000
2575,-15.625000
2576,-15.625000
2577,-15.625000
2578,-15.625000
2579,-15.625000
2580,-15.625000
2581,-15.625000
2582,-15.625000
2583,-15.625000
2584,-15.625000
2585,-19.531250
2586,-15.625000
2587,-19.531250
2588,-15.625000
2589,-19.531250
2590,-19.531250
2591,-19.531250
2592,-19.531250
2593,-19.531250
2594,-19.531250
2595,-19.531250
2596,-19.531250
2597,-19.531250
2598,-19.531250
2599,-19.531250
2600,-19.531250
2601,-23.437500
2602,-23.437500
2603,-23.437500
2604,-23.437500
2605,-23.437500
2606,-23.437500
2607,-23.437500
2608,-23.437500
2609,-23.437500
2610,-23.437500
2611,-23.437500
2612,-23.437500
2613,-23.437500
2614,-23.437500
2615,-27.343750
2616,-27.343750
2617,-27.343750
2618,-27.343750
2619,-27.343750
2620,-27.343750
2621,-27.343750
2622,-27.343750
2623,-27.343750
2624,-27.343750
2625,-27.343750
2626,-27.343750
2627,-27.343750
2628,-27.343750
2629,-31.250000
2630,-31.250000
2631,-31.250000
2632,-31.250000
2633,-31.250000
2634,-31.250000
2635,-31.250000
2636,-31.250000
2637,-31.250000
2638,-31.250000
2639,-31.250000
2640,-31.250000
2641,-31.250000
2642,-31.250000
2643,-35.156250
2644,-31.250000
2645,-35.156250
2646,-35.156250
2647,-35.156250
2648,-35.156250
2649,-35.156250
2650,-35.156250
2651,-35.156250
2652,-35.156250
2653,-35.156250
2654,-35.156250
2655,-35.156250
2656,-35.156250
2657,-35.156250
2658,-35.156250
2659,-39.062500
2660,-39.062500
2661,-39.062500
2662,-39.062500
2663,-39.062500
2664,-39.062500
2665,-39.062500
2666,-39.062500
2667,-39.062500
2668,-39.062500
2669,-39.062500
2670,-39.062500
2671,-39.062500
2672,-39.062500
2673,-39.062500
2674,-39.062500
2675,-42.968750
2676,-42.968750
2677,-42.968750
2678,-42.968750
2679,-42.968750
2680,-42.968750
2681,-42.968750
2682,-42.968750
2683,-42.968750
2684,-42.968750
2685,-42.968750
2686,-42.968750
2687,-42.968750
2688,-42.968750
2689,-42.968750
2690,-42.968750
2691,-42.968750
2692,-42.968750
2693,-42.968750
2694,-42.968750
2695,-46.875000
2696,-46.875000
2697,-46.875000
2698,-46.875000
2699,-46.875000
2700,-46.875000
2701,-46.875000
2702,-46.875000
2703,-46.875000
2704,-46.875000
2705,-46.875000
2706,-46.875000
2707,-46.875000
2708,-46.875000
2709,-46.875000
2710,-46.875000
2711,-46.875000
2712,-50.781250
2713,-50.781250
2714,-50.781250
2715,-50.781250
2716,-50.781250
2717,-50.781250
2718,-50.781250
2719,-50.781250
2720,-50.781250
2721,-50.781250
2722,-50.781250
2723,-50.781250
2724,-50.781250
2725,-50.781250
2726,-50.781250
2727,-50.781250
2728,-50.781250
2729,-50.781250
2730,-50.781250
2731,-50.781250
2732,-50.781250
2733,-54.687500
2734,-50.781250
2735,-50.781250
2736,-50.781250
2737,-54.687500
2738,-54.687500
2739,-54.687500
2740,-50.781250
2741,-54.687500
2742,-54.687500
2743,-54.687500
2744,-54.687500
2745,-54.687500
2746,-54.687500
2747,-54.687500
2748,-54.687500
2749,-54.687500
2750,-54.687500
2751,-54.687500
2752,-54.687500
2753,-54.687500
2754,-54.687500
2755,-54.687500
2756,-54.687500
2757,-54.687500
2758,-54.687500
2759,-54.687500
2760,-54.687500
2761,-54.687500
2762,-54.687500
2763,-54.687500
2764,-54.687500
2765,-54.687500
2766,-54.687500
2767,-54.687500
2768,-54.687500
2769,-54.687500
2770,-58.593750
2771,-54.687500
2772,-54.687500
2773,-54.687500
2774,-54.687500
2775,-54.687500
2776,-54.687500
2777,-54.687500
2778,-58.593750
2779,-58.593750
2780,-58.593750
2781,-54.687500
2782,-58.593750
2783,-54.687500
2784,-54.687500
2785,-58.593750
2786,-58.593750
2787,-58.593750
2788,-58.593750
2789,-58.593750
2790,-58.593750
2791,-58.593750
2792,-58.593750
2793,-58.593750
2794,-58.593750
2795,-58.593750
2796,-58.593750
2797,-58.593750
2798,-58.593750
2799,-58.593750
2800,-58.593750
2801,-58.593750
2802,-58.593750
2803,-58.593750
2804,-58.593750
2805,-58.593750
2806,-58.593750
2807,-58.593750
2808,-58.593750
2809,-58.593750
2810,-58.593750
2811,-58.593750
2812,-58.593750
2813,-58.593750
2814,-58.593750
2815,-58.593750
2816,-58.593750
2817,-58.593750
2818,-58.593750
2819,-58.593750
2820,-58.593750
2821,-58.593750
2822,-58.593750
2823,-58.593750
2824,-58.593750
2825,-58.593750
2826,-58.593750
2827,-58.593750
2828,-58.593750
2829,-58.593750
2830,-58.593750
2831,-58.593750
2832,-58.593750
2833,-58.593750
2834,-58.593750
2835,-58.593750
2836,-58.593750
2837,-58.593750
2838,-54.687500
2839,-58.593750
2840,-58.593750
2841,-58.593750
2842,-58.593750
2843,-58.593750
2844,-58.593750
2845,-58.593750
2846,-54.687500
2847,-54.687500
2848,-54.687500
2849,-54.687500
2850,-54.687500
2851,-58.593750
2852,-54.687500
2853,-54.687500
2854,-54.687500
2855,-54.687500
2856,-54.687500
2857,-54.687500
2858,-54.687500
2859,-54.687500
2860,-54.687500
2861,-54.687500
2862,-54.687500
2863,-54.687500
2864,-54.687500
2865,-54.687500
2866,-54.687500
2867,-54.687500
2868,-54.687500
2869,-54.687500
2870,-54.687500
2871,-54.687500
2872,-54.687500
2873,-54.687500
2874,-54.687500
2875,-54.687500
2876,-54.687500
2877,-54.687500
2878,-54.687500
2879,-54.687500
2880,-54.687500
2881,-54.687500
2882,-54.687500
2883,-50.781250
2884,-50.781250
2885,-50.781250
2886,-50.781250
2887,-50.781250
2888,-50.781250
2889,-50.781250
2890,-50.781250
2891,-50.781250
2892,-50.781250
2893,-50.781250
2894,-50.781250
2895,-50.781250
2896,-50.781250
2897,-50.781250
2898,-50.781250
2899,-50.781250
2900,-50.781250
2901,-50.781250
2902,-50.781250
2903,-50.781250
2904,-50.781250
2905,-50.781250
2906,-50.781250
2907,-50.781250
2908,-46.875000
2909,-46.875000
2910,-46.875000
2911,-46.875000
2912,-46.875000
2913,-46.875000
2914,-46.875000
2915,-46.875000
2916,-46.875000
2917,-46.875000
2918,-46.875000
2919,-46.875000
2920,-46.875000
2921,-46.875000
2922,-46.875000
2923,-46.875000
2924,-46.875000
2925,-46.875000
2926,-46.875000
2927,-46.875000
2928,-42.968750
2929,-42.968750
2930,-42.968750
2931,-42.968750
2932,-42.968750
2933,-42.968750
2934,-42.968750
2935,-42.968750
2936,-42.968750
2937,-42.968750
2938,-42.968750
2939,-42.968750
2940,-42.968750
2941,-42.968750
2942,-42.968750
2943,-42.968750
2944,-42.968750
2945,-42.968750
2946,-42.968750
2947,-39.062500
2948,-39.062500
2949,-39.062500
2950,-39.062500
2951,-39.062500
2952,-39.062500
2953,-39.062500
2954,-39.062500
2955,-39.062500
2956,-39.062500
2957,-39.062500
2958,-39.062500
2959,-39.062500
2960,-39.062500
2961,-39.062500
2962,-39.062500
2963,-39.062500
2964,-39.062500
2965,-39.062500
2966,-35.156250
2967,-35.156250
2968,-35.156250
2969,-35.156250
2970,-35.156250
2971,-35.156250
2972,-35.156250
2973,-35.156250
2974,-35.156250
2975,-35.156250
2976,-35.156250
2977,-35.156250
2978,-35.156250
2979,-35.156250
2980,-31.250000
2981,-31.250000
2982,-31.250000
2983,-31.250000
2984,-31.250000
2985,-31.250000
2986,-31.250000
2987,-31.250000
2988,-31.250000
2989,-31.250000
2990,-31.250000
2991,-31.250000
2992,-31.250000
2993,-31.250000
2994,-27.343750
2995,-31.250000
2996,-31.250000
2997,-27.343750
2998,-27.343750
2999,-27.343750
3000,-27.343750
3001,-27.343750
3002,-27.343750
3003,-27.343750
3004,-27.343750
3005,-27.343750
3006,-27.343750
3007,-27.343750
3008,-27.343750
3009,-27.343750
3010,-23.437500
3011,-27.343750
3012,-23.437500
3013,-23.437500
3014,-23.437500
3015,-23.437500
3016,-23.437500
3017,-23.437500
3018,-23.437500
3019,-23.437500
3020,-23.437500
3021,-23.437500
3022,-23.437500
3023,-23.437500
3024,-19.531250
3025,-23.437500
3026,-19.531250
3027,-19.531250
3028,-19.531250
3029,-19.531250
3030,-19.531250
3031,-19.531250
3032,-19.531250
3033,-19.531250
3034,-19.531250
3035,-19.531250
3036,-19.531250
3037,-19.531250
3038,-15.625000
3039,-15.625000
3040,-15.625000
3041,-15.625000
3042,-15.625000
3043,-15.625000
3044,-15.625000
3045,-15.625000
3046,-15.625000
3047,-15.625000
3048,-15.625000
3049,-15.625000
3050,-15.625000
3051,-15.625000
3052,-11.718750
3053,-11.718750
3054,-15.625000
3055,-11.718750
3056,-11.718750
3057,-11.718750
3058,-11.718750
3059,-11.718750
3060,-11.718750
3061,-11.718750
3062,-11.718750
3063,-11.718750
3064,-11.718750
3065,-11.718750
3066,-7.812500
3067,-7.812500
3068,-7.812500
3069,-7.812500
3070,-7.812500
3071,-7.812500
3072,-7.812500
3073,-7.812500
3074,-7.812500
3075,-7.812500
3076,-7.812500
3077,-7.812500
3078,-7.812500
3079,-7.812500
3080,-7.812500
3081,-3.906250
3082,-7.812500
3083,-3.906250
3084,-3.906250
3085,-3.906250
3086,-3.906250
3087,-3.906250
3088,-3.906250
3089,-3.906250
3090,-3.906250
3091,-3.906250
3092,-3.906250
3093,-3.906250
3094,-3.906250
3095,-3.906250
3096,-3.906250
3097,0.000000
3098,0.000000
3099,0.000000
3100,0.000000
3101,0.000000
3102,0.000000
3103,0.000000
3104,0.000000
3105,0.000000
3106,0.000000
3107,0.000000
3108,0.000000
3109,0.000000
3110,0.000000
3111,3.906250
3112,3.906250
3113,3.906250
3114,3.906250
3115,3.906250
3116,3.906250
3117,3.906250
3118,3.906250
3119,3.906250
3120,3.906250
3121,3.906250
3122,3.906250
3123,3.906250
3124,3.906250
3125,3.906250
3126,3.906250
3127,3.906250
3128,7.812500
3129,7.812500
3130,7.812500
3131,7.812500
3132,7.812500
3133,7.812500
3134,7.812500
3135,7.812500
3136,7.812500
3137,7.812500
3138,7.812500
3139,7.812500
3140,7.812500
3141,7.812500
3142,7.812500
3143,7.812500
3144,7.812500
3145,7.812500
3146,11.718750
3147,11.718750
3148,11.718750
3149,11.718750
3150,11.718750
3151,11.718750
3152,11.718750
3153,11.718750
3154,11.718750
3155,11.718750
3156,11.718750
3157,11.718750
3158,11.718750
3159,11.718750
3160,11.718750
3161,11.718750
3162,11.718750
3163,11.718750
3164,11.718750
3165,15.625000
3166,15.625000
3167,15.625000
3168,15.625000
3169,15.625000
3170,15.625000
3171,15.625000
3172,15.625000
3173,15.625000
3174,15.625000
3175,15.625000
3176,15.625000
3177,15.625000
3178,15.625000
3179,15.625000
3180,15.625000
3181,15.625000
3182,15.625000
3183,15.625000
3184,19.531250
3185,15.625000
3186,19.531250
3187,15.625000
3188,19.531250
3189,19.531250
3190,19.531250
3191,19.531250
3192,19.531250
3193,19.531250
3194,19.531250
3195,19.531250
3196,19.531250
3197,19.531250
3198,19.531250
3199,19.531250
3200,19.531250
3201,19.531250
3202,19.531250
3203,19.531250
3204,19.531250
3205,19.531250
3206,19.531250
3207,19.531250
3208,19.531250
3209,23.437500
3210,19.531250
3211,19.531250
3212,23.437500
3213,23.437500
3214,23.437500
3215,23.437500
3216,23.437500
3217,23.437500
3218,23.437500
3219,23.437500
3220,23.437500
3221,23.437500
3222,23.437500
3223,23.437500
3224,23.437500
3225,23.437500
3226,23.437500
3227,23.437500
3228,23.437500
3229,23.437500
3230,23.437500
3231,23.437500
3232,23.437500
3233,23.437500
3234,23.437500
3235,23.437500
3236,23.437500
3237,23.437500
3238,23.437500
3239,23.437500
3240,23.437500
3241,23.437500
3242,27.343750
3243,23.437500
3244,23.437500
3245,23.437500
3246,23.437500
3247,23.437500
3248,27.343750
3249,27.343750
3250,27.343750
3251,27.343750
3252,27.343750
3253,27.343750
3254,27.343750
3255,27.343750
3256,27.343750
3257,27.343750
3258,27.343750
3259,27.343750
3260,27.343750
3261,27.343750
3262,27.343750
3263,27.343750
3264,27.343750
3265,27.343750
3266,27.343750
3267,27.343750
3268,27.343750
3269,27.343750
3270,27.343750
3271,27.343750
3272,27.343750
3273,27.343750
3274,27.343750
3275,27.343750
3276,27.343750
3277,27.343750
3278,27.343750
3279,27.343750
3280,27.343750
3281,27.343750
3282,27.343750
3283,27.343750
3284,27.343750
3285,27.343750
3286,27.343750
3287,27.343750
3288,27.343750
3289,27.343750
3290,27.343750
3291,27.343750
3292,27.343750
3293,27.343750
3294,27.343750
3295,27.343750
3296,27.343750
3297,27.343750
3298,27.343750
3299,27.343750
3300,27.343750
3301,27.343750
3302,27.343750
3303,27.343750
3304,27.343750
3305,27.343750
3306,27.343750
3307,27.343750
3308,27.343750
3309,27.343750
3310,27.343750
3311,27.343750
3312,27.343750
3313,27.343750
3314,27.343750
3315,27.343750
3316,27.343750
3317,27.343750
3318,27.343750
3319,27.343750
3320,27.343750
3321,27.343750
3322,27.343750
3323,27.343750
3324,27.343750
3325,27.343750
3326,27.343750
3327,27.343750
3328,27.343750
3329,27.343750
3330,27.343750
3331,27.343750
3332,27.343750
3333,27.343750
3334,27.343750
3335,27.343750
3336,27.343750
3337,27.343750
3338,27.343750
3339,27.343750
3340,27.343750
3341,27.343750
3342,27.343750
3343,27.343750
3344,27.343750
3345,27.343750
3346,27.343750
3347,27.343750
3348,27.343750
3349,27.343750
3350,27.343750
3351,27.343750
3352,27.343750
3353,27.343750
3354,27.343750
3355,27.343750
3356,27.343750
3357,27.343750
3358,27.343750
3359,27.343750
3360,27.343750
3361,27.343750
3362,27.343750
3363,27.343750
3364,23.437500
3365,23.437500
3366,23.437500
3367,27.343750
3368,23.437500
3369,27.343750
3370,27.343750
3371,23.437500
3372,23.437500
3373,23.437500
3374,23.437500
3375,23.437500
3376,23.437500
3377,23.437500
3378,23.437500
3379,23.437500
3380,23.437500
3381,23.437500
3382,23.437500
3383,23.437500
3384,23.437500
3385,23.437500
3386,23.437500
3387,23.437500
3388,23.437500
3389,23.437500
3390,23.437500
3391,23.437500
3392,23.437500
3393,23.437500
3394,23.437500
3395,23.437500
3396,23.437500
3397,23.437500
3398,23.437500
3399,23.437500
3400,19.531250
3401,19.531250
3402,19.531250
3403,23.437500
3404,19.531250
3405,19.531250
3406,19.531250
3407,19.531250
3408,19.531250
3409,19.531250
3410,19.531250
3411,19.531250
3412,19.531250
3413,19.531250
3414,19.531250
3415,19.531250
3416,19.531250
3417,19.531250
3418,19.531250
3419,19.531250
3420,19.531250
3421,19.531250
3422,19.531250
3423,19.531250
3424,19.531250
3425,19.531250
3426,19.531250
3427,15.625000
3428,15.625000
3429,15.625000
3430,15.625000
3431,15.625000
3432,15.625000
3433,15.625000
3434,15.625000
3435,15.625000
3436,15.625000
3437,15.625000
3438,15.625000
3439,15.625000
3440,15.625000
3441,15.625000
3442,15.625000
3443,15.625000
3444,15.625000
3445,15.625000
3446,11.718750
3447,15.625000
3448,11.718750
3449,15.625000
3450,15.625000
3451,15.625000
3452,15.625000
3453,11.718750
3454,11.718750
3455,11.718750
3456,11.718750
3457,11.718750
3458,11.718750
3459,11.718750
3460,11.718750
3461,11.718750
3462,11.718750
3463,11.718750
3464,11.718750
3465,7.812500
3466,11.718750
3467,7.812500
3468,11.718750
3469,7.812500
3470,11.718750
3471,7.812500
3472,7.812500
3473,7.812500
3474,7.812500
3475,7.812500
3476,7.812500
3477,7.812500
3478,7.812500
3479,7.812500
3480,7.812500
3481,7.812500
3482,7.812500
3483,7.812500
3484,7.812500
3485,3.906250
3486,3.906250
3487,3.906250
3488,3.906250
3489,3.906250
3490,3.906250
3491,3.906250
3492,3.906250
3493,3.906250
3494,3.906250
3495,3.906250
3496,3.906250
3497,3.906250
3498,3.906250
3499,3.906250
3500,3.906250
3501,0.000000
3502,0.000000
3503,0.000000
3504,0.000000
3505,0.000000
3506,0.000000
3507,0.000000
3508,0.000000
3509,0.000000
3510,0.000000
3511,0.000000
3512,0.000000
3513,0.000000
3514,0.000000
3515,0.000000
3516,-3.906250
3517,-3.906250
3518,-3.906250
3519,-3.906250
3520,-3.906250
3521,-3.906250
3522,-3.906250
3523,-3.906250
3524,-3.906250
3525,-3.906250
3526,-3.906250
3527,-3.906250
3528,-3.906250
3529,-3.906250
3530,-3.906250
3531,-7.812500
3532,-7.812500
3533,-7.812500
3534,-7.812500
3535,-7.812500
3536,-7.812500
3537,-7.812500
3538,-7.812500
3539,-7.812500
3540,-7.812500
3541,-7.812500
3542,-7.812500
3543,-7.812500
3544,-11.718750
3545,-11.718750
3546,-11.718750
3547,-11.718750
3548,-11.718750
3549,-11.718750
3550,-11.718750
3551,-11.718750
3552,-11.718750
3553,-11.718750
3554,-11.718750
3555,-11.718750
3556,-11.718750
3557,-11.718750
3558,-11.718750
3559,-11.718750
3560,-11.718750
3561,-15.625000
3562,-15.625000
3563,-15.625000
3564,-15.625000
3565,-15.625000
3566,-15.625000
3567,-15.625000
3568,-15.625000
3569,-15.625000
3570,-15.625000
3571,-15.625000
3572,-15.625000
3573,-15.625000
3574,-15.625000
3575,-19.531250
3576,-19.531250
3577,-19.531250
3578,-19.531250
3579,-19.531250
3580,-19.531250
3581,-19.531250
3582,-19.531250
3583,-19.531250
3584,-19.531250
3585,-19.531250
3586,-19.531250
3587,-19.531250
3588,-19.531250
3589,-23.437500
3590,-23.437500
3591,-23.437500
3592,-23.437500
3593,-23.437500
3594,-23.437500
3595,-23.437500
3596,-23.437500
3597,-23.437500
3598,-23.437500
3599,-23.437500
3600,-23.437500
3601,-23.437500
3602,-23.437500
3603,-27.343750
3604,-27.343750
3605,-27.343750
3606,-27.343750
3607,-27.343750
3608,-27.343750
3609,-27.343750
3610,-27.343750
3611,-27.343750
3612,-27.343750
3613,-27.343750
3614,-27.343750
3615,-27.343750
3616,-27.343750
3617,-27.343750
3618,-31.250000
3619,-31.250000
3620,-31.250000
3621,-31.250000
3622,-31.250000
3623,-31.250000
3624,-31.250000
3625,-31.250000
3626,-31.250000
3627,-31.250000
3628,-31.250000
3629,-31.250000
3630,-31.250000
3631,-35.156250
3632,-35.156250
3633,-35.156250
3634,-35.156250
3635,-35.156250
3636,-35.156250
3637,-35.156250
3638,-35.156250
3639,-35.156250
3640,-35.156250
3641,-35.156250
3642,-35.156250
3643,-35.156250
3644,-35.156250
3645,-35.156250
3646,-35.156250
3647,-39.062500
3648,-39.062500
3649,-39.062500
3650,-39.062500
3651,-39.062500
3652,-39.062500
3653,-39.062500
3654,-39.062500
3655,-39.062500
3656,-39.062500
3657,-39.062500
3658,-39.062500
3659,-39.062500
3660,-39.062500
3661,-39.062500
3662,-39.062500
3663,-39.062500
3664,-42.968750
3665,-42.968750
3666,-42.968750
3667,-42.968750
3668,-42.968750
3669,-42.968750
3670,-42.968750
3671,-42.968750
3672,-42.968750
3673,-42.968750
3674,-42.968750
3675,-42.968750
3676,-42.968750
3677,-42.968750
3678,-42.968750
3679,-42.968750
3680,-42.968750
3681,-42.968750
3682,-42.968750
3683,-42.968750
3684,-42.968750
3685,-46.875000
3686,-46.875000
3687,-46.875000
3688,-46.875000
3689,-46.875000
3690,-46.875000
3691,-46.875000
3692,-46.875000
3693,-46.875000
3694,-46.875000
3695,-46.875000
3696,-46.875000
3697,-46.875000
3698,-46.875000
3699,-46.875000
3700,-46.875000
3701,-46.875000
3702,-50.781250
3703,-50.781250
3704,-50.781250
3705,-50.781250
3706,-50.781250
3707,-50.781250
3708,-50.781250
3709,-50.781250
3710,-50.781250
3711,-50.781250
3712,-50.781250
3713,-50.781250
3714,-50.781250
3715,-50.781250
3716,-50.781250
3717,-50.781250
3718,-50.781250
3719,-50.781250
3720,-50.781250
3721,-50.781250
3722,-50.781250
3723,-50.781250
3724,-50.781250
3725,-50.781250
3726,-50.781250
3727,-54.687500
3728,-54.687500
3729,-54.687500
3730,-50.781250
3731,-50.781250
3732,-54.687500
3733,-50.781250
3734,-54.687500
3735,-54.687500
3736,-54.687500
3737,-54.687500
3738,-54.687500
3739,-54.687500
3740,-54.687500
3741,-54.687500
3742,-54.687500
3743,-54.687500
3744,-54.687500
3745,-54.687500
3746,-54.687500
3747,-54.687500
3748,-54.687500
3749,-54.687500
3750,-54.687500
3751,-54.687500
3752,-54.687500
3753,-54.687500
3754,-54.687500
3755,-58.593750
3756,-54.687500
3757,-54.687500
3758,-54.687500
3759,-58.593750
3760,-54.687500
3761,-54.687500
3762,-58.593750
3763,-58.593750
3764,-58.593750
3765,-54.687500
3766,-58.593750
3767,-58.593750
3768,-58.593750
3769,-58.593750
3770,-58.593750
3771,-58.593750
3772,-58.593750
3773,-58.593750
3774,-58.593750
3775,-58.593750
3776,-58.593750
3777,-58.593750
3778,-58.593750
3779,-58.593750
3780,-58.593750
3781,-58.593750
3782,-58.593750
3783,-58.593750
3784,-58.593750
3785,-58.593750
3786,-58.593750
3787,-58.593750
3788,-58.593750
3789,-58.593750
3790,-58.593750
3791,-58.593750
3792,-58.593750
3793,-58.593750
3794,-58.593750
3795,-58.593750
3796,-58.593750
3797,-58.593750
3798,-58.593750
3799,-58.593750
3800,-58.593750
3801,-58.593750
3802,-58.593750
3803,-58.593750
3804,-58.593750
3805,-58.593750
3806,-58.593750
3807,-58.593750
3808,-58.593750
3809,-58.593750
3810,-58.593750
3811,-58.593750
3812,-58.593750
3813,-58.593750
3814,-58.593750
3815,-58.593750
3816,-58.593750
3817,-58.593750
3818,-58.593750
3819,-58.593750
3820,-58.593750
3821,-58.593750
3822,-58.593750
3823,-58.593750
3824,-58.593750
3825,-58.593750
3826,-58.593750
3827,-58.593750
3828,-58.593750
3829,-58.593750
3830,-54.687500
3831,-58.593750
3832,-58.593750
3833,-58.593750
3834,-54.687500
3835,-58.593750
3836,-58.593750
3837,-58.593750
3838,-58.593750
3839,-54.687500
3840,-54.687500
3841,-54.687500
3842,-54.687500
3843,-54.687500
3844,-54.687500
3845,-54.687500
3846,-54.687500
3847,-54.687500
3848,-54.687500
3849,-54.687500
3850,-54.687500
3851,-54.687500
3852,-54.687500
3853,-54.687500
3854,-54.687500
3855,-54.687500
3856,-54.687500
3857,-54.687500
3858,-54.687500
3859,-54.687500
3860,-54.687500
3861,-54.687500
3862,-54.687500
3863,-54.687500
3864,-54.687500
3865,-54.687500
3866,-54.687500
3867,-54.687500
3868,-54.687500
3869,-54.687500
3870,-54.687500
3871,-54.687500
3872,-54.687500
3873,-54.687500
3874,-54.687500
3875,-54.687500
3876,-50.781250
3877,-50.781250
3878,-54.687500
3879,-50.781250
3880,-54.687500
3881,-50.781250
3882,-50.781250
3883,-50.781250
3884,-50.781250
3885,-50.781250
3886,-50.781250
3887,-50.781250
3888,-50.781250
3889,-50.781250
3890,-50.781250
3891,-50.781250
3892,-50.781250
3893,-50.781250
3894,-50.781250
3895,-50.781250
3896,-50.781250
3897,-50.781250
3898,-46.875000
3899,-50.781250
3900,-50.781250
3901,-50.781250
3902,-46.875000
3903,-46.875000
3904,-46.875000
3905,-46.875000
3906,-46.875000
3907,-46.875000
3908,-46.875000
3909,-46.875000
3910,-46.875000
3911,-46.875000
3912,-46.875000
3913,-46.875000
3914,-46.875000
3915,-46.875000
3916,-46.875000
3917,-46.875000
3918,-46.875000
3919,-46.875000
3920,-46.875000
3921,-46.875000
3922,-42.968750
3923,-42.968750
3924,-42.968750
3925,-42.968750
3926,-42.968750
3927,-42.968750
3928,-42.968750
3929,-42.968750
3930,-42.968750
3931,-42.968750
3932,-42.968750
3933,-42.968750
3934,-42.968750
3935,-42.968750
3936,-42.968750
3937,-42.968750
3938,-39.062500
3939,-39.062500
3940,-39.062500
3941,-39.062500
3942,-39.062500
3943,-39.062500
3944,-39.062500
3945,-39.062500
3946,-39.062500
3947,-39.062500
3948,-39.062500
3949,-39.062500
3950,-39.062500
3951,-39.062500
3952,-39.062500
3953,-39.062500
3954,-39.062500
3955,-35.156250
3956,-35.156250
3957,-35.156250
3958,-35.156250
3959,-35.156250
3960,-35.156250
3961,-35.156250
3962,-35.156250
3963,-35.156250
3964,-35.156250
3965,-35.156250
3966,-35.156250
3967,-35.156250
3968,-35.156250
3969,-31.250000
3970,-31.250000
3971,-31.250000
3972,-31.250000
3973,-31.250000
3974,-31.250000
3975,-31.250000
3976,-31.250000
3977,-31.250000
3978,-31.250000
3979,-31.250000
3980,-31.250000
3981,-31.250000
3982,-31.250000
3983,-31.250000
3984,-31.250000
3985,-31.250000
3986,-27.343750
3987,-27.343750
3988,-27.343750
3989,-27.343750
3990,-27.343750
3991,-27.343750
3992,-27.343750
3993,-27.343750
3994,-27.343750
3995,-27.343750
3996,-27.343750
3997,-27.343750
3998,-23.437500
3999,-27.343750
4000,-23.437500
4001,-23.437500
4002,-23.437500
4003,-23.437500
4004,-23.437500
4005,-23.437500
4006,-23.437500
4007,-23.437500
4008,-23.437500
4009,-23.437500
4010,-23.437500
4011,-23.437500
4012,-19.531250
4013,-23.437500
4014,-23.437500
4015,-19.531250
4016,-19.531250
4017,-19.531250
4018,-19.531250
4019,-19.531250
4020,-19.531250
4021,-19.531250
4022,-19.531250
4023,-19.531250
4024,-19.531250
4025,-19.531250
4026,-19.531250
4027,-19.531250
4028,-19.531250
4029,-19.531250
4030,-19.531250
4031,-15.625000
4032,-15.625000
4033,-15.625000
4034,-15.625000
4035,-15.625000
4036,-15.625000
4037,-15.625000
4038,-11.718750
4039,-15.625000
4040,-15.625000
4041,-15.625000
4042,-15.625000
4043,-11.718750
4044,-11.718750
4045,-11.718750
4046,-11.718750
4047,-11.718750
4048,-11.718750
4049,-11.718750
4050,-11.718750
4051,-11.718750
4052,-11.718750
4053,-11.718750
4054,-11.718750
4055,-7.812500
4056,-7.812500
4057,-7.812500
4058,-11.718750
4059,-7.812500
4060,-7.812500
4061,-7.812500
4062,-7.812500
4063,-7.812500
4064,-7.812500
4065,-7.812500
4066,-7.812500
4067,-7.812500
4068,-7.812500
4069,-7.812500
4070,-7.812500
4071,-3.906250
4072,-3.906250
4073,-3.906250
4074,-3.906250
4075,-3.906250
4076,-3.906250
4077,-3.906250
4078,-3.906250
4079,-7.812500
4080,-3.906250
4081,-3.906250
4082,-3.906250
4083,-3.906250
4084,-3.906250
4085,-3.906250
4086,0.000000
4087,0.000000
4088,0.000000
4089,0.000000
4090,0.000000
4091,0.000000
4092,0.000000
4093,0.000000
4094,0.000000
4095,0.000000
4096,0.000000
4097,0.000000
4098,0.000000
4099,0.000000
4100,0.000000
4101,3.906250
4102,0.000000
4103,3.906250
4104,3.906250
4105,3.906250
4106,3.906250
4107,3.906250
4108,3.906250
4109,3.906250
4110,3.906250
4111,3.906250
4112,3.906250
4113,3.906250
4114,3.906250
4115,3.906250
4116,3.906250
4117,3.906250
4118,7.812500
4119,7.812500
4120,7.812500
4121,7.812500
4122,7.812500
4123,7.812500
4124,7.812500
4125,7.812500
4126,7.812500
4127,7.812500
4128,7.812500
4129,7.812500
4130,7.812500
4131,7.812500
4132,7.812500
4133,7.812500
4134,7.812500
4135,7.812500
4136,11.718750
4137,11.718750
4138,11.718750
4139,7.812500
4140,11.718750
4141,11.718750
4142,15.625000
4143,11.718750
4144,11.718750
4145,11.718750
4146,11.718750
4147,11.718750
4148,15.625000
4149,11.718750
4150,11.718750
4151,11.718750
4152,11.718750
4153,15.625000
4154,11.718750
4155,11.718750
4156,15.625000
4157,15.625000
4158,15.625000
4159,15.625000
4160,15.625000
4161,15.625000
4162,15.625000
4163,15.625000
4164,15.625000
4165,15.625000
4166,15.625000
4167,15.625000
4168,19.531250
4169,15.625000
4170,15.625000
4171,15.625000
4172,15.625000
4173,15.625000
4174,15.625000
4175,15.625000
4176,19.531250
4177,19.531250
4178,19.531250
4179,19.531250
4180,19.531250
4181,19.531250
4182,19.531250
4183,19.531250
4184,19.531250
4185,19.531250
4186,19.531250
4187,19.531250
4188,19.531250
4189,19.531250
4190,19.531250
4191,19.531250
4192,19.531250
4193,19.531250
4194,19.531250
4195,19.531250
4196,19.531250
4197,19.531250
4198,19.531250
4199,19.531250
4200,19.531250
4201,19.531250
4202,23.437500
4203,23.437500
4204,23.437500
4205,23.437500
4206,23.437500
4207,23.437500
4208,23.437500
4209,23.437500
4210,23.437500
4211,23.437500
4212,23.437500
4213,23.437500
4214,23.437500
4215,23.437500
4216,23.437500
4217,23.437500
4218,23.437500
4219,23.437500
4220,23.437500
4221,23.437500
4222,23.437500
4223,23.437500
4224,23.437500
4225,23.437500
4226,23.437500
4227,23.437500
4228,23.437500
4229,23.437500
4230,23.437500
4231,23.437500
4232,27.343750
4233,27.343750
4234,27.343750
4235,23.437500
4236,27.343750
4237,27.343750
4238,23.437500
4239,27.343750
4240,23.437500
4241,27.343750
4242,27.343750
4243,27.343750
4244,23.437500
4245,27.343750
4246,27.343750
4247,27.343750
4248,27.343750
4249,27.343750
4250,27.343750
4251,27.343750
4252,27.343750
4253,27.343750
4254,27.343750
4255,27.343750
4256,27.343750
4257,27.343750
4258,27.343750
4259,27.343750
4260,27.343750
4261,27.343750
4262,27.343750
4263,27.343750
4264,27.343750
4265,27.343750
4266,27.343750
4267,27.343750
4268,27.343750
4269,27.343750
4270,27.343750
4271,27.343750
4272,27.343750
4273,27.343750
4274,27.343750
4275,27.343750
4276,27.343750
4277,27.343750
4278,27.343750
4279,27.343750
4280,27.343750
4281,27.343750
4282,27.343750
4283,27.343750
4284,27.343750
4285,27.343750
4286,27.343750
4287,27.343750
4288,27.343750
4289,27.343750
4290,27.343750
4291,27.343750
4292,27.343750
4293,27.343750
4294,27.343750
4295,27.343750
4296,27.343750
4297,27.343750
4298,27.343750
4299,27.343750
4300,27.343750
4301,27.343750
4302,27.343750
4303,27.343750
4304,27.343750
4305,27.343750
4306,27.343750
4307,27.343750
4308,27.343750
4309,27.343750
4310,27.343750
4311,27.343750
4312,27.343750
4313,27.343750
4314,27.343750
4315,27.343750
4316,27.343750
4317,27.343750
4318,27.343750
4319,27.343750
4320,27.343750
4321,27.343750
4322,27.343750
4323,27.343750
4324,27.343750
4325,27.343750
4326,27.343750
4327,27.343750
4328,27.343750
4329,27.343750
4330,27.343750
4331,27.343750
4332,27.343750
4333,27.343750
4334,27.343750
4335,27.343750
4336,27.343750
4337,27.343750
4338,27.343750
4339,27.343750
4340,27.343750
4341,27.343750
4342,27.343750
4343,27.343750
4344,27.343750
4345,27.343750
4346,27.343750
4347,27.343750
4348,27.343750
4349,27.343750
4350,27.343750
4351,27.343750
4352,27.343750
4353,27.343750
4354,27.343750
4355,23.437500
4356,27.343750
4357,23.437500
4358,23.437500
4359,23.437500
4360,27.343750
4361,23.437500
4362,23.437500
4363,23.437500
4364,23.437500
4365,23.437500
4366,23.437500
4367,23.437500
4368,23.437500
4369,23.437500
4370,23.437500
4371,23.437500
4372,23.437500
4373,23.437500
4374,23.437500
4375,23.437500
4376,23.437500
4377,23.437500
4378,23.437500
4379,23.437500
4380,23.437500
4381,23.437500
4382,23.437500
4383,23.437500
4384,23.437500
4385,23.437500
4386,23.437500
4387,23.437500
4388,23.437500
4389,23.437500
4390,19.531250
4391,19.531250
4392,19.531250
4393,19.531250
4394,19.531250
4395,23.437500
4396,19.531250
4397,19.531250
4398,19.531250
4399,19.531250
4400,19.531250
4401,19.531250
4402,19.531250
4403,19.531250
4404,19.531250
4405,19.531250
4406,19.531250
4407,19.531250
4408,19.531250
4409,19.531250
4410,19.531250
4411,19.531250
4412,19.531250
4413,19.531250
4414,19.531250
4415,19.531250
4416,15.625000
4417,19.531250
4418,15.625000
4419,15.625000
4420,15.625000
4421,15.625000
4422,15.625000
4423,15.625000
4424,15.625000
4425,15.625000
4426,15.625000
4427,15.625000
4428,15.625000
4429,15.625000
4430,15.625000
4431,15.625000
4432,15.625000
4433,15.625000
4434,15.625000
4435,15.625000
4436,15.625000
4437,11.718750
4438,11.718750
4439,11.718750
4440,11.718750
4441,11.718750
4442,11.718750
4443,11.718750
4444,11.718750
4445,11.718750
4446,11.718750
4447,11.718750
4448,11.718750
4449,11.718750
4450,11.718750
4451,11.718750
4452,11.718750
4453,11.718750
4454,11.718750
4455,11.718750
4456,11.718750
4457,7.812500
4458,7.812500
4459,7.812500
4460,7.812500
4461,7.812500
4462,7.812500
4463,7.812500
4464,7.812500
4465,7.812500
4466,7.812500
4467,7.812500
4468,7.812500
4469,7.812500
4470,7.812500
4471,7.812500
4472,7.812500
4473,7.812500
4474,7.812500
4475,3.906250
4476,7.812500
4477,3.906250
4478,3.906250
4479,3.906250
4480,3.906250
4481,3.906250
4482,3.906250
4483,3.906250
4484,3.906250
4485,3.906250
4486,3.906250
4487,3.906250
4488,0.000000
4489,3.906250
4490,3.906250
4491,3.906250
4492,0.000000
4493,0.000000
4494,0.000000
4495,0.000000
4496,0.000000
4497,0.000000
4498,0.000000
4499,0.000000
4500,0.000000
4501,0.000000
4502,0.000000
4503,0.000000
4504,0.000000
4505,-3.906250
4506,-3.906250
4507,-3.906250
4508,-3.906250
4509,-3.906250
4510,-3.906250
4511,-3.906250
4512,-3.906250
4513,-3.906250
4514,-3.906250
4515,-3.906250
4516,-3.906250
4517,-3.906250
4518,-3.906250
4519,-3.906250
4520,-3.906250
4521,-3.906250
4522,-3.906250
4523,-7.812500
4524,-7.812500
4525,-11.718750
4526,-7.812500
4527,-7.812500
4528,-7.812500
4529,-7.812500
4530,-7.812500
4531,-7.812500
4532,-7.812500
4533,-7.812500
4534,-11.718750
4535,-11.718750
4536,-11.718750
4537,-7.812500
4538,-11.718750
4539,-11.718750
4540,-11.718750
4541,-11.718750
4542,-11.718750
4543,-11.718750
4544,-11.718750
4545,-11.718750
4546,-11.718750
4547,-11.718750
4548,-11.718750
4549,-15.625000
4550,-15.625000
4551,-15.625000
4552,-15.625000
4553,-15.625000
4554,-15.625000
4555,-15.625000
4556,-15.625000
4557,-19.531250
4558,-15.625000
4559,-15.625000
4560,-15.625000
4561,-19.531250
4562,-15.625000
4563,-19.531250
4564,-19.531250
4565,-19.531250
4566,-19.531250
4567,-19.531250
4568,-19.531250
4569,-19.531250
4570,-19.531250
4571,-19.531250
4572,-19.531250
4573,-19.531250
4574,-19.531250
4575,-23.437500
4576,-23.437500
4577,-23.437500
4578,-23.437500
4579,-23.437500
4580,-23.437500
4581,-23.437500
4582,-23.437500
4583,-23.437500
4584,-23.437500
4585,-23.437500
4586,-23.437500
4587,-23.437500
4588,-23.437500
4589,-23.437500
4590,-23.437500
4591,-23.437500
4592,-27.343750
4593,-27.343750
4594,-27.343750
4595,-27.343750
4596,-27.343750
4597,-27.343750
4598,-27.343750
4599,-27.343750
4600,-27.343750
4601,-27.343750
4602,-27.343750
4603,-27.343750
4604,-27.343750
4605,-31.250000
4606,-31.250000
4607,-27.343750
4608,-31.250000
4609,-27.343750
4610,-31.250000
4611,-31.250000
4612,-31.250000
4613,-31.250000
4614,-31.250000
4615,-31.250000
4616,-31.250000
4617,-31.250000
4618,-31.250000
4619,-31.250000
4620,-31.250000
4621,-31.250000
4622,-35.156250
4623,-35.156250
4624,-35.156250
4625,-35.156250
4626,-35.156250
4627,-35.156250
4628,-35.156250
4629,-35.156250
4630,-35.156250
4631,-35.156250
4632,-35.156250
4633,-35.156250
4634,-35.156250
4635,-39.062500
4636,-39.062500
4637,-39.062500
4638,-39.062500
4639,-39.062500
4640,-39.062500
4641,-39.062500
4642,-39.062500
4643,-39.062500
4644,-39.062500
4645,-39.062500
4646,-39.062500
4647,-39.062500
4648,-39.062500
4649,-39.062500
4650,-39.062500
4651,-39.062500
4652,-42.968750
4653,-39.062500
4654,-42.968750
4655,-42.968750
4656,-42.968750
4657,-42.968750
4658,-42.968750
4659,-42.968750
4660,-42.968750
4661,-42.968750
4662,-42.968750
4663,-42.968750
4664,-42.968750
4665,-42.968750
4666,-42.968750
4667,-42.968750
4668,-42.968750
4669,-42.968750
4670,-42.968750
4671,-42.968750
4672,-46.875000
4673,-46.875000
4674,-46.875000
4675,-46.875000
4676,-46.875000
4677,-46.875000
4678,-46.875000
4679,-46.875000
4680,-46.875000
4681,-46.875000
4682,-46.875000
4683,-46.875000
4684,-46.875000
4685,-46.875000
4686,-46.875000
4687,-50.781250
4688,-46.875000
4689,-50.781250
4690,-46.875000
4691,-50.781250
4692,-50.781250
4693,-50.781250
4694,-50.781250
4695,-50.781250
4696,-50.781250
4697,-50.781250
4698,-50.781250
4699,-50.781250
4700,-50.781250
4701,-50.781250
4702,-50.781250
4703,-50.781250
4704,-50.781250
4705,-50.781250
4706,-50.781250
4707,-50.781250
4708,-50.781250
4709,-50.781250
4710,-50.781250
4711,-50.781250
4712,-50.781250
4713,-50.781250
4714,-50.781250
4715,-54.687500
4716,-54.687500
4717,-54.687500
4718,-54.687500
4719,-54.687500
4720,-54.687500
4721,-54.687500
4722,-54.687500
4723,-54.687500
4724,-54.687500
4725,-54.687500
4726,-54.687500
4727,-54.687500
4728,-54.687500
4729,-54.687500
4730,-54.687500
4731,-54.687500
4732,-54.687500
4733,-54.687500
4734,-54.687500
4735,-54.687500
4736,-54.687500
4737,-54.687500
4738,-54.687500
4739,-54.687500
4740,-54.687500
4741,-54.687500
4742,-54.687500
4743,-54.687500
4744,-54.687500
4745,-54.687500
4746,-54.687500
4747,-54.687500
4748,-58.593750
4749,-54.687500
4750,-54.687500
4751,-54.687500
4752,-54.687500
4753,-54.687500
4754,-54.687500
4755,-58.593750
4756,-54.687500
4757,-58.593750
4758,-58.593750
4759,-58.593750
4760,-58.593750
4761,-58.593750
4762,-54.687500
4763,-58.593750
4764,-54.687500
4765,-58.593750
4766,-58.593750
4767,-58.593750
4768,-58.593750
4769,-58.593750
4770,-58.593750
4771,-58.593750
4772,-58.593750
4773,-58.593750
4774,-58.593750
4775,-58.593750
4776,-58.593750
4777,-58.593750
4778,-58.593750
4779,-58.593750
4780,-58.593750
4781,-58.593750
4782,-58.593750
4783,-58.593750
4784,-58.593750
4785,-58.593750
4786,-58.593750
4787,-58.593750
4788,-58.593750
4789,-58.593750
4790,-58.593750
4791,-58.593750
4792,-58.593750
4793,-58.593750
4794,-58.593750
4795,-58.593750
4796,-58.593750
4797,-58.593750
4798,-58.593750
4799,-58.593750
4800,-58.593750
4801,-58.593750
4802,-58.593750
4803,-58.593750
4804,-58.593750
4805,-58.593750
4806,-58.593750
4807,-58.593750
4808,-58.593750
4809,-58.593750
4810,-58.593750
4811,-58.593750
4812,-58.593750
4813,-58.593750
4814,-58.593750
4815,-58.593750
4816,-58.593750
4817,-58.593750
4818,-58.593750
4819,-58.593750
4820,-58.593750
4821,-58.593750
4822,-58.593750
4823,-58.593750
4824,-54.687500
4825,-58.593750
4826,-54.687500
4827,-54.687500
4828,-54.687500
4829,-54.687500
4830,-58.593750
4831,-54.687500
4832,-58.593750
4833,-54.687500
4834,-54.687500
4835,-54.687500
4836,-54.687500
4837,-54.687500
4838,-58.593750
4839,-54.687500
4840,-54.687500
4841,-54.687500
4842,-54.687500
4843,-54.687500
4844,-54.687500
4845,-54.687500
4846,-54.687500
4847,-54.687500
4848,-54.687500
4849,-54.687500
4850,-54.687500
4851,-54.687500
4852,-54.687500
4853,-54.687500
4854,-54.687500
4855,-54.687500
4856,-54.687500
4857,-54.687500
4858,-54.687500
4859,-54.687500
4860,-54.687500
4861,-54.687500
4862,-50.781250
4863,-50.781250
4864,-50.781250
4865,-50.781250
4866,-50.781250
4867,-50.781250
4868,-50.781250
4869,-50.781250
4870,-50.781250
4871,-50.781250
4872,-50.781250
4873,-50.781250
4874,-50.781250
4875,-50.781250
4876,-50.781250
4877,-50.781250
4878,-50.781250
4879,-50.781250
4880,-50.781250
4881,-50.781250
4882,-50.781250
4883,-50.781250
4884,-50.781250
4885,-50.781250
4886,-50.781250
4887,-50.781250
4888,-46.875000
4889,-50.781250
4890,-46.875000
4891,-46.875000
4892,-46.875000
4893,-46.875000
4894,-46.875000
4895,-46.875000
4896,-46.875000
4897,-46.875000
4898,-46.875000
4899,-46.875000
4900,-46.875000
4901,-46.875000
4902,-46.875000
4903,-46.875000
4904,-46.875000
4905,-46.875000
4906,-46.875000
4907,-46.875000
4908,-46.875000
4909,-46.875000
4910,-42.968750
4911,-42.968750
4912,-42.968750
4913,-42.968750
4914,-42.968750
4915,-42.968750
4916,-42.968750
4917,-42.968750
4918,-42.968750
4919,-42.968750
4920,-42.968750
4921,-42.968750
4922,-42.968750
4923,-42.968750
4924,-42.968750
4925,-42.968750
4926,-42.968750
4927,-42.968750
4928,-39.062500
4929,-39.062500
4930,-39.062500
4931,-39.062500
4932,-39.062500
4933,-39.062500
4934,-39.062500
4935,-39.062500
4936,-39.062500
4937,-39.062500
4938,-39.062500
4939,-39.062500
4940,-39.062500
4941,-39.062500
4942,-39.062500
4943,-39.062500
4944,-39.062500
4945,-39.062500
4946,-35.156250
4947,-35.156250
4948,-35.156250
4949,-35.156250
4950,-35.156250
4951,-35.156250
4952,-35.156250
4953,-35.156250
4954,-35.156250
4955,-35.156250
4956,-35.156250
4957,-35.156250
4958,-35.156250
4959,-35.156250
4960,-31.250000
4961,-31.250000
4962,-31.250000
4963,-31.250000
4964,-31.250000
4965,-31.250000
4966,-31.250000
4967,-31.250000
4968,-31.250000
4969,-31.250000
4970,-31.250000
4971,-31.250000
4972,-31.250000
4973,-31.250000
4974,-31.250000
4975,-31.250000
4976,-27.343750
4977,-27.343750
4978,-27.343750
4979,-27.343750
4980,-27.343750
4981,-27.343750
4982,-27.343750
4983,-27.343750
4984,-27.343750
4985,-27.343750
4986,-27.343750
4987,-27.343750
4988,-27.343750
4989,-27.343750
4990,-23.437500
4991,-23.437500
4992,-23.437500
4993,-23.437500
4994,-23.437500
4995,-23.437500
4996,-23.437500
4997,-23.437500
4998,-23.437500
4999,-23.437500
5000,-23.437500
5001,-19.531250
5002,-23.437500
5003,-23.437500
5004,-23.437500
5005,-19.531250
5006,-19.531250
5007,-19.531250
5008,-19.531250
5009,-19.531250
5010,-19.531250
5011,-19.531250
5012,-19.531250
5013,-19.531250
5014,-19.531250
5015,-19.531250
5016,-19.531250
5017,-15.625000
5018,-15.625000
5019,-15.625000
5020,-15.625000
5021,-15.625000
5022,-15.625000
5023,-15.625000
5024,-15.625000
5025,-15.625000
5026,-15.625000
5027,-15.625000
5028,-15.625000
5029,-15.625000
5030,-15.625000
5031,-15.625000
5032,-15.625000
5033,-11.718750
5034,-11.718750
5035,-11.718750
5036,-11.718750
5037,-11.718750
5038,-11.718750
5039,-11.718750
5040,-11.718750
5041,-11.718750
5042,-11.718750
5043,-11.718750
5044,-11.718750
5045,-11.718750
5046,-11.718750
5047,-11.718750
5048,-7.812500
5049,-7.812500
5050,-7.812500
5051,-7.812500
5052,-7.812500
5053,-7.812500
5054,-7.812500
5055,-7.812500
5056,-7.812500
5057,-7.812500
5058,-7.812500
5059,-7.812500
5060,-7.812500
5061,-3.906250
5062,-3.906250
5063,-3.906250
5064,-3.906250
5065,-3.906250
5066,-3.906250
5067,-3.906250
5068,-3.906250
5069,-3.906250
5070,-3.906250
5071,-3.906250
5072,-3.906250
5073,-3.906250
5074,-3.906250
5075,-3.906250
5076,0.000000
5077,0.000000
5078,-3.906250
5079,0.000000
5080,0.000000
5081,0.000000
5082,0.000000
5083,0.000000
5084,0.000000
5085,0.000000
5086,0.000000
5087,0.000000
5088,0.000000
5089,0.000000
5090,0.000000
5091,3.906250
5092,3.906250
5093,3.906250
5094,0.000000
5095,3.906250
5096,3.906250
5097,3.906250
5098,3.906250
5099,3.906250
5100,3.906250
5101,3.906250
5102,3.906250
5103,3.906250
5104,3.906250
5105,3.906250
5106,3.906250
5107,3.906250
5108,7.812500
5109,7.812500
5110,7.812500
5111,7.812500
5112,7.812500
5113,7.812500
5114,7.812500
5115,7.812500
5116,7.812500
5117,7.812500
5118,7.812500
5119,7.812500
5120,7.812500
5121,7.812500
5122,7.812500
5123,11.718750
5124,7.812500
5125,11.718750
5126,11.718750
5127,11.718750
5128,11.718750
5129,11.718750
5130,11.718750
5131,11.718750
5132,11.718750
5133,11.718750
5134,11.718750
5135,11.718750
5136,11.718750
5137,11.718750
5138,11.718750
5139,11.718750
5140,15.625000
5141,15.625000
5142,15.625000
5143,11.718750
5144,15.625000
5145,11.718750
5146,15.625000
5147,15.625000
5148,15.625000
5149,15.625000
5150,15.625000
5151,15.625000
5152,15.625000
5153,15.625000
5154,15.625000
5155,15.625000
5156,15.625000
5157,15.625000
5158,15.625000
5159,15.625000
5160,15.625000
5161,15.625000
5162,15.625000
5163,15.625000
5164,19.531250
5165,19.531250
5166,19.531250
5167,19.531250
5168,19.531250
5169,19.531250
5170,19.531250
5171,19.531250
5172,19.531250
5173,19.531250
5174,19.531250
5175,19.531250
5176,19.531250
5177,19.531250
5178,19.531250
5179,19.531250
5180,19.531250
5181,19.531250
5182,19.531250
5183,19.531250
5184,19.531250
5185,19.531250
5186,19.531250
5187,19.531250
5188,19.531250
5189,19.531250
5190,19.531250
5191,19.531250
5192,19.531250
5193,19.531250
5194,23.437500
5195,23.437500
5196,23.437500
5197,23.437500
5198,23.437500
5199,23.437500
5200,23.437500
5201,23.437500
5202,23.437500
5203,23.437500
5204,23.437500
5205,23.437500
5206,23.437500
5207,23.437500
5208,23.437500
5209,23.437500
5210,23.437500
5211,23.437500
5212,23.437500
5213,23.437500
5214,23.437500
5215,23.437500
5216,23.437500
5217,23.437500
5218,23.437500
5219,23.437500
5220,23.437500
5221,23.437500
5222,23.437500
5223,23.437500
5224,27.343750
5225,27.343750
5226,27.343750
5227,27.343750
5228,27.343750
5229,27.343750
5230,27.343750
5231,27.343750
5232,23.437500
5233,27.343750
5234,27.343750
5235,27.343750
5236,27.343750
5237,27.343750
5238,27.343750
5239,27.343750
5240,27.343750
5241,27.343750
5242,27.343750
5243,27.343750
5244,27.343750
5245,27.343750
5246,27.343750
5247,27.343750
5248,27.343750
5249,27.343750
5250,27.343750
5251,27.343750
5252,27.343750
5253,27.343750
5254,27.343750
5255,27.343750
5256,27.343750
5257,27.343750
5258,27.343750
5259,27.343750
5260,27.343750
5261,27.343750
5262,27.343750
5263,27.343750
5264,27.343750
5265,27.343750
5266,27.343750
5267,27.343750
5268,27.343750
5269,27.343750
5270,27.343750
5271,27.343750
5272,27.343750
5273,27.343750
5274,27.343750
5275,27.343750
5276,27.343750
5277,27.343750
5278,27.343750
5279,27.343750
5280,27.343750
5281,27.343750
5282,27.343750
5283,27.343750
5284,27.343750
5285,27.343750
5286,27.343750
5287,27.343750
5288,27.343750
5289,27.343750
5290,27.343750
5291,27.343750
5292,27.343750
5293,27.343750
5294,27.343750
5295,27.343750
5296,27.343750
5297,27.343750
5298,27.343750
5299,27.343750
5300,27.343750
5301,27.343750
5302,27.343750
5303,27.343750
5304,27.343750
5305,27.343750
5306,27.343750
5307,27.343750
5308,27.343750
5309,27.343750
5310,27.343750
5311,27.343750
5312,27.343750
5313,27.343750
5314,27.343750
5315,27.343750
5316,27.343750
5317,27.343750
5318,27.343750
5319,27.343750
5320,27.343750
5321,27.343750
5322,27.343750
5323,27.343750
5324,27.343750
5325,27.343750
5326,27.343750
5327,27.343750
5328,27.343750
5329,27.343750
5330,27.343750
5331,27.343750
5332,27.343750
5333,27.343750
5334,27.343750
5335,27.343750
5336,27.343750
5337,27.343750
5338,27.343750
5339,27.343750
5340,27.343750
5341,27.343750
5342,23.437500
5343,27.343750
5344,27.343750
5345,27.343750
5346,23.437500
5347,27.343750
5348,23.437500
5349,23.437500
5350,23.437500
5351,23.437500
5352,23.437500
5353,23.437500
5354,23.437500
5355,23.437500
5356,23.437500
5357,23.437500
5358,23.437500
5359,23.437500
5360,23.437500
5361,23.437500
5362,23.437500
5363,23.437500
5364,23.437500
5365,23.437500
5366,23.437500
5367,23.437500
5368,23.437500
5369,23.437500
5370,23.437500
5371,23.437500
5372,23.437500
5373,23.437500
5374,23.437500
5375,23.437500
5376,23.437500
5377,23.437500
5378,23.437500
5379,23.437500
5380,23.437500
5381,19.531250
5382,19.531250
5383,19.531250
5384,23.437500
5385,19.531250
5386,23.437500
5387,23.437500
5388,19.531250
5389,19.531250
5390,19.531250
5391,19.531250
5392,19.531250
5393,19.531250
5394,19.531250
5395,19.531250
5396,19.531250
5397,19.531250
5398,19.531250
5399,19.531250
5400,19.531250
5401,19.531250
5402,19.531250
5403,19.531250
5404,19.531250
5405,15.625000
5406,19.531250
5407,19.531250
5408,15.625000
5409,19.531250
5410,19.531250
5411,15.625000
5412,15.625000
5413,15.625000
5414,15.625000
5415,15.625000
5416,15.625000
5417,15.625000
5418,15.625000
5419,15.625000
5420,15.625000
5421,15.625000
5422,15.625000
5423,15.625000
5424,15.625000
5425,15.625000
5426,11.718750
5427,15.625000
5428,11.718750
5429,11.718750
5430,11.718750
5431,11.718750
5432,11.718750
5433,11.718750
5434,11.718750
5435,11.718750
5436,11.718750
5437,11.718750
5438,11.718750
5439,11.718750
5440,11.718750
5441,11.718750
5442,11.718750
5443,11.718750
5444,11.718750
5445,7.812500
5446,7.812500
5447,7.812500
5448,7.812500
5449,7.812500
5450,7.812500
5451,7.812500
5452,7.812500
5453,7.812500
5454,7.812500
5455,7.812500
5456,7.812500
5457,7.812500
5458,7.812500
5459,7.812500
5460,7.812500
5461,7.812500
5462,7.812500
5463,7.812500
5464,3.906250
5465,3.906250
5466,3.906250
5467,3.906250
5468,3.906250
5469,3.906250
5470,3.906250
5471,3.906250
5472,3.906250
5473,3.906250
5474,3.906250
5475,3.906250
5476,3.906250
5477,3.906250
5478,3.906250
5479,0.000000
5480,0.000000
5481,0.000000
5482,0.000000
5483,0.000000
5484,0.000000
5485,0.000000
5486,0.000000
5487,0.000000
5488,0.000000
5489,0.000000
5490,0.000000
5491,0.000000
5492,0.000000
5493,0.000000
5494,0.000000
5495,0.000000
5496,0.000000
5497,0.000000
5498,-3.906250
5499,-3.906250
5500,-3.906250
5501,-3.906250
5502,-3.906250
5503,-3.906250
5504,-3.906250
5505,-3.906250
5506,-3.906250
5507,-3.906250
5508,-3.906250
5509,-3.906250
5510,-3.906250
5511,-7.812500
5512,-7.812500
5513,-7.812500
5514,-7.812500
5515,-7.812500
5516,-7.812500
5517,-7.812500
5518,-7.812500
5519,-7.812500
5520,-7.812500
5521,-7.812500
5522,-7.812500
5523,-7.812500
5524,-7.812500
5525,-11.718750
5526,-11.718750
5527,-11.718750
5528,-11.718750
5529,-11.718750
5530,-11.718750
5531,-11.718750
5532,-11.718750
5533,-11.718750
5534,-11.718750
5535,-11.718750
5536,-11.718750
5537,-11.718750
5538,-11.718750
5539,-15.625000
5540,-15.625000
5541,-15.625000
5542,-15.625000
5543,-15.625000
5544,-15.625000
5545,-15.625000
5546,-15.625000
5547,-15.625000
5548,-15.625000
5549,-15.625000
5550,-15.625000
5551,-15.625000
5552,-15.625000
5553,-15.625000
5554,-19.531250
5555,-19.531250
5556,-19.531250
5557,-19.531250
5558,-19.531250
5559,-19.531250
5560,-19.531250
5561,-19.531250
5562,-19.531250
5563,-19.531250
5564,-19.531250
5565,-23.437500
5566,-23.437500
5567,-19.531250
5568,-23.437500
5569,-23.437500
5570,-23.437500
5571,-23.437500
5572,-23.437500
5573,-23.437500
5574,-23.437500
5575,-23.437500
5576,-23.437500
5577,-23.437500
5578,-23.437500
5579,-23.437500
5580,-23.437500
5581,-27.343750
5582,-27.343750
5583,-27.343750
5584,-27.343750
5585,-27.343750
5586,-27.343750
5587,-27.343750
5588,-27.343750
5589,-27.343750
5590,-27.343750
5591,-27.343750
5592,-27.343750
5593,-27.343750
5594,-27.343750
5595,-27.343750
5596,-31.250000
5597,-31.250000
5598,-31.250000
5599,-31.250000
5600,-31.250000
5601,-31.250000
5602,-31.250000
5603,-31.250000
5604,-31.250000
5605,-31.250000
5606,-31.250000
5607,-31.250000
5608,-31.250000
5609,-31.250000
5610,-31.250000
5611,-35.156250
5612,-35.156250
5613,-35.156250
5614,-35.156250
5615,-35.156250
5616,-35.156250
5617,-35.156250
5618,-35.156250
5619,-35.156250
5620,-35.156250
5621,-35.156250
5622,-35.156250
5623,-35.156250
5624,-35.156250
5625,-35.156250
5626,-35.156250
5627,-35.156250
5628,-35.156250
5629,-42.968750
5630,-39.062500
5631,-39.062500
5632,-39.062500
5633,-39.062500
5634,-39.062500
5635,-39.062500
5636,-39.062500
5637,-39.062500
5638,-39.062500
5639,-39.062500
5640,-39.062500
5641,-39.062500
5642,-39.062500
5643,-42.968750
5644,-42.968750
5645,-42.968750
5646,-42.968750
5647,-42.968750
5648,-42.968750
5649,-42.968750
5650,-42.968750
5651,-42.968750
5652,-42.968750
5653,-42.968750
5654,-42.968750
5655,-42.968750
5656,-42.968750
5657,-42.968750
5658,-42.968750
5659,-42.968750
5660,-46.875000
5661,-46.875000
5662,-42.968750
5663,-46.875000
5664,-46.875000
5665,-46.875000
5666,-46.875000
5667,-46.875000
5668,-46.875000
5669,-46.875000
5670,-46.875000
5671,-46.875000
5672,-46.875000
5673,-46.875000
5674,-46.875000
5675,-46.875000
5676,-46.875000
5677,-46.875000
5678,-46.875000
5679,-46.875000
5680,-46.875000
5681,-50.781250
5682,-50.781250
5683,-50.781250
5684,-46.875000
5685,-50.781250
5686,-50.781250
5687,-50.781250
5688,-50.781250
5689,-50.781250
5690,-50.781250
5691,-50.781250
5692,-50.781250
5693,-50.781250
5694,-50.781250
5695,-50.781250
5696,-50.781250
5697,-50.781250
5698,-50.781250
5699,-50.781250
5700,-50.781250
5701,-50.781250
5702,-50.781250
5703,-50.781250
5704,-50.781250
5705,-50.781250
5706,-50.781250
5707,-54.687500
5708,-54.687500
5709,-54.687500
5710,-54.687500
5711,-54.687500
5712,-54.687500
5713,-54.687500
5714,-54.687500
5715,-54.687500
5716,-50.781250
5717,-54.687500
5718,-54.687500
5719,-54.687500
5720,-54.687500
5721,-54.687500
5722,-54.687500
5723,-54.687500
5724,-54.687500
5725,-54.687500
5726,-54.687500
5727,-54.687500
5728,-54.687500
5729,-54.687500
5730,-54.687500
5731,-54.687500
5732,-54.687500
5733,-54.687500
5734,-54.687500
5735,-54.687500
5736,-54.687500
5737,-54.687500
5738,-54.687500
5739,-54.687500
5740,-54.687500
5741,-54.687500
5742,-54.687500
5743,-58.593750
5744,-58.593750
5745,-54.687500
5746,-58.593750
5747,-58.593750
5748,-58.593750
5749,-54.687500
5750,-54.687500
5751,-58.593750
5752,-58.593750
5753,-58.593750
5754,-58.593750
5755,-58.593750
5756,-58.593750
5757,-58.593750
5758,-58.593750
5759,-58.593750
5760,-58.593750
5761,-58.593750
5762,-58.593750
5763,-58.593750
5764,-58.593750
5765,-58.593750
5766,-58.593750
5767,-58.593750
5768,-58.593750
5769,-58.593750
5770,-58.593750
5771,-58.593750
5772,-58.593750
5773,-58.593750
5774,-58.593750
5775,-58.593750
5776,-58.593750
5777,-58.593750
5778,-58.593750
5779,-58.593750
5780,-58.593750
5781,-58.593750
5782,-58.593750
5783,-58.593750
5784,-58.593750
5785,-58.593750
5786,-58.593750
5787,-58.593750
5788,-58.593750
5789,-58.593750
5790,-58.593750
5791,-58.593750
5792,-58.593750
5793,-58.593750
5794,-58.593750
5795,-58.593750
5796,-58.593750
5797,-58.593750
5798,-58.593750
5799,-58.593750
5800,-58.593750
5801,-58.593750
5802,-58.593750
5803,-58.593750
5804,-58.593750
5805,-58.593750
5806,-58.593750
5807,-58.593750
5808,-58.593750
5809,-58.593750
5810,-58.593750
5811,-58.593750
5812,-58.593750
5813,-54.687500
5814,-54.687500
5815,-58.593750
5816,-54.687500
5817,-58.593750
5818,-58.593750
5819,-58.593750
5820,-58.593750
5821,-58.593750
5822,-54.687500
5823,-58.593750
5824,-54.687500
5825,-54.687500
5826,-54.687500
5827,-54.687500
5828,-54.687500
5829,-54.687500
5830,-54.687500
5831,-54.687500
5832,-54.687500
5833,-54.687500
5834,-54.687500
5835,-54.687500
5836,-54.687500
5837,-54.687500
5838,-54.687500
5839,-54.687500
5840,-54.687500
5841,-54.687500
5842,-54.687500
5843,-54.687500
5844,-54.687500
5845,-54.687500
5846,-54.687500
5847,-54.687500
5848,-54.687500
5849,-54.687500
5850,-54.687500
5851,-54.687500
5852,-54.687500
5853,-54.687500
5854,-54.687500
5855,-54.687500
5856,-50.781250
5857,-50.781250
5858,-54.687500
5859,-50.781250
5860,-50.781250
5861,-54.687500
5862,-50.781250
5863,-50.781250
5864,-50.781250
5865,-50.781250
5866,-50.781250
5867,-50.781250
5868,-50.781250
5869,-50.781250
5870,-50.781250
5871,-50.781250
5872,-50.781250
5873,-50.781250
5874,-50.781250
5875,-50.781250
5876,-50.781250
5877,-50.781250
5878,-50.781250
5879,-50.781250
5880,-46.875000
5881,-46.875000
5882,-46.875000
5883,-46.875000
5884,-46.875000
5885,-46.875000
5886,-46.875000
5887,-46.875000
5888,-46.875000
5889,-46.875000
5890,-46.875000
5891,-46.875000
5892,-46.875000
5893,-46.875000
5894,-46.875000
5895,-46.875000
5896,-46.875000
5897,-46.875000
5898,-46.875000
5899,-42.968750
5900,-42.968750
5901,-42.968750
5902,-42.968750
5903,-42.968750
5904,-42.968750
5905,-42.968750
5906,-42.968750
5907,-42.968750
5908,-42.968750
5909,-42.968750
5910,-42.968750
5911,-42.968750
5912,-42.968750
5913,-42.968750
5914,-42.968750
5915,-42.968750
5916,-42.968750
5917,-39.062500
5918,-42.968750
5919,-39.062500
5920,-39.062500
5921,-39.062500
5922,-39.062500
5923,-39.062500
5924,-39.062500
5925,-39.062500
5926,-39.062500
5927,-39.062500
5928,-39.062500
5929,-39.062500
5930,-39.062500
5931,-39.062500
5932,-39.062500
5933,-35.156250
5934,-39.062500
5935,-35.156250
5936,-35.156250
5937,-35.156250
5938,-35.156250
5939,-35.156250
5940,-35.156250
5941,-35.156250
5942,-35.156250
5943,-35.156250
5944,-35.156250
5945,-35.156250
5946,-35.156250
5947,-35.156250
5948,-35.156250
5949,-31.250000
5950,-31.250000
5951,-31.250000
5952,-31.250000
5953,-31.250000
5954,-31.250000
5955,-31.250000
5956,-31.250000
5957,-31.250000
5958,-31.250000
5959,-31.250000
5960,-31.250000
5961,-31.250000
5962,-27.343750
5963,-31.250000
5964,-31.250000
5965,-31.250000
5966,-27.343750
5967,-27.343750
5968,-27.343750
5969,-27.343750
5970,-27.343750
5971,-27.343750
5972,-27.343750
5973,-27.343750
5974,-27.343750
5975,-27.343750
5976,-27.343750
5977,-27.343750
5978,-23.437500
5979,-23.437500
5980,-23.437500
5981,-23.437500
5982,-23.437500
5983,-23.437500
5984,-23.437500
5985,-23.437500
5986,-23.437500
5987,-23.437500
5988,-23.437500
5989,-23.437500
5990,-23.437500
5991,-23.437500
5992,-19.531250
5993,-23.437500
5994,-19.531250
5995,-19.531250
5996,-19.531250
5997,-23.437500
5998,-19.531250
5999,-19.531250
6000,-19.531250
6001,-19.531250
6002,-19.531250
6003,-19.531250
6004,-19.531250
6005,-19.531250
6006,-19.531250
6007,-15.625000
6008,-15.625000
6009,-15.625000
6010,-15.625000
6011,-15.625000
6012,-15.625000
6013,-15.625000
6014,-15.625000
6015,-15.625000
6016,-15.625000
6017,-15.625000
6018,-15.625000
6019,-15.625000
6020,-15.625000
6021,-15.625000
6022,-11.718750
6023,-11.718750
6024,-11.718750
6025,-11.718750
6026,-11.718750
6027,-11.718750
6028,-11.718750
6029,-11.718750
6030,-11.718750
6031,-11.718750
6032,-11.718750
6033,-11.718750
6034,-7.812500
6035,-11.718750
6036,-7.812500
6037,-7.812500
6038,-7.812500
6039,-7.812500
6040,-7.812500
6041,-7.812500
6042,-7.812500
6043,-7.812500
6044,-7.812500
6045,-7.812500
6046,-7.812500
6047,-7.812500
6048,-7.812500
6049,-7.812500
6050,-7.812500
6051,-3.906250
6052,-3.906250
6053,-3.906250
6054,-3.906250
6055,-3.906250
6056,-3.906250
6057,-3.906250
6058,-3.906250
6059,-3.906250
6060,-3.906250
6061,-3.906250
6062,-3.906250
6063,-3.906250
6064,-3.906250
6065,0.000000
6066,0.000000
6067,0.000000
6068,0.000000
6069,0.000000
6070,0.000000
6071,0.000000
6072,0.000000
6073,0.000000
6074,0.000000
6075,0.000000
6076,0.000000
6077,0.000000
6078,0.000000
6079,0.000000
6080,0.000000
6081,0.000000
6082,3.906250
6083,3.906250
6084,3.906250
6085,3.906250
6086,3.906250
6087,3.906250
6088,3.906250
6089,3.906250
6090,3.906250
6091,3.906250
6092,3.906250
6093,3.906250
6094,3.906250
6095,3.906250
6096,3.906250
6097,7.812500
6098,7.812500
6099,7.812500
6100,7.812500
6101,7.812500
6102,7.812500
6103,7.812500
6104,7.812500
6105,7.812500
6106,7.812500
6107,7.812500
6108,7.812500
6109,7.812500
6110,7.812500
6111,7.812500
6112,7.812500
6113,7.812500
6114,7.812500
6115,11.718750
6116,7.812500
6117,11.718750
6118,11.718750
6119,11.718750
6120,11.718750
6121,11.718750
6122,11.718750
6123,11.718750
6124,11.718750
6125,11.718750
6126,11.718750
6127,11.718750
6128,11.718750
6129,11.718750
6130,11.718750
6131,11.718750
6132,11.718750
6133,11.718750
6134,15.625000
6135,11.718750
6136,15.625000
6137,11.718750
6138,15.625000
6139,15.625000
6140,15.625000
6141,15.625000
6142,15.625000
6143,15.625000
6144,15.625000
6145,15.625000
6146,15.625000
6147,15.625000
6148,15.625000
6149,15.625000
6150,15.625000
6151,15.625000
6152,19.531250
6153,15.625000
6154,15.625000
6155,19.531250
6156,19.531250
6157,19.531250
6158,19.531250
6159,19.531250
6160,19.531250
6161,19.531250
6162,19.531250
6163,19.531250
6164,19.531250
6165,19.531250
6166,19.531250
6167,19.531250
6168,19.531250
6169,19.531250
6170,19.531250
6171,19.531250
6172,19.531250
6173,19.531250
6174,19.531250
6175,19.531250
6176,19.531250
6177,19.531250
6178,19.531250
6179,23.437500
6180,23.437500
6181,19.531250
6182,23.437500
6183,23.437500
6184,23.437500
6185,23.437500
6186,23.437500
6187,23.437500
6188,23.437500
6189,23.437500
6190,23.437500
6191,23.437500
6192,23.437500
6193,23.437500
6194,23.437500
6195,23.437500
6196,23.437500
6197,23.437500
6198,23.437500
6199,23.437500
6200,23.437500
6201,23.437500
6202,23.437500
6203,23.437500
6204,23.437500
6205,23.437500
6206,23.437500
6207,23.437500
6208,23.437500
6209,23.437500
6210,23.437500
6211,23.437500
6212,27.343750
6213,27.343750
6214,27.343750
6215,23.437500
6216,23.437500
6217,23.437500
6218,23.437500
6219,27.343750
6220,27.343750
6221,27.343750
6222,27.343750
6223,27.343750
6224,27.343750
6225,27.343750
6226,27.343750
6227,27.343750
6228,27.343750
6229,27.343750
6230,27.343750
6231,27.343750
6232,27.343750
6233,27.343750
6234,27.343750
6235,27.343750
6236,27.343750
6237,27.343750
6238,27.343750
6239,27.343750
6240,27.343750
6241,27.343750
6242,27.343750
6243,27.343750
6244,27.343750
6245,27.343750
6246,27.343750
6247,27.343750
6248,27.343750
6249,27.343750
6250,27.343750
6251,27.343750
6252,27.343750
6253,27.343750
6254,27.343750
6255,27.343750
6256,27.343750
6257,27.343750
6258,27.343750
6259,27.343750
6260,27.343750
6261,27.343750
6262,27.343750
6263,27.343750
6264,27.343750
6265,27.343750
6266,27.343750
6267,27.343750
6268,27.343750
6269,27.343750
6270,27.343750
6271,27.343750
6272,27.343750
6273,27.343750
6274,27.343750
6275,27.343750
6276,27.343750
6277,27.343750
6278,27.343750
6279,27.343750
6280,27.343750
6281,27.343750
6282,27.343750
6283,27.343750
6284,27.343750
6285,27.343750
6286,27.343750
6287,27.343750
6288,27.343750
6289,27.343750
6290,27.343750
6291,27.343750
6292,27.343750
6293,27.343750
6294,27.343750
6295,27.343750
6296,27.343750
6297,27.343750
6298,27.343750
6299,27.343750
6300,27.343750
6301,27.343750
6302,27.343750
6303,27.343750
6304,27.343750
6305,27.343750
6306,27.343750
6307,27.343750
6308,27.343750
6309,27.343750
6310,27.343750
6311,27.343750
6312,27.343750
6313,27.343750
6314,27.343750
6315,27.343750
6316,27.343750
6317,27.343750
6318,27.343750
6319,27.343750
6320,27.343750
6321,27.343750
6322,27.343750
6323,27.343750
6324,27.343750
6325,27.343750
6326,27.343750
6327,27.343750
6328,27.343750
6329,27.343750
6330,27.343750
6331,27.343750
6332,27.343750
6333,23.437500
6334,27.343750
6335,27.343750
6336,27.343750
6337,23.437500
6338,23.437500
6339,23.437500
6340,23.437500
6341,23.437500
6342,23.437500
6343,23.437500
6344,23.437500
6345,23.437500
6346,23.437500
6347,23.437500
6348,23.437500
6349,23.437500
6350,23.437500
6351,23.437500
6352,23.437500
6353,23.437500
6354,23.437500
6355,23.437500
6356,23.437500
6357,23.437500
6358,23.437500
6359,23.437500
6360,23.437500
6361,23.437500
6362,23.437500
6363,23.437500
6364,23.437500
6365,23.437500
6366,23.437500
6367,19.531250
6368,19.531250
6369,19.531250
6370,23.437500
6371,19.531250
6372,19.531250
6373,23.437500
6374,19.531250
6375,19.531250
6376,19.531250
6377,19.531250
6378,19.531250
6379,19.531250
6380,19.531250
6381,19.531250
6382,19.531250
6383,19.531250
6384,19.531250
6385,19.531250
6386,19.531250
6387,19.531250
6388,19.531250
6389,19.531250
6390,19.531250
6391,19.531250
6392,19.531250
6393,19.531250
6394,15.625000
6395,15.625000
6396,15.625000
6397,15.625000
6398,15.625000
6399,15.625000
6400,15.625000
6401,15.625000
6402,15.625000
6403,15.625000
6404,15.625000
6405,15.625000
6406,15.625000
6407,15.625000
6408,15.625000
6409,15.625000
6410,15.625000
6411,15.625000
6412,15.625000
6413,15.625000
6414,15.625000
6415,15.625000
6416,11.718750
6417,11.718750
6418,11.718750
6419,11.718750
6420,11.718750
6421,11.718750
6422,11.718750
6423,11.718750
6424,11.718750
6425,11.718750
6426,11.718750
6427,11.718750
6428,11.718750
6429,11.718750
6430,11.718750
6431,11.718750
6432,11.718750
6433,11.718750
6434,11.718750
6435,11.718750
6436,7.812500
6437,11.718750
6438,7.812500
6439,7.812500
6440,7.812500
6441,7.812500
6442,7.812500
6443,7.812500
6444,7.812500
6445,7.812500
6446,7.812500
6447,7.812500
6448,7.812500
6449,7.812500
6450,7.812500
6451,7.812500
6452,3.906250
6453,7.812500
6454,7.812500
6455,7.812500
6456,3.906250
6457,3.906250
6458,3.906250
6459,3.906250
6460,3.906250
6461,3.906250
6462,3.906250
6463,3.906250
6464,3.906250
6465,3.906250
6466,3.906250
6467,3.906250
6468,3.906250
6469,3.906250
6470,0.000000
6471,0.000000
6472,3.906250
6473,0.000000
6474,0.000000
6475,0.000000
6476,0.000000
6477,0.000000
6478,0.000000
6479,0.000000
6480,0.000000
6481,0.000000
6482,0.000000
6483,0.000000
6484,0.000000
6485,-3.906250
6486,-3.906250
6487,-3.906250
6488,-3.906250
6489,-3.906250
6490,-3.906250
6491,-3.906250
6492,-3.906250
6493,-3.906250
6494,-3.906250
6495,-3.906250
6496,-3.906250
6497,-3.906250
6498,-3.906250
6499,-3.906250
6500,-3.906250
6501,-3.906250
6502,-7.812500
6503,-7.812500
6504,-7.812500
6505,-7.812500
6506,-7.812500
6507,-7.812500
6508,-7.812500
6509,-7.812500
6510,-7.812500
6511,-7.812500
6512,-7.812500
6513,-7.812500
6514,-7.812500
6515,-7.812500
6516,-11.718750
6517,-11.718750
6518,-11.718750
6519,-11.718750
6520,-11.718750
6521,-11.718750
6522,-11.718750
6523,-11.718750
6524,-11.718750
6525,-11.718750
6526,-11.718750
6527,-11.718750
6528,-11.718750
6529,-15.625000
6530,-15.625000
6531,-15.625000
6532,-15.625000
6533,-15.625000
6534,-15.625000
6535,-15.625000
6536,-15.625000
6537,-15.625000
6538,-15.625000
6539,-15.625000
6540,-15.625000
6541,-15.625000
6542,-15.625000
6543,-15.625000
6544,-15.625000
6545,-19.531250
6546,-19.531250
6547,-19.531250
6548,-19.531250
6549,-19.531250
6550,-19.531250
6551,-19.531250
6552,-19.531250
6553,-19.531250
6554,-19.531250
6555,-19.531250
6556,-19.531250
6557,-19.531250
6558,-19.531250
6559,-23.437500
6560,-23.437500
6561,-23.437500
6562,-23.437500
6563,-23.437500
6564,-23.437500
6565,-23.437500
6566,-23.437500
6567,-23.437500
6568,-23.437500
6569,-23.437500
6570,-23.437500
6571,-27.343750
6572,-23.437500
6573,-27.343750
6574,-27.343750
6575,-27.343750
6576,-27.343750
6577,-27.343750
6578,-27.343750
6579,-27.343750
6580,-27.343750
6581,-27.343750
6582,-27.343750
6583,-27.343750
6584,-27.343750
6585,-27.343750
6586,-31.250000
6587,-31.250000
6588,-31.250000
6589,-31.250000
6590,-31.250000
6591,-31.250000
6592,-31.250000
6593,-31.250000
6594,-31.250000
6595,-31.250000
6596,-31.250000
6597,-31.250000
6598,-31.250000
6599,-31.250000
6600,-35.156250
6601,-35.156250
6602,-35.156250
6603,-35.156250
6604,-35.156250
6605,-35.156250
6606,-35.156250
6607,-35.156250
6608,-35.156250
6609,-35.156250
6610,-35.156250
6611,-35.156250
6612,-35.156250
6613,-35.156250
6614,-35.156250
6615,-35.156250
6616,-35.156250
6617,-35.156250
6618,-39.062500
6619,-39.062500
6620,-39.062500
6621,-39.062500
6622,-39.062500
6623,-39.062500
6624,-39.062500
6625,-39.062500
6626,-39.062500
6627,-39.062500
6628,-39.062500
6629,-39.062500
6630,-39.062500
6631,-39.062500
6632,-42.968750
6633,-42.968750
6634,-42.968750
6635,-42.968750
6636,-42.968750
6637,-42.968750
6638,-42.968750
6639,-42.968750
6640,-42.968750
6641,-42.968750
6642,-42.968750
6643,-42.968750
6644,-42.968750
6645,-42.968750
6646,-42.968750
6647,-42.968750
6648,-42.968750
6649,-42.968750
6650,-42.968750
6651,-42.968750
6652,-46.875000
6653,-46.875000
6654,-46.875000
6655,-46.875000
6656,-46.875000
6657,-46.875000
6658,-46.875000
6659,-46.875000
6660,-46.875000
6661,-46.875000
6662,-46.875000
6663,-46.875000
6664,-46.875000
6665,-46.875000
6666,-46.875000
6667,-46.875000
6668,-46.875000
6669,-46.875000
6670,-46.875000
6671,-50.781250
6672,-50.781250
6673,-50.781250
6674,-50.781250
6675,-50.781250
6676,-50.781250
6677,-50.781250
6678,-50.781250
6679,-50.781250
6680,-50.781250
6681,-50.781250
6682,-50.781250
6683,-50.781250
6684,-50.781250
6685,-50.781250
6686,-50.781250
6687,-50.781250
6688,-50.781250
6689,-50.781250
6690,-50.781250
6691,-50.781250
6692,-50.781250
6693,-50.781250
6694,-54.687500
6695,-50.781250
6696,-54.687500
6697,-54.687500
6698,-50.781250
6699,-54.687500
6700,-54.687500
6701,-54.687500
6702,-54.687500
6703,-54.687500
6704,-54.687500
6705,-54.687500
6706,-54.687500
6707,-54.687500
6708,-54.687500
6709,-54.687500
6710,-54.687500
6711,-54.687500
6712,-54.687500
6713,-54.687500
6714,-54.687500
6715,-54.687500
6716,-54.687500
6717,-54.687500
6718,-54.687500
6719,-54.687500
6720,-54.687500
6721,-54.687500
6722,-54.687500
6723,-54.687500
6724,-54.687500
6725,-54.687500
6726,-54.687500
6727,-54.687500
6728,-54.687500
6729,-58.593750
6730,-58.593750
6731,-58.593750
6732,-58.593750
6733,-58.593750
6734,-54.687500
6735,-54.687500
6736,-58.593750
6737,-58.593750
6738,-54.687500
6739,-58.593750
6740,-58.593750
6741,-58.593750
6742,-58.593750
6743,-58.593750
6744,-58.593750
6745,-58.593750
6746,-58.593750
6747,-58.593750
6748,-58.593750
6749,-58.593750
6750,-58.593750
6751,-58.593750
6752,-58.593750
6753,-58.593750
6754,-58.593750
6755,-58.593750
6756,-58.593750
6757,-58.593750
6758,-58.593750
6759,-58.593750
6760,-58.593750
6761,-58.593750
6762,-58.593750
6763,-58.593750
6764,-58.593750
6765,-58.593750
6766,-58.593750
6767,-58.593750
6768,-58.593750
6769,-58.593750
6770,-58.593750
6771,-58.593750
6772,-58.593750
6773,-58.593750
6774,-58.593750
6775,-58.593750
6776,-58.593750
6777,-58.593750
6778,-58.593750
6779,-58.593750
6780,-58.593750
6781,-58.593750
6782,-58.593750
6783,-58.593750
6784,-58.593750
6785,-58.593750
6786,-58.593750
6787,-58.593750
6788,-58.593750
6789,-58.593750
6790,-58.593750
6791,-58.593750
6792,-58.593750
6793,-58.593750
6794,-58.593750
6795,-58.593750
6796,-58.593750
6797,-58.593750
6798,-58.593750
6799,-58.593750
6800,-58.593750
6801,-58.593750
6802,-58.593750
6803,-58.593750
6804,-54.687500
6805,-54.687500
6806,-54.687500
6807,-54.687500
6808,-54.687500
6809,-54.687500
6810,-54.687500
6811,-54.687500
6812,-54.687500
6813,-54.687500
6814,-54.687500
6815,-54.687500
6816,-54.687500
6817,-54.687500
6818,-54.687500
6819,-54.687500
6820,-54.687500
6821,-54.687500
6822,-54.687500
6823,-54.687500
6824,-54.687500
6825,-54.687500
6826,-54.687500
6827,-54.687500
6828,-54.687500
6829,-54.687500
6830,-54.687500
6831,-54.687500
6832,-54.687500
6833,-54.687500
6834,-54.687500
6835,-54.687500
6836,-54.687500
6837,-54.687500
6838,-54.687500
6839,-54.687500
6840,-54.687500
6841,-54.687500
6842,-50.781250
6843,-54.687500
6844,-50.781250
6845,-54.687500
6846,-50.781250
6847,-50.781250
6848,-50.781250
6849,-50.781250
6850,-50.781250
6851,-50.781250
6852,-50.781250
6853,-50.781250
6854,-50.781250
6855,-50.781250
6856,-50.781250
6857,-50.781250
6858,-50.781250
6859,-50.781250
6860,-50.781250
6861,-50.781250
6862,-50.781250
6863,-50.781250
6864,-50.781250
6865,-50.781250
6866,-46.875000
6867,-50.781250
6868,-50.781250
6869,-50.781250
6870,-50.781250
6871,-46.875000
6872,-46.875000
6873,-46.875000
6874,-46.875000
6875,-46.875000
6876,-46.875000
6877,-46.875000
6878,-46.875000
6879,-46.875000
6880,-46.875000
6881,-46.875000
6882,-46.875000
6883,-46.875000
6884,-46.875000
6885,-46.875000
6886,-46.875000
6887,-46.875000
6888,-46.875000
6889,-42.968750
6890,-42.968750
6891,-42.968750
6892,-42.968750
6893,-46.875000
6894,-42.968750
6895,-42.968750
6896,-42.968750
6897,-42.968750
6898,-42.968750
6899,-42.968750
6900,-42.968750
6901,-42.968750
6902,-42.968750
6903,-42.968750
6904,-42.968750
6905,-42.968750
6906,-42.968750
6907,-39.062500
6908,-39.062500
6909,-39.062500
6910,-39.062500
6911,-39.062500
6912,-39.062500
6913,-39.062500
6914,-39.062500
6915,-39.062500
6916,-39.062500
6917,-39.062500
6918,-39.062500
6919,-39.062500
6920,-39.062500
6921,-39.062500
6922,-39.062500
6923,-35.156250
6924,-35.156250
6925,-39.062500
6926,-35.156250
6927,-35.156250
6928,-35.156250
6929,-35.156250
6930,-35.156250
6931,-35.156250
6932,-35.156250
6933,-35.156250
6934,-35.156250
6935,-35.156250
6936,-35.156250
6937,-35.156250
6938,-35.156250
6939,-35.156250
6940,-31.250000
6941,-31.250000
6942,-31.250000
6943,-31.250000
6944,-31.250000
6945,-31.250000
6946,-31.250000
6947,-31.250000
6948,-31.250000
6949,-31.250000
6950,-31.250000
6951,-31.250000
6952,-31.250000
6953,-27.343750
6954,-27.343750
6955,-27.343750
6956,-27.343750
6957,-27.343750
6958,-27.343750
6959,-27.343750
6960,-27.343750
6961,-27.343750
6962,-27.343750
6963,-27.343750
6964,-27.343750
6965,-27.343750
6966,-27.343750
6967,-27.343750
6968,-23.437500
6969,-27.343750
6970,-23.437500
6971,-23.437500
6972,-23.437500
6973,-23.437500
6974,-23.437500
6975,-23.437500
6976,-23.437500
6977,-23.437500
6978,-23.437500
6979,-23.437500
6980,-23.437500
6981,-23.437500
6982,-23.437500
6983,-23.437500
6984,-19.531250
6985,-19.531250
6986,-19.531250
6987,-19.531250
6988,-19.531250
6989,-19.531250
6990,-19.531250
6991,-19.531250
6992,-19.531250
6993,-19.531250
6994,-19.531250
6995,-19.531250
6996,-15.625000
6997,-15.625000
6998,-15.625000
6999,-15.625000
7000,-15.625000
7001,-15.625000
7002,-15.625000
7003,-15.625000
7004,-15.625000
7005,-15.625000
7006,-15.625000
7007,-15.625000
7008,-15.625000
7009,-15.625000
7010,-15.625000
7011,-15.625000
7012,-15.625000
7013,-11.718750
7014,-11.718750
7015,-11.718750
7016,-11.718750
7017,-11.718750
7018,-11.718750
7019,-11.718750
7020,-11.718750
7021,-11.718750
7022,-11.718750
7023,-11.718750
7024,-11.718750
7025,-7.812500
7026,-7.812500
7027,-7.812500
7028,-7.812500
7029,-7.812500
7030,-7.812500
7031,-7.812500
7032,-7.812500
7033,-7.812500
7034,-7.812500
7035,-7.812500
7036,-7.812500
7037,-7.812500
7038,-7.812500
7039,-7.812500
7040,-7.812500
7041,-7.812500
7042,-7.812500
7043,-3.906250
7044,-3.906250
7045,-3.906250
7046,-3.906250
7047,-3.906250
7048,-3.906250
7049,-3.906250
7050,-3.906250
7051,-3.906250
7052,-3.906250
7053,-3.906250
7054,-3.906250
7055,0.000000
7056,0.000000
7057,0.000000
7058,0.000000
7059,0.000000
7060,0.000000
7061,0.000000
7062,0.000000
7063,0.000000
7064,0.000000
7065,0.000000
7066,0.000000
7067,0.000000
7068,0.000000
7069,0.000000
7070,0.000000
7071,3.906250
7072,3.906250
7073,3.906250
7074,3.906250
7075,3.906250
7076,3.906250
7077,3.906250
7078,3.906250
7079,3.906250
7080,3.906250
7081,3.906250
7082,3.906250
7083,3.906250
7084,3.906250
7085,3.906250
7086,3.906250
7087,3.906250
7088,7.812500
7089,7.812500
7090,7.812500
7091,7.812500
7092,7.812500
7093,7.812500
7094,7.812500
7095,7.812500
7096,7.812500
7097,7.812500
7098,7.812500
7099,7.812500
7100,7.812500
7101,7.812500
7102,7.812500
7103,11.718750
7104,7.812500
7105,11.718750
7106,11.718750
7107,11.718750
7108,11.718750
7109,11.718750
7110,11.718750
7111,11.718750
7112,11.718750
7113,11.718750
7114,11.718750
7115,11.718750
7116,11.718750
7117,11.718750
7118,11.718750
7119,11.718750
7120,11.718750
7121,11.718750
7122,11.718750
7123,15.625000
7124,15.625000
7125,15.625000
7126,15.625000
7127,15.625000
7128,15.625000
7129,15.625000
7130,15.625000
7131,15.625000
7132,15.625000
7133,15.625000
7134,15.625000
7135,15.625000
7136,15.625000
7137,15.625000
7138,15.625000
7139,15.625000
7140,15.625000
7141,15.625000
7142,19.531250
7143,15.625000
7144,15.625000
7145,19.531250
7146,19.531250
7147,19.531250
7148,19.531250
7149,19.531250
7150,19.531250
7151,19.531250
7152,19.531250
7153,19.531250
7154,19.531250
7155,19.531250
7156,19.531250
7157,19.531250
7158,19.531250
7159,19.531250
7160,19.531250
7161,15.625000
7162,19.531250
7163,19.531250
7164,19.531250
7165,19.531250
7166,19.531250
7167,23.437500
7168,19.531250
7169,19.531250
7170,23.437500
7171,23.437500
7172,23.437500
7173,19.531250
7174,23.437500
7175,23.437500
7176,23.437500
7177,23.437500
7178,23.437500
7179,23.437500
7180,23.437500
7181,23.437500
7182,23.437500
7183,23.437500
7184,23.437500
7185,23.437500
7186,23.437500
7187,23.437500
7188,23.437500
7189,23.437500
7190,23.437500
7191,23.437500
7192,23.437500
7193,23.437500
7194,23.437500
7195,23.437500
7196,23.437500
7197,23.437500
7198,23.437500
7199,27.343750
7200,27.343750
7201,27.343750
7202,23.437500
7203,27.343750
7204,23.437500
7205,23.437500
7206,27.343750
7207,27.343750
7208,27.343750
7209,27.343750
7210,27.343750
7211,27.343750
7212,27.343750
7213,27.343750
7214,27.343750
7215,27.343750
7216,27.343750
7217,27.343750
7218,27.343750
7219,27.343750
7220,27.343750
7221,27.343750
7222,27.343750
7223,27.343750
7224,27.343750
7225,27.343750
7226,27.343750
7227,27.343750
7228,27.343750
7229,27.343750
7230,27.343750
7231,27.343750
7232,27.343750
7233,31.250000
7234,27.343750
7235,27.343750
7236,27.343750
7237,27.343750
7238,27.343750
7239,27.343750
7240,27.343750
7241,27.343750
7242,27.343750
7243,27.343750
7244,27.343750
7245,27.343750
7246,27.343750
7247,27.343750
7248,27.343750
7249,27.343750
7250,27.343750
7251,27.343750
7252,27.343750
7253,27.343750
7254,27.343750
7255,27.343750
7256,27.343750
7257,27.343750
7258,27.343750
7259,27.343750
7260,27.343750
7261,27.343750
7262,27.343750
7263,27.343750
7264,27.343750
7265,27.343750
7266,27.343750
7267,27.343750
7268,27.343750
7269,27.343750
7270,27.343750
7271,27.343750
7272,27.343750
7273,27.343750
7274,27.343750
7275,27.343750
7276,27.343750
7277,27.343750
7278,27.343750
7279,27.343750
7280,27.343750
7281,27.343750
7282,27.343750
7283,27.343750
7284,27.343750
7285,27.343750
7286,27.343750
7287,27.343750
7288,27.343750
7289,27.343750
7290,27.343750
7291,27.343750
7292,27.343750
7293,27.343750
7294,27.343750
7295,27.343750
7296,27.343750
7297,27.343750
7298,27.343750
7299,27.343750
7300,27.343750
7301,27.343750
7302,27.343750
7303,27.343750
7304,27.343750
7305,27.343750
7306,27.343750
7307,27.343750
7308,27.343750
7309,27.343750
7310,27.343750
7311,27.343750
7312,27.343750
7313,27.343750
7314,27.343750
7315,27.343750
7316,27.343750
7317,27.343750
7318,27.343750
7319,27.343750
7320,27.343750
7321,23.437500
7322,27.343750
7323,27.343750
7324,27.343750
7325,27.343750
7326,27.343750
7327,23.437500
7328,27.343750
7329,23.437500
7330,23.437500
7331,23.437500
7332,23.437500
7333,23.437500
7334,23.437500
7335,23.437500
7336,23.437500
7337,23.437500
7338,23.437500
7339,23.437500
7340,23.437500
7341,23.437500
7342,23.437500
7343,23.437500
7344,23.437500
7345,23.437500
7346,23.437500
7347,23.437500
7348,23.437500
7349,23.437500
7350,23.437500
7351,23.437500
7352,23.437500
7353,23.437500
7354,23.437500
7355,23.437500
7356,23.437500
7357,23.437500
7358,19.531250
7359,23.437500
7360,23.437500
7361,23.437500
7362,19.531250
7363,19.531250
7364,19.531250
7365,19.531250
7366,19.531250
7367,19.531250
7368,19.531250
7369,19.531250
7370,19.531250
7371,19.531250
7372,19.531250
7373,19.531250
7374,19.531250
7375,19.531250
7376,19.531250
7377,19.531250
7378,19.531250
7379,19.531250
7380,19.531250
7381,19.531250
7382,19.531250
7383,19.531250
7384,15.625000
7385,15.625000
7386,15.625000
7387,15.625000
7388,15.625000
7389,15.625000
7390,15.625000
7391,15.625000
7392,15.625000
7393,15.625000
7394,15.625000
7395,15.625000
7396,15.625000
7397,15.625000
7398,15.625000
7399,15.625000
7400,15.625000
7401,15.625000
7402,15.625000
7403,15.625000
7404,15.625000
7405,15.625000
7406,11.718750
7407,11.718750
7408,11.718750
7409,11.718750
7410,11.718750
7411,11.718750
7412,11.718750
7413,11.718750
7414,11.718750
7415,11.718750
7416,11.718750
7417,11.718750
7418,11.718750
7419,11.718750
7420,11.718750
7421,11.718750
7422,11.718750
7423,11.718750
7424,11.718750
7425,7.812500
7426,11.718750
7427,7.812500
7428,7.812500
7429,7.812500
7430,7.812500
7431,7.812500
7432,7.812500
7433,7.812500
7434,7.812500
7435,7.812500
7436,7.812500
7437,7.812500
7438,7.812500
7439,7.812500
7440,7.812500
7441,7.812500
7442,7.812500
7443,7.812500
7444,7.812500
7445,3.906250
7446,3.906250
7447,3.906250
7448,3.906250
7449,3.906250
7450,3.906250
7451,3.906250
7452,3.906250
7453,3.906250
7454,3.906250
7455,3.906250
7456,3.906250
7457,3.906250
7458,0.000000
7459,3.906250
7460,0.000000
7461,0.000000
7462,0.000000
7463,0.000000
7464,0.000000
7465,0.000000
7466,0.000000
7467,0.000000
7468,0.000000
7469,0.000000
7470,0.000000
7471,0.000000
7472,0.000000
7473,0.000000
7474,0.000000
7475,0.000000
7476,-3.906250
7477,-3.906250
7478,-3.906250
7479,-3.906250
7480,-3.906250
7481,-3.906250
7482,-3.906250
7483,-3.906250
7484,-3.906250
7485,-3.906250
7486,-3.906250
7487,-3.906250
7488,-3.906250
7489,-3.906250
7490,-3.906250
7491,-7.812500
7492,-7.812500
7493,-7.812500
7494,-7.812500
7495,-7.812500
7496,-7.812500
7497,-7.812500
7498,-7.812500
7499,-7.812500
7500,-7.812500
7501,-7.812500
7502,-7.812500
7503,-11.718750
7504,-11.718750
7505,-11.718750
7506,-11.718750
7507,-11.718750
7508,-11.718750
7509,-11.718750
7510,-11.718750
7511,-11.718750
7512,-11.718750
7513,-11.718750
7514,-11.718750
7515,-11.718750
7516,-11.718750
7517,-11.718750
7518,-11.718750
7519,-15.625000
7520,-15.625000
7521,-15.625000
7522,-15.625000
7523,-15.625000
7524,-15.625000
7525,-15.625000
7526,-15.625000
7527,-15.625000
7528,-15.625000
7529,-15.625000
7530,-15.625000
7531,-15.625000
7532,-15.625000
7533,-19.531250
7534,-19.531250
7535,-19.531250
7536,-19.531250
7537,-15.625000
7538,-19.531250
7539,-19.531250
7540,-19.531250
7541,-19.531250
7542,-19.531250
7543,-19.531250
7544,-19.531250
7545,-19.531250
7546,-23.437500
7547,-23.437500
7548,-23.437500
7549,-23.437500
7550,-23.437500
7551,-19.531250
7552,-27.343750
7553,-23.437500
7554,-23.437500
7555,-23.437500
7556,-23.437500
7557,-23.437500
7558,-23.437500
7559,-23.437500
7560,-23.437500
7561,-27.343750
7562,-27.343750
7563,-23.437500
7564,-27.343750
7565,-27.343750
7566,-31.250000
7567,-27.343750
7568,-27.343750
7569,-27.343750
7570,-27.343750
7571,-27.343750
7572,-27.343750
7573,-27.343750
7574,-27.343750
7575,-27.343750
7576,-27.343750
7577,-31.250000
7578,-31.250000
7579,-27.343750
7580,-31.250000
7581,-31.250000
7582,-31.250000
7583,-31.250000
7584,-31.250000
7585,-31.250000
7586,-31.250000
7587,-31.250000
7588,-31.250000
7589,-31.250000
7590,-31.250000
7591,-35.156250
7592,-35.156250
7593,-35.156250
7594,-35.156250
7595,-35.156250
7596,-35.156250
7597,-35.156250
7598,-35.156250
7599,-35.156250
7600,-35.156250
7601,-35.156250
7602,-35.156250
7603,-35.156250
7604,-35.156250
7605,-35.156250
7606,-35.156250
7607,-39.062500
7608,-39.062500
7609,-39.062500
7610,-39.062500
7611,-39.062500
7612,-39.062500
7613,-39.062500
7614,-39.062500
7615,-39.062500
7616,-39.062500
7617,-39.062500
7618,-39.062500
7619,-39.062500
7620,-39.062500
7621,-39.062500
7622,-39.062500
7623,-42.968750
7624,-42.968750
7625,-42.968750
7626,-42.968750
7627,-42.968750
7628,-42.968750
7629,-42.968750
7630,-42.968750
7631,-42.968750
7632,-42.968750
7633,-42.968750
7634,-42.968750
7635,-42.968750
7636,-42.968750
7637,-42.968750
7638,-46.875000
7639,-42.968750
7640,-42.968750
7641,-46.875000
7642,-42.968750
7643,-46.875000
7644,-46.875000
7645,-46.875000
7646,-46.875000
7647,-46.875000
7648,-46.875000
7649,-46.875000
7650,-46.875000
7651,-46.875000
7652,-46.875000
7653,-46.875000
7654,-46.875000
7655,-46.875000
7656,-46.875000
7657,-46.875000
7658,-46.875000
7659,-46.875000
7660,-46.875000
7661,-50.781250
7662,-50.781250
7663,-50.781250
7664,-50.781250
7665,-50.781250
7666,-50.781250
7667,-50.781250
7668,-50.781250
7669,-50.781250
7670,-50.781250
7671,-50.781250
7672,-50.781250
7673,-50.781250
7674,-50.781250
7675,-50.781250
7676,-50.781250
7677,-50.781250
7678,-50.781250
7679,-50.781250
7680,-50.781250
7681,-50.781250
7682,-50.781250
7683,-50.781250
7684,-54.687500
7685,-50.781250
7686,-50.781250
7687,-54.687500
7688,-50.781250
7689,-54.687500
7690,-50.781250
7691,-54.687500
7692,-54.687500
7693,-54.687500
7694,-54.687500
7695,-54.687500
7696,-54.687500
7697,-54.687500
7698,-54.687500
7699,-54.687500
7700,-54.687500
7701,-54.687500
7702,-54.687500
7703,-54.687500
7704,-54.687500
7705,-54.687500
7706,-54.687500
7707,-54.687500
7708,-54.687500
7709,-54.687500
7710,-54.687500
7711,-54.687500
7712,-54.687500
7713,-54.687500
7714,-54.687500
7715,-54.687500
7716,-54.687500
7717,-54.687500
7718,-54.687500
7719,-54.687500
7720,-54.687500
7721,-54.687500
7722,-54.687500
7723,-54.687500
7724,-54.687500
7725,-54.687500
7726,-54.687500
7727,-54.687500
7728,-54.687500
7729,-58.593750
7730,-58.593750
7731,-58.593750
7732,-58.593750
7733,-58.593750
7734,-58.593750
7735,-58.593750
7736,-58.593750
7737,-58.593750
7738,-58.593750
7739,-58.593750
7740,-58.593750
7741,-58.593750
7742,-58.593750
7743,-58.593750
7744,-58.593750
7745,-58.593750
7746,-58.593750
7747,-58.593750
7748,-58.593750
7749,-58.593750
7750,-58.593750
7751,-58.593750
7752,-58.593750
7753,-58.593750
7754,-58.593750
7755,-58.593750
7756,-58.593750
7757,-58.593750
7758,-58.593750
7759,-58.593750
7760,-58.593750
7761,-58.593750
7762,-58.593750
7763,-58.593750
7764,-58.593750
7765,-58.593750
7766,-58.593750
7767,-58.593750
7768,-58.593750
7769,-58.593750
7770,-58.593750
7771,-58.593750
7772,-58.593750
7773,-58.593750
7774,-58.593750
7775,-58.593750
7776,-58.593750
7777,-58.593750
7778,-58.593750
7779,-58.593750
7780,-58.593750
7781,-58.593750
7782,-58.593750
7783,-58.593750
7784,-58.593750
7785,-58.593750
7786,-58.593750
7787,-58.593750
7788,-58.593750
7789,-58.593750
7790,-58.593750
7791,-58.593750
7792,-54.687500
7793,-54.687500
7794,-58.593750
7795,-54.687500
7796,-54.687500
7797,-54.687500
7798,-54.687500
7799,-54.687500
7800,-54.687500
7801,-54.687500
7802,-54.687500
7803,-54.687500
7804,-54.687500
7805,-54.687500
7806,-54.687500
7807,-54.687500
7808,-54.687500
7809,-54.687500
7810,-54.687500
7811,-54.687500
7812,-54.687500
7813,-54.687500
7814,-54.687500
7815,-54.687500
7816,-54.687500
7817,-54.687500
7818,-54.687500
7819,-54.687500
7820,-54.687500
7821,-54.687500
7822,-54.687500
7823,-54.687500
7824,-54.687500
7825,-54.687500
7826,-54.687500
7827,-54.687500
7828,-54.687500
7829,-50.781250
7830,-54.687500
7831,-50.781250
7832,-50.781250
7833,-50.781250
7834,-50.781250
7835,-50.781250
7836,-50.781250
7837,-50.781250
7838,-50.781250
7839,-50.781250
7840,-50.781250
7841,-50.781250
7842,-50.781250
7843,-50.781250
7844,-50.781250
7845,-50.781250
7846,-50.781250
7847,-50.781250
7848,-50.781250
7849,-50.781250
7850,-50.781250
7851,-50.781250
7852,-50.781250
7853,-50.781250
7854,-50.781250
7855,-46.875000
7856,-50.781250
7857,-46.875000
7858,-46.875000
7859,-46.875000
7860,-46.875000
7861,-46.875000
7862,-46.875000
7863,-46.875000
7864,-46.875000
7865,-46.875000
7866,-46.875000
7867,-46.875000
7868,-46.875000
7869,-46.875000
7870,-46.875000
7871,-46.875000
7872,-46.875000
7873,-46.875000
7874,-46.875000
7875,-46.875000
7876,-46.875000
7877,-42.968750
7878,-42.968750
7879,-46.875000
7880,-42.968750
7881,-42.968750
7882,-42.968750
7883,-42.968750
7884,-42.968750
7885,-42.968750
7886,-42.968750
7887,-42.968750
7888,-42.968750
7889,-42.968750
7890,-42.968750
7891,-42.968750
7892,-42.968750
7893,-42.968750
7894,-42.968750
7895,-42.968750
7896,-39.062500
7897,-39.062500
7898,-39.062500
7899,-39.062500
7900,-39.062500
7901,-39.062500
7902,-39.062500
7903,-39.062500
7904,-39.062500
7905,-39.062500
7906,-39.062500
7907,-39.062500
7908,-39.062500
7909,-39.062500
7910,-39.062500
7911,-39.062500
7912,-39.062500
7913,-39.062500
7914,-35.156250
7915,-39.062500
7916,-35.156250
7917,-35.156250
7918,-35.156250
7919,-35.156250
7920,-35.156250
7921,-35.156250
7922,-35.156250
7923,-35.156250
7924,-35.156250
7925,-35.156250
7926,-35.156250
7927,-35.156250
7928,-31.250000
7929,-31.250000
7930,-31.250000
7931,-31.250000
7932,-31.250000
7933,-31.250000
7934,-31.250000
7935,-31.250000
7936,-31.250000
7937,-31.250000
7938,-31.250000
7939,-31.250000
7940,-31.250000
7941,-31.250000
7942,-31.250000
7943,-31.250000
7944,-27.343750
7945,-27.343750
7946,-27.343750
7947,-27.343750
7948,-27.343750
7949,-27.343750
7950,-27.343750
7951,-27.343750
7952,-27.343750
7953,-27.343750
7954,-27.343750
7955,-27.343750
7956,-27.343750
7957,-23.437500
7958,-23.437500
7959,-23.437500
7960,-23.437500
7961,-23.437500
7962,-23.437500
7963,-23.437500
7964,-23.437500
7965,-23.437500
7966,-23.437500
7967,-23.437500
7968,-23.437500
7969,-19.531250
7970,-19.531250
7971,-19.531250
7972,-19.531250
7973,-19.531250
7974,-19.531250
7975,-19.531250
7976,-19.531250
7977,-19.531250
7978,-19.531250
7979,-19.531250
7980,-19.531250
7981,-19.531250
7982,-19.531250
7983,-19.531250
7984,-19.531250
7985,-15.625000
7986,-19.531250
7987,-15.625000
7988,-15.625000
7989,-15.625000
7990,-15.625000
7991,-15.625000
7992,-15.625000
7993,-15.625000
7994,-15.625000
7995,-15.625000
7996,-15.625000
7997,-15.625000
7998,-15.625000
7999,-15.625000
8000,-15.625000
8001,-11.718750
8002,-11.718750
8003,-15.625000
8004,-11.718750
8005,-11.718750
8006,-11.718750
8007,-11.718750
8008,-11.718750
8009,-11.718750
8010,-11.718750
8011,-11.718750
8012,-11.718750
8013,-11.718750
8014,-11.718750
8015,-11.718750
8016,-11.718750
8017,-7.812500
8018,-7.812500
8019,-7.812500
8020,-7.812500
8021,-7.812500
8022,-7.812500
8023,-7.812500
8024,-7.812500
8025,-7.812500
8026,-7.812500
8027,-7.812500
8028,-3.906250
8029,-3.906250
8030,-3.906250
8031,-3.906250
8032,-3.906250
8033,-3.906250
8034,-3.906250
8035,-3.906250
8036,-3.906250
8037,-3.906250
8038,-3.906250
8039,-3.906250
8040,-3.906250
8041,-3.906250
8042,-3.906250
8043,-3.906250
8044,-3.906250
8045,-3.906250
8046,0.000000
8047,0.000000
8048,0.000000
8049,0.000000
8050,0.000000
8051,0.000000
8052,0.000000
8053,0.000000
8054,0.000000
8055,0.000000
8056,0.000000
8057,0.000000
8058,0.000000
8059,0.000000
8060,0.000000
8061,0.000000
8062,0.000000
8063,3.906250
8064,3.906250
8065,3.906250
8066,3.906250
8067,3.906250
8068,3.906250
8069,3.906250
8070,3.906250
8071,3.906250
8072,3.906250
8073,3.906250
8074,3.906250
8075,3.906250
8076,7.812500
8077,7.812500
8078,7.812500
8079,7.812500
8080,7.812500
8081,7.812500
8082,7.812500
8083,7.812500
8084,7.812500
8085,7.812500
8086,7.812500
8087,7.812500
8088,7.812500
8089,7.812500
8090,7.812500
8091,7.812500
8092,7.812500
8093,7.812500
8094,11.718750
8095,11.718750
8096,11.718750
8097,11.718750
8098,11.718750
8099,11.718750
8100,11.718750
8101,11.718750
8102,11.718750
8103,11.718750
8104,11.718750
8105,11.718750
8106,11.718750
8107,11.718750
8108,11.718750
8109,11.718750
8110,11.718750
8111,11.718750
8112,11.718750
8113,11.718750
8114,15.625000
8115,15.625000
8116,15.625000
8117,15.625000
8118,15.625000
8119,15.625000
8120,15.625000
8121,15.625000
8122,15.625000
8123,15.625000
8124,15.625000
8125,15.625000
8126,15.625000
8127,15.625000
8128,15.625000
8129,15.625000
8130,15.625000
8131,15.625000
8132,15.625000
8133,19.531250
8134,19.531250
8135,19.531250
8136,19.531250
8137,19.531250
8138,19.531250
8139,15.625000
8140,19.531250
8141,19.531250
8142,19.531250
8143,19.531250
8144,19.531250
8145,19.531250
8146,19.531250
8147,19.531250
8148,19.531250
8149,19.531250
8150,19.531250
8151,19.531250
8152,19.531250
8153,19.531250
8154,19.531250
8155,19.531250
8156,19.531250
8157,23.437500
8158,19.531250
8159,19.531250
8160,19.531250
8161,23.437500
8162,23.437500
8163,23.437500
8164,23.437500
8165,23.437500
8166,23.437500
8167,23.437500
8168,23.437500
8169,23.437500
8170,23.437500
8171,23.437500
8172,23.437500
8173,23.437500
8174,23.437500
8175,23.437500
8176,23.437500
8177,23.437500
8178,23.437500
8179,23.437500
8180,23.437500
8181,23.437500
8182,23.437500
8183,23.437500
8184,23.437500
8185,23.437500
8186,23.437500
8187,23.437500
8188,23.437500
8189,27.343750
8190,23.437500
8191,27.343750
8192,27.343750
8193,27.343750
8194,27.343750
8195,23.437500
8196,27.343750
8197,27.343750
8198,27.343750
8199,27.343750
8200,27.343750
8201,27.343750
8202,27.343750
8203,27.343750
8204,27.343750
8205,27.343750
8206,27.343750
8207,27.343750
8208,27.343750
8209,27.343750
8210,27.343750
8211,27.343750
8212,27.343750
8213,27.343750
8214,27.343750
8215,27.343750
8216,27.343750
8217,27.343750
8218,27.343750
8219,27.343750
8220,27.343750
8221,27.343750
8222,27.343750
8223,27.343750
8224,27.343750
8225,27.343750
8226,27.343750
8227,27.343750
8228,27.343750
8229,27.343750
8230,27.343750
8231,27.343750
8232,27.343750
8233,27.343750
8234,27.343750
8235,27.343750
8236,27.343750
8237,27.343750
8238,27.343750
8239,27.343750
8240,27.343750
8241,27.343750
8242,27.343750
8243,27.343750
8244,27.343750
8245,27.343750
8246,27.343750
8247,27.343750
8248,27.343750
8249,27.343750
8250,27.343750
8251,27.343750
8252,27.343750
8253,27.343750
8254,27.343750
8255,27.343750
8256,27.343750
8257,27.343750
8258,27.343750
8259,27.343750
8260,27.343750
8261,27.343750
8262,27.343750
8263,27.343750
8264,27.343750
8265,27.343750
8266,27.343750
8267,27.343750
8268,27.343750
8269,27.343750
8270,27.343750
8271,27.343750
8272,27.343750
8273,27.343750
8274,27.343750
8275,27.343750
8276,27.343750
8277,27.343750
8278,27.343750
8279,27.343750
8280,27.343750
8281,27.343750
8282,27.343750
8283,27.343750
8284,27.343750
8285,27.343750
8286,27.343750
8287,27.343750
8288,27.343750
8289,27.343750
8290,27.343750
8291,27.343750
8292,27.343750
8293,27.343750
8294,27.343750
8295,27.343750
8296,27.343750
8297,27.343750
8298,27.343750
8299,27.343750
8300,27.343750
8301,27.343750
8302,27.343750
8303,27.343750
8304,27.343750
8305,27.343750
8306,27.343750
8307,27.343750
8308,27.343750
8309,27.343750
8310,27.343750
8311,27.343750
8312,23.437500
8313,27.343750
8314,27.343750
8315,27.343750
8316,27.343750
8317,23.437500
8318,23.437500
8319,23.437500
8320,23.437500
8321,23.437500
8322,23.437500
8323,23.437500
8324,23.437500
8325,23.437500
8326,23.437500
8327,23.437500
8328,23.437500
8329,23.437500
8330,23.437500
8331,23.437500
8332,23.437500
8333,23.437500
8334,23.437500
8335,23.437500
8336,23.437500
8337,23.437500
8338,23.437500
8339,23.437500
8340,23.437500
8341,23.437500
8342,23.437500
8343,23.437500
8344,23.437500
8345,23.437500
8346,23.437500
8347,23.437500
8348,23.437500
8349,23.437500
8350,23.437500
8351,19.531250
8352,19.531250
8353,19.531250
8354,19.531250
8355,19.531250
8356,19.531250
8357,19.531250
8358,19.531250
8359,19.531250
8360,19.531250
8361,19.531250
8362,19.531250
8363,19.531250
8364,19.531250
8365,19.531250
8366,19.531250
8367,19.531250
8368,19.531250
8369,19.531250
8370,19.531250
8371,19.531250
8372,19.531250
8373,19.531250
8374,19.531250
8375,19.531250
8376,15.625000
8377,19.531250
8378,15.625000
8379,15.625000
8380,15.625000
8381,15.625000
8382,15.625000
8383,15.625000
8384,15.625000
8385,15.625000
8386,15.625000
8387,15.625000
8388,15.625000
8389,15.625000
8390,11.718750
8391,15.625000
8392,15.625000
8393,15.625000
8394,15.625000
8395,15.625000
8396,15.625000
8397,11.718750
8398,11.718750
8399,11.718750
8400,11.718750
8401,11.718750
8402,11.718750
8403,11.718750
8404,11.718750
8405,11.718750
8406,11.718750
8407,11.718750
8408,11.718750
8409,11.718750
8410,11.718750
8411,11.718750
8412,11.718750
8413,7.812500
8414,7.812500
8415,7.812500
8416,7.812500
8417,7.812500
8418,7.812500
8419,7.812500
8420,7.812500
8421,7.812500
8422,7.812500
8423,7.812500
8424,7.812500
8425,7.812500
8426,7.812500
8427,7.812500
8428,7.812500
8429,7.812500
8430,7.812500
8431,7.812500
8432,7.812500
8433,7.812500
8434,3.906250
8435,3.906250
8436,3.906250
8437,3.906250
8438,3.906250
8439,3.906250
8440,3.906250
8441,3.906250
8442,3.906250
8443,3.906250
8444,3.906250
8445,3.906250
8446,3.906250
8447,3.906250
8448,3.906250
8449,0.000000
8450,0.000000
8451,0.000000
8452,0.000000
8453,0.000000
8454,0.000000
8455,0.000000
8456,0.000000
8457,0.000000
8458,0.000000
8459,0.000000
8460,0.000000
8461,0.000000
8462,0.000000
8463,0.000000
8464,0.000000
8465,-3.906250
8466,-3.906250
8467,-3.906250
8468,-3.906250
8469,-3.906250
8470,-3.906250
8471,-3.906250
8472,-3.906250
8473,-3.906250
8474,-3.906250
8475,-3.906250
8476,-3.906250
8477,-3.906250
8478,-3.906250
8479,-7.812500
8480,-3.906250
8481,-7.812500
8482,-7.812500
8483,-7.812500
8484,-7.812500
8485,-7.812500
8486,-7.812500
8487,-7.812500
8488,-7.812500
8489,-7.812500
8490,-7.812500
8491,-7.812500
8492,-7.812500
8493,-7.812500
8494,-11.718750
8495,-7.812500
8496,-11.718750
8497,-11.718750
8498,-11.718750
8499,-11.718750
8500,-11.718750
8501,-11.718750
8502,-11.718750
8503,-11.718750
8504,-11.718750
8505,-11.718750
8506,-11.718750
8507,-15.625000
8508,-15.625000
8509,-15.625000
8510,-15.625000
8511,-15.625000
8512,-15.625000
8513,-15.625000
8514,-15.625000
8515,-15.625000
8516,-15.625000
8517,-15.625000
8518,-15.625000
8519,-15.625000
8520,-15.625000
8521,-15.625000
8522,-19.531250
8523,-15.625000
8524,-19.531250
8525,-19.531250
8526,-19.531250
8527,-19.531250
8528,-19.531250
8529,-19.531250
8530,-19.531250
8531,-19.531250
8532,-19.531250
8533,-19.531250
8534,-19.531250
8535,-19.531250
8536,-19.531250
8537,-23.437500
8538,-23.437500
8539,-23.437500
8540,-23.437500
8541,-23.437500
8542,-23.437500
8543,-23.437500
8544,-23.437500
8545,-23.437500
8546,-23.437500
8547,-23.437500
8548,-27.343750
8549,-27.343750
8550,-27.343750
8551,-27.343750
8552,-27.343750
8553,-27.343750
8554,-27.343750
8555,-27.343750
8556,-27.343750
8557,-27.343750
8558,-27.343750
8559,-27.343750
8560,-27.343750
8561,-27.343750
8562,-27.343750
8563,-31.250000
8564,-27.343750
8565,-31.250000
8566,-31.250000
8567,-31.250000
8568,-31.250000
8569,-31.250000
8570,-31.250000
8571,-31.250000
8572,-31.250000
8573,-31.250000
8574,-31.250000
8575,-31.250000
8576,-31.250000
8577,-35.156250
8578,-35.156250
8579,-35.156250
8580,-35.156250
8581,-35.156250
8582,-35.156250
8583,-35.156250
8584,-35.156250
8585,-35.156250
8586,-35.156250
8587,-35.156250
8588,-35.156250
8589,-35.156250
8590,-35.156250
8591,-35.156250
8592,-35.156250
8593,-35.156250
8594,-35.156250
8595,-35.156250
8596,-39.062500
8597,-39.062500
8598,-39.062500
8599,-39.062500
8600,-39.062500
8601,-39.062500
8602,-39.062500
8603,-39.062500
8604,-39.062500
8605,-39.062500
8606,-39.062500
8607,-39.062500
8608,-39.062500
8609,-39.062500
8610,-39.062500
8611,-39.062500
8612,-39.062500
8613,-42.968750
8614,-42.968750
8615,-42.968750
8616,-42.968750
8617,-42.968750
8618,-42.968750
8619,-42.968750
8620,-42.968750
8621,-42.968750
8622,-42.968750
8623,-42.968750
8624,-42.968750
8625,-42.968750
8626,-42.968750
8627,-42.968750
8628,-42.968750
8629,-42.968750
8630,-46.875000
8631,-42.968750
8632,-42.968750
8633,-46.875000
8634,-46.875000
8635,-46.875000
8636,-46.875000
8637,-46.875000
8638,-46.875000
8639,-46.875000
8640,-46.875000
8641,-46.875000
8642,-46.875000
8643,-46.875000
8644,-46.875000
8645,-46.875000
8646,-46.875000
8647,-46.875000
8648,-46.875000
8649,-46.875000
8650,-46.875000
8651,-50.781250
8652,-46.875000
8653,-50.781250
8654,-50.781250
8655,-50.781250
8656,-50.781250
8657,-50.781250
8658,-50.781250
8659,-50.781250
8660,-50.781250
8661,-50.781250
8662,-50.781250
8663,-50.781250
8664,-50.781250
8665,-50.781250
8666,-50.781250
8667,-50.781250
8668,-50.781250
8669,-50.781250
8670,-50.781250
8671,-50.781250
8672,-50.781250
8673,-54.687500
8674,-50.781250
8675,-54.687500
8676,-54.687500
8677,-54.687500
8678,-54.687500
8679,-54.687500
8680,-54.687500
8681,-54.687500
8682,-54.687500
8683,-54.687500
8684,-54.687500
8685,-54.687500
8686,-54.687500
8687,-54.687500
8688,-54.687500
8689,-54.687500
8690,-54.687500
8691,-54.687500
8692,-54.687500
8693,-54.687500
8694,-54.687500
8695,-54.687500
8696,-54.687500
8697,-54.687500
8698,-54.687500
8699,-54.687500
8700,-54.687500
8701,-54.687500
8702,-54.687500
8703,-54.687500
8704,-54.687500
8705,-58.593750
8706,-54.687500
8707,-54.687500
8708,-54.687500
8709,-54.687500
8710,-58.593750
8711,-54.687500
8712,-54.687500
8713,-54.687500
8714,-54.687500
8715,-58.593750
8716,-54.687500
8717,-58.593750
8718,-58.593750
8719,-58.593750
8720,-58.593750
8721,-58.593750
8722,-58.593750
8723,-58.593750
8724,-58.593750
8725,-58.593750
8726,-58.593750
8727,-58.593750
8728,-58.593750
8729,-58.593750
8730,-58.593750
8731,-58.593750
8732,-58.593750
8733,-58.593750
8734,-58.593750
8735,-58.593750
8736,-58.593750
8737,-58.593750
8738,-58.593750
8739,-58.593750
8740,-54.687500
8741,-58.593750
8742,-58.593750
8743,-58.593750
8744,-58.593750
8745,-58.593750
8746,-58.593750
8747,-58.593750
8748,-58.593750
8749,-58.593750
8750,-58.593750
8751,-58.593750
8752,-58.593750
8753,-58.593750
8754,-58.593750
8755,-58.593750
8756,-58.593750
8757,-58.593750
8758,-58.593750
8759,-58.593750
8760,-58.593750
8761,-58.593750
8762,-58.593750
8763,-58.593750
8764,-58.593750
8765,-58.593750
8766,-58.593750
8767,-58.593750
8768,-58.593750
8769,-58.593750
8770,-58.593750
8771,-58.593750
8772,-58.593750
8773,-58.593750
8774,-58.593750
8775,-58.593750
8776,-58.593750
8777,-54.687500
8778,-54.687500
8779,-54.687500
8780,-58.593750
8781,-54.687500
8782,-58.593750
8783,-58.593750
8784,-54.687500
8785,-54.687500
8786,-54.687500
8787,-54.687500
8788,-54.687500
8789,-54.687500
8790,-54.687500
8791,-54.687500
8792,-54.687500
8793,-58.593750
8794,-54.687500
8795,-54.687500
8796,-54.687500
8797,-54.687500
8798,-54.687500
8799,-54.687500
8800,-54.687500
8801,-54.687500
8802,-54.687500
8803,-54.687500
8804,-54.687500
8805,-54.687500
8806,-54.687500
8807,-54.687500
8808,-54.687500
8809,-54.687500
8810,-54.687500
8811,-54.687500
8812,-54.687500
8813,-54.687500
8814,-54.687500
8815,-54.687500
8816,-54.687500
8817,-54.687500
8818,-54.687500
8819,-54.687500
8820,-54.687500
8821,-50.781250
8822,-54.687500
8823,-50.781250
8824,-54.687500
8825,-50.781250
8826,-50.781250
8827,-50.781250
8828,-50.781250
8829,-50.781250
8830,-50.781250
8831,-50.781250
8832,-50.781250
8833,-50.781250
8834,-50.781250
8835,-50.781250
8836,-50.781250
8837,-50.781250
8838,-50.781250
8839,-50.781250
8840,-50.781250
8841,-50.781250
8842,-50.781250
8843,-50.781250
8844,-50.781250
8845,-50.781250
8846,-50.781250
8847,-50.781250
8848,-46.875000
8849,-46.875000
8850,-46.875000
8851,-46.875000
8852,-46.875000
8853,-46.875000
8854,-46.875000
8855,-46.875000
8856,-46.875000
8857,-46.875000
8858,-46.875000
8859,-46.875000
8860,-46.875000
8861,-46.875000
8862,-46.875000
8863,-46.875000
8864,-46.875000
8865,-46.875000
8866,-46.875000
8867,-46.875000
8868,-42.968750
8869,-42.968750
8870,-42.968750
8871,-42.968750
8872,-42.968750
8873,-42.968750
8874,-42.968750
8875,-42.968750
8876,-42.968750
8877,-42.968750
8878,-42.968750
8879,-42.968750
8880,-42.968750
8881,-42.968750
8882,-42.968750
8883,-42.968750
8884,-42.968750
8885,-42.968750
8886,-39.062500
8887,-39.062500
8888,-39.062500
8889,-39.062500
8890,-39.062500
8891,-39.062500
8892,-39.062500
8893,-39.062500
8894,-39.062500
8895,-39.062500
8896,-39.062500
8897,-39.062500
8898,-39.062500
8899,-39.062500
8900,-39.062500
8901,-39.062500
8902,-39.062500
8903,-35.156250
8904,-35.156250
8905,-35.156250
8906,-35.156250
8907,-35.156250
8908,-35.156250
8909,-35.156250
8910,-35.156250
8911,-35.156250
8912,-35.156250
8913,-35.156250
8914,-35.156250
8915,-35.156250
8916,-35.156250
8917,-35.156250
8918,-31.250000
8919,-31.250000
8920,-31.250000
8921,-31.250000
8922,-31.250000
8923,-31.250000
8924,-31.250000
8925,-31.250000
8926,-31.250000
8927,-31.250000
8928,-31.250000
8929,-31.250000
8930,-31.250000
8931,-31.250000
8932,-31.250000
8933,-27.343750
8934,-27.343750
8935,-27.343750
8936,-27.343750
8937,-27.343750
8938,-27.343750
8939,-27.343750
8940,-27.343750
8941,-27.343750
8942,-27.343750
8943,-27.343750
8944,-27.343750
8945,-27.343750
8946,-27.343750
8947,-27.343750
8948,-23.437500
8949,-23.437500
8950,-27.343750
8951,-23.437500
8952,-23.437500
8953,-23.437500
8954,-23.437500
8955,-23.437500
8956,-23.437500
8957,-23.437500
8958,-23.437500
8959,-23.437500
8960,-23.437500
8961,-23.437500
8962,-19.531250
8963,-23.437500
8964,-19.531250
8965,-19.531250
8966,-19.531250
8967,-19.531250
8968,-19.531250
8969,-19.531250
8970,-19.531250
8971,-19.531250
8972,-19.531250
8973,-19.531250
8974,-19.531250
8975,-15.625000
8976,-15.625000
8977,-15.625000
8978,-15.625000
8979,-15.625000
8980,-15.625000
8981,-15.625000
8982,-15.625000
8983,-15.625000
8984,-15.625000
8985,-15.625000
8986,-15.625000
8987,-15.625000
8988,-15.625000
8989,-15.625000
8990,-11.718750
8991,-11.718750
8992,-11.718750
8993,-11.718750
8994,-11.718750
8995,-11.718750
8996,-11.718750
8997,-11.718750
8998,-11.718750
8999,-11.718750
9000,-11.718750
9001,-11.718750
9002,-11.718750
9003,-11.718750
9004,-7.812500
9005,-7.812500
9006,-7.812500
9007,-7.812500
9008,-7.812500
9009,-7.812500
9010,-7.812500
9011,-7.812500
9012,-7.812500
9013,-7.812500
9014,-7.812500
9015,-7.812500
9016,-7.812500
9017,-7.812500
9018,-7.812500
9019,-7.812500
9020,-3.906250
9021,-3.906250
9022,-3.906250
9023,-3.906250
9024,-3.906250
9025,-3.906250
9026,-3.906250
9027,-3.906250
9028,-3.906250
9029,-3.906250
9030,-3.906250
9031,-3.906250
9032,-3.906250
9033,-3.906250
9034,0.000000
9035,0.000000
9036,-3.906250
9037,0.000000
9038,0.000000
9039,0.000000
9040,0.000000
9041,0.000000
9042,0.000000
9043,0.000000
9044,0.000000
9045,0.000000
9046,0.000000
9047,0.000000
9048,0.000000
9049,0.000000
9050,0.000000
9051,3.906250
9052,3.906250
9053,3.906250
9054,3.906250
9055,3.906250
9056,3.906250
9057,3.906250
9058,3.906250
9059,3.906250
9060,3.906250
9061,3.906250
9062,3.906250
9063,3.906250
9064,3.906250
9065,7.812500
9066,7.812500
9067,7.812500
9068,7.812500
9069,7.812500
9070,7.812500
9071,7.812500
9072,7.812500
9073,7.812500
9074,7.812500
9075,7.812500
9076,7.812500
9077,7.812500
9078,7.812500
9079,7.812500
9080,7.812500
9081,7.812500
9082,7.812500
9083,11.718750
9084,7.812500
9085,7.812500
9086,11.718750
9087,11.718750
9088,11.718750
9089,11.718750
9090,11.718750
9091,11.718750
9092,11.718750
9093,11.718750
9094,11.718750
9095,11.718750
9096,11.718750
9097,11.718750
9098,11.718750
9099,11.718750
9100,11.718750
9101,11.718750
9102,11.718750
9103,15.625000
9104,15.625000
9105,15.625000
9106,15.625000
9107,15.625000
9108,15.625000
9109,15.625000
9110,15.625000
9111,15.625000
9112,15.625000
9113,15.625000
9114,15.625000
9115,15.625000
9116,15.625000
9117,15.625000
9118,15.625000
9119,15.625000
9120,15.625000
9121,15.625000
9122,19.531250
9123,15.625000
9124,19.531250
9125,15.625000
9126,19.531250
9127,19.531250
9128,19.531250
9129,19.531250
9130,19.531250
9131,19.531250
9132,19.531250
9133,19.531250
9134,19.531250
9135,19.531250
9136,19.531250
9137,19.531250
9138,19.531250
9139,19.531250
9140,19.531250
9141,19.531250
9142,23.437500
9143,19.531250
9144,19.531250
9145,19.531250
9146,23.437500
9147,19.531250
9148,23.437500
9149,23.437500
9150,19.531250
9151,23.437500
9152,23.437500
9153,23.437500
9154,23.437500
9155,19.531250
9156,23.437500
9157,23.437500
9158,23.437500
9159,23.437500
9160,23.437500
9161,23.437500
9162,23.437500
9163,23.437500
9164,23.437500
9165,23.437500
9166,23.437500
9167,23.437500
9168,23.437500
9169,23.437500
9170,23.437500
9171,23.437500
9172,23.437500
9173,23.437500
9174,23.437500
9175,23.437500
9176,23.437500
9177,27.343750
9178,23.437500
9179,27.343750
9180,23.437500
9181,23.437500
9182,23.437500
9183,23.437500
9184,23.437500
9185,27.343750
9186,27.343750
9187,27.343750
9188,27.343750
9189,23.437500
9190,23.437500
9191,27.343750
9192,27.343750
9193,27.343750
9194,27.343750
9195,27.343750
9196,27.343750
9197,27.343750
9198,27.343750
9199,27.343750
9200,27.343750
9201,27.343750
9202,27.343750
9203,27.343750
9204,27.343750
9205,27.343750
9206,27.343750
9207,27.343750
9208,27.343750
9209,27.343750
9210,27.343750
9211,27.343750
9212,27.343750
9213,27.343750
9214,27.343750
9215,27.343750
9216,27.343750
9217,27.343750
9218,27.343750
9219,27.343750
9220,27.343750
9221,27.343750
9222,27.343750
9223,27.343750
9224,27.343750
9225,27.343750
9226,27.343750
9227,27.343750
9228,27.343750
9229,27.343750
9230,27.343750
9231,27.343750
9232,27.343750
9233,27.343750
9234,27.343750
9235,27.343750
9236,27.343750
9237,27.343750
9238,27.343750
9239,27.343750
9240,27.343750
9241,27.343750
9242,27.343750
9243,27.343750
9244,27.343750
9245,27.343750
9246,27.343750
9247,27.343750
9248,27.343750
9249,27.343750
9250,27.343750
9251,27.343750
9252,27.343750
9253,27.343750
9254,27.343750
9255,27.343750
9256,27.343750
9257,27.343750
9258,27.343750
9259,27.343750
9260,27.343750
9261,27.343750
9262,27.343750
9263,27.343750
9264,27.343750
9265,27.343750
9266,27.343750
9267,27.343750
9268,27.343750
9269,27.343750
9270,27.343750
9271,27.343750
9272,27.343750
9273,27.343750
9274,27.343750
9275,27.343750
9276,27.343750
9277,27.343750
9278,27.343750
9279,27.343750
9280,27.343750
9281,27.343750
9282,27.343750
9283,27.343750
9284,27.343750
9285,27.343750
9286,27.343750
9287,27.343750
9288,27.343750
9289,27.343750
9290,27.343750
9291,27.343750
9292,27.343750
9293,27.343750
9294,27.343750
9295,27.343750
9296,27.343750
9297,27.343750
9298,27.343750
9299,27.343750
9300,27.343750
9301,27.343750
9302,27.343750
9303,23.437500
9304,23.437500
9305,23.437500
9306,23.437500
9307,23.437500
9308,23.437500
9309,23.437500
9310,23.437500
9311,23.437500
9312,23.437500
9313,23.437500
9314,23.437500
9315,23.437500
9316,23.437500
9317,23.437500
9318,23.437500
9319,23.437500
9320,23.437500
9321,23.437500
9322,23.437500
9323,23.437500
9324,23.437500
9325,23.437500
9326,23.437500
9327,23.437500
9328,23.437500
9329,23.437500
9330,23.437500
9331,23.437500
9332,23.437500
9333,23.437500
9334,19.531250
9335,23.437500
9336,23.437500
9337,23.437500
9338,23.437500
9339,19.531250
9340,19.531250
9341,19.531250
9342,19.531250
9343,19.531250
9344,19.531250
9345,19.531250
9346,19.531250
9347,19.531250
9348,19.531250
9349,19.531250
9350,19.531250
9351,19.531250
9352,19.531250
9353,19.531250
9354,19.531250
9355,19.531250
9356,19.531250
9357,19.531250
9358,19.531250
9359,19.531250
9360,19.531250
9361,15.625000
9362,15.625000
9363,19.531250
9364,19.531250
9365,15.625000
9366,15.625000
9367,15.625000
9368,15.625000
9369,15.625000
9370,15.625000
9371,15.625000
9372,15.625000
9373,15.625000
9374,15.625000
9375,15.625000
9376,15.625000
9377,15.625000
9378,15.625000
9379,15.625000
9380,15.625000
9381,15.625000
9382,15.625000
9383,15.625000
9384,15.625000
9385,15.625000
9386,11.718750
9387,11.718750
9388,11.718750
9389,11.718750
9390,11.718750
9391,11.718750
9392,11.718750
9393,11.718750
9394,11.718750
9395,11.718750
9396,11.718750
9397,11.718750
9398,11.718750
9399,11.718750
9400,11.718750
9401,11.718750
9402,11.718750
9403,11.718750
9404,7.812500
9405,7.812500
9406,7.812500
9407,7.812500
9408,7.812500
9409,7.812500
9410,7.812500
9411,7.812500
9412,7.812500
9413,7.812500
9414,7.812500
9415,7.812500
9416,7.812500
9417,7.812500
9418,7.812500
9419,7.812500
9420,3.906250
9421,3.906250
9422,7.812500
9423,3.906250
9424,3.906250
9425,3.906250
9426,3.906250
9427,3.906250
9428,3.906250
9429,3.906250
9430,3.906250
9431,3.906250
9432,3.906250
9433,3.906250
9434,3.906250
9435,3.906250
9436,3.906250
9437,0.000000
9438,0.000000
9439,0.000000
9440,0.000000
9441,0.000000
9442,0.000000
9443,0.000000
9444,0.000000
9445,0.000000
9446,0.000000
9447,0.000000
9448,0.000000
9449,0.000000
9450,0.000000
9451,0.000000
9452,0.000000
9453,-3.906250
9454,-3.906250
9455,-3.906250
9456,-3.906250
9457,-3.906250
9458,-3.906250
9459,-3.906250
9460,-3.906250
9461,-3.906250
9462,-3.906250
9463,-3.906250
9464,-3.906250
9465,-3.906250
9466,-7.812500
9467,-3.906250
9468,-7.812500
9469,-7.812500
9470,-7.812500
9471,-7.812500
9472,-7.812500
9473,-7.812500
9474,-7.812500
9475,-7.812500
9476,-7.812500
9477,-7.812500
9478,-7.812500
9479,-7.812500
9480,-7.812500
9481,-7.812500
9482,-11.718750
9483,-11.718750
9484,-11.718750
9485,-11.718750
9486,-11.718750
9487,-11.718750
9488,-11.718750
9489,-11.718750
9490,-11.718750
9491,-11.718750
9492,-11.718750
9493,-15.625000
9494,-11.718750
9495,-11.718750
9496,-11.718750
9497,-15.625000
9498,-15.625000
9499,-15.625000
9500,-15.625000
9501,-15.625000
9502,-15.625000
9503,-15.625000
9504,-15.625000
9505,-15.625000
9506,-15.625000
9507,-15.625000
9508,-15.625000
9509,-15.625000
9510,-15.625000
9511,-15.625000
9512,-15.625000
9513,-15.625000
9514,-19.531250
9515,-19.531250
9516,-19.531250
9517,-19.531250
9518,-19.531250
9519,-19.531250
9520,-19.531250
9521,-19.531250
9522,-19.531250
9523,-19.531250
9524,-19.531250
9525,-19.531250
9526,-23.437500
9527,-23.437500
9528,-23.437500
9529,-23.437500
9530,-23.437500
9531,-23.437500
9532,-23.437500
9533,-23.437500
9534,-23.437500
9535,-23.437500
9536,-23.437500
9537,-23.437500
9538,-23.437500
9539,-23.437500
9540,-27.343750
9541,-27.343750
9542,-27.343750
9543,-27.343750
9544,-27.343750
9545,-27.343750
9546,-27.343750
9547,-27.343750
9548,-27.343750
9549,-27.343750
9550,-27.343750
9551,-27.343750
9552,-27.343750
9553,-27.343750
9554,-31.250000
9555,-27.343750
9556,-27.343750
9557,-31.250000
9558,-31.250000
9559,-31.250000
9560,-31.250000
9561,-31.250000
9562,-31.250000
9563,-31.250000
9564,-31.250000
9565,-31.250000
9566,-31.250000
9567,-31.250000
9568,-31.250000
9569,-35.156250
9570,-35.156250
9571,-35.156250
9572,-35.156250
9573,-35.156250
9574,-35.156250
9575,-35.156250
9576,-35.156250
9577,-35.156250
9578,-35.156250
9579,-35.156250
9580,-35.156250
9581,-35.156250
9582,-35.156250
9583,-39.062500
9584,-39.062500
9585,-35.156250
9586,-39.062500
9587,-39.062500
9588,-39.062500
9589,-39.062500
9590,-39.062500
9591,-39.062500
9592,-39.062500
9593,-39.062500
9594,-39.062500
9595,-39.062500
9596,-39.062500
9597,-39.062500
9598,-39.062500
9599,-42.968750
9600,-42.968750
9601,-39.062500
9602,-39.062500
9603,-42.968750
9604,-42.968750
9605,-42.968750
9606,-42.968750
9607,-42.968750
9608,-42.968750
9609,-42.968750
9610,-42.968750
9611,-42.968750
9612,-42.968750
9613,-42.968750
9614,-42.968750
9615,-42.968750
9616,-42.968750
9617,-42.968750
9618,-42.968750
9619,-46.875000
9620,-42.968750
9621,-46.875000
9622,-46.875000
9623,-46.875000
9624,-46.875000
9625,-46.875000
9626,-46.875000
9627,-46.875000
9628,-46.875000
9629,-46.875000
9630,-46.875000
9631,-46.875000
9632,-46.875000
9633,-46.875000
9634,-46.875000
9635,-46.875000
9636,-46.875000
9637,-46.875000
9638,-46.875000
9639,-46.875000
9640,-46.875000
9641,-46.875000
9642,-50.781250
9643,-50.781250
9644,-50.781250
9645,-50.781250
9646,-50.781250
9647,-50.781250
9648,-50.781250
9649,-50.781250
9650,-50.781250
9651,-50.781250
9652,-50.781250
9653,-50.781250
9654,-50.781250
9655,-50.781250
9656,-50.781250
9657,-50.781250
9658,-50.781250
9659,-50.781250
9660,-50.781250
9661,-50.781250
9662,-50.781250
9663,-50.781250
9664,-50.781250
9665,-54.687500
9666,-54.687500
9667,-54.687500
9668,-54.687500
9669,-54.687500
9670,-54.687500
9671,-54.687500
9672,-54.687500
9673,-54.687500
9674,-54.687500
9675,-54.687500
9676,-54.687500
9677,-54.687500
9678,-54.687500
9679,-54.687500
9680,-54.687500
9681,-54.687500
9682,-54.687500
9683,-54.687500
9684,-54.687500
9685,-54.687500
9686,-54.687500
9687,-54.687500
9688,-54.687500
9689,-54.687500
9690,-54.687500
9691,-54.687500
9692,-54.687500
9693,-54.687500
9694,-54.687500
9695,-54.687500
9696,-54.687500
9697,-58.593750
9698,-54.687500
9699,-54.687500
9700,-58.593750
9701,-54.687500
9702,-58.593750
9703,-58.593750
9704,-58.593750
9705,-58.593750
9706,-58.593750
9707,-58.593750
9708,-58.593750
9709,-58.593750
9710,-58.593750
9711,-58.593750
9712,-58.593750
9713,-58.593750
9714,-58.593750
9715,-58.593750
9716,-58.593750
9717,-58.593750
9718,-58.593750
9719,-58.593750
9720,-58.593750
9721,-58.593750
9722,-58.593750
9723,-58.593750
9724,-58.593750
9725,-58.593750
9726,-58.593750
9727,-58.593750
9728,-58.593750
9729,-58.593750
9730,-58.593750
9731,-58.593750
9732,-58.593750
9733,-58.593750
9734,-58.593750
9735,-58.593750
9736,-58.593750
9737,-58.593750
9738,-58.593750
9739,-58.593750
9740,-58.593750
9741,-58.593750
9742,-58.593750
9743,-58.593750
9744,-58.593750
9745,-58.593750
9746,-58.593750
9747,-58.593750
9748,-58.593750
9749,-58.593750
9750,-58.593750
9751,-58.593750
9752,-58.593750
9753,-58.593750
9754,-58.593750
9755,-58.593750
9756,-58.593750
9757,-58.593750
9758,-58.593750
9759,-58.593750
9760,-58.593750
9761,-58.593750
9762,-58.593750
9763,-58.593750
9764,-58.593750
9765,-58.593750
9766,-58.593750
9767,-58.593750
9768,-58.593750
9769,-54.687500
9770,-54.687500
9771,-58.593750
9772,-58.593750
9773,-58.593750
9774,-58.593750
9775,-58.593750
9776,-54.687500
9777,-54.687500
9778,-54.687500
9779,-54.687500
9780,-54.687500
9781,-54.687500
9782,-54.687500
9783,-54.687500
9784,-54.687500
9785,-54.687500
9786,-54.687500
9787,-54.687500
9788,-54.687500
9789,-54.687500
9790,-54.687500
9791,-54.687500
9792,-54.687500
9793,-54.687500
9794,-54.687500
9795,-54.687500
9796,-54.687500
9797,-54.687500
9798,-54.687500
9799,-54.687500
9800,-54.687500
9801,-54.687500
9802,-54.687500
9803,-54.687500
9804,-54.687500
9805,-54.687500
9806,-54.687500
9807,-54.687500
9808,-54.687500
9809,-54.687500
9810,-54.687500
9811,-54.687500
9812,-50.781250
9813,-50.781250
9814,-50.781250
9815,-50.781250
9816,-50.781250
9817,-50.781250
9818,-50.781250
9819,-50.781250
9820,-50.781250
9821,-50.781250
9822,-50.781250
9823,-50.781250
9824,-50.781250
9825,-50.781250
9826,-50.781250
9827,-50.781250
9828,-50.781250
9829,-50.781250
9830,-50.781250
9831,-50.781250
9832,-50.781250
9833,-50.781250
9834,-50.781250
9835,-50.781250
9836,-50.781250
9837,-50.781250
9838,-46.875000
9839,-46.875000
9840,-46.875000
9841,-50.781250
9842,-46.875000
9843,-46.875000
9844,-46.875000
9845,-46.875000
9846,-46.875000
9847,-46.875000
9848,-46.875000
9849,-46.875000
9850,-46.875000
9851,-46.875000
9852,-46.875000
9853,-46.875000
9854,-46.875000
9855,-46.875000
9856,-46.875000
9857,-42.968750
9858,-42.968750
9859,-46.875000
9860,-46.875000
9861,-46.875000
9862,-42.968750
9863,-42.968750
9864,-42.968750
9865,-42.968750
9866,-42.968750
9867,-42.968750
9868,-42.968750
9869,-42.968750
9870,-42.968750
9871,-42.968750
9872,-39.062500
9873,-42.968750
9874,-39.062500
9875,-39.062500
9876,-39.062500
9877,-39.062500
9878,-39.062500
9879,-39.062500
9880,-39.062500
9881,-39.062500
9882,-39.062500
9883,-39.062500
9884,-39.062500
9885,-39.062500
9886,-39.062500
9887,-39.062500
9888,-39.062500
9889,-39.062500
9890,-39.062500
9891,-39.062500
9892,-35.156250
9893,-35.156250
9894,-35.156250
9895,-35.156250
9896,-35.156250
9897,-35.156250
9898,-35.156250
9899,-35.156250
9900,-35.156250
9901,-35.156250
9902,-35.156250
9903,-31.250000
9904,-35.156250
9905,-35.156250
9906,-35.156250
9907,-35.156250
9908,-31.250000
9909,-31.250000
9910,-31.250000
9911,-31.250000
9912,-31.250000
9913,-31.250000
9914,-31.250000
9915,-31.250000
9916,-31.250000
9917,-31.250000
9918,-31.250000
9919,-31.250000
9920,-31.250000
9921,-31.250000
9922,-31.250000
9923,-27.343750
9924,-27.343750
9925,-27.343750
9926,-27.343750
9927,-27.343750
9928,-27.343750
9929,-27.343750
9930,-27.343750
9931,-27.343750
9932,-27.343750
9933,-27.343750
9934,-27.343750
9935,-27.343750
9936,-27.343750
9937,-27.343750
9938,-23.437500
9939,-23.437500
9940,-23.437500
9941,-23.437500
9942,-23.437500
9943,-23.437500
9944,-23.437500
9945,-23.437500
9946,-23.437500
9947,-23.437500
9948,-23.437500
9949,-23.437500
9950,-23.437500
9951,-23.437500
9952,-19.531250
9953,-19.531250
9954,-19.531250
9955,-19.531250
9956,-19.531250
9957,-19.531250
9958,-19.531250
9959,-19.531250
9960,-19.531250
9961,-19.531250
9962,-19.531250
9963,-19.531250
9964,-19.531250
9965,-19.531250
9966,-19.531250
9967,-15.625000
9968,-15.625000
9969,-19.531250
9970,-15.625000
9971,-15.625000
9972,-15.625000
9973,-15.625000
9974,-15.625000
9975,-15.625000
9976,-15.625000
9977,-15.625000
9978,-15.625000
9979,-15.625000
9980,-15.625000
9981,-11.718750
9982,-11.718750
9983,-11.718750
9984,-11.718750
9985,-11.718750
9986,-11.718750
9987,-11.718750
9988,-11.718750
9989,-11.718750
9990,-11.718750
9991,-11.718750
9992,-11.718750
9993,-11.718750
9994,-11.718750
9995,-11.718750
9996,-11.718750
9997,-7.812500
9998,-7.812500
9999,-7.812500
10000,-7.812500
