Channel              :,CH1
Frequency            :,1.012kHz
Period               :,0.989ms
PK-PK                :,304.7mV
Probe attenuation    :,1X
Voltage per ADC value:,0.244141mV
Time interval        :,1.00000us

index,CH1_Voltage(mV)
1,-74.218750
2,-74.218750
3,-70.312500
4,-70.312500
5,-70.312500
6,-70.312500
7,-66.406250
8,-66.406250
9,-66.406250
10,-66.406250
11,-62.500000
12,-62.500000
13,-62.500000
14,-62.500000
15,-58.593750
16,-58.593750
17,-58.593750
18,-58.593750
19,-54.687500
20,-54.687500
21,-54.687500
22,-54.687500
23,-54.687500
24,-50.781250
25,-50.781250
26,-50.781250
27,-46.875000
28,-46.875000
29,-46.875000
30,-46.875000
31,-42.968750
32,-42.968750
33,-42.968750
34,-42.968750
35,-39.062500
36,-39.062500
37,-39.062500
38,-39.062500
39,-35.156250
40,-35.156250
41,-35.156250
42,-35.156250
43,-35.156250
44,-31.250000
45,-31.250000
46,-31.250000
47,-27.343750
48,-27.343750
49,-27.343750
50,-27.343750
51,-23.437500
52,-23.437500
53,-23.437500
54,-23.437500
55,-23.437500
56,-19.531250
57,-19.531250
58,-19.531250
59,-15.625000
60,-15.625000
61,-15.625000
62,-15.625000
63,-11.718750
64,-11.718750
65,-11.718750
66,-7.812500
67,-7.812500
68,-7.812500
69,-7.812500
70,-7.812500
71,-7.812500
72,-3.906250
73,-3.906250
74,-3.906250
75,0.000000
76,0.000000
77,0.000000
78,0.000000
79,0.000000
80,3.906250
81,3.906250
82,3.906250
83,3.906250
84,7.812500
85,7.812500
86,7.812500
87,7.812500
88,11.718750
89,11.718750
90,11.718750
91,11.718750
92,11.718750
93,15.625000
94,15.625000
95,15.625000
96,15.625000
97,19.531250
98,19.531250
99,19.531250
100,23.437500
101,23.437500
102,23.437500
103,23.437500
104,23.437500
105,27.343750
106,27.343750
107,27.343750
108,27.343750
109,27.343750
110,27.343750
111,31.250000
112,31.250000
113,31.250000
114,35.156250
115,35.156250
116,35.156250
117,35.156250
118,35.156250
119,39.062500
120,39.062500
121,39.062500
122,39.062500
123,39.062500
124,42.968750
125,42.968750
126,42.968750
127,42.968750
128,42.968750
129,46.875000
130,46.875000
131,46.875000
132,46.875000
133,50.781250
134,50.781250
135,50.781250
136,50.781250
137,50.781250
138,54.687500
139,54.687500
140,54.687500
141,54.687500
142,54.687500
143,58.593750
144,58.593750
145,58.593750
146,58.593750
147,58.593750
148,62.500000
149,62.500000
150,62.500000
151,62.500000
152,62.500000
153,62.500000
154,66.406250
155,66.406250
156,66.406250
157,66.406250
158,66.406250
159,66.406250
160,70.312500
161,70.312500
162,70.312500
163,70.312500
164,70.312500
165,74.218750
166,74.218750
167,74.218750
168,74.218750
169,74.218750
170,78.125000
171,78.125000
172,78.125000
173,78.125000
174,78.125000
175,78.125000
176,78.125000
177,82.031250
178,82.031250
179,82.031250
180,82.031250
181,82.031250
182,82.031250
183,85.937500
184,85.937500
185,85.937500
186,85.937500
187,85.937500
188,85.937500
189,85.937500
190,85.937500
191,89.843750
192,89.843750
193,89.843750
194,89.843750
195,93.750000
196,89.843750
197,93.750000
198,93.750000
199,93.750000
200,93.750000
201,93.750000
202,93.750000
203,93.750000
204,97.656250
205,97.656250
206,97.656250
207,97.656250
208,97.656250
209,97.656250
210,97.656250
211,101.562500
212,101.562500
213,101.562500
214,101.562500
215,101.562500
216,101.562500
217,101.562500
218,101.562500
219,101.562500
220,105.468750
221,105.468750
222,105.468750
223,105.468750
224,105.468750
225,105.468750
226,105.468750
227,105.468750
228,109.375000
229,109.375000
230,109.375000
231,109.375000
232,109.375000
233,109.375000
234,109.375000
235,113.281250
236,109.375000
237,109.375000
238,113.281250
239,113.281250
240,113.281250
241,113.281250
242,113.281250
243,113.281250
244,113.281250
245,113.281250
246,113.281250
247,113.281250
248,113.281250
249,113.281250
250,113.281250
251,113.281250
252,117.187500
253,117.187500
254,117.187500
255,117.187500
256,117.187500
257,117.187500
258,117.187500
259,117.187500
260,117.187500
261,117.187500
262,117.187500
263,117.187500
264,121.093750
265,121.093750
266,121.093750
267,121.093750
268,121.093750
269,121.093750
270,121.093750
271,121.093750
272,121.093750
273,121.093750
274,121.093750
275,121.093750
276,121.093750
277,121.093750
278,121.093750
279,121.093750
280,121.093750
281,121.093750
282,121.093750
283,125.000000
284,125.000000
285,121.093750
286,125.000000
287,121.093750
288,125.000000
289,125.000000
290,125.000000
291,125.000000
292,125.000000
293,125.000000
294,125.000000
295,125.000000
296,125.000000
297,125.000000
298,125.000000
299,125.000000
300,125.000000
301,125.000000
302,125.000000
303,125.000000
304,125.000000
305,125.000000
306,125.000000
307,125.000000
308,125.000000
309,125.000000
310,125.000000
311,125.000000
312,125.000000
313,125.000000
314,125.000000
315,125.000000
316,125.000000
317,125.000000
318,125.000000
319,125.000000
320,125.000000
321,125.000000
322,125.000000
323,125.000000
324,125.000000
325,125.000000
326,125.000000
327,125.000000
328,125.000000
329,125.000000
330,125.000000
331,125.000000
332,125.000000
333,125.000000
334,125.000000
335,125.000000
336,125.000000
337,125.000000
338,125.000000
339,125.000000
340,125.000000
341,125.000000
342,125.000000
343,125.000000
344,125.000000
345,125.000000
346,125.000000
347,125.000000
348,125.000000
349,125.000000
350,125.000000
351,125.000000
352,125.000000
353,125.000000
354,125.000000
355,121.093750
356,121.093750
357,121.093750
358,121.093750
359,121.093750
360,125.000000
361,121.093750
362,121.093750
363,121.093750
364,121.093750
365,121.093750
366,121.093750
367,121.093750
368,121.093750
369,121.093750
370,121.093750
371,121.093750
372,121.093750
373,121.093750
374,117.187500
375,117.187500
376,117.187500
377,117.187500
378,117.187500
379,117.187500
380,117.187500
381,117.187500
382,117.187500
383,117.187500
384,117.187500
385,117.187500
386,117.187500
387,117.187500
388,113.281250
389,113.281250
390,113.281250
391,113.281250
392,113.281250
393,113.281250
394,113.281250
395,113.281250
396,113.281250
397,113.281250
398,113.281250
399,113.281250
400,113.281250
401,109.375000
402,109.375000
403,109.375000
404,109.375000
405,109.375000
406,109.375000
407,105.468750
408,109.375000
409,105.468750
410,105.468750
411,105.468750
412,105.468750
413,105.468750
414,105.468750
415,105.468750
416,101.562500
417,101.562500
418,105.468750
419,101.562500
420,101.562500
421,101.562500
422,101.562500
423,101.562500
424,97.656250
425,97.656250
426,97.656250
427,97.656250
428,97.656250
429,97.656250
430,97.656250
431,97.656250
432,97.656250
433,97.656250
434,93.750000
435,93.750000
436,93.750000
437,93.750000
438,93.750000
439,93.750000
440,89.843750
441,89.843750
442,89.843750
443,89.843750
444,89.843750
445,89.843750
446,89.843750
447,85.937500
448,85.937500
449,85.937500
450,85.937500
451,85.937500
452,85.937500
453,85.937500
454,82.031250
455,82.031250
456,82.031250
457,82.031250
458,82.031250
459,82.031250
460,78.125000
461,78.125000
462,78.125000
463,78.125000
464,78.125000
465,74.218750
466,74.218750
467,74.218750
468,74.218750
469,74.218750
470,74.218750
471,74.218750
472,70.312500
473,70.312500
474,70.312500
475,70.312500
476,70.312500
477,66.406250
478,66.406250
479,66.406250
480,66.406250
481,62.500000
482,62.500000
483,62.500000
484,62.500000
485,62.500000
486,62.500000
487,62.500000
488,58.593750
489,58.593750
490,58.593750
491,54.687500
492,54.687500
493,54.687500
494,54.687500
495,54.687500
496,54.687500
497,54.687500
498,50.781250
499,50.781250
500,50.781250
501,46.875000
502,46.875000
503,46.875000
504,46.875000
505,46.875000
506,42.968750
507,42.968750
508,42.968750
509,42.968750
510,42.968750
511,39.062500
512,39.062500
513,39.062500
514,39.062500
515,35.156250
516,35.156250
517,35.156250
518,35.156250
519,35.156250
520,35.156250
521,31.250000
522,31.250000
523,31.250000
524,27.343750
525,27.343750
526,27.343750
527,27.343750
528,23.437500
529,23.437500
530,23.437500
531,23.437500
532,23.437500
533,19.531250
534,19.531250
535,19.531250
536,15.625000
537,15.625000
538,15.625000
539,15.625000
540,15.625000
541,11.718750
542,11.718750
543,11.718750
544,11.718750
545,11.718750
546,7.812500
547,7.812500
548,7.812500
549,3.906250
550,3.906250
551,3.906250
552,3.906250
553,3.906250
554,0.000000
555,0.000000
556,0.000000
557,0.000000
558,-3.906250
559,-3.906250
560,-3.906250
561,-7.812500
562,-7.812500
563,-7.812500
564,-7.812500
565,-7.812500
566,-11.718750
567,-11.718750
568,-11.718750
569,-11.718750
570,-15.625000
571,-15.625000
572,-15.625000
573,-19.531250
574,-19.531250
575,-19.531250
576,-19.531250
577,-19.531250
578,-23.437500
579,-23.437500
580,-23.437500
581,-27.343750
582,-27.343750
583,-27.343750
584,-27.343750
585,-27.343750
586,-31.250000
587,-31.250000
588,-31.250000
589,-31.250000
590,-35.156250
591,-35.156250
592,-35.156250
593,-39.062500
594,-39.062500
595,-39.062500
596,-39.062500
597,-42.968750
598,-42.968750
599,-42.968750
600,-42.968750
601,-46.875000
602,-46.875000
603,-46.875000
604,-46.875000
605,-46.875000
606,-50.781250
607,-50.781250
608,-50.781250
609,-54.687500
610,-54.687500
611,-54.687500
612,-54.687500
613,-58.593750
614,-58.593750
615,-58.593750
616,-58.593750
617,-62.500000
618,-62.500000
619,-62.500000
620,-62.500000
621,-66.406250
622,-66.406250
623,-66.406250
624,-66.406250
625,-66.406250
626,-70.312500
627,-70.312500
628,-70.312500
629,-74.218750
630,-74.218750
631,-74.218750
632,-74.218750
633,-78.125000
634,-78.125000
635,-78.125000
636,-78.125000
637,-82.031250
638,-82.031250
639,-82.031250
640,-85.937500
641,-85.937500
642,-85.937500
643,-85.937500
644,-85.937500
645,-85.937500
646,-85.937500
647,-89.843750
648,-89.843750
649,-89.843750
650,-93.750000
651,-93.750000
652,-93.750000
653,-93.750000
654,-97.656250
655,-97.656250
656,-97.656250
657,-97.656250
658,-97.656250
659,-101.562500
660,-101.562500
661,-101.562500
662,-101.562500
663,-105.468750
664,-105.468750
665,-105.468750
666,-105.468750
667,-109.375000
668,-109.375000
669,-109.375000
670,-109.375000
671,-109.375000
672,-109.375000
673,-113.281250
674,-113.281250
675,-113.281250
676,-113.281250
677,-113.281250
678,-117.187500
679,-117.187500
680,-117.187500
681,-117.187500
682,-121.093750
683,-121.093750
684,-121.093750
685,-121.093750
686,-121.093750
687,-121.093750
688,-125.000000
689,-125.000000
690,-125.000000
691,-125.000000
692,-128.906250
693,-125.000000
694,-128.906250
695,-128.906250
696,-128.906250
697,-128.906250
698,-132.812500
699,-132.812500
700,-132.812500
701,-132.812500
702,-132.812500
703,-132.812500
704,-136.718750
705,-136.718750
706,-136.718750
707,-136.718750
708,-136.718750
709,-140.625000
710,-140.625000
711,-140.625000
712,-140.625000
713,-140.625000
714,-140.625000
715,-140.625000
716,-144.531250
717,-144.531250
718,-144.531250
719,-144.531250
720,-144.531250
721,-144.531250
722,-148.437500
723,-148.437500
724,-148.437500
725,-148.437500
726,-148.437500
727,-148.437500
728,-148.437500
729,-152.343750
730,-152.343750
731,-152.343750
732,-152.343750
733,-152.343750
734,-152.343750
735,-152.343750
736,-152.343750
737,-156.250000
738,-156.250000
739,-156.250000
740,-156.250000
741,-156.250000
742,-156.250000
743,-156.250000
744,-156.250000
745,-156.250000
746,-160.156250
747,-160.156250
748,-160.156250
749,-160.156250
750,-160.156250
751,-160.156250
752,-160.156250
753,-160.156250
754,-164.062500
755,-164.062500
756,-164.062500
757,-164.062500
758,-164.062500
759,-164.062500
760,-164.062500
761,-164.062500
762,-164.062500
763,-164.062500
764,-164.062500
765,-164.062500
766,-167.968750
767,-167.968750
768,-167.968750
769,-167.968750
770,-167.968750
771,-167.968750
772,-167.968750
773,-167.968750
774,-167.968750
775,-167.968750
776,-167.968750
777,-167.968750
778,-167.968750
779,-167.968750
780,-171.875000
781,-171.875000
782,-171.875000
783,-171.875000
784,-171.875000
785,-171.875000
786,-171.875000
787,-171.875000
788,-171.875000
789,-171.875000
790,-171.875000
791,-171.875000
792,-171.875000
793,-171.875000
794,-171.875000
795,-171.875000
796,-171.875000
797,-171.875000
798,-171.875000
799,-171.875000
800,-171.875000
801,-171.875000
802,-171.875000
803,-171.875000
804,-171.875000
805,-171.875000
806,-171.875000
807,-175.781250
808,-175.781250
809,-175.781250
810,-171.875000
811,-171.875000
812,-171.875000
813,-171.875000
814,-171.875000
815,-171.875000
816,-171.875000
817,-171.875000
818,-171.875000
819,-171.875000
820,-171.875000
821,-171.875000
822,-171.875000
823,-171.875000
824,-171.875000
825,-171.875000
826,-171.875000
827,-171.875000
828,-171.875000
829,-171.875000
830,-171.875000
831,-171.875000
832,-171.875000
833,-171.875000
834,-171.875000
835,-171.875000
836,-171.875000
837,-171.875000
838,-171.875000
839,-171.875000
840,-167.968750
841,-167.968750
842,-167.968750
843,-167.968750
844,-167.968750
845,-167.968750
846,-171.875000
847,-167.968750
848,-167.968750
849,-167.968750
850,-167.968750
851,-167.968750
852,-167.968750
853,-167.968750
854,-167.968750
855,-167.968750
856,-164.062500
857,-164.062500
858,-164.062500
859,-164.062500
860,-164.062500
861,-164.062500
862,-164.062500
863,-164.062500
864,-164.062500
865,-164.062500
866,-164.062500
867,-164.062500
868,-160.156250
869,-160.156250
870,-160.156250
871,-160.156250
872,-160.156250
873,-160.156250
874,-160.156250
875,-160.156250
876,-156.250000
877,-156.250000
878,-156.250000
879,-156.250000
880,-156.250000
881,-156.250000
882,-156.250000
883,-156.250000
884,-156.250000
885,-156.250000
886,-152.343750
887,-152.343750
888,-152.343750
889,-152.343750
890,-152.343750
891,-148.437500
892,-148.437500
893,-148.437500
894,-148.437500
895,-148.437500
896,-148.437500
897,-148.437500
898,-148.437500
899,-144.531250
900,-144.531250
901,-144.531250
902,-144.531250
903,-144.531250
904,-144.531250
905,-144.531250
906,-140.625000
907,-140.625000
908,-140.625000
909,-140.625000
910,-140.625000
911,-140.625000
912,-136.718750
913,-136.718750
914,-136.718750
915,-136.718750
916,-136.718750
917,-136.718750
918,-132.812500
919,-132.812500
920,-132.812500
921,-132.812500
922,-132.812500
923,-132.812500
924,-132.812500
925,-128.906250
926,-128.906250
927,-128.906250
928,-125.000000
929,-125.000000
930,-125.000000
931,-125.000000
932,-125.000000
933,-125.000000
934,-125.000000
935,-121.093750
936,-121.093750
937,-121.093750
938,-121.093750
939,-117.187500
940,-117.187500
941,-117.187500
942,-117.187500
943,-117.187500
944,-117.187500
945,-113.281250
946,-113.281250
947,-113.281250
948,-113.281250
949,-109.375000
950,-109.375000
951,-109.375000
952,-109.375000
953,-109.375000
954,-109.375000
955,-105.468750
956,-105.468750
957,-105.468750
958,-101.562500
959,-101.562500
960,-101.562500
961,-101.562500
962,-101.562500
963,-101.562500
964,-97.656250
965,-97.656250
966,-93.750000
967,-93.750000
968,-93.750000
969,-93.750000
970,-93.750000
971,-93.750000
972,-89.843750
973,-89.843750
974,-89.843750
975,-85.937500
976,-85.937500
977,-85.937500
978,-85.937500
979,-85.937500
980,-85.937500
981,-82.031250
982,-82.031250
983,-82.031250
984,-82.031250
985,-78.125000
986,-78.125000
987,-78.125000
988,-78.125000
989,-74.218750
990,-74.218750
991,-74.218750
992,-74.218750
993,-70.312500
994,-70.312500
995,-70.312500
996,-70.312500
997,-66.406250
998,-66.406250
999,-66.406250
1000,-66.406250
1001,-62.500000
1002,-62.500000
1003,-62.500000
1004,-62.500000
1005,-58.593750
1006,-58.593750
1007,-58.593750
1008,-58.593750
1009,-54.687500
1010,-54.687500
1011,-54.687500
1012,-54.687500
1013,-50.781250
1014,-50.781250
1015,-50.781250
1016,-50.781250
1017,-46.875000
1018,-46.875000
1019,-46.875000
1020,-46.875000
1021,-42.968750
1022,-42.968750
1023,-42.968750
1024,-42.968750
1025,-39.062500
1026,-39.062500
1027,-39.062500
1028,-39.062500
1029,-39.062500
1030,-35.156250
1031,-35.156250
1032,-35.156250
1033,-31.250000
1034,-31.250000
1035,-31.250000
1036,-31.250000
1037,-27.343750
1038,-27.343750
1039,-27.343750
1040,-27.343750
1041,-23.437500
1042,-23.437500
1043,-23.437500
1044,-23.437500
1045,-23.437500
1046,-19.531250
1047,-19.531250
1048,-19.531250
1049,-19.531250
1050,-15.625000
1051,-15.625000
1052,-15.625000
1053,-15.625000
1054,-11.718750
1055,-11.718750
1056,-7.812500
1057,-11.718750
1058,-7.812500
1059,-7.812500
1060,-7.812500
1061,-3.906250
1062,-3.906250
1063,-3.906250
1064,-3.906250
1065,0.000000
1066,0.000000
1067,0.000000
1068,0.000000
1069,0.000000
1070,3.906250
1071,3.906250
1072,3.906250
1073,3.906250
1074,7.812500
1075,7.812500
1076,7.812500
1077,7.812500
1078,11.718750
1079,11.718750
1080,11.718750
1081,11.718750
1082,15.625000
1083,15.625000
1084,15.625000
1085,15.625000
1086,19.531250
1087,19.531250
1088,19.531250
1089,19.531250
1090,19.531250
1091,23.437500
1092,23.437500
1093,23.437500
1094,23.437500
1095,27.343750
1096,27.343750
1097,27.343750
1098,27.343750
1099,27.343750
1100,31.250000
1101,31.250000
1102,31.250000
1103,31.250000
1104,35.156250
1105,35.156250
1106,35.156250
1107,35.156250
1108,35.156250
1109,39.062500
1110,39.062500
1111,39.062500
1112,39.062500
1113,42.968750
1114,42.968750
1115,42.968750
1116,42.968750
1117,42.968750
1118,46.875000
1119,46.875000
1120,46.875000
1121,46.875000
1122,50.781250
1123,50.781250
1124,50.781250
1125,50.781250
1126,50.781250
1127,50.781250
1128,54.687500
1129,54.687500
1130,54.687500
1131,54.687500
1132,58.593750
1133,58.593750
1134,58.593750
1135,58.593750
1136,58.593750
1137,58.593750
1138,62.500000
1139,62.500000
1140,62.500000
1141,62.500000
1142,62.500000
1143,66.406250
1144,66.406250
1145,66.406250
1146,66.406250
1147,66.406250
1148,70.312500
1149,70.312500
1150,70.312500
1151,70.312500
1152,70.312500
1153,70.312500
1154,74.218750
1155,74.218750
1156,74.218750
1157,74.218750
1158,74.218750
1159,78.125000
1160,78.125000
1161,78.125000
1162,78.125000
1163,78.125000
1164,78.125000
1165,78.125000
1166,78.125000
1167,82.031250
1168,82.031250
1169,82.031250
1170,82.031250
1171,82.031250
1172,85.937500
1173,85.937500
1174,85.937500
1175,85.937500
1176,85.937500
1177,85.937500
1178,89.843750
1179,89.843750
1180,89.843750
1181,89.843750
1182,89.843750
1183,89.843750
1184,89.843750
1185,89.843750
1186,93.750000
1187,93.750000
1188,93.750000
1189,93.750000
1190,93.750000
1191,93.750000
1192,93.750000
1193,97.656250
1194,97.656250
1195,97.656250
1196,97.656250
1197,97.656250
1198,97.656250
1199,101.562500
1200,101.562500
1201,101.562500
1202,101.562500
1203,101.562500
1204,101.562500
1205,101.562500
1206,101.562500
1207,101.562500
1208,105.468750
1209,105.468750
1210,105.468750
1211,105.468750
1212,105.468750
1213,105.468750
1214,105.468750
1215,105.468750
1216,109.375000
1217,105.468750
1218,109.375000
1219,109.375000
1220,109.375000
1221,109.375000
1222,109.375000
1223,109.375000
1224,109.375000
1225,109.375000
1226,109.375000
1227,113.281250
1228,113.281250
1229,113.281250
1230,113.281250
1231,113.281250
1232,113.281250
1233,113.281250
1234,113.281250
1235,113.281250
1236,113.281250
1237,117.187500
1238,117.187500
1239,113.281250
1240,117.187500
1241,113.281250
1242,117.187500
1243,117.187500
1244,117.187500
1245,117.187500
1246,117.187500
1247,117.187500
1248,117.187500
1249,117.187500
1250,117.187500
1251,117.187500
1252,121.093750
1253,121.093750
1254,121.093750
1255,121.093750
1256,121.093750
1257,121.093750
1258,121.093750
1259,121.093750
1260,121.093750
1261,121.093750
1262,121.093750
1263,121.093750
1264,121.093750
1265,121.093750
1266,121.093750
1267,121.093750
1268,125.000000
1269,121.093750
1270,121.093750
1271,121.093750
1272,125.000000
1273,125.000000
1274,125.000000
1275,125.000000
1276,125.000000
1277,125.000000
1278,125.000000
1279,125.000000
1280,125.000000
1281,125.000000
1282,125.000000
1283,125.000000
1284,125.000000
1285,125.000000
1286,125.000000
1287,125.000000
1288,125.000000
1289,125.000000
1290,125.000000
1291,125.000000
1292,125.000000
1293,125.000000
1294,125.000000
1295,125.000000
1296,125.000000
1297,125.000000
1298,125.000000
1299,125.000000
1300,125.000000
1301,125.000000
1302,125.000000
1303,125.000000
1304,125.000000
1305,125.000000
1306,125.000000
1307,125.000000
1308,125.000000
1309,125.000000
1310,125.000000
1311,125.000000
1312,125.000000
1313,125.000000
1314,128.906250
1315,125.000000
1316,125.000000
1317,125.000000
1318,125.000000
1319,125.000000
1320,125.000000
1321,125.000000
1322,125.000000
1323,125.000000
1324,125.000000
1325,125.000000
1326,125.000000
1327,125.000000
1328,125.000000
1329,125.000000
1330,125.000000
1331,125.000000
1332,125.000000
1333,125.000000
1334,125.000000
1335,125.000000
1336,125.000000
1337,125.000000
1338,125.000000
1339,125.000000
1340,125.000000
1341,125.000000
1342,121.093750
1343,125.000000
1344,125.000000
1345,121.093750
1346,121.093750
1347,121.093750
1348,121.093750
1349,121.093750
1350,121.093750
1351,121.093750
1352,121.093750
1353,121.093750
1354,121.093750
1355,121.093750
1356,121.093750
1357,121.093750
1358,121.093750
1359,121.093750
1360,121.093750
1361,121.093750
1362,121.093750
1363,121.093750
1364,121.093750
1365,117.187500
1366,117.187500
1367,117.187500
1368,117.187500
1369,117.187500
1370,117.187500
1371,117.187500
1372,117.187500
1373,117.187500
1374,117.187500
1375,117.187500
1376,117.187500
1377,113.281250
1378,113.281250
1379,113.281250
1380,113.281250
1381,113.281250
1382,113.281250
1383,113.281250
1384,113.281250
1385,113.281250
1386,113.281250
1387,113.281250
1388,113.281250
1389,113.281250
1390,113.281250
1391,109.375000
1392,109.375000
1393,109.375000
1394,109.375000
1395,109.375000
1396,109.375000
1397,105.468750
1398,105.468750
1399,109.375000
1400,105.468750
1401,105.468750
1402,105.468750
1403,105.468750
1404,105.468750
1405,105.468750
1406,105.468750
1407,105.468750
1408,101.562500
1409,101.562500
1410,101.562500
1411,101.562500
1412,101.562500
1413,101.562500
1414,101.562500
1415,97.656250
1416,97.656250
1417,97.656250
1418,97.656250
1419,97.656250
1420,97.656250
1421,97.656250
1422,97.656250
1423,93.750000
1424,93.750000
1425,93.750000
1426,93.750000
1427,93.750000
1428,93.750000
1429,93.750000
1430,93.750000
1431,89.843750
1432,89.843750
1433,89.843750
1434,89.843750
1435,85.937500
1436,85.937500
1437,85.937500
1438,85.937500
1439,85.937500
1440,85.937500
1441,85.937500
1442,85.937500
1443,82.031250
1444,82.031250
1445,82.031250
1446,82.031250
1447,82.031250
1448,82.031250
1449,78.125000
1450,78.125000
1451,78.125000
1452,78.125000
1453,78.125000
1454,74.218750
1455,74.218750
1456,74.218750
1457,74.218750
1458,74.218750
1459,74.218750
1460,70.312500
1461,70.312500
1462,70.312500
1463,70.312500
1464,70.312500
1465,70.312500
1466,66.406250
1467,66.406250
1468,66.406250
1469,66.406250
1470,66.406250
1471,66.406250
1472,62.500000
1473,62.500000
1474,62.500000
1475,62.500000
1476,62.500000
1477,58.593750
1478,58.593750
1479,58.593750
1480,58.593750
1481,58.593750
1482,54.687500
1483,54.687500
1484,54.687500
1485,54.687500
1486,54.687500
1487,50.781250
1488,50.781250
1489,50.781250
1490,50.781250
1491,46.875000
1492,46.875000
1493,46.875000
1494,46.875000
1495,46.875000
1496,46.875000
1497,42.968750
1498,42.968750
1499,42.968750
1500,42.968750
1501,39.062500
1502,39.062500
1503,39.062500
1504,39.062500
1505,39.062500
1506,35.156250
1507,35.156250
1508,35.156250
1509,31.250000
1510,31.250000
1511,31.250000
1512,31.250000
1513,27.343750
1514,27.343750
1515,27.343750
1516,27.343750
1517,27.343750
1518,27.343750
1519,23.437500
1520,23.437500
1521,23.437500
1522,19.531250
1523,19.531250
1524,19.531250
1525,19.531250
1526,19.531250
1527,15.625000
1528,15.625000
1529,15.625000
1530,15.625000
1531,11.718750
1532,11.718750
1533,11.718750
1534,11.718750
1535,7.812500
1536,7.812500
1537,7.812500
1538,7.812500
1539,3.906250
1540,3.906250
1541,3.906250
1542,3.906250
1543,0.000000
1544,0.000000
1545,0.000000
1546,0.000000
1547,-3.906250
1548,-3.906250
1549,-3.906250
1550,-3.906250
1551,-7.812500
1552,-7.812500
1553,-7.812500
1554,-7.812500
1555,-11.718750
1556,-11.718750
1557,-11.718750
1558,-15.625000
1559,-15.625000
1560,-15.625000
1561,-15.625000
1562,-15.625000
1563,-19.531250
1564,-19.531250
1565,-19.531250
1566,-19.531250
1567,-23.437500
1568,-23.437500
1569,-23.437500
1570,-23.437500
1571,-27.343750
1572,-27.343750
1573,-27.343750
1574,-27.343750
1575,-31.250000
1576,-31.250000
1577,-31.250000
1578,-31.250000
1579,-35.156250
1580,-35.156250
1581,-35.156250
1582,-39.062500
1583,-39.062500
1584,-39.062500
1585,-39.062500
1586,-39.062500
1587,-42.968750
1588,-42.968750
1589,-42.968750
1590,-46.875000
1591,-46.875000
1592,-46.875000
1593,-46.875000
1594,-46.875000
1595,-50.781250
1596,-50.781250
1597,-50.781250
1598,-54.687500
1599,-54.687500
1600,-54.687500
1601,-54.687500
1602,-54.687500
1603,-58.593750
1604,-58.593750
1605,-58.593750
1606,-58.593750
1607,-62.500000
1608,-62.500000
1609,-62.500000
1610,-62.500000
1611,-66.406250
1612,-66.406250
1613,-66.406250
1614,-66.406250
1615,-66.406250
1616,-70.312500
1617,-70.312500
1618,-74.218750
1619,-74.218750
1620,-74.218750
1621,-74.218750
1622,-74.218750
1623,-74.218750
1624,-78.125000
1625,-78.125000
1626,-78.125000
1627,-82.031250
1628,-82.031250
1629,-82.031250
1630,-82.031250
1631,-85.937500
1632,-85.937500
1633,-85.937500
1634,-85.937500
1635,-85.937500
1636,-89.843750
1637,-89.843750
1638,-89.843750
1639,-93.750000
1640,-93.750000
1641,-93.750000
1642,-93.750000
1643,-93.750000
1644,-93.750000
1645,-97.656250
1646,-97.656250
1647,-97.656250
1648,-97.656250
1649,-101.562500
1650,-101.562500
1651,-101.562500
1652,-101.562500
1653,-105.468750
1654,-105.468750
1655,-105.468750
1656,-105.468750
1657,-109.375000
1658,-109.375000
1659,-109.375000
1660,-109.375000
1661,-109.375000
1662,-109.375000
1663,-113.281250
1664,-113.281250
1665,-113.281250
1666,-113.281250
1667,-117.187500
1668,-117.187500
1669,-117.187500
1670,-117.187500
1671,-117.187500
1672,-121.093750
1673,-121.093750
1674,-121.093750
1675,-121.093750
1676,-121.093750
1677,-125.000000
1678,-125.000000
1679,-125.000000
1680,-125.000000
1681,-125.000000
1682,-125.000000
1683,-128.906250
1684,-128.906250
1685,-128.906250
1686,-128.906250
1687,-132.812500
1688,-132.812500
1689,-132.812500
1690,-132.812500
1691,-132.812500
1692,-132.812500
1693,-132.812500
1694,-136.718750
1695,-136.718750
1696,-136.718750
1697,-136.718750
1698,-136.718750
1699,-140.625000
1700,-140.625000
1701,-140.625000
1702,-140.625000
1703,-140.625000
1704,-140.625000
1705,-144.531250
1706,-144.531250
1707,-144.531250
1708,-144.531250
1709,-144.531250
1710,-144.531250
1711,-144.531250
1712,-148.437500
1713,-148.437500
1714,-148.437500
1715,-148.437500
1716,-148.437500
1717,-148.437500
1718,-148.437500
1719,-152.343750
1720,-152.343750
1721,-152.343750
1722,-152.343750
1723,-152.343750
1724,-156.250000
1725,-156.250000
1726,-156.250000
1727,-156.250000
1728,-156.250000
1729,-156.250000
1730,-156.250000
1731,-156.250000
1732,-156.250000
1733,-156.250000
1734,-156.250000
1735,-160.156250
1736,-160.156250
1737,-160.156250
1738,-160.156250
1739,-160.156250
1740,-160.156250
1741,-160.156250
1742,-160.156250
1743,-160.156250
1744,-164.062500
1745,-164.062500
1746,-164.062500
1747,-164.062500
1748,-164.062500
1749,-164.062500
1750,-164.062500
1751,-164.062500
1752,-164.062500
1753,-164.062500
1754,-164.062500
1755,-167.968750
1756,-167.968750
1757,-167.968750
1758,-167.968750
1759,-167.968750
1760,-167.968750
1761,-167.968750
1762,-167.968750
1763,-167.968750
1764,-167.968750
1765,-167.968750
1766,-167.968750
1767,-167.968750
1768,-167.968750
1769,-167.968750
1770,-167.968750
1771,-167.968750
1772,-171.875000
1773,-171.875000
1774,-171.875000
1775,-171.875000
1776,-171.875000
1777,-171.875000
1778,-171.875000
1779,-171.875000
1780,-171.875000
1781,-171.875000
1782,-171.875000
1783,-171.875000
1784,-171.875000
1785,-171.875000
1786,-171.875000
1787,-171.875000
1788,-171.875000
1789,-171.875000
1790,-171.875000
1791,-171.875000
1792,-171.875000
1793,-171.875000
1794,-171.875000
1795,-175.781250
1796,-171.875000
1797,-171.875000
1798,-171.875000
1799,-171.875000
1800,-171.875000
1801,-171.875000
1802,-171.875000
1803,-171.875000
1804,-171.875000
1805,-171.875000
1806,-171.875000
1807,-171.875000
1808,-171.875000
1809,-171.875000
1810,-171.875000
1811,-171.875000
1812,-171.875000
1813,-171.875000
1814,-171.875000
1815,-171.875000
1816,-171.875000
1817,-171.875000
1818,-171.875000
1819,-171.875000
1820,-171.875000
1821,-171.875000
1822,-171.875000
1823,-171.875000
1824,-171.875000
1825,-171.875000
1826,-171.875000
1827,-171.875000
1828,-171.875000
1829,-171.875000
1830,-167.968750
1831,-171.875000
1832,-167.968750
1833,-171.875000
1834,-167.968750
1835,-167.968750
1836,-167.968750
1837,-167.968750
1838,-167.968750
1839,-167.968750
1840,-167.968750
1841,-167.968750
1842,-167.968750
1843,-167.968750
1844,-167.968750
1845,-164.062500
1846,-167.968750
1847,-164.062500
1848,-164.062500
1849,-164.062500
1850,-164.062500
1851,-164.062500
1852,-164.062500
1853,-164.062500
1854,-164.062500
1855,-164.062500
1856,-160.156250
1857,-160.156250
1858,-160.156250
1859,-160.156250
1860,-160.156250
1861,-160.156250
1862,-160.156250
1863,-160.156250
1864,-160.156250
1865,-160.156250
1866,-156.250000
1867,-156.250000
1868,-156.250000
1869,-156.250000
1870,-156.250000
1871,-156.250000
1872,-156.250000
1873,-156.250000
1874,-156.250000
1875,-152.343750
1876,-152.343750
1877,-152.343750
1878,-152.343750
1879,-152.343750
1880,-152.343750
1881,-152.343750
1882,-152.343750
1883,-148.437500
1884,-148.437500
1885,-148.437500
1886,-148.437500
1887,-148.437500
1888,-144.531250
1889,-148.437500
1890,-144.531250
1891,-144.531250
1892,-144.531250
1893,-144.531250
1894,-144.531250
1895,-140.625000
1896,-140.625000
1897,-140.625000
1898,-140.625000
1899,-140.625000
1900,-140.625000
1901,-140.625000
1902,-136.718750
1903,-136.718750
1904,-136.718750
1905,-136.718750
1906,-136.718750
1907,-136.718750
1908,-136.718750
1909,-132.812500
1910,-132.812500
1911,-132.812500
1912,-132.812500
1913,-128.906250
1914,-128.906250
1915,-128.906250
1916,-128.906250
1917,-128.906250
1918,-125.000000
1919,-125.000000
1920,-125.000000
1921,-125.000000
1922,-125.000000
1923,-125.000000
1924,-121.093750
1925,-121.093750
1926,-121.093750
1927,-121.093750
1928,-121.093750
1929,-121.093750
1930,-117.187500
1931,-117.187500
1932,-117.187500
1933,-117.187500
1934,-113.281250
1935,-113.281250
1936,-113.281250
1937,-113.281250
1938,-113.281250
1939,-113.281250
1940,-109.375000
1941,-109.375000
1942,-109.375000
1943,-105.468750
1944,-105.468750
1945,-105.468750
1946,-105.468750
1947,-105.468750
1948,-101.562500
1949,-101.562500
1950,-101.562500
1951,-101.562500
1952,-101.562500
1953,-97.656250
1954,-97.656250
1955,-97.656250
1956,-97.656250
1957,-93.750000
1958,-93.750000
1959,-93.750000
1960,-93.750000
1961,-93.750000
1962,-89.843750
1963,-89.843750
1964,-89.843750
1965,-89.843750
1966,-85.937500
1967,-85.937500
1968,-85.937500
1969,-85.937500
1970,-85.937500
1971,-82.031250
1972,-82.031250
1973,-82.031250
1974,-78.125000
1975,-78.125000
1976,-78.125000
1977,-78.125000
1978,-78.125000
1979,-74.218750
1980,-74.218750
1981,-74.218750
1982,-70.312500
1983,-70.312500
1984,-70.312500
1985,-70.312500
1986,-70.312500
1987,-66.406250
1988,-66.406250
1989,-66.406250
1990,-66.406250
1991,-66.406250
1992,-62.500000
1993,-62.500000
1994,-58.593750
1995,-58.593750
1996,-58.593750
1997,-58.593750
1998,-58.593750
1999,-58.593750
2000,-54.687500
2001,-54.687500
2002,-54.687500
2003,-50.781250
2004,-50.781250
2005,-50.781250
2006,-50.781250
2007,-46.875000
2008,-46.875000
2009,-46.875000
2010,-46.875000
2011,-42.968750
2012,-42.968750
2013,-42.968750
2014,-39.062500
2015,-39.062500
2016,-39.062500
2017,-39.062500
2018,-39.062500
2019,-35.156250
2020,-35.156250
2021,-35.156250
2022,-35.156250
2023,-31.250000
2024,-31.250000
2025,-31.250000
2026,-31.250000
2027,-31.250000
2028,-27.343750
2029,-27.343750
2030,-27.343750
2031,-23.437500
2032,-23.437500
2033,-23.437500
2034,-23.437500
2035,-23.437500
2036,-19.531250
2037,-19.531250
2038,-19.531250
2039,-15.625000
2040,-15.625000
2041,-15.625000
2042,-15.625000
2043,-11.718750
2044,-11.718750
2045,-11.718750
2046,-11.718750
2047,-7.812500
2048,-7.812500
2049,-7.812500
2050,-7.812500
2051,-3.906250
2052,-3.906250
2053,-3.906250
2054,-3.906250
2055,0.000000
2056,0.000000
2057,0.000000
2058,0.000000
2059,0.000000
2060,3.906250
2061,3.906250
2062,3.906250
2063,3.906250
2064,3.906250
2065,7.812500
2066,7.812500
2067,7.812500
2068,7.812500
2069,11.718750
2070,11.718750
2071,11.718750
2072,15.625000
2073,15.625000
2074,15.625000
2075,15.625000
2076,15.625000
2077,19.531250
2078,19.531250
2079,19.531250
2080,19.531250
2081,23.437500
2082,23.437500
2083,23.437500
2084,23.437500
2085,27.343750
2086,27.343750
2087,27.343750
2088,27.343750
2089,27.343750
2090,31.250000
2091,31.250000
2092,31.250000
2093,31.250000
2094,35.156250
2095,35.156250
2096,35.156250
2097,35.156250
2098,35.156250
2099,39.062500
2100,39.062500
2101,39.062500
2102,39.062500
2103,39.062500
2104,42.968750
2105,42.968750
2106,42.968750
2107,42.968750
2108,46.875000
2109,46.875000
2110,46.875000
2111,46.875000
2112,46.875000
2113,50.781250
2114,50.781250
2115,50.781250
2116,50.781250
2117,50.781250
2118,50.781250
2119,54.687500
2120,54.687500
2121,54.687500
2122,54.687500
2123,58.593750
2124,58.593750
2125,58.593750
2126,58.593750
2127,58.593750
2128,62.500000
2129,62.500000
2130,62.500000
2131,62.500000
2132,62.500000
2133,66.406250
2134,66.406250
2135,66.406250
2136,66.406250
2137,66.406250
2138,66.406250
2139,66.406250
2140,70.312500
2141,70.312500
2142,70.312500
2143,70.312500
2144,74.218750
2145,74.218750
2146,74.218750
2147,74.218750
2148,74.218750
2149,74.218750
2150,78.125000
2151,74.218750
2152,78.125000
2153,78.125000
2154,78.125000
2155,82.031250
2156,82.031250
2157,82.031250
2158,82.031250
2159,82.031250
2160,82.031250
2161,82.031250
2162,82.031250
2163,85.937500
2164,85.937500
2165,85.937500
2166,85.937500
2167,85.937500
2168,89.843750
2169,89.843750
2170,89.843750
2171,89.843750
2172,89.843750
2173,89.843750
2174,89.843750
2175,89.843750
2176,93.750000
2177,93.750000
2178,93.750000
2179,93.750000
2180,93.750000
2181,93.750000
2182,97.656250
2183,97.656250
2184,97.656250
2185,97.656250
2186,97.656250
2187,97.656250
2188,97.656250
2189,97.656250
2190,97.656250
2191,97.656250
2192,101.562500
2193,101.562500
2194,101.562500
2195,101.562500
2196,101.562500
2197,101.562500
2198,101.562500
2199,101.562500
2200,105.468750
2201,105.468750
2202,105.468750
2203,105.468750
2204,105.468750
2205,105.468750
2206,105.468750
2207,105.468750
2208,109.375000
2209,109.375000
2210,109.375000
2211,109.375000
2212,109.375000
2213,109.375000
2214,109.375000
2215,109.375000
2216,109.375000
2217,113.281250
2218,113.281250
2219,113.281250
2220,113.281250
2221,113.281250
2222,113.281250
2223,113.281250
2224,113.281250
2225,113.281250
2226,117.187500
2227,113.281250
2228,113.281250
2229,113.281250
2230,113.281250
2231,117.187500
2232,117.187500
2233,117.187500
2234,117.187500
2235,117.187500
2236,117.187500
2237,117.187500
2238,117.187500
2239,117.187500
2240,117.187500
2241,117.187500
2242,117.187500
2243,117.187500
2244,117.187500
2245,121.093750
2246,121.093750
2247,121.093750
2248,121.093750
2249,121.093750
2250,121.093750
2251,121.093750
2252,121.093750
2253,121.093750
2254,121.093750
2255,121.093750
2256,121.093750
2257,121.093750
2258,121.093750
2259,121.093750
2260,121.093750
2261,121.093750
2262,125.000000
2263,125.000000
2264,125.000000
2265,125.000000
2266,125.000000
2267,125.000000
2268,125.000000
2269,125.000000
2270,125.000000
2271,125.000000
2272,125.000000
2273,125.000000
2274,125.000000
2275,125.000000
2276,125.000000
2277,125.000000
2278,125.000000
2279,125.000000
2280,125.000000
2281,125.000000
2282,125.000000
2283,125.000000
2284,125.000000
2285,125.000000
2286,125.000000
2287,125.000000
2288,125.000000
2289,125.000000
2290,125.000000
2291,125.000000
2292,125.000000
2293,125.000000
2294,125.000000
2295,125.000000
2296,125.000000
2297,125.000000
2298,125.000000
2299,125.000000
2300,128.906250
2301,125.000000
2302,125.000000
2303,125.000000
2304,125.000000
2305,125.000000
2306,128.906250
2307,125.000000
2308,128.906250
2309,125.000000
2310,125.000000
2311,125.000000
2312,125.000000
2313,125.000000
2314,125.000000
2315,125.000000
2316,125.000000
2317,125.000000
2318,125.000000
2319,125.000000
2320,125.000000
2321,125.000000
2322,125.000000
2323,125.000000
2324,125.000000
2325,125.000000
2326,125.000000
2327,125.000000
2328,125.000000
2329,125.000000
2330,125.000000
2331,125.000000
2332,125.000000
2333,121.093750
2334,121.093750
2335,121.093750
2336,121.093750
2337,121.093750
2338,121.093750
2339,121.093750
2340,121.093750
2341,121.093750
2342,121.093750
2343,121.093750
2344,121.093750
2345,121.093750
2346,121.093750
2347,121.093750
2348,121.093750
2349,121.093750
2350,121.093750
2351,121.093750
2352,117.187500
2353,117.187500
2354,117.187500
2355,117.187500
2356,117.187500
2357,117.187500
2358,117.187500
2359,117.187500
2360,117.187500
2361,117.187500
2362,117.187500
2363,117.187500
2364,117.187500
2365,117.187500
2366,117.187500
2367,117.187500
2368,117.187500
2369,113.281250
2370,113.281250
2371,113.281250
2372,113.281250
2373,113.281250
2374,113.281250
2375,113.281250
2376,113.281250
2377,113.281250
2378,109.375000
2379,109.375000
2380,109.375000
2381,109.375000
2382,109.375000
2383,109.375000
2384,109.375000
2385,109.375000
2386,109.375000
2387,109.375000
2388,109.375000
2389,105.468750
2390,105.468750
2391,105.468750
2392,105.468750
2393,105.468750
2394,105.468750
2395,105.468750
2396,105.468750
2397,101.562500
2398,101.562500
2399,101.562500
2400,101.562500
2401,101.562500
2402,101.562500
2403,97.656250
2404,101.562500
2405,101.562500
2406,97.656250
2407,97.656250
2408,97.656250
2409,97.656250
2410,97.656250
2411,93.750000
2412,97.656250
2413,93.750000
2414,93.750000
2415,93.750000
2416,93.750000
2417,93.750000
2418,93.750000
2419,93.750000
2420,89.843750
2421,89.843750
2422,89.843750
2423,89.843750
2424,89.843750
2425,89.843750
2426,85.937500
2427,85.937500
2428,85.937500
2429,85.937500
2430,85.937500
2431,85.937500
2432,82.031250
2433,82.031250
2434,82.031250
2435,82.031250
2436,82.031250
2437,82.031250
2438,82.031250
2439,78.125000
2440,78.125000
2441,78.125000
2442,78.125000
2443,78.125000
2444,74.218750
2445,74.218750
2446,74.218750
2447,74.218750
2448,74.218750
2449,74.218750
2450,70.312500
2451,70.312500
2452,70.312500
2453,70.312500
2454,70.312500
2455,66.406250
2456,66.406250
2457,66.406250
2458,66.406250
2459,66.406250
2460,66.406250
2461,62.500000
2462,62.500000
2463,62.500000
2464,62.500000
2465,58.593750
2466,58.593750
2467,58.593750
2468,58.593750
2469,58.593750
2470,58.593750
2471,58.593750
2472,54.687500
2473,54.687500
2474,54.687500
2475,50.781250
2476,50.781250
2477,50.781250
2478,50.781250
2479,50.781250
2480,50.781250
2481,46.875000
2482,46.875000
2483,46.875000
2484,46.875000
2485,46.875000
2486,42.968750
2487,42.968750
2488,42.968750
2489,39.062500
2490,42.968750
2491,39.062500
2492,39.062500
2493,39.062500
2494,39.062500
2495,35.156250
2496,35.156250
2497,35.156250
2498,35.156250
2499,35.156250
2500,31.250000
2501,31.250000
2502,31.250000
2503,27.343750
2504,27.343750
2505,27.343750
2506,27.343750
2507,23.437500
2508,23.437500
2509,23.437500
2510,23.437500
2511,23.437500
2512,19.531250
2513,19.531250
2514,19.531250
2515,19.531250
2516,15.625000
2517,15.625000
2518,15.625000
2519,15.625000
2520,11.718750
2521,11.718750
2522,11.718750
2523,11.718750
2524,7.812500
2525,7.812500
2526,7.812500
2527,3.906250
2528,3.906250
2529,3.906250
2530,3.906250
2531,3.906250
2532,3.906250
2533,0.000000
2534,0.000000
2535,0.000000
2536,-3.906250
2537,-3.906250
2538,-3.906250
2539,-3.906250
2540,-3.906250
2541,-7.812500
2542,-7.812500
2543,-7.812500
2544,-7.812500
2545,-11.718750
2546,-11.718750
2547,-11.718750
2548,-11.718750
2549,-15.625000
2550,-15.625000
2551,-15.625000
2552,-15.625000
2553,-19.531250
2554,-19.531250
2555,-19.531250
2556,-23.437500
2557,-23.437500
2558,-23.437500
2559,-23.437500
2560,-23.437500
2561,-27.343750
2562,-27.343750
2563,-27.343750
2564,-31.250000
2565,-31.250000
2566,-31.250000
2567,-31.250000
2568,-35.156250
2569,-35.156250
2570,-35.156250
2571,-35.156250
2572,-39.062500
2573,-39.062500
2574,-39.062500
2575,-39.062500
2576,-42.968750
2577,-42.968750
2578,-42.968750
2579,-42.968750
2580,-46.875000
2581,-46.875000
2582,-46.875000
2583,-46.875000
2584,-50.781250
2585,-50.781250
2586,-50.781250
2587,-50.781250
2588,-54.687500
2589,-54.687500
2590,-54.687500
2591,-54.687500
2592,-58.593750
2593,-58.593750
2594,-58.593750
2595,-62.500000
2596,-62.500000
2597,-62.500000
2598,-62.500000
2599,-62.500000
2600,-66.406250
2601,-66.406250
2602,-66.406250
2603,-66.406250
2604,-70.312500
2605,-70.312500
2606,-70.312500
2607,-70.312500
2608,-74.218750
2609,-74.218750
2610,-74.218750
2611,-74.218750
2612,-78.125000
2613,-78.125000
2614,-78.125000
2615,-78.125000
2616,-82.031250
2617,-82.031250
2618,-82.031250
2619,-82.031250
2620,-85.937500
2621,-85.937500
2622,-85.937500
2623,-85.937500
2624,-85.937500
2625,-89.843750
2626,-89.843750
2627,-89.843750
2628,-93.750000
2629,-93.750000
2630,-93.750000
2631,-93.750000
2632,-93.750000
2633,-93.750000
2634,-97.656250
2635,-97.656250
2636,-97.656250
2637,-97.656250
2638,-101.562500
2639,-101.562500
2640,-101.562500
2641,-101.562500
2642,-105.468750
2643,-105.468750
2644,-105.468750
2645,-105.468750
2646,-105.468750
2647,-109.375000
2648,-109.375000
2649,-109.375000
2650,-109.375000
2651,-113.281250
2652,-113.281250
2653,-113.281250
2654,-113.281250
2655,-113.281250
2656,-113.281250
2657,-117.187500
2658,-117.187500
2659,-117.187500
2660,-117.187500
2661,-121.093750
2662,-121.093750
2663,-121.093750
2664,-121.093750
2665,-121.093750
2666,-125.000000
2667,-125.000000
2668,-125.000000
2669,-125.000000
2670,-125.000000
2671,-125.000000
2672,-128.906250
2673,-128.906250
2674,-128.906250
2675,-128.906250
2676,-128.906250
2677,-132.812500
2678,-132.812500
2679,-132.812500
2680,-132.812500
2681,-132.812500
2682,-132.812500
2683,-136.718750
2684,-136.718750
2685,-136.718750
2686,-136.718750
2687,-136.718750
2688,-140.625000
2689,-140.625000
2690,-140.625000
2691,-140.625000
2692,-140.625000
2693,-140.625000
2694,-140.625000
2695,-144.531250
2696,-144.531250
2697,-144.531250
2698,-144.531250
2699,-144.531250
2700,-148.437500
2701,-148.437500
2702,-148.437500
2703,-148.437500
2704,-148.437500
2705,-148.437500
2706,-148.437500
2707,-148.437500
2708,-152.343750
2709,-152.343750
2710,-152.343750
2711,-152.343750
2712,-152.343750
2713,-152.343750
2714,-152.343750
2715,-152.343750
2716,-156.250000
2717,-156.250000
2718,-156.250000
2719,-156.250000
2720,-156.250000
2721,-156.250000
2722,-156.250000
2723,-156.250000
2724,-160.156250
2725,-160.156250
2726,-160.156250
2727,-160.156250
2728,-160.156250
2729,-160.156250
2730,-164.062500
2731,-160.156250
2732,-164.062500
2733,-164.062500
2734,-164.062500
2735,-164.062500
2736,-164.062500
2737,-164.062500
2738,-164.062500
2739,-164.062500
2740,-164.062500
2741,-164.062500
2742,-164.062500
2743,-167.968750
2744,-164.062500
2745,-167.968750
2746,-167.968750
2747,-167.968750
2748,-167.968750
2749,-167.968750
2750,-167.968750
2751,-167.968750
2752,-167.968750
2753,-167.968750
2754,-167.968750
2755,-167.968750
2756,-167.968750
2757,-167.968750
2758,-171.875000
2759,-171.875000
2760,-171.875000
2761,-171.875000
2762,-171.875000
2763,-171.875000
2764,-171.875000
2765,-171.875000
2766,-171.875000
2767,-171.875000
2768,-171.875000
2769,-171.875000
2770,-171.875000
2771,-171.875000
2772,-171.875000
2773,-171.875000
2774,-171.875000
2775,-171.875000
2776,-171.875000
2777,-171.875000
2778,-171.875000
2779,-171.875000
2780,-171.875000
2781,-171.875000
2782,-171.875000
2783,-171.875000
2784,-171.875000
2785,-171.875000
2786,-171.875000
2787,-171.875000
2788,-171.875000
2789,-171.875000
2790,-171.875000
2791,-175.781250
2792,-175.781250
2793,-171.875000
2794,-171.875000
2795,-171.875000
2796,-171.875000
2797,-171.875000
2798,-171.875000
2799,-171.875000
2800,-171.875000
2801,-171.875000
2802,-171.875000
2803,-171.875000
2804,-171.875000
2805,-171.875000
2806,-171.875000
2807,-171.875000
2808,-171.875000
2809,-171.875000
2810,-171.875000
2811,-171.875000
2812,-171.875000
2813,-171.875000
2814,-171.875000
2815,-171.875000
2816,-171.875000
2817,-171.875000
2818,-171.875000
2819,-171.875000
2820,-167.968750
2821,-171.875000
2822,-167.968750
2823,-167.968750
2824,-167.968750
2825,-167.968750
2826,-167.968750
2827,-167.968750
2828,-167.968750
2829,-167.968750
2830,-167.968750
2831,-167.968750
2832,-167.968750
2833,-167.968750
2834,-167.968750
2835,-164.062500
2836,-164.062500
2837,-164.062500
2838,-164.062500
2839,-164.062500
2840,-164.062500
2841,-164.062500
2842,-164.062500
2843,-164.062500
2844,-164.062500
2845,-164.062500
2846,-160.156250
2847,-160.156250
2848,-160.156250
2849,-160.156250
2850,-160.156250
2851,-160.156250
2852,-160.156250
2853,-160.156250
2854,-160.156250
2855,-160.156250
2856,-160.156250
2857,-156.250000
2858,-156.250000
2859,-156.250000
2860,-156.250000
2861,-156.250000
2862,-156.250000
2863,-156.250000
2864,-156.250000
2865,-152.343750
2866,-152.343750
2867,-152.343750
2868,-152.343750
2869,-152.343750
2870,-152.343750
2871,-152.343750
2872,-148.437500
2873,-148.437500
2874,-148.437500
2875,-148.437500
2876,-148.437500
2877,-148.437500
2878,-148.437500
2879,-144.531250
2880,-144.531250
2881,-144.531250
2882,-144.531250
2883,-144.531250
2884,-144.531250
2885,-140.625000
2886,-140.625000
2887,-140.625000
2888,-140.625000
2889,-140.625000
2890,-140.625000
2891,-136.718750
2892,-136.718750
2893,-136.718750
2894,-136.718750
2895,-136.718750
2896,-136.718750
2897,-132.812500
2898,-132.812500
2899,-132.812500
2900,-132.812500
2901,-132.812500
2902,-132.812500
2903,-128.906250
2904,-128.906250
2905,-128.906250
2906,-128.906250
2907,-128.906250
2908,-125.000000
2909,-125.000000
2910,-125.000000
2911,-125.000000
2912,-125.000000
2913,-125.000000
2914,-121.093750
2915,-121.093750
2916,-121.093750
2917,-121.093750
2918,-121.093750
2919,-117.187500
2920,-117.187500
2921,-117.187500
2922,-117.187500
2923,-113.281250
2924,-113.281250
2925,-113.281250
2926,-113.281250
2927,-113.281250
2928,-113.281250
2929,-109.375000
2930,-109.375000
2931,-109.375000
2932,-105.468750
2933,-105.468750
2934,-105.468750
2935,-105.468750
2936,-105.468750
2937,-101.562500
2938,-101.562500
2939,-101.562500
2940,-101.562500
2941,-101.562500
2942,-97.656250
2943,-97.656250
2944,-97.656250
2945,-97.656250
2946,-97.656250
2947,-93.750000
2948,-93.750000
2949,-93.750000
2950,-93.750000
2951,-89.843750
2952,-89.843750
2953,-89.843750
2954,-89.843750
2955,-85.937500
2956,-85.937500
2957,-85.937500
2958,-85.937500
2959,-85.937500
2960,-82.031250
2961,-82.031250
2962,-82.031250
2963,-82.031250
2964,-82.031250
2965,-78.125000
2966,-78.125000
2967,-78.125000
2968,-74.218750
2969,-74.218750
2970,-74.218750
2971,-74.218750
2972,-70.312500
2973,-70.312500
2974,-70.312500
2975,-70.312500
2976,-66.406250
2977,-66.406250
2978,-66.406250
2979,-66.406250
2980,-62.500000
2981,-62.500000
2982,-62.500000
2983,-62.500000
2984,-62.500000
2985,-58.593750
2986,-58.593750
2987,-58.593750
2988,-58.593750
2989,-54.687500
2990,-54.687500
2991,-54.687500
2992,-54.687500
2993,-50.781250
2994,-50.781250
2995,-50.781250
2996,-50.781250
2997,-46.875000
2998,-46.875000
2999,-46.875000
3000,-46.875000
3001,-42.968750
3002,-42.968750
3003,-42.968750
3004,-42.968750
3005,-42.968750
3006,-39.062500
3007,-39.062500
3008,-39.062500
3009,-35.156250
3010,-35.156250
3011,-35.156250
3012,-35.156250
3013,-31.250000
3014,-31.250000
3015,-31.250000
3016,-27.343750
3017,-27.343750
3018,-27.343750
3019,-27.343750
3020,-27.343750
3021,-23.437500
3022,-23.437500
3023,-23.437500
3024,-19.531250
3025,-19.531250
3026,-19.531250
3027,-19.531250
3028,-19.531250
3029,-15.625000
3030,-15.625000
3031,-15.625000
3032,-11.718750
3033,-11.718750
3034,-11.718750
3035,-11.718750
3036,-11.718750
3037,-7.812500
3038,-7.812500
3039,-7.812500
3040,-7.812500
3041,-3.906250
3042,-3.906250
3043,-3.906250
3044,-3.906250
3045,0.000000
3046,0.000000
3047,0.000000
3048,0.000000
3049,3.906250
3050,3.906250
3051,3.906250
3052,3.906250
3053,7.812500
3054,7.812500
3055,7.812500
3056,7.812500
3057,11.718750
3058,11.718750
3059,11.718750
3060,11.718750
3061,15.625000
3062,15.625000
3063,15.625000
3064,15.625000
3065,15.625000
3066,19.531250
3067,19.531250
3068,19.531250
3069,19.531250
3070,23.437500
3071,23.437500
3072,23.437500
3073,23.437500
3074,27.343750
3075,27.343750
3076,27.343750
3077,27.343750
3078,27.343750
3079,27.343750
3080,31.250000
3081,31.250000
3082,31.250000
3083,35.156250
3084,35.156250
3085,35.156250
3086,35.156250
3087,35.156250
3088,35.156250
3089,39.062500
3090,39.062500
3091,39.062500
3092,42.968750
3093,42.968750
3094,42.968750
3095,42.968750
3096,42.968750
3097,42.968750
3098,46.875000
3099,46.875000
3100,46.875000
3101,46.875000
3102,46.875000
3103,50.781250
3104,50.781250
3105,50.781250
3106,50.781250
3107,54.687500
3108,54.687500
3109,54.687500
3110,54.687500
3111,54.687500
3112,58.593750
3113,58.593750
3114,58.593750
3115,58.593750
3116,58.593750
3117,62.500000
3118,62.500000
3119,62.500000
3120,62.500000
3121,62.500000
3122,66.406250
3123,66.406250
3124,66.406250
3125,66.406250
3126,66.406250
3127,66.406250
3128,66.406250
3129,70.312500
3130,70.312500
3131,70.312500
3132,70.312500
3133,74.218750
3134,74.218750
3135,74.218750
3136,74.218750
3137,74.218750
3138,74.218750
3139,74.218750
3140,78.125000
3141,78.125000
3142,78.125000
3143,78.125000
3144,78.125000
3145,82.031250
3146,82.031250
3147,82.031250
3148,82.031250
3149,82.031250
3150,82.031250
3151,82.031250
3152,85.937500
3153,85.937500
3154,85.937500
3155,85.937500
3156,85.937500
3157,85.937500
3158,85.937500
3159,89.843750
3160,89.843750
3161,89.843750
3162,89.843750
3163,89.843750
3164,89.843750
3165,93.750000
3166,93.750000
3167,93.750000
3168,93.750000
3169,93.750000
3170,93.750000
3171,93.750000
3172,97.656250
3173,97.656250
3174,97.656250
3175,97.656250
3176,97.656250
3177,97.656250
3178,97.656250
3179,97.656250
3180,97.656250
3181,101.562500
3182,101.562500
3183,101.562500
3184,101.562500
3185,101.562500
3186,105.468750
3187,105.468750
3188,105.468750
3189,105.468750
3190,105.468750
3191,105.468750
3192,105.468750
3193,105.468750
3194,105.468750
3195,105.468750
3196,109.375000
3197,109.375000
3198,109.375000
3199,109.375000
3200,109.375000
3201,109.375000
3202,109.375000
3203,109.375000
3204,109.375000
3205,109.375000
3206,109.375000
3207,109.375000
3208,113.281250
3209,113.281250
3210,113.281250
3211,113.281250
3212,113.281250
3213,113.281250
3214,113.281250
3215,113.281250
3216,113.281250
3217,113.281250
3218,117.187500
3219,117.187500
3220,117.187500
3221,117.187500
3222,117.187500
3223,117.187500
3224,117.187500
3225,117.187500
3226,117.187500
3227,117.187500
3228,117.187500
3229,121.093750
3230,121.093750
3231,117.187500
3232,117.187500
3233,117.187500
3234,117.187500
3235,121.093750
3236,121.093750
3237,121.093750
3238,121.093750
3239,121.093750
3240,121.093750
3241,121.093750
3242,121.093750
3243,121.093750
3244,121.093750
3245,121.093750
3246,121.093750
3247,121.093750
3248,121.093750
3249,121.093750
3250,121.093750
3251,121.093750
3252,121.093750
3253,121.093750
3254,125.000000
3255,125.000000
3256,125.000000
3257,125.000000
3258,125.000000
3259,125.000000
3260,125.000000
3261,125.000000
3262,125.000000
3263,125.000000
3264,125.000000
3265,125.000000
3266,125.000000
3267,125.000000
3268,125.000000
3269,125.000000
3270,125.000000
3271,125.000000
3272,125.000000
3273,125.000000
3274,125.000000
3275,125.000000
3276,125.000000
3277,125.000000
3278,125.000000
3279,125.000000
3280,125.000000
3281,125.000000
3282,125.000000
3283,125.000000
3284,125.000000
3285,125.000000
3286,125.000000
3287,125.000000
3288,125.000000
3289,125.000000
3290,125.000000
3291,125.000000
3292,125.000000
3293,125.000000
3294,125.000000
3295,121.093750
3296,125.000000
3297,125.000000
3298,125.000000
3299,125.000000
3300,125.000000
3301,125.000000
3302,125.000000
3303,125.000000
3304,125.000000
3305,125.000000
3306,125.000000
3307,125.000000
3308,125.000000
3309,125.000000
3310,125.000000
3311,125.000000
3312,125.000000
3313,125.000000
3314,125.000000
3315,125.000000
3316,125.000000
3317,125.000000
3318,125.000000
3319,125.000000
3320,125.000000
3321,125.000000
3322,125.000000
3323,121.093750
3324,121.093750
3325,121.093750
3326,121.093750
3327,121.093750
3328,125.000000
3329,125.000000
3330,121.093750
3331,121.093750
3332,121.093750
3333,121.093750
3334,121.093750
3335,121.093750
3336,121.093750
3337,121.093750
3338,121.093750
3339,121.093750
3340,121.093750
3341,117.187500
3342,121.093750
3343,121.093750
3344,117.187500
3345,117.187500
3346,117.187500
3347,117.187500
3348,117.187500
3349,117.187500
3350,117.187500
3351,117.187500
3352,117.187500
3353,117.187500
3354,117.187500
3355,117.187500
3356,113.281250
3357,113.281250
3358,113.281250
3359,113.281250
3360,113.281250
3361,113.281250
3362,113.281250
3363,113.281250
3364,113.281250
3365,109.375000
3366,113.281250
3367,109.375000
3368,109.375000
3369,109.375000
3370,109.375000
3371,109.375000
3372,109.375000
3373,109.375000
3374,109.375000
3375,109.375000
3376,105.468750
3377,105.468750
3378,105.468750
3379,105.468750
3380,105.468750
3381,105.468750
3382,105.468750
3383,105.468750
3384,105.468750
3385,101.562500
3386,101.562500
3387,101.562500
3388,101.562500
3389,101.562500
3390,101.562500
3391,101.562500
3392,101.562500
3393,97.656250
3394,97.656250
3395,97.656250
3396,97.656250
3397,97.656250
3398,97.656250
3399,97.656250
3400,97.656250
3401,97.656250
3402,93.750000
3403,93.750000
3404,93.750000
3405,93.750000
3406,93.750000
3407,93.750000
3408,93.750000
3409,89.843750
3410,89.843750
3411,89.843750
3412,89.843750
3413,89.843750
3414,89.843750
3415,85.937500
3416,85.937500
3417,85.937500
3418,85.937500
3419,85.937500
3420,85.937500
3421,85.937500
3422,85.937500
3423,82.031250
3424,82.031250
3425,82.031250
3426,82.031250
3427,82.031250
3428,78.125000
3429,78.125000
3430,78.125000
3431,78.125000
3432,78.125000
3433,78.125000
3434,74.218750
3435,74.218750
3436,74.218750
3437,74.218750
3438,74.218750
3439,74.218750
3440,70.312500
3441,70.312500
3442,70.312500
3443,70.312500
3444,70.312500
3445,66.406250
3446,66.406250
3447,66.406250
3448,66.406250
3449,66.406250
3450,66.406250
3451,62.500000
3452,62.500000
3453,62.500000
3454,62.500000
3455,62.500000
3456,58.593750
3457,58.593750
3458,58.593750
3459,58.593750
3460,58.593750
3461,54.687500
3462,54.687500
3463,54.687500
3464,54.687500
3465,50.781250
3466,50.781250
3467,50.781250
3468,50.781250
3469,50.781250
3470,46.875000
3471,46.875000
3472,46.875000
3473,46.875000
3474,46.875000
3475,46.875000
3476,42.968750
3477,42.968750
3478,42.968750
3479,39.062500
3480,39.062500
3481,39.062500
3482,39.062500
3483,39.062500
3484,35.156250
3485,35.156250
3486,35.156250
3487,35.156250
3488,31.250000
3489,31.250000
3490,31.250000
3491,31.250000
3492,27.343750
3493,27.343750
3494,27.343750
3495,27.343750
3496,27.343750
3497,23.437500
3498,23.437500
3499,23.437500
3500,23.437500
3501,23.437500
3502,19.531250
3503,19.531250
3504,19.531250
3505,15.625000
3506,15.625000
3507,15.625000
3508,15.625000
3509,11.718750
3510,11.718750
3511,11.718750
3512,11.718750
3513,11.718750
3514,7.812500
3515,7.812500
3516,7.812500
3517,7.812500
3518,7.812500
3519,3.906250
3520,3.906250
3521,3.906250
3522,3.906250
3523,0.000000
3524,0.000000
3525,0.000000
3526,0.000000
3527,-3.906250
3528,-3.906250
3529,-3.906250
3530,-7.812500
3531,-7.812500
3532,-7.812500
3533,-7.812500
3534,-7.812500
3535,-11.718750
3536,-11.718750
3537,-11.718750
3538,-11.718750
3539,-15.625000
3540,-15.625000
3541,-15.625000
3542,-15.625000
3543,-19.531250
3544,-19.531250
3545,-19.531250
3546,-23.437500
3547,-23.437500
3548,-23.437500
3549,-23.437500
3550,-23.437500
3551,-27.343750
3552,-27.343750
3553,-27.343750
3554,-27.343750
3555,-31.250000
3556,-31.250000
3557,-31.250000
3558,-35.156250
3559,-35.156250
3560,-35.156250
3561,-35.156250
3562,-35.156250
3563,-39.062500
3564,-39.062500
3565,-39.062500
3566,-39.062500
3567,-42.968750
3568,-42.968750
3569,-42.968750
3570,-46.875000
3571,-46.875000
3572,-46.875000
3573,-46.875000
3574,-50.781250
3575,-50.781250
3576,-50.781250
3577,-50.781250
3578,-50.781250
3579,-54.687500
3580,-54.687500
3581,-54.687500
3582,-58.593750
3583,-58.593750
3584,-58.593750
3585,-58.593750
3586,-62.500000
3587,-62.500000
3588,-62.500000
3589,-62.500000
3590,-66.406250
3591,-66.406250
3592,-66.406250
3593,-66.406250
3594,-70.312500
3595,-70.312500
3596,-70.312500
3597,-70.312500
3598,-74.218750
3599,-74.218750
3600,-74.218750
3601,-74.218750
3602,-78.125000
3603,-78.125000
3604,-78.125000
3605,-78.125000
3606,-78.125000
3607,-82.031250
3608,-82.031250
3609,-82.031250
3610,-85.937500
3611,-85.937500
3612,-85.937500
3613,-85.937500
3614,-85.937500
3615,-89.843750
3616,-89.843750
3617,-89.843750
3618,-89.843750
3619,-93.750000
3620,-93.750000
3621,-93.750000
3622,-93.750000
3623,-97.656250
3624,-97.656250
3625,-97.656250
3626,-97.656250
3627,-97.656250
3628,-101.562500
3629,-101.562500
3630,-101.562500
3631,-101.562500
3632,-105.468750
3633,-105.468750
3634,-105.468750
3635,-105.468750
3636,-105.468750
3637,-109.375000
3638,-109.375000
3639,-109.375000
3640,-109.375000
3641,-113.281250
3642,-113.281250
3643,-113.281250
3644,-113.281250
3645,-113.281250
3646,-117.187500
3647,-117.187500
3648,-117.187500
3649,-117.187500
3650,-117.187500
3651,-121.093750
3652,-121.093750
3653,-121.093750
3654,-121.093750
3655,-121.093750
3656,-121.093750
3657,-125.000000
3658,-125.000000
3659,-125.000000
3660,-125.000000
3661,-125.000000
3662,-128.906250
3663,-128.906250
3664,-128.906250
3665,-128.906250
3666,-128.906250
3667,-128.906250
3668,-132.812500
3669,-132.812500
3670,-132.812500
3671,-132.812500
3672,-136.718750
3673,-136.718750
3674,-136.718750
3675,-136.718750
3676,-136.718750
3677,-136.718750
3678,-140.625000
3679,-140.625000
3680,-140.625000
3681,-140.625000
3682,-140.625000
3683,-140.625000
3684,-144.531250
3685,-144.531250
3686,-144.531250
3687,-144.531250
3688,-144.531250
3689,-144.531250
3690,-144.531250
3691,-148.437500
3692,-148.437500
3693,-148.437500
3694,-148.437500
3695,-148.437500
3696,-148.437500
3697,-148.437500
3698,-152.343750
3699,-152.343750
3700,-152.343750
3701,-152.343750
3702,-152.343750
3703,-152.343750
3704,-152.343750
3705,-156.250000
3706,-156.250000
3707,-156.250000
3708,-156.250000
3709,-156.250000
3710,-156.250000
3711,-156.250000
3712,-156.250000
3713,-160.156250
3714,-160.156250
3715,-160.156250
3716,-160.156250
3717,-160.156250
3718,-156.250000
3719,-160.156250
3720,-160.156250
3721,-160.156250
3722,-160.156250
3723,-164.062500
3724,-164.062500
3725,-164.062500
3726,-164.062500
3727,-164.062500
3728,-164.062500
3729,-164.062500
3730,-164.062500
3731,-164.062500
3732,-164.062500
3733,-167.968750
3734,-167.968750
3735,-167.968750
3736,-167.968750
3737,-167.968750
3738,-167.968750
3739,-167.968750
3740,-167.968750
3741,-167.968750
3742,-167.968750
3743,-167.968750
3744,-167.968750
3745,-167.968750
3746,-167.968750
3747,-171.875000
3748,-167.968750
3749,-167.968750
3750,-171.875000
3751,-171.875000
3752,-171.875000
3753,-171.875000
3754,-171.875000
3755,-171.875000
3756,-171.875000
3757,-171.875000
3758,-171.875000
3759,-171.875000
3760,-171.875000
3761,-171.875000
3762,-171.875000
3763,-171.875000
3764,-175.781250
3765,-171.875000
3766,-171.875000
3767,-171.875000
3768,-171.875000
3769,-171.875000
3770,-171.875000
3771,-171.875000
3772,-171.875000
3773,-171.875000
3774,-171.875000
3775,-171.875000
3776,-171.875000
3777,-171.875000
3778,-171.875000
3779,-171.875000
3780,-171.875000
3781,-171.875000
3782,-171.875000
3783,-171.875000
3784,-171.875000
3785,-175.781250
3786,-171.875000
3787,-171.875000
3788,-171.875000
3789,-171.875000
3790,-171.875000
3791,-171.875000
3792,-171.875000
3793,-171.875000
3794,-171.875000
3795,-171.875000
3796,-171.875000
3797,-171.875000
3798,-171.875000
3799,-171.875000
3800,-171.875000
3801,-171.875000
3802,-171.875000
3803,-171.875000
3804,-171.875000
3805,-171.875000
3806,-171.875000
3807,-171.875000
3808,-171.875000
3809,-171.875000
3810,-171.875000
3811,-167.968750
3812,-167.968750
3813,-167.968750
3814,-167.968750
3815,-167.968750
3816,-167.968750
3817,-167.968750
3818,-167.968750
3819,-167.968750
3820,-167.968750
3821,-167.968750
3822,-167.968750
3823,-167.968750
3824,-167.968750
3825,-164.062500
3826,-167.968750
3827,-164.062500
3828,-164.062500
3829,-164.062500
3830,-164.062500
3831,-164.062500
3832,-164.062500
3833,-164.062500
3834,-164.062500
3835,-164.062500
3836,-164.062500
3837,-160.156250
3838,-160.156250
3839,-160.156250
3840,-160.156250
3841,-160.156250
3842,-160.156250
3843,-160.156250
3844,-160.156250
3845,-156.250000
3846,-160.156250
3847,-156.250000
3848,-156.250000
3849,-156.250000
3850,-156.250000
3851,-156.250000
3852,-156.250000
3853,-156.250000
3854,-152.343750
3855,-152.343750
3856,-152.343750
3857,-152.343750
3858,-152.343750
3859,-152.343750
3860,-152.343750
3861,-152.343750
3862,-148.437500
3863,-148.437500
3864,-148.437500
3865,-148.437500
3866,-148.437500
3867,-148.437500
3868,-148.437500
3869,-144.531250
3870,-144.531250
3871,-144.531250
3872,-144.531250
3873,-144.531250
3874,-144.531250
3875,-144.531250
3876,-140.625000
3877,-140.625000
3878,-140.625000
3879,-140.625000
3880,-140.625000
3881,-136.718750
3882,-136.718750
3883,-136.718750
3884,-136.718750
3885,-136.718750
3886,-136.718750
3887,-136.718750
3888,-132.812500
3889,-132.812500
3890,-132.812500
3891,-132.812500
3892,-128.906250
3893,-128.906250
3894,-128.906250
3895,-128.906250
3896,-128.906250
3897,-128.906250
3898,-128.906250
3899,-125.000000
3900,-125.000000
3901,-125.000000
3902,-125.000000
3903,-121.093750
3904,-121.093750
3905,-121.093750
3906,-121.093750
3907,-121.093750
3908,-121.093750
3909,-117.187500
3910,-117.187500
3911,-117.187500
3912,-113.281250
3913,-113.281250
3914,-113.281250
3915,-113.281250
3916,-113.281250
3917,-113.281250
3918,-113.281250
3919,-109.375000
3920,-109.375000
3921,-109.375000
3922,-109.375000
3923,-105.468750
3924,-105.468750
3925,-105.468750
3926,-105.468750
3927,-105.468750
3928,-101.562500
3929,-101.562500
3930,-101.562500
3931,-101.562500
3932,-97.656250
3933,-97.656250
3934,-97.656250
3935,-97.656250
3936,-97.656250
3937,-93.750000
3938,-93.750000
3939,-93.750000
3940,-93.750000
3941,-89.843750
3942,-89.843750
3943,-89.843750
3944,-89.843750
3945,-89.843750
3946,-85.937500
3947,-85.937500
3948,-85.937500
3949,-85.937500
3950,-82.031250
3951,-82.031250
3952,-82.031250
3953,-78.125000
3954,-78.125000
3955,-78.125000
3956,-78.125000
3957,-78.125000
3958,-74.218750
3959,-74.218750
3960,-74.218750
3961,-74.218750
3962,-70.312500
3963,-70.312500
3964,-70.312500
3965,-70.312500
3966,-70.312500
3967,-66.406250
3968,-66.406250
3969,-66.406250
3970,-62.500000
3971,-62.500000
3972,-62.500000
3973,-62.500000
3974,-62.500000
3975,-58.593750
3976,-58.593750
3977,-58.593750
3978,-54.687500
3979,-54.687500
3980,-54.687500
3981,-54.687500
3982,-50.781250
3983,-50.781250
3984,-50.781250
3985,-50.781250
3986,-50.781250
3987,-50.781250
3988,-46.875000
3989,-46.875000
3990,-42.968750
3991,-42.968750
3992,-42.968750
3993,-42.968750
3994,-42.968750
3995,-39.062500
3996,-39.062500
3997,-39.062500
3998,-39.062500
3999,-39.062500
4000,-35.156250
4001,-35.156250
4002,-31.250000
4003,-31.250000
4004,-31.250000
4005,-31.250000
4006,-31.250000
4007,-27.343750
4008,-27.343750
4009,-27.343750
4010,-27.343750
4011,-23.437500
4012,-23.437500
4013,-23.437500
4014,-23.437500
4015,-19.531250
4016,-19.531250
4017,-19.531250
4018,-19.531250
4019,-15.625000
4020,-15.625000
4021,-15.625000
4022,-11.718750
4023,-11.718750
4024,-11.718750
4025,-11.718750
4026,-11.718750
4027,-7.812500
4028,-7.812500
4029,-7.812500
4030,-7.812500
4031,-3.906250
4032,-3.906250
4033,-3.906250
4034,-3.906250
4035,0.000000
4036,0.000000
4037,0.000000
4038,0.000000
4039,3.906250
4040,3.906250
4041,3.906250
4042,3.906250
4043,3.906250
4044,7.812500
4045,7.812500
4046,7.812500
4047,7.812500
4048,11.718750
4049,11.718750
4050,11.718750
4051,15.625000
4052,15.625000
4053,15.625000
4054,15.625000
4055,15.625000
4056,19.531250
4057,19.531250
4058,19.531250
4059,19.531250
4060,19.531250
4061,23.437500
4062,23.437500
4063,23.437500
4064,27.343750
4065,27.343750
4066,27.343750
4067,27.343750
4068,27.343750
4069,31.250000
4070,31.250000
4071,31.250000
4072,31.250000
4073,31.250000
4074,35.156250
4075,35.156250
4076,35.156250
4077,35.156250
4078,35.156250
4079,39.062500
4080,39.062500
4081,39.062500
4082,42.968750
4083,42.968750
4084,42.968750
4085,42.968750
4086,42.968750
4087,46.875000
4088,46.875000
4089,46.875000
4090,46.875000
4091,46.875000
4092,50.781250
4093,50.781250
4094,50.781250
4095,50.781250
4096,54.687500
4097,54.687500
4098,54.687500
4099,54.687500
4100,54.687500
4101,54.687500
4102,58.593750
4103,58.593750
4104,58.593750
4105,58.593750
4106,62.500000
4107,62.500000
4108,62.500000
4109,62.500000
4110,62.500000
4111,62.500000
4112,62.500000
4113,66.406250
4114,66.406250
4115,66.406250
4116,66.406250
4117,66.406250
4118,70.312500
4119,66.406250
4120,70.312500
4121,70.312500
4122,70.312500
4123,70.312500
4124,74.218750
4125,74.218750
4126,74.218750
4127,74.218750
4128,74.218750
4129,74.218750
4130,74.218750
4131,78.125000
4132,78.125000
4133,78.125000
4134,78.125000
4135,78.125000
4136,82.031250
4137,82.031250
4138,82.031250
4139,82.031250
4140,82.031250
4141,82.031250
4142,85.937500
4143,85.937500
4144,85.937500
4145,85.937500
4146,85.937500
4147,85.937500
4148,85.937500
4149,89.843750
4150,89.843750
4151,89.843750
4152,89.843750
4153,89.843750
4154,89.843750
4155,93.750000
4156,93.750000
4157,93.750000
4158,93.750000
4159,93.750000
4160,93.750000
4161,93.750000
4162,93.750000
4163,97.656250
4164,97.656250
4165,97.656250
4166,97.656250
4167,97.656250
4168,97.656250
4169,101.562500
4170,101.562500
4171,101.562500
4172,101.562500
4173,101.562500
4174,101.562500
4175,101.562500
4176,101.562500
4177,101.562500
4178,105.468750
4179,105.468750
4180,105.468750
4181,105.468750
4182,105.468750
4183,105.468750
4184,105.468750
4185,105.468750
4186,105.468750
4187,109.375000
4188,109.375000
4189,109.375000
4190,109.375000
4191,109.375000
4192,109.375000
4193,109.375000
4194,109.375000
4195,109.375000
4196,109.375000
4197,109.375000
4198,113.281250
4199,113.281250
4200,113.281250
4201,113.281250
4202,113.281250
4203,113.281250
4204,113.281250
4205,113.281250
4206,113.281250
4207,113.281250
4208,117.187500
4209,117.187500
4210,117.187500
4211,117.187500
4212,117.187500
4213,117.187500
4214,117.187500
4215,117.187500
4216,117.187500
4217,117.187500
4218,117.187500
4219,117.187500
4220,117.187500
4221,117.187500
4222,121.093750
4223,117.187500
4224,121.093750
4225,121.093750
4226,121.093750
4227,121.093750
4228,121.093750
4229,121.093750
4230,121.093750
4231,121.093750
4232,121.093750
4233,121.093750
4234,121.093750
4235,121.093750
4236,125.000000
4237,121.093750
4238,121.093750
4239,121.093750
4240,125.000000
4241,121.093750
4242,125.000000
4243,121.093750
4244,125.000000
4245,125.000000
4246,125.000000
4247,125.000000
4248,125.000000
4249,125.000000
4250,125.000000
4251,125.000000
4252,125.000000
4253,125.000000
4254,125.000000
4255,125.000000
4256,125.000000
4257,125.000000
4258,125.000000
4259,125.000000
4260,125.000000
4261,125.000000
4262,125.000000
4263,125.000000
4264,125.000000
4265,125.000000
4266,125.000000
4267,125.000000
4268,125.000000
4269,125.000000
4270,125.000000
4271,125.000000
4272,125.000000
4273,125.000000
4274,125.000000
4275,125.000000
4276,128.906250
4277,125.000000
4278,125.000000
4279,125.000000
4280,125.000000
4281,125.000000
4282,125.000000
4283,125.000000
4284,125.000000
4285,125.000000
4286,125.000000
4287,125.000000
4288,125.000000
4289,125.000000
4290,125.000000
4291,125.000000
4292,125.000000
4293,125.000000
4294,125.000000
4295,125.000000
4296,125.000000
4297,125.000000
4298,125.000000
4299,125.000000
4300,125.000000
4301,125.000000
4302,125.000000
4303,125.000000
4304,125.000000
4305,125.000000
4306,125.000000
4307,125.000000
4308,125.000000
4309,125.000000
4310,125.000000
4311,121.093750
4312,125.000000
4313,121.093750
4314,125.000000
4315,121.093750
4316,121.093750
4317,121.093750
4318,121.093750
4319,121.093750
4320,121.093750
4321,121.093750
4322,121.093750
4323,121.093750
4324,121.093750
4325,121.093750
4326,121.093750
4327,121.093750
4328,121.093750
4329,121.093750
4330,121.093750
4331,121.093750
4332,121.093750
4333,117.187500
4334,117.187500
4335,117.187500
4336,117.187500
4337,117.187500
4338,117.187500
4339,117.187500
4340,117.187500
4341,117.187500
4342,117.187500
4343,117.187500
4344,117.187500
4345,113.281250
4346,113.281250
4347,113.281250
4348,113.281250
4349,113.281250
4350,113.281250
4351,113.281250
4352,113.281250
4353,113.281250
4354,113.281250
4355,113.281250
4356,113.281250
4357,113.281250
4358,109.375000
4359,109.375000
4360,109.375000
4361,109.375000
4362,109.375000
4363,109.375000
4364,109.375000
4365,109.375000
4366,109.375000
4367,105.468750
4368,109.375000
4369,105.468750
4370,105.468750
4371,105.468750
4372,105.468750
4373,105.468750
4374,105.468750
4375,101.562500
4376,105.468750
4377,101.562500
4378,101.562500
4379,101.562500
4380,101.562500
4381,101.562500
4382,101.562500
4383,101.562500
4384,101.562500
4385,97.656250
4386,97.656250
4387,97.656250
4388,97.656250
4389,97.656250
4390,97.656250
4391,97.656250
4392,93.750000
4393,93.750000
4394,93.750000
4395,93.750000
4396,93.750000
4397,89.843750
4398,93.750000
4399,89.843750
4400,89.843750
4401,89.843750
4402,89.843750
4403,89.843750
4404,89.843750
4405,85.937500
4406,85.937500
4407,85.937500
4408,85.937500
4409,85.937500
4410,85.937500
4411,85.937500
4412,82.031250
4413,82.031250
4414,82.031250
4415,82.031250
4416,82.031250
4417,82.031250
4418,78.125000
4419,78.125000
4420,78.125000
4421,78.125000
4422,78.125000
4423,78.125000
4424,74.218750
4425,74.218750
4426,74.218750
4427,74.218750
4428,70.312500
4429,70.312500
4430,70.312500
4431,70.312500
4432,70.312500
4433,70.312500
4434,70.312500
4435,66.406250
4436,66.406250
4437,66.406250
4438,66.406250
4439,66.406250
4440,62.500000
4441,62.500000
4442,62.500000
4443,62.500000
4444,62.500000
4445,58.593750
4446,58.593750
4447,58.593750
4448,58.593750
4449,58.593750
4450,58.593750
4451,54.687500
4452,54.687500
4453,54.687500
4454,54.687500
4455,50.781250
4456,50.781250
4457,50.781250
4458,50.781250
4459,50.781250
4460,46.875000
4461,46.875000
4462,46.875000
4463,46.875000
4464,46.875000
4465,42.968750
4466,42.968750
4467,42.968750
4468,42.968750
4469,42.968750
4470,39.062500
4471,39.062500
4472,39.062500
4473,39.062500
4474,35.156250
4475,35.156250
4476,35.156250
4477,35.156250
4478,31.250000
4479,31.250000
4480,31.250000
4481,31.250000
4482,27.343750
4483,27.343750
4484,27.343750
4485,27.343750
4486,27.343750
4487,23.437500
4488,23.437500
4489,23.437500
4490,23.437500
4491,19.531250
4492,19.531250
4493,19.531250
4494,19.531250
4495,15.625000
4496,15.625000
4497,15.625000
4498,15.625000
4499,15.625000
4500,11.718750
4501,11.718750
4502,11.718750
4503,11.718750
4504,7.812500
4505,7.812500
4506,7.812500
4507,3.906250
4508,3.906250
4509,3.906250
4510,3.906250
4511,3.906250
4512,0.000000
4513,0.000000
4514,0.000000
4515,0.000000
4516,-3.906250
4517,-3.906250
4518,-3.906250
4519,-3.906250
4520,-7.812500
4521,-7.812500
4522,-11.718750
4523,-11.718750
4524,-11.718750
4525,-11.718750
4526,-11.718750
4527,-11.718750
4528,-15.625000
4529,-15.625000
4530,-15.625000
4531,-19.531250
4532,-19.531250
4533,-19.531250
4534,-19.531250
4535,-19.531250
4536,-23.437500
4537,-23.437500
4538,-23.437500
4539,-23.437500
4540,-27.343750
4541,-27.343750
4542,-27.343750
4543,-31.250000
4544,-31.250000
4545,-31.250000
4546,-31.250000
4547,-31.250000
4548,-35.156250
4549,-35.156250
4550,-35.156250
4551,-35.156250
4552,-39.062500
4553,-39.062500
4554,-39.062500
4555,-42.968750
4556,-42.968750
4557,-42.968750
4558,-42.968750
4559,-46.875000
4560,-46.875000
4561,-46.875000
4562,-46.875000
4563,-50.781250
4564,-50.781250
4565,-50.781250
4566,-50.781250
4567,-54.687500
4568,-54.687500
4569,-54.687500
4570,-54.687500
4571,-54.687500
4572,-58.593750
4573,-58.593750
4574,-58.593750
4575,-58.593750
4576,-62.500000
4577,-62.500000
4578,-62.500000
4579,-62.500000
4580,-66.406250
4581,-66.406250
4582,-66.406250
4583,-70.312500
4584,-70.312500
4585,-70.312500
4586,-70.312500
4587,-70.312500
4588,-74.218750
4589,-74.218750
4590,-74.218750
4591,-74.218750
4592,-78.125000
4593,-78.125000
4594,-78.125000
4595,-78.125000
4596,-82.031250
4597,-82.031250
4598,-82.031250
4599,-82.031250
4600,-85.937500
4601,-85.937500
4602,-85.937500
4603,-85.937500
4604,-85.937500
4605,-89.843750
4606,-89.843750
4607,-89.843750
4608,-89.843750
4609,-93.750000
4610,-93.750000
4611,-93.750000
4612,-97.656250
4613,-97.656250
4614,-97.656250
4615,-97.656250
4616,-97.656250
4617,-97.656250
4618,-101.562500
4619,-101.562500
4620,-101.562500
4621,-101.562500
4622,-105.468750
4623,-105.468750
4624,-105.468750
4625,-105.468750
4626,-109.375000
4627,-109.375000
4628,-109.375000
4629,-109.375000
4630,-109.375000
4631,-109.375000
4632,-113.281250
4633,-113.281250
4634,-113.281250
4635,-113.281250
4636,-113.281250
4637,-117.187500
4638,-117.187500
4639,-117.187500
4640,-117.187500
4641,-121.093750
4642,-121.093750
4643,-121.093750
4644,-121.093750
4645,-125.000000
4646,-121.093750
4647,-125.000000
4648,-125.000000
4649,-125.000000
4650,-125.000000
4651,-128.906250
4652,-128.906250
4653,-128.906250
4654,-128.906250
4655,-128.906250
4656,-132.812500
4657,-132.812500
4658,-132.812500
4659,-132.812500
4660,-132.812500
4661,-132.812500
4662,-136.718750
4663,-136.718750
4664,-136.718750
4665,-136.718750
4666,-136.718750
4667,-136.718750
4668,-140.625000
4669,-140.625000
4670,-140.625000
4671,-140.625000
4672,-140.625000
4673,-140.625000
4674,-144.531250
4675,-144.531250
4676,-144.531250
4677,-144.531250
4678,-144.531250
4679,-144.531250
4680,-144.531250
4681,-148.437500
4682,-148.437500
4683,-148.437500
4684,-148.437500
4685,-148.437500
4686,-152.343750
4687,-148.437500
4688,-152.343750
4689,-152.343750
4690,-152.343750
4691,-152.343750
4692,-152.343750
4693,-152.343750
4694,-156.250000
4695,-156.250000
4696,-156.250000
4697,-156.250000
4698,-156.250000
4699,-156.250000
4700,-156.250000
4701,-156.250000
4702,-156.250000
4703,-156.250000
4704,-160.156250
4705,-160.156250
4706,-160.156250
4707,-160.156250
4708,-160.156250
4709,-160.156250
4710,-160.156250
4711,-160.156250
4712,-160.156250
4713,-164.062500
4714,-164.062500
4715,-164.062500
4716,-164.062500
4717,-164.062500
4718,-164.062500
4719,-164.062500
4720,-164.062500
4721,-164.062500
4722,-164.062500
4723,-164.062500
4724,-167.968750
4725,-167.968750
4726,-167.968750
4727,-167.968750
4728,-167.968750
4729,-167.968750
4730,-167.968750
4731,-167.968750
4732,-167.968750
4733,-167.968750
4734,-167.968750
4735,-167.968750
4736,-167.968750
4737,-167.968750
4738,-167.968750
4739,-171.875000
4740,-171.875000
4741,-171.875000
4742,-171.875000
4743,-171.875000
4744,-171.875000
4745,-171.875000
4746,-171.875000
4747,-171.875000
4748,-171.875000
4749,-171.875000
4750,-171.875000
4751,-171.875000
4752,-171.875000
4753,-171.875000
4754,-171.875000
4755,-171.875000
4756,-171.875000
4757,-171.875000
4758,-171.875000
4759,-171.875000
4760,-171.875000
4761,-171.875000
4762,-171.875000
4763,-171.875000
4764,-171.875000
4765,-171.875000
4766,-175.781250
4767,-171.875000
4768,-171.875000
4769,-171.875000
4770,-171.875000
4771,-171.875000
4772,-175.781250
4773,-175.781250
4774,-171.875000
4775,-171.875000
4776,-175.781250
4777,-171.875000
4778,-171.875000
4779,-171.875000
4780,-171.875000
4781,-171.875000
4782,-171.875000
4783,-171.875000
4784,-171.875000
4785,-171.875000
4786,-171.875000
4787,-171.875000
4788,-171.875000
4789,-171.875000
4790,-171.875000
4791,-171.875000
4792,-171.875000
4793,-171.875000
4794,-171.875000
4795,-171.875000
4796,-171.875000
4797,-171.875000
4798,-171.875000
4799,-171.875000
4800,-171.875000
4801,-167.968750
4802,-167.968750
4803,-167.968750
4804,-167.968750
4805,-167.968750
4806,-167.968750
4807,-167.968750
4808,-167.968750
4809,-167.968750
4810,-167.968750
4811,-167.968750
4812,-167.968750
4813,-167.968750
4814,-167.968750
4815,-167.968750
4816,-164.062500
4817,-164.062500
4818,-164.062500
4819,-167.968750
4820,-164.062500
4821,-164.062500
4822,-164.062500
4823,-164.062500
4824,-164.062500
4825,-164.062500
4826,-164.062500
4827,-164.062500
4828,-160.156250
4829,-160.156250
4830,-160.156250
4831,-160.156250
4832,-160.156250
4833,-160.156250
4834,-160.156250
4835,-156.250000
4836,-156.250000
4837,-156.250000
4838,-156.250000
4839,-156.250000
4840,-156.250000
4841,-156.250000
4842,-156.250000
4843,-152.343750
4844,-152.343750
4845,-152.343750
4846,-152.343750
4847,-152.343750
4848,-152.343750
4849,-152.343750
4850,-148.437500
4851,-148.437500
4852,-148.437500
4853,-148.437500
4854,-148.437500
4855,-148.437500
4856,-148.437500
4857,-144.531250
4858,-144.531250
4859,-144.531250
4860,-144.531250
4861,-144.531250
4862,-144.531250
4863,-140.625000
4864,-140.625000
4865,-140.625000
4866,-144.531250
4867,-140.625000
4868,-140.625000
4869,-140.625000
4870,-140.625000
4871,-136.718750
4872,-136.718750
4873,-136.718750
4874,-136.718750
4875,-136.718750
4876,-132.812500
4877,-132.812500
4878,-132.812500
4879,-132.812500
4880,-132.812500
4881,-128.906250
4882,-128.906250
4883,-128.906250
4884,-128.906250
4885,-128.906250
4886,-128.906250
4887,-128.906250
4888,-125.000000
4889,-125.000000
4890,-125.000000
4891,-125.000000
4892,-125.000000
4893,-121.093750
4894,-121.093750
4895,-121.093750
4896,-121.093750
4897,-117.187500
4898,-117.187500
4899,-117.187500
4900,-117.187500
4901,-117.187500
4902,-117.187500
4903,-113.281250
4904,-113.281250
4905,-113.281250
4906,-113.281250
4907,-113.281250
4908,-109.375000
4909,-109.375000
4910,-109.375000
4911,-109.375000
4912,-105.468750
4913,-105.468750
4914,-105.468750
4915,-105.468750
4916,-105.468750
4917,-105.468750
4918,-101.562500
4919,-101.562500
4920,-101.562500
4921,-101.562500
4922,-101.562500
4923,-101.562500
4924,-97.656250
4925,-97.656250
4926,-93.750000
4927,-93.750000
4928,-93.750000
4929,-93.750000
4930,-89.843750
4931,-89.843750
4932,-89.843750
4933,-89.843750
4934,-89.843750
4935,-85.937500
4936,-85.937500
4937,-85.937500
4938,-85.937500
4939,-82.031250
4940,-82.031250
4941,-82.031250
4942,-82.031250
4943,-82.031250
4944,-78.125000
4945,-78.125000
4946,-78.125000
4947,-78.125000
4948,-74.218750
4949,-74.218750
4950,-74.218750
4951,-74.218750
4952,-70.312500
4953,-70.312500
4954,-70.312500
4955,-66.406250
4956,-70.312500
4957,-66.406250
4958,-66.406250
4959,-66.406250
4960,-62.500000
4961,-62.500000
4962,-62.500000
4963,-62.500000
4964,-62.500000
4965,-58.593750
4966,-58.593750
4967,-58.593750
4968,-54.687500
4969,-54.687500
4970,-54.687500
4971,-54.687500
4972,-50.781250
4973,-50.781250
4974,-50.781250
4975,-50.781250
4976,-46.875000
4977,-46.875000
4978,-46.875000
4979,-46.875000
4980,-42.968750
4981,-42.968750
4982,-42.968750
4983,-42.968750
4984,-42.968750
4985,-39.062500
4986,-39.062500
4987,-39.062500
4988,-35.156250
4989,-35.156250
4990,-35.156250
4991,-35.156250
4992,-35.156250
4993,-31.250000
4994,-31.250000
4995,-31.250000
4996,-31.250000
4997,-31.250000
4998,-27.343750
4999,-27.343750
5000,-23.437500
5001,-23.437500
5002,-23.437500
5003,-23.437500
5004,-19.531250
5005,-19.531250
5006,-19.531250
5007,-19.531250
5008,-19.531250
5009,-15.625000
5010,-15.625000
5011,-15.625000
5012,-11.718750
5013,-11.718750
5014,-11.718750
5015,-11.718750
5016,-11.718750
5017,-7.812500
5018,-7.812500
5019,-7.812500
5020,-7.812500
5021,-3.906250
5022,-3.906250
5023,-3.906250
5024,-3.906250
5025,0.000000
5026,0.000000
5027,0.000000
5028,3.906250
5029,3.906250
5030,3.906250
5031,3.906250
5032,3.906250
5033,7.812500
5034,7.812500
5035,7.812500
5036,7.812500
5037,11.718750
5038,11.718750
5039,11.718750
5040,11.718750
5041,15.625000
5042,15.625000
5043,15.625000
5044,15.625000
5045,19.531250
5046,19.531250
5047,19.531250
5048,19.531250
5049,19.531250
5050,23.437500
5051,23.437500
5052,23.437500
5053,27.343750
5054,27.343750
5055,27.343750
5056,27.343750
5057,27.343750
5058,27.343750
5059,31.250000
5060,31.250000
5061,31.250000
5062,31.250000
5063,35.156250
5064,35.156250
5065,35.156250
5066,35.156250
5067,35.156250
5068,35.156250
5069,39.062500
5070,39.062500
5071,39.062500
5072,42.968750
5073,42.968750
5074,42.968750
5075,42.968750
5076,42.968750
5077,42.968750
5078,46.875000
5079,46.875000
5080,46.875000
5081,46.875000
5082,46.875000
5083,50.781250
5084,50.781250
5085,50.781250
5086,50.781250
5087,54.687500
5088,54.687500
5089,54.687500
5090,54.687500
5091,54.687500
5092,58.593750
5093,58.593750
5094,58.593750
5095,58.593750
5096,58.593750
5097,58.593750
5098,62.500000
5099,62.500000
5100,62.500000
5101,62.500000
5102,66.406250
5103,66.406250
5104,66.406250
5105,66.406250
5106,66.406250
5107,66.406250
5108,66.406250
5109,70.312500
5110,70.312500
5111,70.312500
5112,70.312500
5113,70.312500
5114,74.218750
5115,74.218750
5116,74.218750
5117,74.218750
5118,74.218750
5119,78.125000
5120,78.125000
5121,78.125000
5122,78.125000
5123,78.125000
5124,82.031250
5125,82.031250
5126,82.031250
5127,82.031250
5128,82.031250
5129,82.031250
5130,82.031250
5131,85.937500
5132,85.937500
5133,85.937500
5134,85.937500
5135,85.937500
5136,85.937500
5137,85.937500
5138,89.843750
5139,89.843750
5140,89.843750
5141,89.843750
5142,89.843750
5143,89.843750
5144,93.750000
5145,93.750000
5146,93.750000
5147,93.750000
5148,93.750000
5149,93.750000
5150,93.750000
5151,93.750000
5152,97.656250
5153,97.656250
5154,97.656250
5155,97.656250
5156,97.656250
5157,97.656250
5158,97.656250
5159,97.656250
5160,101.562500
5161,101.562500
5162,101.562500
5163,101.562500
5164,101.562500
5165,101.562500
5166,101.562500
5167,101.562500
5168,105.468750
5169,105.468750
5170,105.468750
5171,105.468750
5172,105.468750
5173,105.468750
5174,105.468750
5175,105.468750
5176,105.468750
5177,105.468750
5178,109.375000
5179,109.375000
5180,109.375000
5181,109.375000
5182,109.375000
5183,109.375000
5184,109.375000
5185,109.375000
5186,109.375000
5187,109.375000
5188,113.281250
5189,109.375000
5190,113.281250
5191,113.281250
5192,113.281250
5193,113.281250
5194,113.281250
5195,113.281250
5196,113.281250
5197,113.281250
5198,113.281250
5199,117.187500
5200,113.281250
5201,117.187500
5202,117.187500
5203,117.187500
5204,117.187500
5205,117.187500
5206,117.187500
5207,117.187500
5208,117.187500
5209,117.187500
5210,117.187500
5211,117.187500
5212,117.187500
5213,121.093750
5214,121.093750
5215,121.093750
5216,121.093750
5217,121.093750
5218,121.093750
5219,121.093750
5220,121.093750
5221,121.093750
5222,121.093750
5223,121.093750
5224,121.093750
5225,121.093750
5226,121.093750
5227,121.093750
5228,121.093750
5229,121.093750
5230,121.093750
5231,125.000000
5232,125.000000
5233,125.000000
5234,125.000000
5235,125.000000
5236,125.000000
5237,125.000000
5238,125.000000
5239,125.000000
5240,125.000000
5241,125.000000
5242,125.000000
5243,125.000000
5244,125.000000
5245,125.000000
5246,125.000000
5247,125.000000
5248,125.000000
5249,125.000000
5250,125.000000
5251,125.000000
5252,125.000000
5253,125.000000
5254,125.000000
5255,125.000000
5256,125.000000
5257,125.000000
5258,125.000000
5259,125.000000
5260,125.000000
5261,125.000000
5262,125.000000
5263,125.000000
5264,125.000000
5265,125.000000
5266,128.906250
5267,125.000000
5268,125.000000
5269,125.000000
5270,125.000000
5271,125.000000
5272,125.000000
5273,125.000000
5274,125.000000
5275,125.000000
5276,125.000000
5277,125.000000
5278,125.000000
5279,125.000000
5280,125.000000
5281,125.000000
5282,125.000000
5283,125.000000
5284,125.000000
5285,125.000000
5286,125.000000
5287,125.000000
5288,125.000000
5289,125.000000
5290,125.000000
5291,125.000000
5292,125.000000
5293,125.000000
5294,125.000000
5295,125.000000
5296,125.000000
5297,125.000000
5298,125.000000
5299,121.093750
5300,125.000000
5301,121.093750
5302,121.093750
5303,121.093750
5304,125.000000
5305,121.093750
5306,121.093750
5307,121.093750
5308,121.093750
5309,121.093750
5310,121.093750
5311,121.093750
5312,121.093750
5313,121.093750
5314,121.093750
5315,121.093750
5316,121.093750
5317,121.093750
5318,121.093750
5319,121.093750
5320,121.093750
5321,117.187500
5322,117.187500
5323,117.187500
5324,117.187500
5325,117.187500
5326,117.187500
5327,117.187500
5328,117.187500
5329,117.187500
5330,117.187500
5331,117.187500
5332,117.187500
5333,117.187500
5334,117.187500
5335,117.187500
5336,117.187500
5337,113.281250
5338,113.281250
5339,113.281250
5340,113.281250
5341,113.281250
5342,113.281250
5343,113.281250
5344,113.281250
5345,113.281250
5346,109.375000
5347,113.281250
5348,109.375000
5349,109.375000
5350,109.375000
5351,109.375000
5352,109.375000
5353,109.375000
5354,109.375000
5355,109.375000
5356,109.375000
5357,105.468750
5358,105.468750
5359,105.468750
5360,105.468750
5361,105.468750
5362,105.468750
5363,105.468750
5364,105.468750
5365,105.468750
5366,105.468750
5367,101.562500
5368,101.562500
5369,101.562500
5370,101.562500
5371,101.562500
5372,101.562500
5373,101.562500
5374,97.656250
5375,97.656250
5376,101.562500
5377,97.656250
5378,97.656250
5379,97.656250
5380,97.656250
5381,93.750000
5382,93.750000
5383,93.750000
5384,93.750000
5385,93.750000
5386,93.750000
5387,93.750000
5388,93.750000
5389,93.750000
5390,89.843750
5391,89.843750
5392,89.843750
5393,89.843750
5394,89.843750
5395,85.937500
5396,85.937500
5397,85.937500
5398,85.937500
5399,85.937500
5400,85.937500
5401,82.031250
5402,82.031250
5403,82.031250
5404,82.031250
5405,82.031250
5406,82.031250
5407,78.125000
5408,78.125000
5409,78.125000
5410,78.125000
5411,78.125000
5412,78.125000
5413,74.218750
5414,74.218750
5415,74.218750
5416,74.218750
5417,74.218750
5418,74.218750
5419,70.312500
5420,70.312500
5421,70.312500
5422,70.312500
5423,70.312500
5424,66.406250
5425,66.406250
5426,66.406250
5427,66.406250
5428,66.406250
5429,66.406250
5430,62.500000
5431,62.500000
5432,62.500000
5433,62.500000
5434,58.593750
5435,58.593750
5436,58.593750
5437,58.593750
5438,58.593750
5439,58.593750
5440,54.687500
5441,54.687500
5442,54.687500
5443,54.687500
5444,50.781250
5445,50.781250
5446,50.781250
5447,50.781250
5448,50.781250
5449,46.875000
5450,46.875000
5451,46.875000
5452,46.875000
5453,46.875000
5454,42.968750
5455,42.968750
5456,42.968750
5457,42.968750
5458,42.968750
5459,39.062500
5460,39.062500
5461,39.062500
5462,39.062500
5463,35.156250
5464,35.156250
5465,35.156250
5466,35.156250
5467,31.250000
5468,31.250000
5469,31.250000
5470,31.250000
5471,31.250000
5472,31.250000
5473,27.343750
5474,27.343750
5475,27.343750
5476,23.437500
5477,23.437500
5478,23.437500
5479,23.437500
5480,23.437500
5481,19.531250
5482,19.531250
5483,19.531250
5484,19.531250
5485,15.625000
5486,15.625000
5487,15.625000
5488,15.625000
5489,15.625000
5490,11.718750
5491,11.718750
5492,11.718750
5493,7.812500
5494,7.812500
5495,7.812500
5496,7.812500
5497,7.812500
5498,3.906250
5499,3.906250
5500,3.906250
5501,3.906250
5502,0.000000
5503,0.000000
5504,0.000000
5505,0.000000
5506,-3.906250
5507,-3.906250
5508,-3.906250
5509,-3.906250
5510,-7.812500
5511,-7.812500
5512,-7.812500
5513,-7.812500
5514,-11.718750
5515,-11.718750
5516,-11.718750
5517,-11.718750
5518,-15.625000
5519,-15.625000
5520,-15.625000
5521,-15.625000
5522,-19.531250
5523,-19.531250
5524,-19.531250
5525,-23.437500
5526,-23.437500
5527,-23.437500
5528,-23.437500
5529,-23.437500
5530,-27.343750
5531,-27.343750
5532,-27.343750
5533,-27.343750
5534,-27.343750
5535,-31.250000
5536,-31.250000
5537,-31.250000
5538,-35.156250
5539,-35.156250
5540,-35.156250
5541,-35.156250
5542,-39.062500
5543,-39.062500
5544,-39.062500
5545,-42.968750
5546,-42.968750
5547,-42.968750
5548,-42.968750
5549,-42.968750
5550,-46.875000
5551,-46.875000
5552,-46.875000
5553,-50.781250
5554,-50.781250
5555,-50.781250
5556,-50.781250
5557,-54.687500
5558,-54.687500
5559,-54.687500
5560,-54.687500
5561,-58.593750
5562,-58.593750
5563,-58.593750
5564,-58.593750
5565,-58.593750
5566,-62.500000
5567,-62.500000
5568,-62.500000
5569,-66.406250
5570,-66.406250
5571,-66.406250
5572,-66.406250
5573,-66.406250
5574,-70.312500
5575,-70.312500
5576,-70.312500
5577,-74.218750
5578,-74.218750
5579,-74.218750
5580,-74.218750
5581,-74.218750
5582,-78.125000
5583,-78.125000
5584,-78.125000
5585,-78.125000
5586,-82.031250
5587,-82.031250
5588,-82.031250
5589,-85.937500
5590,-85.937500
5591,-85.937500
5592,-85.937500
5593,-85.937500
5594,-89.843750
5595,-89.843750
5596,-89.843750
5597,-89.843750
5598,-93.750000
5599,-93.750000
5600,-93.750000
5601,-93.750000
5602,-93.750000
5603,-97.656250
5604,-97.656250
5605,-97.656250
5606,-97.656250
5607,-101.562500
5608,-101.562500
5609,-101.562500
5610,-101.562500
5611,-101.562500
5612,-101.562500
5613,-105.468750
5614,-105.468750
5615,-105.468750
5616,-109.375000
5617,-109.375000
5618,-109.375000
5619,-109.375000
5620,-113.281250
5621,-113.281250
5622,-113.281250
5623,-113.281250
5624,-113.281250
5625,-113.281250
5626,-117.187500
5627,-117.187500
5628,-117.187500
5629,-117.187500
5630,-117.187500
5631,-121.093750
5632,-121.093750
5633,-121.093750
5634,-121.093750
5635,-121.093750
5636,-125.000000
5637,-125.000000
5638,-125.000000
5639,-125.000000
5640,-125.000000
5641,-128.906250
5642,-128.906250
5643,-128.906250
5644,-128.906250
5645,-128.906250
5646,-132.812500
5647,-132.812500
5648,-132.812500
5649,-132.812500
5650,-132.812500
5651,-132.812500
5652,-132.812500
5653,-136.718750
5654,-136.718750
5655,-136.718750
5656,-136.718750
5657,-140.625000
5658,-140.625000
5659,-140.625000
5660,-140.625000
5661,-140.625000
5662,-140.625000
5663,-140.625000
5664,-140.625000
5665,-144.531250
5666,-144.531250
5667,-144.531250
5668,-144.531250
5669,-148.437500
5670,-148.437500
5671,-148.437500
5672,-148.437500
5673,-148.437500
5674,-148.437500
5675,-148.437500
5676,-148.437500
5677,-148.437500
5678,-152.343750
5679,-152.343750
5680,-152.343750
5681,-152.343750
5682,-152.343750
5683,-152.343750
5684,-152.343750
5685,-152.343750
5686,-156.250000
5687,-156.250000
5688,-156.250000
5689,-156.250000
5690,-156.250000
5691,-156.250000
5692,-160.156250
5693,-160.156250
5694,-160.156250
5695,-160.156250
5696,-160.156250
5697,-160.156250
5698,-160.156250
5699,-164.062500
5700,-160.156250
5701,-164.062500
5702,-164.062500
5703,-164.062500
5704,-164.062500
5705,-164.062500
5706,-164.062500
5707,-164.062500
5708,-164.062500
5709,-164.062500
5710,-164.062500
5711,-164.062500
5712,-164.062500
5713,-164.062500
5714,-167.968750
5715,-167.968750
5716,-167.968750
5717,-167.968750
5718,-167.968750
5719,-167.968750
5720,-167.968750
5721,-167.968750
5722,-167.968750
5723,-167.968750
5724,-167.968750
5725,-167.968750
5726,-167.968750
5727,-171.875000
5728,-171.875000
5729,-171.875000
5730,-171.875000
5731,-171.875000
5732,-171.875000
5733,-171.875000
5734,-171.875000
5735,-171.875000
5736,-171.875000
5737,-171.875000
5738,-171.875000
5739,-171.875000
5740,-171.875000
5741,-171.875000
5742,-171.875000
5743,-171.875000
5744,-171.875000
5745,-171.875000
5746,-171.875000
5747,-171.875000
5748,-171.875000
5749,-171.875000
5750,-171.875000
5751,-171.875000
5752,-171.875000
5753,-171.875000
5754,-171.875000
5755,-171.875000
5756,-171.875000
5757,-171.875000
5758,-171.875000
5759,-171.875000
5760,-171.875000
5761,-171.875000
5762,-171.875000
5763,-171.875000
5764,-171.875000
5765,-171.875000
5766,-171.875000
5767,-171.875000
5768,-171.875000
5769,-171.875000
5770,-171.875000
5771,-171.875000
5772,-171.875000
5773,-171.875000
5774,-171.875000
5775,-171.875000
5776,-171.875000
5777,-171.875000
5778,-171.875000
5779,-171.875000
5780,-171.875000
5781,-171.875000
5782,-171.875000
5783,-171.875000
5784,-171.875000
5785,-171.875000
5786,-171.875000
5787,-171.875000
5788,-171.875000
5789,-167.968750
5790,-167.968750
5791,-171.875000
5792,-167.968750
5793,-167.968750
5794,-167.968750
5795,-167.968750
5796,-167.968750
5797,-167.968750
5798,-167.968750
5799,-167.968750
5800,-167.968750
5801,-167.968750
5802,-167.968750
5803,-167.968750
5804,-167.968750
5805,-167.968750
5806,-164.062500
5807,-164.062500
5808,-164.062500
5809,-164.062500
5810,-164.062500
5811,-164.062500
5812,-164.062500
5813,-164.062500
5814,-164.062500
5815,-160.156250
5816,-160.156250
5817,-160.156250
5818,-160.156250
5819,-160.156250
5820,-160.156250
5821,-160.156250
5822,-160.156250
5823,-160.156250
5824,-160.156250
5825,-156.250000
5826,-156.250000
5827,-156.250000
5828,-156.250000
5829,-156.250000
5830,-156.250000
5831,-156.250000
5832,-156.250000
5833,-156.250000
5834,-156.250000
5835,-152.343750
5836,-152.343750
5837,-152.343750
5838,-152.343750
5839,-152.343750
5840,-152.343750
5841,-152.343750
5842,-148.437500
5843,-148.437500
5844,-148.437500
5845,-148.437500
5846,-148.437500
5847,-148.437500
5848,-144.531250
5849,-144.531250
5850,-144.531250
5851,-144.531250
5852,-144.531250
5853,-144.531250
5854,-144.531250
5855,-140.625000
5856,-140.625000
5857,-140.625000
5858,-140.625000
5859,-140.625000
5860,-136.718750
5861,-136.718750
5862,-136.718750
5863,-136.718750
5864,-136.718750
5865,-136.718750
5866,-136.718750
5867,-132.812500
5868,-132.812500
5869,-132.812500
5870,-132.812500
5871,-132.812500
5872,-128.906250
5873,-128.906250
5874,-128.906250
5875,-128.906250
5876,-128.906250
5877,-125.000000
5878,-125.000000
5879,-125.000000
5880,-125.000000
5881,-125.000000
5882,-125.000000
5883,-121.093750
5884,-121.093750
5885,-121.093750
5886,-121.093750
5887,-117.187500
5888,-117.187500
5889,-117.187500
5890,-117.187500
5891,-117.187500
5892,-117.187500
5893,-113.281250
5894,-113.281250
5895,-113.281250
5896,-113.281250
5897,-113.281250
5898,-109.375000
5899,-109.375000
5900,-109.375000
5901,-109.375000
5902,-105.468750
5903,-105.468750
5904,-105.468750
5905,-105.468750
5906,-105.468750
5907,-101.562500
5908,-101.562500
5909,-101.562500
5910,-101.562500
5911,-97.656250
5912,-97.656250
5913,-97.656250
5914,-97.656250
5915,-97.656250
5916,-93.750000
5917,-93.750000
5918,-93.750000
5919,-93.750000
5920,-93.750000
5921,-89.843750
5922,-89.843750
5923,-89.843750
5924,-89.843750
5925,-85.937500
5926,-85.937500
5927,-85.937500
5928,-85.937500
5929,-82.031250
5930,-82.031250
5931,-82.031250
5932,-82.031250
5933,-82.031250
5934,-78.125000
5935,-78.125000
5936,-78.125000
5937,-78.125000
5938,-74.218750
5939,-74.218750
5940,-74.218750
5941,-70.312500
5942,-70.312500
5943,-70.312500
5944,-70.312500
5945,-70.312500
5946,-66.406250
5947,-66.406250
5948,-66.406250
5949,-62.500000
5950,-62.500000
5951,-62.500000
5952,-62.500000
5953,-62.500000
5954,-58.593750
5955,-58.593750
5956,-58.593750
5957,-58.593750
5958,-54.687500
5959,-54.687500
5960,-54.687500
5961,-54.687500
5962,-50.781250
5963,-50.781250
5964,-50.781250
5965,-50.781250
5966,-50.781250
5967,-46.875000
5968,-46.875000
5969,-46.875000
5970,-42.968750
5971,-42.968750
5972,-42.968750
5973,-42.968750
5974,-42.968750
5975,-39.062500
5976,-39.062500
5977,-39.062500
5978,-35.156250
5979,-35.156250
5980,-35.156250
5981,-35.156250
5982,-31.250000
5983,-31.250000
5984,-31.250000
5985,-31.250000
5986,-31.250000
5987,-27.343750
5988,-27.343750
5989,-27.343750
5990,-23.437500
5991,-23.437500
5992,-23.437500
5993,-23.437500
5994,-23.437500
5995,-19.531250
5996,-19.531250
5997,-19.531250
5998,-15.625000
5999,-15.625000
6000,-15.625000
6001,-15.625000
6002,-11.718750
6003,-11.718750
6004,-11.718750
6005,-11.718750
6006,-7.812500
6007,-7.812500
6008,-7.812500
6009,-7.812500
6010,-3.906250
6011,-3.906250
6012,-3.906250
6013,-3.906250
6014,0.000000
6015,0.000000
6016,0.000000
6017,0.000000
6018,3.906250
6019,3.906250
6020,3.906250
6021,3.906250
6022,3.906250
6023,7.812500
6024,7.812500
6025,7.812500
6026,7.812500
6027,11.718750
6028,11.718750
6029,11.718750
6030,11.718750
6031,15.625000
6032,15.625000
6033,15.625000
6034,15.625000
6035,15.625000
6036,19.531250
6037,19.531250
6038,19.531250
6039,19.531250
6040,23.437500
6041,23.437500
6042,23.437500
6043,23.437500
6044,27.343750
6045,27.343750
6046,27.343750
6047,27.343750
6048,27.343750
6049,31.250000
6050,31.250000
6051,31.250000
6052,31.250000
6053,35.156250
6054,35.156250
6055,35.156250
6056,35.156250
6057,39.062500
6058,39.062500
6059,39.062500
6060,39.062500
6061,39.062500
6062,42.968750
6063,42.968750
6064,42.968750
6065,42.968750
6066,42.968750
6067,42.968750
6068,46.875000
6069,46.875000
6070,46.875000
6071,46.875000
6072,46.875000
6073,50.781250
6074,50.781250
6075,50.781250
6076,50.781250
6077,50.781250
6078,54.687500
6079,54.687500
6080,54.687500
6081,54.687500
6082,58.593750
6083,58.593750
6084,58.593750
6085,58.593750
6086,58.593750
6087,58.593750
6088,62.500000
6089,62.500000
6090,62.500000
6091,62.500000
6092,62.500000
6093,66.406250
6094,66.406250
6095,66.406250
6096,66.406250
6097,66.406250
6098,66.406250
6099,70.312500
6100,70.312500
6101,70.312500
6102,70.312500
6103,74.218750
6104,74.218750
6105,74.218750
6106,74.218750
6107,74.218750
6108,74.218750
6109,74.218750
6110,78.125000
6111,78.125000
6112,78.125000
6113,78.125000
6114,78.125000
6115,82.031250
6116,82.031250
6117,82.031250
6118,82.031250
6119,82.031250
6120,82.031250
6121,82.031250
6122,85.937500
6123,85.937500
6124,85.937500
6125,85.937500
6126,85.937500
6127,85.937500
6128,85.937500
6129,89.843750
6130,89.843750
6131,89.843750
6132,89.843750
6133,89.843750
6134,89.843750
6135,93.750000
6136,93.750000
6137,93.750000
6138,93.750000
6139,93.750000
6140,93.750000
6141,93.750000
6142,97.656250
6143,97.656250
6144,97.656250
6145,97.656250
6146,97.656250
6147,97.656250
6148,97.656250
6149,97.656250
6150,101.562500
6151,101.562500
6152,101.562500
6153,101.562500
6154,101.562500
6155,101.562500
6156,105.468750
6157,101.562500
6158,105.468750
6159,105.468750
6160,105.468750
6161,105.468750
6162,105.468750
6163,105.468750
6164,105.468750
6165,109.375000
6166,109.375000
6167,109.375000
6168,109.375000
6169,109.375000
6170,109.375000
6171,109.375000
6172,109.375000
6173,109.375000
6174,109.375000
6175,113.281250
6176,113.281250
6177,113.281250
6178,113.281250
6179,113.281250
6180,113.281250
6181,113.281250
6182,113.281250
6183,113.281250
6184,113.281250
6185,113.281250
6186,113.281250
6187,113.281250
6188,117.187500
6189,117.187500
6190,117.187500
6191,117.187500
6192,117.187500
6193,117.187500
6194,117.187500
6195,117.187500
6196,117.187500
6197,117.187500
6198,117.187500
6199,117.187500
6200,117.187500
6201,117.187500
6202,117.187500
6203,117.187500
6204,121.093750
6205,121.093750
6206,121.093750
6207,121.093750
6208,121.093750
6209,121.093750
6210,121.093750
6211,121.093750
6212,121.093750
6213,121.093750
6214,121.093750
6215,121.093750
6216,121.093750
6217,121.093750
6218,121.093750
6219,121.093750
6220,121.093750
6221,121.093750
6222,121.093750
6223,121.093750
6224,125.000000
6225,125.000000
6226,125.000000
6227,125.000000
6228,125.000000
6229,125.000000
6230,125.000000
6231,125.000000
6232,125.000000
6233,125.000000
6234,125.000000
6235,125.000000
6236,125.000000
6237,125.000000
6238,125.000000
6239,125.000000
6240,125.000000
6241,125.000000
6242,125.000000
6243,125.000000
6244,125.000000
6245,125.000000
6246,125.000000
6247,125.000000
6248,125.000000
6249,125.000000
6250,125.000000
6251,125.000000
6252,125.000000
6253,125.000000
6254,125.000000
6255,125.000000
6256,125.000000
6257,125.000000
6258,128.906250
6259,125.000000
6260,125.000000
6261,125.000000
6262,125.000000
6263,125.000000
6264,125.000000
6265,125.000000
6266,125.000000
6267,125.000000
6268,125.000000
6269,125.000000
6270,125.000000
6271,125.000000
6272,125.000000
6273,125.000000
6274,125.000000
6275,125.000000
6276,125.000000
6277,125.000000
6278,125.000000
6279,125.000000
6280,125.000000
6281,125.000000
6282,125.000000
6283,125.000000
6284,125.000000
6285,125.000000
6286,125.000000
6287,125.000000
6288,125.000000
6289,121.093750
6290,125.000000
6291,125.000000
6292,125.000000
6293,125.000000
6294,125.000000
6295,121.093750
6296,121.093750
6297,125.000000
6298,121.093750
6299,121.093750
6300,121.093750
6301,121.093750
6302,121.093750
6303,121.093750
6304,121.093750
6305,121.093750
6306,121.093750
6307,121.093750
6308,121.093750
6309,121.093750
6310,117.187500
6311,117.187500
6312,117.187500
6313,117.187500
6314,117.187500
6315,117.187500
6316,117.187500
6317,117.187500
6318,117.187500
6319,117.187500
6320,117.187500
6321,117.187500
6322,117.187500
6323,113.281250
6324,113.281250
6325,113.281250
6326,113.281250
6327,113.281250
6328,113.281250
6329,113.281250
6330,113.281250
6331,113.281250
6332,113.281250
6333,113.281250
6334,113.281250
6335,113.281250
6336,113.281250
6337,109.375000
6338,113.281250
6339,109.375000
6340,109.375000
6341,109.375000
6342,109.375000
6343,109.375000
6344,109.375000
6345,109.375000
6346,109.375000
6347,105.468750
6348,105.468750
6349,105.468750
6350,105.468750
6351,105.468750
6352,105.468750
6353,105.468750
6354,105.468750
6355,101.562500
6356,101.562500
6357,101.562500
6358,101.562500
6359,101.562500
6360,101.562500
6361,101.562500
6362,101.562500
6363,97.656250
6364,97.656250
6365,97.656250
6366,97.656250
6367,97.656250
6368,97.656250
6369,93.750000
6370,97.656250
6371,93.750000
6372,93.750000
6373,93.750000
6374,93.750000
6375,93.750000
6376,93.750000
6377,93.750000
6378,93.750000
6379,89.843750
6380,89.843750
6381,89.843750
6382,89.843750
6383,89.843750
6384,89.843750
6385,85.937500
6386,85.937500
6387,85.937500
6388,85.937500
6389,85.937500
6390,85.937500
6391,82.031250
6392,82.031250
6393,82.031250
6394,82.031250
6395,82.031250
6396,82.031250
6397,78.125000
6398,78.125000
6399,78.125000
6400,78.125000
6401,78.125000
6402,78.125000
6403,78.125000
6404,74.218750
6405,74.218750
6406,74.218750
6407,74.218750
6408,70.312500
6409,70.312500
6410,70.312500
6411,70.312500
6412,70.312500
6413,70.312500
6414,70.312500
6415,66.406250
6416,66.406250
6417,66.406250
6418,66.406250
6419,66.406250
6420,62.500000
6421,62.500000
6422,62.500000
6423,62.500000
6424,62.500000
6425,62.500000
6426,58.593750
6427,58.593750
6428,58.593750
6429,54.687500
6430,54.687500
6431,54.687500
6432,54.687500
6433,54.687500
6434,50.781250
6435,50.781250
6436,50.781250
6437,50.781250
6438,50.781250
6439,50.781250
6440,46.875000
6441,46.875000
6442,46.875000
6443,46.875000
6444,46.875000
6445,42.968750
6446,42.968750
6447,42.968750
6448,42.968750
6449,39.062500
6450,39.062500
6451,39.062500
6452,39.062500
6453,35.156250
6454,35.156250
6455,35.156250
6456,35.156250
6457,35.156250
6458,31.250000
6459,31.250000
6460,31.250000
6461,27.343750
6462,27.343750
6463,27.343750
6464,27.343750
6465,27.343750
6466,23.437500
6467,23.437500
6468,23.437500
6469,23.437500
6470,23.437500
6471,19.531250
6472,19.531250
6473,19.531250
6474,15.625000
6475,15.625000
6476,15.625000
6477,15.625000
6478,15.625000
6479,11.718750
6480,11.718750
6481,11.718750
6482,11.718750
6483,7.812500
6484,7.812500
6485,7.812500
6486,7.812500
6487,3.906250
6488,3.906250
6489,3.906250
6490,0.000000
6491,0.000000
6492,0.000000
6493,0.000000
6494,0.000000
6495,0.000000
6496,-3.906250
6497,-3.906250
6498,-3.906250
6499,-7.812500
6500,-7.812500
6501,-7.812500
6502,-7.812500
6503,-7.812500
6504,-11.718750
6505,-11.718750
6506,-11.718750
6507,-15.625000
6508,-15.625000
6509,-15.625000
6510,-15.625000
6511,-19.531250
6512,-19.531250
6513,-19.531250
6514,-19.531250
6515,-19.531250
6516,-23.437500
6517,-23.437500
6518,-23.437500
6519,-23.437500
6520,-27.343750
6521,-27.343750
6522,-27.343750
6523,-31.250000
6524,-31.250000
6525,-31.250000
6526,-31.250000
6527,-31.250000
6528,-35.156250
6529,-35.156250
6530,-35.156250
6531,-39.062500
6532,-39.062500
6533,-39.062500
6534,-39.062500
6535,-42.968750
6536,-42.968750
6537,-42.968750
6538,-42.968750
6539,-46.875000
6540,-46.875000
6541,-46.875000
6542,-46.875000
6543,-50.781250
6544,-50.781250
6545,-50.781250
6546,-50.781250
6547,-54.687500
6548,-54.687500
6549,-54.687500
6550,-54.687500
6551,-58.593750
6552,-58.593750
6553,-58.593750
6554,-58.593750
6555,-62.500000
6556,-62.500000
6557,-62.500000
6558,-62.500000
6559,-66.406250
6560,-66.406250
6561,-66.406250
6562,-70.312500
6563,-70.312500
6564,-70.312500
6565,-70.312500
6566,-70.312500
6567,-70.312500
6568,-74.218750
6569,-74.218750
6570,-74.218750
6571,-78.125000
6572,-78.125000
6573,-78.125000
6574,-78.125000
6575,-78.125000
6576,-82.031250
6577,-82.031250
6578,-82.031250
6579,-85.937500
6580,-85.937500
6581,-85.937500
6582,-85.937500
6583,-89.843750
6584,-89.843750
6585,-89.843750
6586,-89.843750
6587,-93.750000
6588,-93.750000
6589,-93.750000
6590,-93.750000
6591,-93.750000
6592,-97.656250
6593,-97.656250
6594,-97.656250
6595,-97.656250
6596,-101.562500
6597,-101.562500
6598,-101.562500
6599,-101.562500
6600,-101.562500
6601,-105.468750
6602,-105.468750
6603,-105.468750
6604,-105.468750
6605,-105.468750
6606,-109.375000
6607,-109.375000
6608,-109.375000
6609,-109.375000
6610,-113.281250
6611,-113.281250
6612,-113.281250
6613,-113.281250
6614,-113.281250
6615,-113.281250
6616,-117.187500
6617,-117.187500
6618,-117.187500
6619,-117.187500
6620,-121.093750
6621,-121.093750
6622,-121.093750
6623,-121.093750
6624,-121.093750
6625,-125.000000
6626,-125.000000
6627,-125.000000
6628,-125.000000
6629,-125.000000
6630,-125.000000
6631,-128.906250
6632,-128.906250
6633,-128.906250
6634,-128.906250
6635,-128.906250
6636,-132.812500
6637,-132.812500
6638,-132.812500
6639,-132.812500
6640,-132.812500
6641,-132.812500
6642,-136.718750
6643,-136.718750
6644,-136.718750
6645,-136.718750
6646,-136.718750
6647,-140.625000
6648,-136.718750
6649,-140.625000
6650,-140.625000
6651,-140.625000
6652,-140.625000
6653,-144.531250
6654,-144.531250
6655,-144.531250
6656,-144.531250
6657,-144.531250
6658,-144.531250
6659,-144.531250
6660,-148.437500
6661,-148.437500
6662,-148.437500
6663,-148.437500
6664,-148.437500
6665,-148.437500
6666,-148.437500
6667,-148.437500
6668,-152.343750
6669,-152.343750
6670,-152.343750
6671,-152.343750
6672,-152.343750
6673,-152.343750
6674,-156.250000
6675,-156.250000
6676,-156.250000
6677,-156.250000
6678,-156.250000
6679,-156.250000
6680,-156.250000
6681,-156.250000
6682,-160.156250
6683,-160.156250
6684,-160.156250
6685,-160.156250
6686,-160.156250
6687,-160.156250
6688,-160.156250
6689,-160.156250
6690,-164.062500
6691,-160.156250
6692,-164.062500
6693,-164.062500
6694,-164.062500
6695,-164.062500
6696,-167.968750
6697,-164.062500
6698,-164.062500
6699,-164.062500
6700,-164.062500
6701,-164.062500
6702,-164.062500
6703,-164.062500
6704,-167.968750
6705,-167.968750
6706,-167.968750
6707,-167.968750
6708,-167.968750
6709,-167.968750
6710,-167.968750
6711,-167.968750
6712,-167.968750
6713,-167.968750
6714,-167.968750
6715,-167.968750
6716,-167.968750
6717,-167.968750
6718,-171.875000
6719,-171.875000
6720,-171.875000
6721,-171.875000
6722,-171.875000
6723,-171.875000
6724,-171.875000
6725,-171.875000
6726,-171.875000
6727,-171.875000
6728,-171.875000
6729,-171.875000
6730,-171.875000
6731,-171.875000
6732,-171.875000
6733,-171.875000
6734,-175.781250
6735,-171.875000
6736,-171.875000
6737,-171.875000
6738,-171.875000
6739,-171.875000
6740,-171.875000
6741,-171.875000
6742,-175.781250
6743,-171.875000
6744,-171.875000
6745,-171.875000
6746,-171.875000
6747,-171.875000
6748,-171.875000
6749,-171.875000
6750,-171.875000
6751,-171.875000
6752,-171.875000
6753,-171.875000
6754,-171.875000
6755,-171.875000
6756,-171.875000
6757,-171.875000
6758,-171.875000
6759,-171.875000
6760,-171.875000
6761,-171.875000
6762,-171.875000
6763,-171.875000
6764,-171.875000
6765,-171.875000
6766,-171.875000
6767,-171.875000
6768,-171.875000
6769,-171.875000
6770,-171.875000
6771,-171.875000
6772,-171.875000
6773,-171.875000
6774,-171.875000
6775,-171.875000
6776,-171.875000
6777,-171.875000
6778,-167.968750
6779,-171.875000
6780,-167.968750
6781,-167.968750
6782,-167.968750
6783,-167.968750
6784,-167.968750
6785,-167.968750
6786,-167.968750
6787,-167.968750
6788,-167.968750
6789,-167.968750
6790,-164.062500
6791,-167.968750
6792,-167.968750
6793,-167.968750
6794,-167.968750
6795,-164.062500
6796,-164.062500
6797,-164.062500
6798,-164.062500
6799,-164.062500
6800,-164.062500
6801,-164.062500
6802,-164.062500
6803,-164.062500
6804,-164.062500
6805,-160.156250
6806,-160.156250
6807,-160.156250
6808,-160.156250
6809,-160.156250
6810,-160.156250
6811,-160.156250
6812,-160.156250
6813,-160.156250
6814,-160.156250
6815,-156.250000
6816,-156.250000
6817,-156.250000
6818,-156.250000
6819,-156.250000
6820,-156.250000
6821,-156.250000
6822,-156.250000
6823,-156.250000
6824,-152.343750
6825,-152.343750
6826,-152.343750
6827,-152.343750
6828,-152.343750
6829,-152.343750
6830,-148.437500
6831,-148.437500
6832,-152.343750
6833,-148.437500
6834,-148.437500
6835,-148.437500
6836,-148.437500
6837,-148.437500
6838,-148.437500
6839,-144.531250
6840,-144.531250
6841,-144.531250
6842,-144.531250
6843,-144.531250
6844,-144.531250
6845,-140.625000
6846,-140.625000
6847,-140.625000
6848,-140.625000
6849,-140.625000
6850,-136.718750
6851,-136.718750
6852,-136.718750
6853,-136.718750
6854,-136.718750
6855,-136.718750
6856,-136.718750
6857,-136.718750
6858,-132.812500
6859,-132.812500
6860,-132.812500
6861,-132.812500
6862,-132.812500
6863,-128.906250
6864,-128.906250
6865,-128.906250
6866,-128.906250
6867,-125.000000
6868,-128.906250
6869,-125.000000
6870,-125.000000
6871,-125.000000
6872,-121.093750
6873,-121.093750
6874,-121.093750
6875,-121.093750
6876,-121.093750
6877,-121.093750
6878,-117.187500
6879,-117.187500
6880,-117.187500
6881,-117.187500
6882,-113.281250
6883,-113.281250
6884,-113.281250
6885,-113.281250
6886,-113.281250
6887,-109.375000
6888,-109.375000
6889,-109.375000
6890,-109.375000
6891,-109.375000
6892,-105.468750
6893,-105.468750
6894,-105.468750
6895,-105.468750
6896,-101.562500
6897,-101.562500
6898,-101.562500
6899,-101.562500
6900,-101.562500
6901,-97.656250
6902,-97.656250
6903,-97.656250
6904,-97.656250
6905,-97.656250
6906,-93.750000
6907,-93.750000
6908,-93.750000
6909,-93.750000
6910,-89.843750
6911,-89.843750
6912,-89.843750
6913,-89.843750
6914,-85.937500
6915,-85.937500
6916,-85.937500
6917,-85.937500
6918,-85.937500
6919,-82.031250
6920,-82.031250
6921,-82.031250
6922,-82.031250
6923,-78.125000
6924,-78.125000
6925,-78.125000
6926,-78.125000
6927,-74.218750
6928,-74.218750
6929,-74.218750
6930,-74.218750
6931,-70.312500
6932,-70.312500
6933,-70.312500
6934,-70.312500
6935,-70.312500
6936,-66.406250
6937,-66.406250
6938,-66.406250
6939,-66.406250
6940,-62.500000
6941,-62.500000
6942,-62.500000
6943,-62.500000
6944,-58.593750
6945,-58.593750
6946,-58.593750
6947,-54.687500
6948,-54.687500
6949,-54.687500
6950,-54.687500
6951,-54.687500
6952,-50.781250
6953,-50.781250
6954,-50.781250
6955,-50.781250
6956,-46.875000
6957,-46.875000
6958,-46.875000
6959,-46.875000
6960,-42.968750
6961,-42.968750
6962,-42.968750
6963,-42.968750
6964,-39.062500
6965,-39.062500
6966,-39.062500
6967,-39.062500
6968,-35.156250
6969,-35.156250
6970,-35.156250
6971,-35.156250
6972,-31.250000
6973,-31.250000
6974,-31.250000
6975,-31.250000
6976,-31.250000
6977,-27.343750
6978,-27.343750
6979,-27.343750
6980,-23.437500
6981,-23.437500
6982,-23.437500
6983,-23.437500
6984,-23.437500
6985,-19.531250
6986,-19.531250
6987,-19.531250
6988,-15.625000
6989,-15.625000
6990,-15.625000
6991,-15.625000
6992,-11.718750
6993,-11.718750
6994,-11.718750
6995,-11.718750
6996,-7.812500
6997,-7.812500
6998,-7.812500
6999,-7.812500
7000,-3.906250
7001,-3.906250
7002,-3.906250
7003,-3.906250
7004,0.000000
7005,0.000000
7006,0.000000
7007,0.000000
7008,3.906250
7009,3.906250
7010,3.906250
7011,3.906250
7012,3.906250
7013,7.812500
7014,7.812500
7015,7.812500
7016,7.812500
7017,11.718750
7018,11.718750
7019,11.718750
7020,11.718750
7021,15.625000
7022,15.625000
7023,15.625000
7024,15.625000
7025,19.531250
7026,19.531250
7027,19.531250
7028,19.531250
7029,19.531250
7030,23.437500
7031,23.437500
7032,23.437500
7033,23.437500
7034,27.343750
7035,27.343750
7036,27.343750
7037,27.343750
7038,31.250000
7039,31.250000
7040,31.250000
7041,31.250000
7042,31.250000
7043,31.250000
7044,35.156250
7045,35.156250
7046,35.156250
7047,35.156250
7048,39.062500
7049,39.062500
7050,39.062500
7051,39.062500
7052,42.968750
7053,42.968750
7054,42.968750
7055,42.968750
7056,46.875000
7057,46.875000
7058,46.875000
7059,46.875000
7060,46.875000
7061,46.875000
7062,50.781250
7063,50.781250
7064,50.781250
7065,50.781250
7066,54.687500
7067,54.687500
7068,54.687500
7069,54.687500
7070,54.687500
7071,58.593750
7072,58.593750
7073,58.593750
7074,58.593750
7075,58.593750
7076,58.593750
7077,62.500000
7078,62.500000
7079,62.500000
7080,62.500000
7081,62.500000
7082,66.406250
7083,66.406250
7084,66.406250
7085,66.406250
7086,66.406250
7087,70.312500
7088,70.312500
7089,70.312500
7090,70.312500
7091,70.312500
7092,70.312500
7093,70.312500
7094,74.218750
7095,74.218750
7096,74.218750
7097,74.218750
7098,78.125000
7099,78.125000
7100,78.125000
7101,78.125000
7102,78.125000
7103,78.125000
7104,78.125000
7105,82.031250
7106,82.031250
7107,82.031250
7108,82.031250
7109,82.031250
7110,82.031250
7111,82.031250
7112,85.937500
7113,85.937500
7114,85.937500
7115,85.937500
7116,85.937500
7117,89.843750
7118,89.843750
7119,89.843750
7120,89.843750
7121,89.843750
7122,89.843750
7123,89.843750
7124,89.843750
7125,93.750000
7126,93.750000
7127,93.750000
7128,93.750000
7129,93.750000
7130,93.750000
7131,93.750000
7132,97.656250
7133,97.656250
7134,97.656250
7135,97.656250
7136,97.656250
7137,97.656250
7138,101.562500
7139,101.562500
7140,101.562500
7141,101.562500
7142,101.562500
7143,101.562500
7144,101.562500
7145,101.562500
7146,105.468750
7147,105.468750
7148,105.468750
7149,105.468750
7150,105.468750
7151,105.468750
7152,105.468750
7153,105.468750
7154,105.468750
7155,105.468750
7156,109.375000
7157,109.375000
7158,109.375000
7159,109.375000
7160,109.375000
7161,109.375000
7162,109.375000
7163,109.375000
7164,109.375000
7165,113.281250
7166,109.375000
7167,113.281250
7168,113.281250
7169,113.281250
7170,113.281250
7171,113.281250
7172,113.281250
7173,113.281250
7174,113.281250
7175,113.281250
7176,113.281250
7177,113.281250
7178,117.187500
7179,113.281250
7180,117.187500
7181,117.187500
7182,117.187500
7183,117.187500
7184,117.187500
7185,117.187500
7186,117.187500
7187,117.187500
7188,117.187500
7189,117.187500
7190,117.187500
7191,117.187500
7192,121.093750
7193,121.093750
7194,121.093750
7195,121.093750
7196,121.093750
7197,121.093750
7198,121.093750
7199,121.093750
7200,121.093750
7201,121.093750
7202,121.093750
7203,121.093750
7204,121.093750
7205,121.093750
7206,121.093750
7207,121.093750
7208,121.093750
7209,121.093750
7210,125.000000
7211,121.093750
7212,125.000000
7213,125.000000
7214,125.000000
7215,125.000000
7216,125.000000
7217,125.000000
7218,125.000000
7219,125.000000
7220,125.000000
7221,125.000000
7222,125.000000
7223,125.000000
7224,125.000000
7225,125.000000
7226,125.000000
7227,125.000000
7228,125.000000
7229,125.000000
7230,125.000000
7231,125.000000
7232,125.000000
7233,125.000000
7234,125.000000
7235,125.000000
7236,125.000000
7237,125.000000
7238,125.000000
7239,125.000000
7240,125.000000
7241,125.000000
7242,125.000000
7243,125.000000
7244,125.000000
7245,125.000000
7246,128.906250
7247,125.000000
7248,125.000000
7249,125.000000
7250,125.000000
7251,125.000000
7252,125.000000
7253,125.000000
7254,125.000000
7255,125.000000
7256,125.000000
7257,125.000000
7258,125.000000
7259,125.000000
7260,125.000000
7261,125.000000
7262,125.000000
7263,125.000000
7264,125.000000
7265,125.000000
7266,125.000000
7267,125.000000
7268,125.000000
7269,125.000000
7270,125.000000
7271,125.000000
7272,125.000000
7273,125.000000
7274,125.000000
7275,125.000000
7276,125.000000
7277,125.000000
7278,125.000000
7279,121.093750
7280,125.000000
7281,121.093750
7282,125.000000
7283,125.000000
7284,121.093750
7285,121.093750
7286,121.093750
7287,121.093750
7288,121.093750
7289,121.093750
7290,121.093750
7291,121.093750
7292,121.093750
7293,121.093750
7294,121.093750
7295,121.093750
7296,121.093750
7297,121.093750
7298,121.093750
7299,117.187500
7300,121.093750
7301,121.093750
7302,117.187500
7303,117.187500
7304,117.187500
7305,117.187500
7306,117.187500
7307,117.187500
7308,117.187500
7309,117.187500
7310,117.187500
7311,117.187500
7312,117.187500
7313,117.187500
7314,117.187500
7315,113.281250
7316,113.281250
7317,113.281250
7318,113.281250
7319,113.281250
7320,113.281250
7321,113.281250
7322,113.281250
7323,113.281250
7324,113.281250
7325,113.281250
7326,109.375000
7327,109.375000
7328,109.375000
7329,109.375000
7330,109.375000
7331,109.375000
7332,109.375000
7333,109.375000
7334,109.375000
7335,109.375000
7336,109.375000
7337,105.468750
7338,105.468750
7339,105.468750
7340,105.468750
7341,105.468750
7342,105.468750
7343,105.468750
7344,105.468750
7345,101.562500
7346,101.562500
7347,101.562500
7348,101.562500
7349,101.562500
7350,101.562500
7351,101.562500
7352,101.562500
7353,101.562500
7354,97.656250
7355,97.656250
7356,97.656250
7357,97.656250
7358,97.656250
7359,97.656250
7360,97.656250
7361,97.656250
7362,93.750000
7363,93.750000
7364,93.750000
7365,93.750000
7366,93.750000
7367,93.750000
7368,89.843750
7369,89.843750
7370,89.843750
7371,89.843750
7372,89.843750
7373,89.843750
7374,85.937500
7375,85.937500
7376,85.937500
7377,85.937500
7378,85.937500
7379,85.937500
7380,85.937500
7381,82.031250
7382,82.031250
7383,82.031250
7384,82.031250
7385,82.031250
7386,82.031250
7387,78.125000
7388,78.125000
7389,78.125000
7390,78.125000
7391,78.125000
7392,78.125000
7393,78.125000
7394,74.218750
7395,74.218750
7396,74.218750
7397,70.312500
7398,74.218750
7399,70.312500
7400,70.312500
7401,70.312500
7402,70.312500
7403,70.312500
7404,66.406250
7405,66.406250
7406,66.406250
7407,66.406250
7408,66.406250
7409,66.406250
7410,66.406250
7411,62.500000
7412,62.500000
7413,62.500000
7414,62.500000
7415,58.593750
7416,58.593750
7417,58.593750
7418,58.593750
7419,58.593750
7420,54.687500
7421,54.687500
7422,54.687500
7423,54.687500
7424,54.687500
7425,50.781250
7426,50.781250
7427,50.781250
7428,50.781250
7429,46.875000
7430,46.875000
7431,46.875000
7432,46.875000
7433,46.875000
7434,42.968750
7435,42.968750
7436,42.968750
7437,42.968750
7438,42.968750
7439,39.062500
7440,39.062500
7441,39.062500
7442,39.062500
7443,35.156250
7444,35.156250
7445,35.156250
7446,35.156250
7447,31.250000
7448,31.250000
7449,31.250000
7450,31.250000
7451,31.250000
7452,27.343750
7453,27.343750
7454,27.343750
7455,27.343750
7456,23.437500
7457,23.437500
7458,23.437500
7459,23.437500
7460,19.531250
7461,19.531250
7462,19.531250
7463,19.531250
7464,19.531250
7465,15.625000
7466,15.625000
7467,15.625000
7468,15.625000
7469,11.718750
7470,11.718750
7471,11.718750
7472,11.718750
7473,7.812500
7474,7.812500
7475,7.812500
7476,7.812500
7477,3.906250
7478,3.906250
7479,3.906250
7480,3.906250
7481,3.906250
7482,3.906250
7483,0.000000
7484,0.000000
7485,-3.906250
7486,-3.906250
7487,-3.906250
7488,-3.906250
7489,-7.812500
7490,-7.812500
7491,-7.812500
7492,-7.812500
7493,-7.812500
7494,-11.718750
7495,-11.718750
7496,-11.718750
7497,-15.625000
7498,-15.625000
7499,-15.625000
7500,-15.625000
7501,-15.625000
7502,-19.531250
7503,-19.531250
7504,-19.531250
7505,-23.437500
7506,-23.437500
7507,-23.437500
7508,-23.437500
7509,-27.343750
7510,-27.343750
7511,-27.343750
7512,-31.250000
7513,-31.250000
7514,-31.250000
7515,-31.250000
7516,-35.156250
7517,-35.156250
7518,-35.156250
7519,-35.156250
7520,-35.156250
7521,-35.156250
7522,-39.062500
7523,-39.062500
7524,-39.062500
7525,-42.968750
7526,-42.968750
7527,-42.968750
7528,-42.968750
7529,-46.875000
7530,-46.875000
7531,-46.875000
7532,-46.875000
7533,-50.781250
7534,-50.781250
7535,-50.781250
7536,-50.781250
7537,-54.687500
7538,-54.687500
7539,-54.687500
7540,-54.687500
7541,-58.593750
7542,-58.593750
7543,-58.593750
7544,-58.593750
7545,-62.500000
7546,-62.500000
7547,-62.500000
7548,-62.500000
7549,-66.406250
7550,-66.406250
7551,-66.406250
7552,-66.406250
7553,-70.312500
7554,-70.312500
7555,-70.312500
7556,-70.312500
7557,-74.218750
7558,-74.218750
7559,-74.218750
7560,-74.218750
7561,-78.125000
7562,-78.125000
7563,-78.125000
7564,-78.125000
7565,-82.031250
7566,-82.031250
7567,-82.031250
7568,-82.031250
7569,-82.031250
7570,-85.937500
7571,-85.937500
7572,-85.937500
7573,-89.843750
7574,-89.843750
7575,-89.843750
7576,-89.843750
7577,-89.843750
7578,-93.750000
7579,-93.750000
7580,-93.750000
7581,-93.750000
7582,-93.750000
7583,-97.656250
7584,-97.656250
7585,-97.656250
7586,-97.656250
7587,-101.562500
7588,-101.562500
7589,-101.562500
7590,-101.562500
7591,-105.468750
7592,-105.468750
7593,-105.468750
7594,-105.468750
7595,-105.468750
7596,-109.375000
7597,-109.375000
7598,-109.375000
7599,-109.375000
7600,-109.375000
7601,-113.281250
7602,-113.281250
7603,-113.281250
7604,-113.281250
7605,-117.187500
7606,-117.187500
7607,-117.187500
7608,-117.187500
7609,-117.187500
7610,-121.093750
7611,-121.093750
7612,-121.093750
7613,-121.093750
7614,-121.093750
7615,-125.000000
7616,-125.000000
7617,-125.000000
7618,-125.000000
7619,-128.906250
7620,-128.906250
7621,-128.906250
7622,-128.906250
7623,-128.906250
7624,-128.906250
7625,-128.906250
7626,-128.906250
7627,-132.812500
7628,-132.812500
7629,-132.812500
7630,-132.812500
7631,-132.812500
7632,-136.718750
7633,-136.718750
7634,-136.718750
7635,-136.718750
7636,-136.718750
7637,-136.718750
7638,-140.625000
7639,-140.625000
7640,-140.625000
7641,-140.625000
7642,-140.625000
7643,-144.531250
7644,-144.531250
7645,-144.531250
7646,-144.531250
7647,-144.531250
7648,-144.531250
7649,-144.531250
7650,-148.437500
7651,-148.437500
7652,-148.437500
7653,-148.437500
7654,-148.437500
7655,-148.437500
7656,-148.437500
7657,-152.343750
7658,-152.343750
7659,-152.343750
7660,-152.343750
7661,-152.343750
7662,-152.343750
7663,-152.343750
7664,-152.343750
7665,-156.250000
7666,-156.250000
7667,-156.250000
7668,-156.250000
7669,-156.250000
7670,-156.250000
7671,-160.156250
7672,-156.250000
7673,-160.156250
7674,-160.156250
7675,-160.156250
7676,-160.156250
7677,-160.156250
7678,-160.156250
7679,-160.156250
7680,-160.156250
7681,-164.062500
7682,-160.156250
7683,-164.062500
7684,-164.062500
7685,-164.062500
7686,-164.062500
7687,-164.062500
7688,-164.062500
7689,-164.062500
7690,-164.062500
7691,-164.062500
7692,-164.062500
7693,-164.062500
7694,-164.062500
7695,-167.968750
7696,-167.968750
7697,-167.968750
7698,-167.968750
7699,-167.968750
7700,-167.968750
7701,-167.968750
7702,-167.968750
7703,-167.968750
7704,-167.968750
7705,-167.968750
7706,-167.968750
7707,-171.875000
7708,-167.968750
7709,-171.875000
7710,-171.875000
7711,-171.875000
7712,-167.968750
7713,-171.875000
7714,-171.875000
7715,-171.875000
7716,-171.875000
7717,-171.875000
7718,-171.875000
7719,-171.875000
7720,-171.875000
7721,-171.875000
7722,-171.875000
7723,-171.875000
7724,-171.875000
7725,-171.875000
7726,-171.875000
7727,-171.875000
7728,-171.875000
7729,-171.875000
7730,-171.875000
7731,-171.875000
7732,-171.875000
7733,-171.875000
7734,-171.875000
7735,-171.875000
7736,-171.875000
7737,-171.875000
7738,-171.875000
7739,-171.875000
7740,-171.875000
7741,-171.875000
7742,-171.875000
7743,-171.875000
7744,-171.875000
7745,-171.875000
7746,-171.875000
7747,-171.875000
7748,-171.875000
7749,-171.875000
7750,-171.875000
7751,-171.875000
7752,-171.875000
7753,-171.875000
7754,-171.875000
7755,-171.875000
7756,-171.875000
7757,-171.875000
7758,-171.875000
7759,-171.875000
7760,-171.875000
7761,-171.875000
7762,-171.875000
7763,-171.875000
7764,-171.875000
7765,-171.875000
7766,-171.875000
7767,-171.875000
7768,-167.968750
7769,-167.968750
7770,-167.968750
7771,-167.968750
7772,-167.968750
7773,-167.968750
7774,-167.968750
7775,-167.968750
7776,-167.968750
7777,-167.968750
7778,-167.968750
7779,-167.968750
7780,-167.968750
7781,-167.968750
7782,-164.062500
7783,-164.062500
7784,-167.968750
7785,-164.062500
7786,-164.062500
7787,-164.062500
7788,-164.062500
7789,-164.062500
7790,-164.062500
7791,-164.062500
7792,-164.062500
7793,-164.062500
7794,-164.062500
7795,-164.062500
7796,-160.156250
7797,-160.156250
7798,-160.156250
7799,-160.156250
7800,-160.156250
7801,-160.156250
7802,-160.156250
7803,-160.156250
7804,-160.156250
7805,-156.250000
7806,-156.250000
7807,-156.250000
7808,-156.250000
7809,-156.250000
7810,-156.250000
7811,-156.250000
7812,-152.343750
7813,-152.343750
7814,-152.343750
7815,-152.343750
7816,-152.343750
7817,-152.343750
7818,-152.343750
7819,-152.343750
7820,-148.437500
7821,-148.437500
7822,-148.437500
7823,-148.437500
7824,-148.437500
7825,-148.437500
7826,-144.531250
7827,-144.531250
7828,-144.531250
7829,-144.531250
7830,-144.531250
7831,-144.531250
7832,-144.531250
7833,-140.625000
7834,-140.625000
7835,-140.625000
7836,-140.625000
7837,-140.625000
7838,-140.625000
7839,-136.718750
7840,-136.718750
7841,-136.718750
7842,-136.718750
7843,-136.718750
7844,-136.718750
7845,-132.812500
7846,-132.812500
7847,-132.812500
7848,-132.812500
7849,-132.812500
7850,-132.812500
7851,-128.906250
7852,-128.906250
7853,-128.906250
7854,-128.906250
7855,-125.000000
7856,-125.000000
7857,-125.000000
7858,-125.000000
7859,-125.000000
7860,-125.000000
7861,-125.000000
7862,-121.093750
7863,-121.093750
7864,-121.093750
7865,-121.093750
7866,-121.093750
7867,-117.187500
7868,-117.187500
7869,-117.187500
7870,-117.187500
7871,-117.187500
7872,-117.187500
7873,-113.281250
7874,-113.281250
7875,-113.281250
7876,-113.281250
7877,-109.375000
7878,-109.375000
7879,-109.375000
7880,-109.375000
7881,-109.375000
7882,-105.468750
7883,-105.468750
7884,-105.468750
7885,-105.468750
7886,-105.468750
7887,-101.562500
7888,-101.562500
7889,-101.562500
7890,-101.562500
7891,-97.656250
7892,-97.656250
7893,-97.656250
7894,-97.656250
7895,-93.750000
7896,-93.750000
7897,-93.750000
7898,-93.750000
7899,-93.750000
7900,-89.843750
7901,-93.750000
7902,-89.843750
7903,-89.843750
7904,-85.937500
7905,-85.937500
7906,-85.937500
7907,-85.937500
7908,-82.031250
7909,-82.031250
7910,-82.031250
7911,-82.031250
7912,-82.031250
7913,-78.125000
7914,-78.125000
7915,-78.125000
7916,-78.125000
7917,-74.218750
7918,-74.218750
7919,-74.218750
7920,-74.218750
7921,-70.312500
7922,-70.312500
7923,-70.312500
7924,-66.406250
7925,-66.406250
7926,-66.406250
7927,-66.406250
7928,-66.406250
7929,-66.406250
7930,-62.500000
7931,-62.500000
7932,-62.500000
7933,-58.593750
7934,-58.593750
7935,-58.593750
7936,-58.593750
7937,-54.687500
7938,-54.687500
7939,-54.687500
7940,-54.687500
7941,-50.781250
7942,-50.781250
7943,-50.781250
7944,-50.781250
7945,-46.875000
7946,-46.875000
7947,-46.875000
7948,-46.875000
7949,-42.968750
7950,-42.968750
7951,-42.968750
7952,-42.968750
7953,-39.062500
7954,-39.062500
7955,-39.062500
7956,-39.062500
7957,-39.062500
7958,-35.156250
7959,-35.156250
7960,-35.156250
7961,-31.250000
7962,-31.250000
7963,-31.250000
7964,-31.250000
7965,-27.343750
7966,-27.343750
7967,-27.343750
7968,-27.343750
7969,-23.437500
7970,-23.437500
7971,-23.437500
7972,-23.437500
7973,-23.437500
7974,-19.531250
7975,-19.531250
7976,-19.531250
7977,-19.531250
7978,-15.625000
7979,-15.625000
7980,-15.625000
7981,-11.718750
7982,-11.718750
7983,-11.718750
7984,-11.718750
7985,-11.718750
7986,-7.812500
7987,-7.812500
7988,-7.812500
7989,-7.812500
7990,-3.906250
7991,-3.906250
7992,-3.906250
7993,0.000000
7994,0.000000
7995,0.000000
7996,0.000000
7997,0.000000
7998,3.906250
7999,3.906250
8000,3.906250
8001,7.812500
8002,7.812500
8003,7.812500
8004,7.812500
8005,7.812500
8006,11.718750
8007,11.718750
8008,11.718750
8009,11.718750
8010,15.625000
8011,15.625000
8012,15.625000
8013,15.625000
8014,15.625000
8015,19.531250
8016,19.531250
8017,19.531250
8018,19.531250
8019,23.437500
8020,23.437500
8021,23.437500
8022,23.437500
8023,27.343750
8024,27.343750
8025,27.343750
8026,27.343750
8027,27.343750
8028,27.343750
8029,31.250000
8030,31.250000
8031,31.250000
8032,35.156250
8033,35.156250
8034,35.156250
8035,35.156250
8036,35.156250
8037,35.156250
8038,39.062500
8039,39.062500
8040,39.062500
8041,42.968750
8042,42.968750
8043,42.968750
8044,42.968750
8045,42.968750
8046,42.968750
8047,46.875000
8048,46.875000
8049,46.875000
8050,46.875000
8051,46.875000
8052,50.781250
8053,50.781250
8054,50.781250
8055,50.781250
8056,54.687500
8057,54.687500
8058,54.687500
8059,54.687500
8060,54.687500
8061,54.687500
8062,58.593750
8063,58.593750
8064,58.593750
8065,58.593750
8066,62.500000
8067,62.500000
8068,62.500000
8069,62.500000
8070,62.500000
8071,66.406250
8072,66.406250
8073,66.406250
8074,66.406250
8075,66.406250
8076,66.406250
8077,66.406250
8078,70.312500
8079,70.312500
8080,70.312500
8081,70.312500
8082,70.312500
8083,74.218750
8084,74.218750
8085,74.218750
8086,74.218750
8087,74.218750
8088,78.125000
8089,78.125000
8090,78.125000
8091,78.125000
8092,78.125000
8093,78.125000
8094,78.125000
8095,82.031250
8096,82.031250
8097,82.031250
8098,82.031250
8099,82.031250
8100,85.937500
8101,82.031250
8102,85.937500
8103,85.937500
8104,85.937500
8105,85.937500
8106,85.937500
8107,85.937500
8108,89.843750
8109,89.843750
8110,89.843750
8111,89.843750
8112,89.843750
8113,89.843750
8114,93.750000
8115,93.750000
8116,93.750000
8117,93.750000
8118,93.750000
8119,93.750000
8120,93.750000
8121,97.656250
8122,97.656250
8123,97.656250
8124,97.656250
8125,97.656250
8126,97.656250
8127,97.656250
8128,97.656250
8129,97.656250
8130,101.562500
8131,101.562500
8132,101.562500
8133,101.562500
8134,101.562500
8135,101.562500
8136,101.562500
8137,101.562500
8138,101.562500
8139,105.468750
8140,105.468750
8141,105.468750
8142,105.468750
8143,105.468750
8144,109.375000
8145,105.468750
8146,105.468750
8147,109.375000
8148,109.375000
8149,109.375000
8150,109.375000
8151,109.375000
8152,109.375000
8153,109.375000
8154,109.375000
8155,109.375000
8156,113.281250
8157,113.281250
8158,113.281250
8159,113.281250
8160,113.281250
8161,113.281250
8162,113.281250
8163,113.281250
8164,113.281250
8165,113.281250
8166,113.281250
8167,113.281250
8168,117.187500
8169,117.187500
8170,117.187500
8171,117.187500
8172,117.187500
8173,117.187500
8174,117.187500
8175,117.187500
8176,117.187500
8177,117.187500
8178,117.187500
8179,117.187500
8180,117.187500
8181,117.187500
8182,121.093750
8183,117.187500
8184,121.093750
8185,121.093750
8186,121.093750
8187,121.093750
8188,121.093750
8189,121.093750
8190,121.093750
8191,121.093750
8192,121.093750
8193,121.093750
8194,121.093750
8195,121.093750
8196,121.093750
8197,121.093750
8198,121.093750
8199,125.000000
8200,125.000000
8201,125.000000
8202,125.000000
8203,121.093750
8204,125.000000
8205,125.000000
8206,125.000000
8207,125.000000
8208,125.000000
8209,125.000000
8210,125.000000
8211,125.000000
8212,125.000000
8213,125.000000
8214,125.000000
8215,125.000000
8216,125.000000
8217,125.000000
8218,125.000000
8219,125.000000
8220,125.000000
8221,125.000000
8222,125.000000
8223,125.000000
8224,125.000000
8225,125.000000
8226,125.000000
8227,125.000000
8228,125.000000
8229,125.000000
8230,128.906250
8231,125.000000
8232,125.000000
8233,125.000000
8234,125.000000
8235,125.000000
8236,125.000000
8237,125.000000
8238,125.000000
8239,125.000000
8240,125.000000
8241,125.000000
8242,125.000000
8243,125.000000
8244,125.000000
8245,125.000000
8246,125.000000
8247,125.000000
8248,125.000000
8249,125.000000
8250,125.000000
8251,125.000000
8252,125.000000
8253,125.000000
8254,125.000000
8255,125.000000
8256,125.000000
8257,125.000000
8258,125.000000
8259,125.000000
8260,125.000000
8261,125.000000
8262,125.000000
8263,125.000000
8264,125.000000
8265,125.000000
8266,125.000000
8267,125.000000
8268,125.000000
8269,125.000000
8270,125.000000
8271,121.093750
8272,125.000000
8273,125.000000
8274,121.093750
8275,121.093750
8276,121.093750
8277,121.093750
8278,121.093750
8279,121.093750
8280,121.093750
8281,121.093750
8282,121.093750
8283,121.093750
8284,121.093750
8285,121.093750
8286,121.093750
8287,121.093750
8288,121.093750
8289,121.093750
8290,117.187500
8291,121.093750
8292,117.187500
8293,117.187500
8294,117.187500
8295,117.187500
8296,117.187500
8297,117.187500
8298,117.187500
8299,117.187500
8300,117.187500
8301,117.187500
8302,117.187500
8303,117.187500
8304,117.187500
8305,117.187500
8306,117.187500
8307,117.187500
8308,113.281250
8309,113.281250
8310,113.281250
8311,113.281250
8312,109.375000
8313,113.281250
8314,113.281250
8315,113.281250
8316,113.281250
8317,109.375000
8318,109.375000
8319,113.281250
8320,109.375000
8321,109.375000
8322,109.375000
8323,109.375000
8324,109.375000
8325,109.375000
8326,109.375000
8327,105.468750
8328,105.468750
8329,105.468750
8330,105.468750
8331,105.468750
8332,105.468750
8333,105.468750
8334,105.468750
8335,101.562500
8336,101.562500
8337,101.562500
8338,101.562500
8339,101.562500
8340,101.562500
8341,101.562500
8342,101.562500
8343,97.656250
8344,97.656250
8345,97.656250
8346,97.656250
8347,97.656250
8348,97.656250
8349,97.656250
8350,97.656250
8351,93.750000
8352,93.750000
8353,93.750000
8354,93.750000
8355,93.750000
8356,93.750000
8357,89.843750
8358,89.843750
8359,89.843750
8360,89.843750
8361,89.843750
8362,89.843750
8363,89.843750
8364,85.937500
8365,85.937500
8366,85.937500
8367,85.937500
8368,85.937500
8369,85.937500
8370,85.937500
8371,82.031250
8372,82.031250
8373,82.031250
8374,82.031250
8375,82.031250
8376,82.031250
8377,82.031250
8378,78.125000
8379,78.125000
8380,78.125000
8381,78.125000
8382,78.125000
8383,78.125000
8384,74.218750
8385,74.218750
8386,74.218750
8387,74.218750
8388,74.218750
8389,70.312500
8390,70.312500
8391,70.312500
8392,70.312500
8393,70.312500
8394,66.406250
8395,66.406250
8396,66.406250
8397,66.406250
8398,66.406250
8399,62.500000
8400,62.500000
8401,62.500000
8402,62.500000
8403,62.500000
8404,58.593750
8405,58.593750
8406,58.593750
8407,58.593750
8408,58.593750
8409,58.593750
8410,54.687500
8411,54.687500
8412,54.687500
8413,50.781250
8414,50.781250
8415,50.781250
8416,50.781250
8417,50.781250
8418,50.781250
8419,46.875000
8420,46.875000
8421,46.875000
8422,46.875000
8423,46.875000
8424,42.968750
8425,42.968750
8426,42.968750
8427,39.062500
8428,39.062500
8429,39.062500
8430,39.062500
8431,39.062500
8432,39.062500
8433,35.156250
8434,35.156250
8435,35.156250
8436,35.156250
8437,35.156250
8438,31.250000
8439,31.250000
8440,31.250000
8441,31.250000
8442,27.343750
8443,27.343750
8444,27.343750
8445,27.343750
8446,23.437500
8447,23.437500
8448,23.437500
8449,23.437500
8450,19.531250
8451,19.531250
8452,19.531250
8453,19.531250
8454,15.625000
8455,15.625000
8456,15.625000
8457,15.625000
8458,15.625000
8459,11.718750
8460,11.718750
8461,11.718750
8462,11.718750
8463,7.812500
8464,7.812500
8465,7.812500
8466,7.812500
8467,3.906250
8468,3.906250
8469,3.906250
8470,3.906250
8471,0.000000
8472,0.000000
8473,0.000000
8474,0.000000
8475,0.000000
8476,-3.906250
8477,-3.906250
8478,-3.906250
8479,-7.812500
8480,-7.812500
8481,-7.812500
8482,-7.812500
8483,-11.718750
8484,-11.718750
8485,-11.718750
8486,-11.718750
8487,-15.625000
8488,-15.625000
8489,-15.625000
8490,-19.531250
8491,-19.531250
8492,-19.531250
8493,-19.531250
8494,-19.531250
8495,-19.531250
8496,-23.437500
8497,-23.437500
8498,-23.437500
8499,-27.343750
8500,-27.343750
8501,-27.343750
8502,-27.343750
8503,-31.250000
8504,-31.250000
8505,-31.250000
8506,-35.156250
8507,-35.156250
8508,-35.156250
8509,-35.156250
8510,-39.062500
8511,-39.062500
8512,-39.062500
8513,-39.062500
8514,-39.062500
8515,-42.968750
8516,-42.968750
8517,-42.968750
8518,-42.968750
8519,-46.875000
8520,-46.875000
8521,-46.875000
8522,-50.781250
8523,-50.781250
8524,-50.781250
8525,-50.781250
8526,-50.781250
8527,-54.687500
8528,-54.687500
8529,-54.687500
8530,-58.593750
8531,-58.593750
8532,-58.593750
8533,-58.593750
8534,-58.593750
8535,-62.500000
8536,-62.500000
8537,-62.500000
8538,-66.406250
8539,-66.406250
8540,-66.406250
8541,-66.406250
8542,-66.406250
8543,-70.312500
8544,-70.312500
8545,-70.312500
8546,-70.312500
8547,-74.218750
8548,-74.218750
8549,-74.218750
8550,-78.125000
8551,-78.125000
8552,-78.125000
8553,-78.125000
8554,-78.125000
8555,-82.031250
8556,-82.031250
8557,-82.031250
8558,-82.031250
8559,-85.937500
8560,-85.937500
8561,-85.937500
8562,-85.937500
8563,-85.937500
8564,-89.843750
8565,-89.843750
8566,-89.843750
8567,-93.750000
8568,-93.750000
8569,-93.750000
8570,-93.750000
8571,-97.656250
8572,-97.656250
8573,-97.656250
8574,-97.656250
8575,-97.656250
8576,-97.656250
8577,-101.562500
8578,-101.562500
8579,-101.562500
8580,-101.562500
8581,-101.562500
8582,-105.468750
8583,-105.468750
8584,-105.468750
8585,-105.468750
8586,-109.375000
8587,-109.375000
8588,-109.375000
8589,-109.375000
8590,-113.281250
8591,-113.281250
8592,-113.281250
8593,-113.281250
8594,-113.281250
8595,-113.281250
8596,-117.187500
8597,-117.187500
8598,-117.187500
8599,-117.187500
8600,-117.187500
8601,-121.093750
8602,-121.093750
8603,-121.093750
8604,-121.093750
8605,-125.000000
8606,-125.000000
8607,-125.000000
8608,-125.000000
8609,-125.000000
8610,-125.000000
8611,-128.906250
8612,-128.906250
8613,-128.906250
8614,-128.906250
8615,-128.906250
8616,-132.812500
8617,-132.812500
8618,-132.812500
8619,-132.812500
8620,-132.812500
8621,-132.812500
8622,-136.718750
8623,-136.718750
8624,-136.718750
8625,-136.718750
8626,-136.718750
8627,-140.625000
8628,-140.625000
8629,-140.625000
8630,-140.625000
8631,-140.625000
8632,-140.625000
8633,-144.531250
8634,-144.531250
8635,-144.531250
8636,-144.531250
8637,-144.531250
8638,-148.437500
8639,-144.531250
8640,-144.531250
8641,-148.437500
8642,-148.437500
8643,-148.437500
8644,-148.437500
8645,-148.437500
8646,-148.437500
8647,-152.343750
8648,-152.343750
8649,-152.343750
8650,-152.343750
8651,-152.343750
8652,-152.343750
8653,-152.343750
8654,-156.250000
8655,-156.250000
8656,-156.250000
8657,-156.250000
8658,-156.250000
8659,-156.250000
8660,-156.250000
8661,-156.250000
8662,-160.156250
8663,-160.156250
8664,-160.156250
8665,-160.156250
8666,-160.156250
8667,-160.156250
8668,-160.156250
8669,-160.156250
8670,-160.156250
8671,-160.156250
8672,-164.062500
8673,-164.062500
8674,-164.062500
8675,-164.062500
8676,-164.062500
8677,-164.062500
8678,-164.062500
8679,-164.062500
8680,-164.062500
8681,-164.062500
8682,-164.062500
8683,-164.062500
8684,-167.968750
8685,-167.968750
8686,-167.968750
8687,-167.968750
8688,-167.968750
8689,-167.968750
8690,-167.968750
8691,-167.968750
8692,-167.968750
8693,-167.968750
8694,-167.968750
8695,-167.968750
8696,-167.968750
8697,-167.968750
8698,-167.968750
8699,-171.875000
8700,-171.875000
8701,-171.875000
8702,-171.875000
8703,-171.875000
8704,-171.875000
8705,-171.875000
8706,-171.875000
8707,-171.875000
8708,-171.875000
8709,-171.875000
8710,-171.875000
8711,-171.875000
8712,-171.875000
8713,-171.875000
8714,-171.875000
8715,-171.875000
8716,-171.875000
8717,-171.875000
8718,-171.875000
8719,-171.875000
8720,-171.875000
8721,-171.875000
8722,-171.875000
8723,-171.875000
8724,-171.875000
8725,-175.781250
8726,-171.875000
8727,-171.875000
8728,-171.875000
8729,-171.875000
8730,-171.875000
8731,-171.875000
8732,-171.875000
8733,-171.875000
8734,-171.875000
8735,-171.875000
8736,-171.875000
8737,-171.875000
8738,-171.875000
8739,-171.875000
8740,-171.875000
8741,-171.875000
8742,-171.875000
8743,-171.875000
8744,-171.875000
8745,-171.875000
8746,-171.875000
8747,-171.875000
8748,-171.875000
8749,-171.875000
8750,-171.875000
8751,-171.875000
8752,-171.875000
8753,-171.875000
8754,-171.875000
8755,-171.875000
8756,-167.968750
8757,-167.968750
8758,-167.968750
8759,-167.968750
8760,-167.968750
8761,-167.968750
8762,-167.968750
8763,-167.968750
8764,-167.968750
8765,-167.968750
8766,-167.968750
8767,-167.968750
8768,-167.968750
8769,-167.968750
8770,-167.968750
8771,-167.968750
8772,-167.968750
8773,-164.062500
8774,-167.968750
8775,-164.062500
8776,-164.062500
8777,-164.062500
8778,-164.062500
8779,-164.062500
8780,-164.062500
8781,-164.062500
8782,-164.062500
8783,-164.062500
8784,-164.062500
8785,-160.156250
8786,-160.156250
8787,-160.156250
8788,-160.156250
8789,-160.156250
8790,-160.156250
8791,-160.156250
8792,-160.156250
8793,-160.156250
8794,-156.250000
8795,-156.250000
8796,-156.250000
8797,-156.250000
8798,-156.250000
8799,-156.250000
8800,-156.250000
8801,-156.250000
8802,-152.343750
8803,-152.343750
8804,-152.343750
8805,-152.343750
8806,-152.343750
8807,-152.343750
8808,-152.343750
8809,-152.343750
8810,-148.437500
8811,-148.437500
8812,-148.437500
8813,-148.437500
8814,-148.437500
8815,-148.437500
8816,-148.437500
8817,-148.437500
8818,-144.531250
8819,-144.531250
8820,-144.531250
8821,-144.531250
8822,-144.531250
8823,-140.625000
8824,-140.625000
8825,-140.625000
8826,-140.625000
8827,-140.625000
8828,-140.625000
8829,-140.625000
8830,-136.718750
8831,-136.718750
8832,-136.718750
8833,-136.718750
8834,-136.718750
8835,-132.812500
8836,-132.812500
8837,-132.812500
8838,-132.812500
8839,-132.812500
8840,-132.812500
8841,-132.812500
8842,-128.906250
8843,-128.906250
8844,-128.906250
8845,-128.906250
8846,-125.000000
8847,-125.000000
8848,-125.000000
8849,-125.000000
8850,-125.000000
8851,-125.000000
8852,-121.093750
8853,-121.093750
8854,-121.093750
8855,-121.093750
8856,-121.093750
8857,-117.187500
8858,-117.187500
8859,-117.187500
8860,-117.187500
8861,-117.187500
8862,-113.281250
8863,-113.281250
8864,-113.281250
8865,-109.375000
8866,-113.281250
8867,-109.375000
8868,-109.375000
8869,-109.375000
8870,-109.375000
8871,-105.468750
8872,-105.468750
8873,-105.468750
8874,-105.468750
8875,-105.468750
8876,-101.562500
8877,-101.562500
8878,-101.562500
8879,-101.562500
8880,-97.656250
8881,-97.656250
8882,-97.656250
8883,-97.656250
8884,-97.656250
8885,-93.750000
8886,-93.750000
8887,-93.750000
8888,-93.750000
8889,-89.843750
8890,-89.843750
8891,-89.843750
8892,-89.843750
8893,-85.937500
8894,-85.937500
8895,-85.937500
8896,-85.937500
8897,-85.937500
8898,-85.937500
8899,-82.031250
8900,-82.031250
8901,-82.031250
8902,-78.125000
8903,-78.125000
8904,-78.125000
8905,-78.125000
8906,-78.125000
8907,-74.218750
8908,-74.218750
8909,-74.218750
8910,-74.218750
8911,-70.312500
8912,-70.312500
8913,-70.312500
8914,-66.406250
8915,-66.406250
8916,-66.406250
8917,-66.406250
8918,-62.500000
8919,-62.500000
8920,-62.500000
8921,-62.500000
8922,-62.500000
8923,-58.593750
8924,-58.593750
8925,-58.593750
8926,-58.593750
8927,-54.687500
8928,-54.687500
8929,-54.687500
8930,-54.687500
8931,-50.781250
8932,-50.781250
8933,-50.781250
8934,-50.781250
8935,-46.875000
8936,-46.875000
8937,-46.875000
8938,-46.875000
8939,-42.968750
8940,-42.968750
8941,-42.968750
8942,-42.968750
8943,-42.968750
8944,-39.062500
8945,-39.062500
8946,-39.062500
8947,-35.156250
8948,-35.156250
8949,-35.156250
8950,-35.156250
8951,-31.250000
8952,-31.250000
8953,-31.250000
8954,-31.250000
8955,-27.343750
8956,-27.343750
8957,-27.343750
8958,-27.343750
8959,-23.437500
8960,-23.437500
8961,-23.437500
8962,-23.437500
8963,-19.531250
8964,-19.531250
8965,-19.531250
8966,-19.531250
8967,-15.625000
8968,-15.625000
8969,-15.625000
8970,-15.625000
8971,-15.625000
8972,-11.718750
8973,-11.718750
8974,-11.718750
8975,-7.812500
8976,-7.812500
8977,-7.812500
8978,-7.812500
8979,-3.906250
8980,-3.906250
8981,-3.906250
8982,-3.906250
8983,-3.906250
8984,0.000000
8985,0.000000
8986,0.000000
8987,3.906250
8988,3.906250
8989,3.906250
8990,3.906250
8991,3.906250
8992,7.812500
8993,7.812500
8994,7.812500
8995,7.812500
8996,7.812500
8997,11.718750
8998,11.718750
8999,11.718750
9000,15.625000
9001,15.625000
9002,15.625000
9003,15.625000
9004,19.531250
9005,19.531250
9006,19.531250
9007,19.531250
9008,19.531250
9009,23.437500
9010,23.437500
9011,23.437500
9012,23.437500
9013,23.437500
9014,23.437500
9015,27.343750
9016,27.343750
9017,27.343750
9018,27.343750
9019,31.250000
9020,31.250000
9021,31.250000
9022,31.250000
9023,35.156250
9024,35.156250
9025,35.156250
9026,39.062500
9027,39.062500
9028,39.062500
9029,39.062500
9030,39.062500
9031,42.968750
9032,42.968750
9033,42.968750
9034,42.968750
9035,42.968750
9036,46.875000
9037,46.875000
9038,46.875000
9039,46.875000
9040,46.875000
9041,50.781250
9042,50.781250
9043,50.781250
9044,50.781250
9045,50.781250
9046,54.687500
9047,54.687500
9048,54.687500
9049,54.687500
9050,54.687500
9051,54.687500
9052,58.593750
9053,58.593750
9054,58.593750
9055,58.593750
9056,62.500000
9057,62.500000
9058,62.500000
9059,62.500000
9060,62.500000
9061,66.406250
9062,66.406250
9063,66.406250
9064,66.406250
9065,66.406250
9066,66.406250
9067,70.312500
9068,70.312500
9069,70.312500
9070,70.312500
9071,70.312500
9072,74.218750
9073,74.218750
9074,74.218750
9075,74.218750
9076,74.218750
9077,74.218750
9078,78.125000
9079,78.125000
9080,78.125000
9081,78.125000
9082,78.125000
9083,78.125000
9084,78.125000
9085,82.031250
9086,82.031250
9087,82.031250
9088,82.031250
9089,82.031250
9090,82.031250
9091,85.937500
9092,85.937500
9093,85.937500
9094,85.937500
9095,85.937500
9096,89.843750
9097,89.843750
9098,89.843750
9099,89.843750
9100,89.843750
9101,89.843750
9102,89.843750
9103,93.750000
9104,93.750000
9105,93.750000
9106,93.750000
9107,93.750000
9108,93.750000
9109,93.750000
9110,93.750000
9111,97.656250
9112,97.656250
9113,97.656250
9114,97.656250
9115,97.656250
9116,97.656250
9117,97.656250
9118,97.656250
9119,97.656250
9120,101.562500
9121,101.562500
9122,101.562500
9123,101.562500
9124,101.562500
9125,101.562500
9126,105.468750
9127,105.468750
9128,105.468750
9129,105.468750
9130,105.468750
9131,105.468750
9132,105.468750
9133,105.468750
9134,105.468750
9135,105.468750
9136,109.375000
9137,109.375000
9138,109.375000
9139,109.375000
9140,109.375000
9141,109.375000
9142,109.375000
9143,109.375000
9144,113.281250
9145,109.375000
9146,113.281250
9147,113.281250
9148,113.281250
9149,113.281250
9150,113.281250
9151,113.281250
9152,113.281250
9153,113.281250
9154,113.281250
9155,113.281250
9156,113.281250
9157,113.281250
9158,117.187500
9159,117.187500
9160,117.187500
9161,117.187500
9162,117.187500
9163,117.187500
9164,117.187500
9165,117.187500
9166,117.187500
9167,117.187500
9168,117.187500
9169,117.187500
9170,117.187500
9171,117.187500
9172,121.093750
9173,121.093750
9174,121.093750
9175,121.093750
9176,121.093750
9177,121.093750
9178,121.093750
9179,121.093750
9180,121.093750
9181,121.093750
9182,121.093750
9183,121.093750
9184,121.093750
9185,121.093750
9186,121.093750
9187,121.093750
9188,121.093750
9189,121.093750
9190,121.093750
9191,121.093750
9192,125.000000
9193,125.000000
9194,125.000000
9195,125.000000
9196,125.000000
9197,125.000000
9198,125.000000
9199,121.093750
9200,125.000000
9201,125.000000
9202,125.000000
9203,125.000000
9204,125.000000
9205,125.000000
9206,125.000000
9207,125.000000
9208,125.000000
9209,125.000000
9210,125.000000
9211,125.000000
9212,125.000000
9213,125.000000
9214,125.000000
9215,125.000000
9216,125.000000
9217,125.000000
9218,125.000000
9219,125.000000
9220,125.000000
9221,125.000000
9222,125.000000
9223,125.000000
9224,125.000000
9225,125.000000
9226,125.000000
9227,125.000000
9228,125.000000
9229,125.000000
9230,125.000000
9231,125.000000
9232,125.000000
9233,125.000000
9234,125.000000
9235,125.000000
9236,125.000000
9237,125.000000
9238,125.000000
9239,125.000000
9240,125.000000
9241,125.000000
9242,125.000000
9243,125.000000
9244,125.000000
9245,125.000000
9246,125.000000
9247,125.000000
9248,125.000000
9249,125.000000
9250,125.000000
9251,125.000000
9252,125.000000
9253,125.000000
9254,125.000000
9255,125.000000
9256,125.000000
9257,125.000000
9258,125.000000
9259,125.000000
9260,121.093750
9261,125.000000
9262,121.093750
9263,121.093750
9264,121.093750
9265,121.093750
9266,121.093750
9267,121.093750
9268,121.093750
9269,121.093750
9270,121.093750
9271,121.093750
9272,121.093750
9273,121.093750
9274,121.093750
9275,121.093750
9276,121.093750
9277,121.093750
9278,121.093750
9279,121.093750
9280,121.093750
9281,117.187500
9282,117.187500
9283,117.187500
9284,117.187500
9285,117.187500
9286,117.187500
9287,117.187500
9288,117.187500
9289,117.187500
9290,117.187500
9291,117.187500
9292,117.187500
9293,113.281250
9294,113.281250
9295,113.281250
9296,113.281250
9297,113.281250
9298,113.281250
9299,113.281250
9300,113.281250
9301,113.281250
9302,113.281250
9303,113.281250
9304,113.281250
9305,109.375000
9306,109.375000
9307,109.375000
9308,109.375000
9309,109.375000
9310,109.375000
9311,109.375000
9312,109.375000
9313,109.375000
9314,109.375000
9315,109.375000
9316,105.468750
9317,105.468750
9318,105.468750
9319,105.468750
9320,105.468750
9321,105.468750
9322,105.468750
9323,105.468750
9324,105.468750
9325,101.562500
9326,101.562500
9327,101.562500
9328,101.562500
9329,101.562500
9330,101.562500
9331,97.656250
9332,97.656250
9333,97.656250
9334,97.656250
9335,97.656250
9336,97.656250
9337,97.656250
9338,97.656250
9339,97.656250
9340,93.750000
9341,93.750000
9342,93.750000
9343,93.750000
9344,93.750000
9345,93.750000
9346,93.750000
9347,89.843750
9348,89.843750
9349,89.843750
9350,89.843750
9351,89.843750
9352,89.843750
9353,89.843750
9354,85.937500
9355,85.937500
9356,85.937500
9357,85.937500
9358,85.937500
9359,85.937500
9360,85.937500
9361,82.031250
9362,82.031250
9363,82.031250
9364,82.031250
9365,82.031250
9366,78.125000
9367,78.125000
9368,78.125000
9369,78.125000
9370,78.125000
9371,78.125000
9372,78.125000
9373,74.218750
9374,74.218750
9375,74.218750
9376,74.218750
9377,74.218750
9378,70.312500
9379,70.312500
9380,70.312500
9381,70.312500
9382,70.312500
9383,70.312500
9384,66.406250
9385,66.406250
9386,66.406250
9387,66.406250
9388,66.406250
9389,62.500000
9390,62.500000
9391,62.500000
9392,62.500000
9393,62.500000
9394,58.593750
9395,58.593750
9396,58.593750
9397,58.593750
9398,58.593750
9399,54.687500
9400,54.687500
9401,54.687500
9402,54.687500
9403,54.687500
9404,50.781250
9405,50.781250
9406,50.781250
9407,50.781250
9408,50.781250
9409,46.875000
9410,46.875000
9411,46.875000
9412,46.875000
9413,42.968750
9414,42.968750
9415,42.968750
9416,42.968750
9417,42.968750
9418,39.062500
9419,39.062500
9420,39.062500
9421,39.062500
9422,35.156250
9423,35.156250
9424,35.156250
9425,35.156250
9426,35.156250
9427,31.250000
9428,31.250000
9429,31.250000
9430,31.250000
9431,27.343750
9432,27.343750
9433,27.343750
9434,27.343750
9435,27.343750
9436,23.437500
9437,23.437500
9438,23.437500
9439,23.437500
9440,19.531250
9441,19.531250
9442,19.531250
9443,19.531250
9444,15.625000
9445,15.625000
9446,15.625000
9447,15.625000
9448,15.625000
9449,11.718750
9450,11.718750
9451,11.718750
9452,7.812500
9453,7.812500
9454,7.812500
9455,7.812500
9456,7.812500
9457,3.906250
9458,3.906250
9459,3.906250
9460,0.000000
9461,0.000000
9462,0.000000
9463,0.000000
9464,-3.906250
9465,-3.906250
9466,-3.906250
9467,-3.906250
9468,-3.906250
9469,-7.812500
9470,-7.812500
9471,-7.812500
9472,-7.812500
9473,-11.718750
9474,-11.718750
9475,-11.718750
9476,-11.718750
9477,-15.625000
9478,-15.625000
9479,-15.625000
9480,-15.625000
9481,-19.531250
9482,-19.531250
9483,-19.531250
9484,-23.437500
9485,-23.437500
9486,-23.437500
9487,-23.437500
9488,-23.437500
9489,-27.343750
9490,-27.343750
9491,-27.343750
9492,-27.343750
9493,-31.250000
9494,-31.250000
9495,-31.250000
9496,-31.250000
9497,-35.156250
9498,-35.156250
9499,-35.156250
9500,-35.156250
9501,-39.062500
9502,-39.062500
9503,-39.062500
9504,-42.968750
9505,-42.968750
9506,-42.968750
9507,-42.968750
9508,-42.968750
9509,-46.875000
9510,-46.875000
9511,-46.875000
9512,-46.875000
9513,-50.781250
9514,-50.781250
9515,-50.781250
9516,-54.687500
9517,-54.687500
9518,-54.687500
9519,-54.687500
9520,-54.687500
9521,-58.593750
9522,-58.593750
9523,-58.593750
9524,-58.593750
9525,-62.500000
9526,-62.500000
9527,-62.500000
9528,-62.500000
9529,-66.406250
9530,-66.406250
9531,-66.406250
9532,-66.406250
9533,-70.312500
9534,-70.312500
9535,-70.312500
9536,-74.218750
9537,-74.218750
9538,-74.218750
9539,-74.218750
9540,-74.218750
9541,-78.125000
9542,-78.125000
9543,-78.125000
9544,-78.125000
9545,-82.031250
9546,-82.031250
9547,-82.031250
9548,-82.031250
9549,-85.937500
9550,-85.937500
9551,-85.937500
9552,-85.937500
9553,-89.843750
9554,-89.843750
9555,-89.843750
9556,-89.843750
9557,-93.750000
9558,-93.750000
9559,-93.750000
9560,-93.750000
9561,-93.750000
9562,-97.656250
9563,-97.656250
9564,-97.656250
9565,-97.656250
9566,-101.562500
9567,-101.562500
9568,-101.562500
9569,-101.562500
9570,-101.562500
9571,-105.468750
9572,-105.468750
9573,-105.468750
9574,-105.468750
9575,-109.375000
9576,-109.375000
9577,-109.375000
9578,-109.375000
9579,-109.375000
9580,-113.281250
9581,-113.281250
9582,-113.281250
9583,-117.187500
9584,-113.281250
9585,-117.187500
9586,-117.187500
9587,-117.187500
9588,-117.187500
9589,-117.187500
9590,-121.093750
9591,-121.093750
9592,-121.093750
9593,-121.093750
9594,-125.000000
9595,-125.000000
9596,-125.000000
9597,-125.000000
9598,-125.000000
9599,-128.906250
9600,-128.906250
9601,-128.906250
9602,-128.906250
9603,-128.906250
9604,-128.906250
9605,-128.906250
9606,-128.906250
9607,-132.812500
9608,-132.812500
9609,-132.812500
9610,-132.812500
9611,-136.718750
9612,-136.718750
9613,-136.718750
9614,-136.718750
9615,-136.718750
9616,-136.718750
9617,-140.625000
9618,-140.625000
9619,-140.625000
9620,-140.625000
9621,-140.625000
9622,-140.625000
9623,-144.531250
9624,-144.531250
9625,-144.531250
9626,-144.531250
9627,-144.531250
9628,-144.531250
9629,-144.531250
9630,-148.437500
9631,-148.437500
9632,-148.437500
9633,-148.437500
9634,-148.437500
9635,-148.437500
9636,-148.437500
9637,-152.343750
9638,-152.343750
9639,-152.343750
9640,-152.343750
9641,-152.343750
9642,-152.343750
9643,-152.343750
9644,-156.250000
9645,-152.343750
9646,-156.250000
9647,-156.250000
9648,-156.250000
9649,-156.250000
9650,-156.250000
9651,-156.250000
9652,-160.156250
9653,-160.156250
9654,-160.156250
9655,-160.156250
9656,-160.156250
9657,-160.156250
9658,-160.156250
9659,-160.156250
9660,-160.156250
9661,-164.062500
9662,-164.062500
9663,-164.062500
9664,-164.062500
9665,-164.062500
9666,-164.062500
9667,-164.062500
9668,-164.062500
9669,-164.062500
9670,-164.062500
9671,-164.062500
9672,-167.968750
9673,-167.968750
9674,-167.968750
9675,-167.968750
9676,-167.968750
9677,-167.968750
9678,-167.968750
9679,-167.968750
9680,-167.968750
9681,-167.968750
9682,-167.968750
9683,-167.968750
9684,-167.968750
9685,-167.968750
9686,-167.968750
9687,-167.968750
9688,-167.968750
9689,-167.968750
9690,-171.875000
9691,-171.875000
9692,-171.875000
9693,-171.875000
9694,-171.875000
9695,-171.875000
9696,-171.875000
9697,-171.875000
9698,-171.875000
9699,-171.875000
9700,-171.875000
9701,-171.875000
9702,-171.875000
9703,-171.875000
9704,-171.875000
9705,-171.875000
9706,-171.875000
9707,-171.875000
9708,-171.875000
9709,-171.875000
9710,-171.875000
9711,-171.875000
9712,-171.875000
9713,-171.875000
9714,-171.875000
9715,-171.875000
9716,-171.875000
9717,-171.875000
9718,-171.875000
9719,-171.875000
9720,-171.875000
9721,-171.875000
9722,-171.875000
9723,-171.875000
9724,-171.875000
9725,-171.875000
9726,-171.875000
9727,-171.875000
9728,-171.875000
9729,-171.875000
9730,-171.875000
9731,-171.875000
9732,-171.875000
9733,-171.875000
9734,-171.875000
9735,-171.875000
9736,-171.875000
9737,-171.875000
9738,-171.875000
9739,-171.875000
9740,-171.875000
9741,-171.875000
9742,-171.875000
9743,-171.875000
9744,-171.875000
9745,-171.875000
9746,-167.968750
9747,-167.968750
9748,-167.968750
9749,-167.968750
9750,-167.968750
9751,-167.968750
9752,-167.968750
9753,-167.968750
9754,-167.968750
9755,-167.968750
9756,-167.968750
9757,-164.062500
9758,-167.968750
9759,-167.968750
9760,-167.968750
9761,-167.968750
9762,-164.062500
9763,-164.062500
9764,-164.062500
9765,-164.062500
9766,-164.062500
9767,-164.062500
9768,-164.062500
9769,-164.062500
9770,-164.062500
9771,-164.062500
9772,-164.062500
9773,-160.156250
9774,-160.156250
9775,-160.156250
9776,-160.156250
9777,-160.156250
9778,-160.156250
9779,-160.156250
9780,-160.156250
9781,-160.156250
9782,-160.156250
9783,-156.250000
9784,-156.250000
9785,-156.250000
9786,-156.250000
9787,-156.250000
9788,-156.250000
9789,-156.250000
9790,-156.250000
9791,-156.250000
9792,-152.343750
9793,-152.343750
9794,-152.343750
9795,-152.343750
9796,-152.343750
9797,-152.343750
9798,-152.343750
9799,-148.437500
9800,-148.437500
9801,-148.437500
9802,-148.437500
9803,-148.437500
9804,-148.437500
9805,-144.531250
9806,-144.531250
9807,-144.531250
9808,-144.531250
9809,-144.531250
9810,-144.531250
9811,-144.531250
9812,-144.531250
9813,-144.531250
9814,-140.625000
9815,-140.625000
9816,-140.625000
9817,-140.625000
9818,-140.625000
9819,-136.718750
9820,-136.718750
9821,-136.718750
9822,-136.718750
9823,-136.718750
9824,-136.718750
9825,-132.812500
9826,-132.812500
9827,-132.812500
9828,-132.812500
9829,-132.812500
9830,-132.812500
9831,-132.812500
9832,-128.906250
9833,-128.906250
9834,-128.906250
9835,-128.906250
9836,-125.000000
9837,-125.000000
9838,-125.000000
9839,-125.000000
9840,-125.000000
9841,-121.093750
9842,-121.093750
9843,-121.093750
9844,-121.093750
9845,-121.093750
9846,-121.093750
9847,-117.187500
9848,-117.187500
9849,-117.187500
9850,-117.187500
9851,-117.187500
9852,-117.187500
9853,-113.281250
9854,-113.281250
9855,-109.375000
9856,-109.375000
9857,-109.375000
9858,-109.375000
9859,-109.375000
9860,-109.375000
9861,-109.375000
9862,-105.468750
9863,-105.468750
9864,-105.468750
9865,-101.562500
9866,-101.562500
9867,-101.562500
9868,-101.562500
9869,-101.562500
9870,-101.562500
9871,-97.656250
9872,-97.656250
9873,-97.656250
9874,-97.656250
9875,-93.750000
9876,-93.750000
9877,-93.750000
9878,-93.750000
9879,-89.843750
9880,-89.843750
9881,-89.843750
9882,-85.937500
9883,-85.937500
9884,-85.937500
9885,-85.937500
9886,-85.937500
9887,-85.937500
9888,-82.031250
9889,-82.031250
9890,-82.031250
9891,-78.125000
9892,-78.125000
9893,-82.031250
9894,-78.125000
9895,-78.125000
9896,-74.218750
9897,-74.218750
9898,-74.218750
9899,-70.312500
9900,-70.312500
9901,-70.312500
9902,-70.312500
9903,-70.312500
9904,-70.312500
9905,-66.406250
9906,-66.406250
9907,-66.406250
9908,-62.500000
9909,-62.500000
9910,-62.500000
9911,-62.500000
9912,-62.500000
9913,-58.593750
9914,-58.593750
9915,-58.593750
9916,-54.687500
9917,-54.687500
9918,-54.687500
9919,-54.687500
9920,-54.687500
9921,-54.687500
9922,-50.781250
9923,-50.781250
9924,-50.781250
9925,-46.875000
9926,-46.875000
9927,-46.875000
9928,-46.875000
9929,-42.968750
9930,-42.968750
9931,-42.968750
9932,-42.968750
9933,-39.062500
9934,-39.062500
9935,-39.062500
9936,-39.062500
9937,-35.156250
9938,-35.156250
9939,-35.156250
9940,-35.156250
9941,-31.250000
9942,-31.250000
9943,-31.250000
9944,-31.250000
9945,-27.343750
9946,-27.343750
9947,-27.343750
9948,-27.343750
9949,-23.437500
9950,-23.437500
9951,-23.437500
9952,-23.437500
9953,-23.437500
9954,-19.531250
9955,-19.531250
9956,-19.531250
9957,-15.625000
9958,-15.625000
9959,-15.625000
9960,-15.625000
9961,-11.718750
9962,-11.718750
9963,-11.718750
9964,-11.718750
9965,-7.812500
9966,-7.812500
9967,-7.812500
9968,-3.906250
9969,-7.812500
9970,-3.906250
9971,-3.906250
9972,-3.906250
9973,-3.906250
9974,0.000000
9975,0.000000
9976,0.000000
9977,3.906250
9978,3.906250
9979,3.906250
9980,3.906250
9981,3.906250
9982,7.812500
9983,7.812500
9984,7.812500
9985,7.812500
9986,11.718750
9987,11.718750
9988,11.718750
9989,11.718750
9990,15.625000
9991,15.625000
9992,15.625000
9993,15.625000
9994,19.531250
9995,19.531250
9996,19.531250
9997,19.531250
9998,23.437500
9999,23.437500
10000,23.437500
