Channel              :,CH1
Frequency            :,1.012kHz
Period               :,0.989ms
PK-PK                :,312.5mV
Probe attenuation    :,1X
Voltage per ADC value:,0.244141mV
Time interval        :,1.00000us

index,CH1_Voltage(mV)
1,-74.218750
2,-74.218750
3,-70.312500
4,-70.312500
5,-70.312500
6,-70.312500
7,-66.406250
8,-66.406250
9,-66.406250
10,-66.406250
11,-62.500000
12,-62.500000
13,-62.500000
14,-62.500000
15,-62.500000
16,-58.593750
17,-58.593750
18,-54.687500
19,-54.687500
20,-54.687500
21,-54.687500
22,-54.687500
23,-54.687500
24,-50.781250
25,-50.781250
26,-50.781250
27,-50.781250
28,-46.875000
29,-46.875000
30,-46.875000
31,-46.875000
32,-42.968750
33,-42.968750
34,-42.968750
35,-39.062500
36,-39.062500
37,-39.062500
38,-39.062500
39,-35.156250
40,-35.156250
41,-35.156250
42,-35.156250
43,-31.250000
44,-31.250000
45,-31.250000
46,-31.250000
47,-27.343750
48,-27.343750
49,-27.343750
50,-27.343750
51,-23.437500
52,-23.437500
53,-23.437500
54,-23.437500
55,-19.531250
56,-19.531250
57,-19.531250
58,-19.531250
59,-19.531250
60,-15.625000
61,-15.625000
62,-15.625000
63,-11.718750
64,-11.718750
65,-11.718750
66,-11.718750
67,-11.718750
68,-7.812500
69,-7.812500
70,-7.812500
71,-7.812500
72,-3.906250
73,-3.906250
74,-3.906250
75,0.000000
76,0.000000
77,0.000000
78,0.000000
79,3.906250
80,3.906250
81,3.906250
82,3.906250
83,3.906250
84,7.812500
85,7.812500
86,7.812500
87,7.812500
88,11.718750
89,11.718750
90,11.718750
91,15.625000
92,15.625000
93,15.625000
94,15.625000
95,19.531250
96,19.531250
97,19.531250
98,19.531250
99,19.531250
100,23.437500
101,23.437500
102,23.437500
103,23.437500
104,23.437500
105,27.343750
106,27.343750
107,27.343750
108,31.250000
109,31.250000
110,31.250000
111,31.250000
112,31.250000
113,35.156250
114,35.156250
115,35.156250
116,35.156250
117,35.156250
118,39.062500
119,39.062500
120,39.062500
121,39.062500
122,42.968750
123,42.968750
124,42.968750
125,42.968750
126,42.968750
127,46.875000
128,46.875000
129,46.875000
130,50.781250
131,46.875000
132,50.781250
133,50.781250
134,50.781250
135,50.781250
136,54.687500
137,54.687500
138,54.687500
139,54.687500
140,58.593750
141,58.593750
142,58.593750
143,58.593750
144,58.593750
145,58.593750
146,62.500000
147,62.500000
148,62.500000
149,62.500000
150,62.500000
151,66.406250
152,66.406250
153,66.406250
154,66.406250
155,66.406250
156,70.312500
157,70.312500
158,70.312500
159,70.312500
160,70.312500
161,74.218750
162,74.218750
163,74.218750
164,74.218750
165,74.218750
166,74.218750
167,78.125000
168,78.125000
169,78.125000
170,78.125000
171,78.125000
172,82.031250
173,82.031250
174,82.031250
175,82.031250
176,82.031250
177,85.937500
178,85.937500
179,85.937500
180,85.937500
181,85.937500
182,85.937500
183,85.937500
184,89.843750
185,89.843750
186,89.843750
187,89.843750
188,89.843750
189,89.843750
190,93.750000
191,93.750000
192,93.750000
193,93.750000
194,93.750000
195,93.750000
196,93.750000
197,93.750000
198,97.656250
199,97.656250
200,97.656250
201,97.656250
202,97.656250
203,97.656250
204,101.562500
205,101.562500
206,101.562500
207,101.562500
208,101.562500
209,101.562500
210,101.562500
211,105.468750
212,105.468750
213,105.468750
214,105.468750
215,105.468750
216,105.468750
217,105.468750
218,105.468750
219,105.468750
220,109.375000
221,109.375000
222,109.375000
223,109.375000
224,109.375000
225,109.375000
226,109.375000
227,109.375000
228,109.375000
229,109.375000
230,113.281250
231,113.281250
232,113.281250
233,113.281250
234,113.281250
235,113.281250
236,113.281250
237,117.187500
238,117.187500
239,117.187500
240,117.187500
241,117.187500
242,117.187500
243,117.187500
244,117.187500
245,117.187500
246,117.187500
247,117.187500
248,121.093750
249,121.093750
250,117.187500
251,121.093750
252,121.093750
253,121.093750
254,121.093750
255,121.093750
256,121.093750
257,121.093750
258,121.093750
259,121.093750
260,121.093750
261,121.093750
262,121.093750
263,125.000000
264,125.000000
265,125.000000
266,125.000000
267,125.000000
268,125.000000
269,125.000000
270,125.000000
271,125.000000
272,125.000000
273,125.000000
274,125.000000
275,125.000000
276,125.000000
277,125.000000
278,125.000000
279,125.000000
280,125.000000
281,128.906250
282,128.906250
283,128.906250
284,128.906250
285,128.906250
286,128.906250
287,128.906250
288,128.906250
289,128.906250
290,128.906250
291,128.906250
292,128.906250
293,128.906250
294,128.906250
295,128.906250
296,128.906250
297,128.906250
298,128.906250
299,128.906250
300,128.906250
301,128.906250
302,128.906250
303,128.906250
304,128.906250
305,128.906250
306,128.906250
307,128.906250
308,128.906250
309,128.906250
310,128.906250
311,128.906250
312,132.812500
313,132.812500
314,132.812500
315,128.906250
316,132.812500
317,132.812500
318,132.812500
319,132.812500
320,132.812500
321,132.812500
322,132.812500
323,128.906250
324,132.812500
325,128.906250
326,128.906250
327,128.906250
328,132.812500
329,132.812500
330,132.812500
331,128.906250
332,128.906250
333,128.906250
334,132.812500
335,128.906250
336,132.812500
337,128.906250
338,132.812500
339,128.906250
340,128.906250
341,128.906250
342,128.906250
343,128.906250
344,128.906250
345,128.906250
346,128.906250
347,128.906250
348,128.906250
349,128.906250
350,128.906250
351,128.906250
352,128.906250
353,128.906250
354,128.906250
355,128.906250
356,128.906250
357,128.906250
358,128.906250
359,128.906250
360,128.906250
361,125.000000
362,128.906250
363,125.000000
364,125.000000
365,125.000000
366,125.000000
367,125.000000
368,125.000000
369,125.000000
370,125.000000
371,125.000000
372,125.000000
373,125.000000
374,125.000000
375,125.000000
376,125.000000
377,125.000000
378,125.000000
379,121.093750
380,121.093750
381,121.093750
382,121.093750
383,121.093750
384,121.093750
385,121.093750
386,121.093750
387,121.093750
388,121.093750
389,121.093750
390,121.093750
391,121.093750
392,117.187500
393,117.187500
394,117.187500
395,117.187500
396,117.187500
397,117.187500
398,117.187500
399,117.187500
400,117.187500
401,117.187500
402,117.187500
403,113.281250
404,113.281250
405,113.281250
406,113.281250
407,113.281250
408,113.281250
409,113.281250
410,113.281250
411,109.375000
412,113.281250
413,109.375000
414,109.375000
415,109.375000
416,109.375000
417,109.375000
418,109.375000
419,109.375000
420,105.468750
421,105.468750
422,105.468750
423,105.468750
424,105.468750
425,105.468750
426,105.468750
427,105.468750
428,105.468750
429,101.562500
430,101.562500
431,101.562500
432,101.562500
433,101.562500
434,101.562500
435,101.562500
436,97.656250
437,97.656250
438,97.656250
439,97.656250
440,97.656250
441,97.656250
442,97.656250
443,97.656250
444,93.750000
445,93.750000
446,93.750000
447,93.750000
448,93.750000
449,89.843750
450,89.843750
451,89.843750
452,89.843750
453,89.843750
454,89.843750
455,85.937500
456,85.937500
457,85.937500
458,85.937500
459,85.937500
460,85.937500
461,85.937500
462,85.937500
463,82.031250
464,82.031250
465,82.031250
466,82.031250
467,78.125000
468,78.125000
469,78.125000
470,78.125000
471,78.125000
472,78.125000
473,78.125000
474,74.218750
475,74.218750
476,74.218750
477,74.218750
478,70.312500
479,70.312500
480,70.312500
481,70.312500
482,70.312500
483,66.406250
484,66.406250
485,66.406250
486,66.406250
487,66.406250
488,66.406250
489,62.500000
490,62.500000
491,62.500000
492,62.500000
493,58.593750
494,58.593750
495,58.593750
496,58.593750
497,58.593750
498,58.593750
499,54.687500
500,54.687500
501,54.687500
502,54.687500
503,50.781250
504,50.781250
505,50.781250
506,50.781250
507,50.781250
508,46.875000
509,46.875000
510,46.875000
511,46.875000
512,46.875000
513,42.968750
514,42.968750
515,42.968750
516,42.968750
517,39.062500
518,39.062500
519,39.062500
520,39.062500
521,35.156250
522,35.156250
523,35.156250
524,35.156250
525,35.156250
526,31.250000
527,31.250000
528,31.250000
529,31.250000
530,27.343750
531,27.343750
532,27.343750
533,27.343750
534,27.343750
535,23.437500
536,23.437500
537,23.437500
538,23.437500
539,19.531250
540,19.531250
541,19.531250
542,19.531250
543,15.625000
544,15.625000
545,15.625000
546,15.625000
547,11.718750
548,11.718750
549,11.718750
550,11.718750
551,7.812500
552,7.812500
553,7.812500
554,7.812500
555,3.906250
556,3.906250
557,3.906250
558,3.906250
559,0.000000
560,0.000000
561,0.000000
562,0.000000
563,-3.906250
564,-3.906250
565,-3.906250
566,-3.906250
567,-3.906250
568,-7.812500
569,-7.812500
570,-7.812500
571,-11.718750
572,-11.718750
573,-11.718750
574,-11.718750
575,-15.625000
576,-15.625000
577,-15.625000
578,-15.625000
579,-19.531250
580,-19.531250
581,-19.531250
582,-23.437500
583,-23.437500
584,-23.437500
585,-23.437500
586,-23.437500
587,-27.343750
588,-27.343750
589,-27.343750
590,-31.250000
591,-31.250000
592,-31.250000
593,-31.250000
594,-35.156250
595,-35.156250
596,-35.156250
597,-35.156250
598,-39.062500
599,-39.062500
600,-39.062500
601,-39.062500
602,-42.968750
603,-42.968750
604,-42.968750
605,-42.968750
606,-46.875000
607,-46.875000
608,-46.875000
609,-50.781250
610,-50.781250
611,-50.781250
612,-50.781250
613,-50.781250
614,-54.687500
615,-54.687500
616,-54.687500
617,-54.687500
618,-58.593750
619,-58.593750
620,-58.593750
621,-62.500000
622,-62.500000
623,-62.500000
624,-62.500000
625,-66.406250
626,-66.406250
627,-66.406250
628,-66.406250
629,-70.312500
630,-70.312500
631,-70.312500
632,-70.312500
633,-74.218750
634,-74.218750
635,-74.218750
636,-74.218750
637,-74.218750
638,-78.125000
639,-78.125000
640,-78.125000
641,-78.125000
642,-82.031250
643,-82.031250
644,-82.031250
645,-82.031250
646,-85.937500
647,-85.937500
648,-85.937500
649,-85.937500
650,-85.937500
651,-89.843750
652,-89.843750
653,-89.843750
654,-89.843750
655,-89.843750
656,-93.750000
657,-93.750000
658,-93.750000
659,-97.656250
660,-97.656250
661,-97.656250
662,-97.656250
663,-101.562500
664,-101.562500
665,-101.562500
666,-101.562500
667,-101.562500
668,-105.468750
669,-105.468750
670,-105.468750
671,-105.468750
672,-105.468750
673,-105.468750
674,-109.375000
675,-109.375000
676,-109.375000
677,-113.281250
678,-113.281250
679,-113.281250
680,-113.281250
681,-113.281250
682,-113.281250
683,-117.187500
684,-117.187500
685,-117.187500
686,-121.093750
687,-117.187500
688,-121.093750
689,-121.093750
690,-121.093750
691,-121.093750
692,-125.000000
693,-125.000000
694,-125.000000
695,-125.000000
696,-125.000000
697,-128.906250
698,-128.906250
699,-128.906250
700,-128.906250
701,-128.906250
702,-132.812500
703,-132.812500
704,-132.812500
705,-132.812500
706,-132.812500
707,-132.812500
708,-136.718750
709,-136.718750
710,-136.718750
711,-136.718750
712,-136.718750
713,-136.718750
714,-140.625000
715,-140.625000
716,-140.625000
717,-140.625000
718,-140.625000
719,-140.625000
720,-144.531250
721,-144.531250
722,-144.531250
723,-144.531250
724,-144.531250
725,-144.531250
726,-144.531250
727,-148.437500
728,-148.437500
729,-148.437500
730,-148.437500
731,-148.437500
732,-148.437500
733,-148.437500
734,-152.343750
735,-152.343750
736,-152.343750
737,-152.343750
738,-152.343750
739,-152.343750
740,-152.343750
741,-156.250000
742,-156.250000
743,-156.250000
744,-156.250000
745,-156.250000
746,-156.250000
747,-156.250000
748,-156.250000
749,-156.250000
750,-160.156250
751,-160.156250
752,-160.156250
753,-160.156250
754,-160.156250
755,-160.156250
756,-160.156250
757,-160.156250
758,-160.156250
759,-160.156250
760,-164.062500
761,-164.062500
762,-164.062500
763,-164.062500
764,-164.062500
765,-164.062500
766,-164.062500
767,-164.062500
768,-164.062500
769,-164.062500
770,-164.062500
771,-164.062500
772,-167.968750
773,-164.062500
774,-167.968750
775,-167.968750
776,-167.968750
777,-167.968750
778,-167.968750
779,-167.968750
780,-167.968750
781,-167.968750
782,-167.968750
783,-167.968750
784,-167.968750
785,-167.968750
786,-167.968750
787,-171.875000
788,-167.968750
789,-167.968750
790,-171.875000
791,-167.968750
792,-171.875000
793,-171.875000
794,-171.875000
795,-171.875000
796,-171.875000
797,-171.875000
798,-171.875000
799,-171.875000
800,-171.875000
801,-171.875000
802,-171.875000
803,-171.875000
804,-171.875000
805,-171.875000
806,-171.875000
807,-171.875000
808,-171.875000
809,-171.875000
810,-171.875000
811,-171.875000
812,-171.875000
813,-171.875000
814,-171.875000
815,-171.875000
816,-171.875000
817,-171.875000
818,-171.875000
819,-171.875000
820,-171.875000
821,-171.875000
822,-171.875000
823,-171.875000
824,-171.875000
825,-171.875000
826,-171.875000
827,-171.875000
828,-171.875000
829,-171.875000
830,-171.875000
831,-171.875000
832,-167.968750
833,-167.968750
834,-167.968750
835,-167.968750
836,-167.968750
837,-167.968750
838,-167.968750
839,-167.968750
840,-167.968750
841,-167.968750
842,-167.968750
843,-167.968750
844,-167.968750
845,-167.968750
846,-167.968750
847,-167.968750
848,-167.968750
849,-167.968750
850,-167.968750
851,-167.968750
852,-167.968750
853,-167.968750
854,-167.968750
855,-164.062500
856,-164.062500
857,-164.062500
858,-164.062500
859,-164.062500
860,-164.062500
861,-164.062500
862,-164.062500
863,-164.062500
864,-164.062500
865,-164.062500
866,-160.156250
867,-160.156250
868,-160.156250
869,-160.156250
870,-160.156250
871,-160.156250
872,-160.156250
873,-160.156250
874,-160.156250
875,-160.156250
876,-156.250000
877,-156.250000
878,-156.250000
879,-156.250000
880,-156.250000
881,-156.250000
882,-156.250000
883,-156.250000
884,-156.250000
885,-156.250000
886,-152.343750
887,-152.343750
888,-152.343750
889,-152.343750
890,-152.343750
891,-152.343750
892,-148.437500
893,-148.437500
894,-148.437500
895,-148.437500
896,-148.437500
897,-148.437500
898,-148.437500
899,-148.437500
900,-144.531250
901,-144.531250
902,-144.531250
903,-144.531250
904,-144.531250
905,-144.531250
906,-140.625000
907,-140.625000
908,-140.625000
909,-140.625000
910,-140.625000
911,-140.625000
912,-136.718750
913,-136.718750
914,-136.718750
915,-136.718750
916,-136.718750
917,-136.718750
918,-132.812500
919,-132.812500
920,-132.812500
921,-132.812500
922,-132.812500
923,-128.906250
924,-128.906250
925,-128.906250
926,-128.906250
927,-128.906250
928,-128.906250
929,-125.000000
930,-125.000000
931,-125.000000
932,-125.000000
933,-125.000000
934,-121.093750
935,-121.093750
936,-121.093750
937,-121.093750
938,-121.093750
939,-117.187500
940,-117.187500
941,-117.187500
942,-117.187500
943,-117.187500
944,-113.281250
945,-113.281250
946,-113.281250
947,-113.281250
948,-113.281250
949,-109.375000
950,-109.375000
951,-109.375000
952,-109.375000
953,-109.375000
954,-105.468750
955,-105.468750
956,-105.468750
957,-105.468750
958,-105.468750
959,-101.562500
960,-101.562500
961,-101.562500
962,-101.562500
963,-97.656250
964,-97.656250
965,-97.656250
966,-97.656250
967,-93.750000
968,-93.750000
969,-93.750000
970,-93.750000
971,-93.750000
972,-89.843750
973,-89.843750
974,-89.843750
975,-89.843750
976,-89.843750
977,-85.937500
978,-85.937500
979,-85.937500
980,-82.031250
981,-82.031250
982,-82.031250
983,-82.031250
984,-82.031250
985,-78.125000
986,-78.125000
987,-78.125000
988,-78.125000
989,-74.218750
990,-74.218750
991,-74.218750
992,-74.218750
993,-70.312500
994,-70.312500
995,-70.312500
996,-70.312500
997,-66.406250
998,-66.406250
999,-66.406250
1000,-66.406250
1001,-66.406250
1002,-62.500000
1003,-62.500000
1004,-62.500000
1005,-62.500000
1006,-58.593750
1007,-58.593750
1008,-58.593750
1009,-58.593750
1010,-54.687500
1011,-54.687500
1012,-54.687500
1013,-54.687500
1014,-50.781250
1015,-50.781250
1016,-50.781250
1017,-46.875000
1018,-46.875000
1019,-46.875000
1020,-46.875000
1021,-46.875000
1022,-42.968750
1023,-42.968750
1024,-42.968750
1025,-42.968750
1026,-39.062500
1027,-39.062500
1028,-39.062500
1029,-39.062500
1030,-35.156250
1031,-35.156250
1032,-35.156250
1033,-31.250000
1034,-31.250000
1035,-31.250000
1036,-31.250000
1037,-27.343750
1038,-27.343750
1039,-27.343750
1040,-27.343750
1041,-27.343750
1042,-23.437500
1043,-23.437500
1044,-23.437500
1045,-23.437500
1046,-19.531250
1047,-19.531250
1048,-19.531250
1049,-15.625000
1050,-15.625000
1051,-15.625000
1052,-15.625000
1053,-11.718750
1054,-11.718750
1055,-11.718750
1056,-11.718750
1057,-7.812500
1058,-7.812500
1059,-7.812500
1060,-7.812500
1061,-3.906250
1062,-3.906250
1063,-3.906250
1064,-3.906250
1065,0.000000
1066,0.000000
1067,0.000000
1068,0.000000
1069,0.000000
1070,3.906250
1071,3.906250
1072,3.906250
1073,3.906250
1074,7.812500
1075,7.812500
1076,7.812500
1077,7.812500
1078,11.718750
1079,11.718750
1080,11.718750
1081,11.718750
1082,15.625000
1083,15.625000
1084,15.625000
1085,15.625000
1086,19.531250
1087,19.531250
1088,19.531250
1089,23.437500
1090,23.437500
1091,23.437500
1092,23.437500
1093,23.437500
1094,23.437500
1095,27.343750
1096,27.343750
1097,27.343750
1098,27.343750
1099,31.250000
1100,31.250000
1101,31.250000
1102,31.250000
1103,35.156250
1104,35.156250
1105,35.156250
1106,35.156250
1107,39.062500
1108,39.062500
1109,39.062500
1110,39.062500
1111,39.062500
1112,42.968750
1113,42.968750
1114,42.968750
1115,42.968750
1116,42.968750
1117,46.875000
1118,46.875000
1119,46.875000
1120,46.875000
1121,46.875000
1122,50.781250
1123,50.781250
1124,50.781250
1125,50.781250
1126,50.781250
1127,54.687500
1128,54.687500
1129,54.687500
1130,54.687500
1131,54.687500
1132,58.593750
1133,58.593750
1134,58.593750
1135,58.593750
1136,58.593750
1137,62.500000
1138,62.500000
1139,62.500000
1140,62.500000
1141,62.500000
1142,66.406250
1143,66.406250
1144,66.406250
1145,66.406250
1146,66.406250
1147,70.312500
1148,70.312500
1149,70.312500
1150,70.312500
1151,70.312500
1152,74.218750
1153,74.218750
1154,74.218750
1155,74.218750
1156,74.218750
1157,74.218750
1158,78.125000
1159,78.125000
1160,78.125000
1161,78.125000
1162,78.125000
1163,82.031250
1164,82.031250
1165,82.031250
1166,82.031250
1167,82.031250
1168,82.031250
1169,82.031250
1170,85.937500
1171,85.937500
1172,85.937500
1173,85.937500
1174,85.937500
1175,89.843750
1176,89.843750
1177,89.843750
1178,89.843750
1179,89.843750
1180,89.843750
1181,93.750000
1182,93.750000
1183,93.750000
1184,93.750000
1185,93.750000
1186,93.750000
1187,93.750000
1188,97.656250
1189,97.656250
1190,97.656250
1191,97.656250
1192,97.656250
1193,97.656250
1194,97.656250
1195,97.656250
1196,101.562500
1197,101.562500
1198,101.562500
1199,101.562500
1200,101.562500
1201,105.468750
1202,105.468750
1203,105.468750
1204,105.468750
1205,105.468750
1206,105.468750
1207,105.468750
1208,105.468750
1209,105.468750
1210,105.468750
1211,109.375000
1212,109.375000
1213,109.375000
1214,109.375000
1215,109.375000
1216,109.375000
1217,109.375000
1218,109.375000
1219,109.375000
1220,113.281250
1221,113.281250
1222,113.281250
1223,113.281250
1224,113.281250
1225,113.281250
1226,113.281250
1227,113.281250
1228,113.281250
1229,113.281250
1230,117.187500
1231,117.187500
1232,117.187500
1233,117.187500
1234,117.187500
1235,117.187500
1236,117.187500
1237,117.187500
1238,117.187500
1239,117.187500
1240,117.187500
1241,121.093750
1242,121.093750
1243,121.093750
1244,121.093750
1245,121.093750
1246,121.093750
1247,121.093750
1248,121.093750
1249,121.093750
1250,121.093750
1251,121.093750
1252,121.093750
1253,121.093750
1254,125.000000
1255,125.000000
1256,125.000000
1257,125.000000
1258,125.000000
1259,125.000000
1260,125.000000
1261,125.000000
1262,125.000000
1263,125.000000
1264,125.000000
1265,125.000000
1266,128.906250
1267,125.000000
1268,125.000000
1269,125.000000
1270,125.000000
1271,125.000000
1272,125.000000
1273,125.000000
1274,128.906250
1275,128.906250
1276,128.906250
1277,128.906250
1278,128.906250
1279,128.906250
1280,128.906250
1281,128.906250
1282,128.906250
1283,128.906250
1284,128.906250
1285,128.906250
1286,128.906250
1287,128.906250
1288,128.906250
1289,128.906250
1290,128.906250
1291,128.906250
1292,128.906250
1293,128.906250
1294,128.906250
1295,128.906250
1296,128.906250
1297,128.906250
1298,128.906250
1299,132.812500
1300,128.906250
1301,132.812500
1302,132.812500
1303,128.906250
1304,132.812500
1305,128.906250
1306,132.812500
1307,128.906250
1308,128.906250
1309,128.906250
1310,132.812500
1311,128.906250
1312,132.812500
1313,132.812500
1314,132.812500
1315,132.812500
1316,132.812500
1317,132.812500
1318,128.906250
1319,128.906250
1320,132.812500
1321,128.906250
1322,132.812500
1323,128.906250
1324,132.812500
1325,128.906250
1326,128.906250
1327,128.906250
1328,128.906250
1329,128.906250
1330,128.906250
1331,128.906250
1332,128.906250
1333,128.906250
1334,128.906250
1335,128.906250
1336,128.906250
1337,128.906250
1338,128.906250
1339,128.906250
1340,128.906250
1341,128.906250
1342,128.906250
1343,128.906250
1344,128.906250
1345,128.906250
1346,128.906250
1347,128.906250
1348,128.906250
1349,128.906250
1350,128.906250
1351,128.906250
1352,125.000000
1353,125.000000
1354,125.000000
1355,125.000000
1356,125.000000
1357,125.000000
1358,125.000000
1359,125.000000
1360,125.000000
1361,125.000000
1362,125.000000
1363,125.000000
1364,125.000000
1365,125.000000
1366,125.000000
1367,125.000000
1368,125.000000
1369,121.093750
1370,121.093750
1371,121.093750
1372,121.093750
1373,121.093750
1374,121.093750
1375,121.093750
1376,121.093750
1377,121.093750
1378,121.093750
1379,121.093750
1380,121.093750
1381,121.093750
1382,117.187500
1383,117.187500
1384,117.187500
1385,117.187500
1386,117.187500
1387,117.187500
1388,117.187500
1389,117.187500
1390,113.281250
1391,117.187500
1392,117.187500
1393,113.281250
1394,113.281250
1395,113.281250
1396,113.281250
1397,113.281250
1398,113.281250
1399,113.281250
1400,113.281250
1401,109.375000
1402,109.375000
1403,109.375000
1404,109.375000
1405,109.375000
1406,109.375000
1407,109.375000
1408,109.375000
1409,109.375000
1410,109.375000
1411,109.375000
1412,105.468750
1413,105.468750
1414,105.468750
1415,105.468750
1416,105.468750
1417,105.468750
1418,105.468750
1419,101.562500
1420,101.562500
1421,101.562500
1422,101.562500
1423,101.562500
1424,101.562500
1425,97.656250
1426,97.656250
1427,97.656250
1428,97.656250
1429,97.656250
1430,97.656250
1431,97.656250
1432,97.656250
1433,97.656250
1434,93.750000
1435,93.750000
1436,93.750000
1437,93.750000
1438,93.750000
1439,93.750000
1440,89.843750
1441,89.843750
1442,89.843750
1443,89.843750
1444,89.843750
1445,89.843750
1446,85.937500
1447,85.937500
1448,85.937500
1449,85.937500
1450,85.937500
1451,85.937500
1452,82.031250
1453,82.031250
1454,82.031250
1455,82.031250
1456,82.031250
1457,82.031250
1458,78.125000
1459,78.125000
1460,78.125000
1461,78.125000
1462,78.125000
1463,78.125000
1464,74.218750
1465,74.218750
1466,74.218750
1467,74.218750
1468,74.218750
1469,70.312500
1470,70.312500
1471,70.312500
1472,70.312500
1473,70.312500
1474,66.406250
1475,66.406250
1476,66.406250
1477,66.406250
1478,66.406250
1479,62.500000
1480,62.500000
1481,62.500000
1482,62.500000
1483,62.500000
1484,62.500000
1485,58.593750
1486,58.593750
1487,58.593750
1488,58.593750
1489,54.687500
1490,54.687500
1491,54.687500
1492,54.687500
1493,54.687500
1494,50.781250
1495,50.781250
1496,50.781250
1497,50.781250
1498,46.875000
1499,46.875000
1500,46.875000
1501,46.875000
1502,42.968750
1503,42.968750
1504,42.968750
1505,42.968750
1506,39.062500
1507,39.062500
1508,39.062500
1509,39.062500
1510,39.062500
1511,35.156250
1512,35.156250
1513,35.156250
1514,35.156250
1515,35.156250
1516,31.250000
1517,31.250000
1518,31.250000
1519,27.343750
1520,27.343750
1521,27.343750
1522,27.343750
1523,27.343750
1524,23.437500
1525,23.437500
1526,23.437500
1527,23.437500
1528,19.531250
1529,19.531250
1530,19.531250
1531,19.531250
1532,19.531250
1533,15.625000
1534,15.625000
1535,15.625000
1536,11.718750
1537,11.718750
1538,11.718750
1539,11.718750
1540,11.718750
1541,7.812500
1542,7.812500
1543,7.812500
1544,7.812500
1545,3.906250
1546,3.906250
1547,3.906250
1548,3.906250
1549,0.000000
1550,0.000000
1551,0.000000
1552,0.000000
1553,-3.906250
1554,-3.906250
1555,-3.906250
1556,-7.812500
1557,-7.812500
1558,-7.812500
1559,-7.812500
1560,-7.812500
1561,-11.718750
1562,-11.718750
1563,-11.718750
1564,-11.718750
1565,-15.625000
1566,-15.625000
1567,-15.625000
1568,-15.625000
1569,-19.531250
1570,-19.531250
1571,-19.531250
1572,-19.531250
1573,-23.437500
1574,-23.437500
1575,-23.437500
1576,-23.437500
1577,-27.343750
1578,-27.343750
1579,-27.343750
1580,-27.343750
1581,-31.250000
1582,-31.250000
1583,-31.250000
1584,-35.156250
1585,-35.156250
1586,-35.156250
1587,-35.156250
1588,-39.062500
1589,-39.062500
1590,-39.062500
1591,-39.062500
1592,-42.968750
1593,-42.968750
1594,-42.968750
1595,-46.875000
1596,-46.875000
1597,-46.875000
1598,-46.875000
1599,-46.875000
1600,-50.781250
1601,-50.781250
1602,-50.781250
1603,-50.781250
1604,-54.687500
1605,-54.687500
1606,-54.687500
1607,-54.687500
1608,-58.593750
1609,-58.593750
1610,-58.593750
1611,-58.593750
1612,-62.500000
1613,-62.500000
1614,-62.500000
1615,-62.500000
1616,-66.406250
1617,-66.406250
1618,-66.406250
1619,-66.406250
1620,-70.312500
1621,-70.312500
1622,-70.312500
1623,-70.312500
1624,-74.218750
1625,-74.218750
1626,-74.218750
1627,-74.218750
1628,-78.125000
1629,-78.125000
1630,-78.125000
1631,-78.125000
1632,-82.031250
1633,-82.031250
1634,-82.031250
1635,-82.031250
1636,-85.937500
1637,-85.937500
1638,-85.937500
1639,-85.937500
1640,-85.937500
1641,-89.843750
1642,-89.843750
1643,-89.843750
1644,-89.843750
1645,-93.750000
1646,-93.750000
1647,-93.750000
1648,-93.750000
1649,-97.656250
1650,-97.656250
1651,-97.656250
1652,-97.656250
1653,-101.562500
1654,-101.562500
1655,-101.562500
1656,-101.562500
1657,-101.562500
1658,-105.468750
1659,-105.468750
1660,-105.468750
1661,-105.468750
1662,-109.375000
1663,-109.375000
1664,-109.375000
1665,-109.375000
1666,-109.375000
1667,-113.281250
1668,-113.281250
1669,-113.281250
1670,-113.281250
1671,-113.281250
1672,-117.187500
1673,-117.187500
1674,-117.187500
1675,-117.187500
1676,-117.187500
1677,-117.187500
1678,-121.093750
1679,-121.093750
1680,-121.093750
1681,-121.093750
1682,-125.000000
1683,-125.000000
1684,-125.000000
1685,-125.000000
1686,-125.000000
1687,-128.906250
1688,-128.906250
1689,-128.906250
1690,-128.906250
1691,-128.906250
1692,-128.906250
1693,-132.812500
1694,-132.812500
1695,-132.812500
1696,-132.812500
1697,-132.812500
1698,-136.718750
1699,-136.718750
1700,-136.718750
1701,-136.718750
1702,-136.718750
1703,-136.718750
1704,-140.625000
1705,-140.625000
1706,-140.625000
1707,-140.625000
1708,-140.625000
1709,-140.625000
1710,-140.625000
1711,-144.531250
1712,-144.531250
1713,-144.531250
1714,-144.531250
1715,-144.531250
1716,-144.531250
1717,-148.437500
1718,-148.437500
1719,-148.437500
1720,-148.437500
1721,-148.437500
1722,-148.437500
1723,-148.437500
1724,-152.343750
1725,-152.343750
1726,-152.343750
1727,-152.343750
1728,-152.343750
1729,-152.343750
1730,-152.343750
1731,-152.343750
1732,-156.250000
1733,-156.250000
1734,-156.250000
1735,-156.250000
1736,-156.250000
1737,-156.250000
1738,-156.250000
1739,-156.250000
1740,-156.250000
1741,-156.250000
1742,-160.156250
1743,-160.156250
1744,-160.156250
1745,-160.156250
1746,-160.156250
1747,-160.156250
1748,-160.156250
1749,-160.156250
1750,-164.062500
1751,-164.062500
1752,-164.062500
1753,-164.062500
1754,-164.062500
1755,-164.062500
1756,-164.062500
1757,-164.062500
1758,-164.062500
1759,-164.062500
1760,-164.062500
1761,-164.062500
1762,-164.062500
1763,-164.062500
1764,-164.062500
1765,-167.968750
1766,-167.968750
1767,-167.968750
1768,-167.968750
1769,-167.968750
1770,-167.968750
1771,-167.968750
1772,-167.968750
1773,-167.968750
1774,-167.968750
1775,-167.968750
1776,-167.968750
1777,-167.968750
1778,-171.875000
1779,-171.875000
1780,-167.968750
1781,-171.875000
1782,-171.875000
1783,-167.968750
1784,-171.875000
1785,-171.875000
1786,-171.875000
1787,-171.875000
1788,-171.875000
1789,-171.875000
1790,-171.875000
1791,-171.875000
1792,-171.875000
1793,-171.875000
1794,-171.875000
1795,-171.875000
1796,-171.875000
1797,-171.875000
1798,-171.875000
1799,-171.875000
1800,-171.875000
1801,-171.875000
1802,-171.875000
1803,-171.875000
1804,-171.875000
1805,-171.875000
1806,-171.875000
1807,-171.875000
1808,-171.875000
1809,-171.875000
1810,-171.875000
1811,-171.875000
1812,-171.875000
1813,-171.875000
1814,-171.875000
1815,-171.875000
1816,-171.875000
1817,-171.875000
1818,-171.875000
1819,-171.875000
1820,-171.875000
1821,-171.875000
1822,-171.875000
1823,-171.875000
1824,-171.875000
1825,-171.875000
1826,-167.968750
1827,-171.875000
1828,-167.968750
1829,-167.968750
1830,-167.968750
1831,-167.968750
1832,-167.968750
1833,-167.968750
1834,-167.968750
1835,-167.968750
1836,-167.968750
1837,-167.968750
1838,-167.968750
1839,-167.968750
1840,-167.968750
1841,-167.968750
1842,-167.968750
1843,-167.968750
1844,-164.062500
1845,-164.062500
1846,-164.062500
1847,-164.062500
1848,-164.062500
1849,-164.062500
1850,-164.062500
1851,-164.062500
1852,-164.062500
1853,-164.062500
1854,-164.062500
1855,-164.062500
1856,-160.156250
1857,-160.156250
1858,-160.156250
1859,-160.156250
1860,-160.156250
1861,-160.156250
1862,-160.156250
1863,-160.156250
1864,-160.156250
1865,-160.156250
1866,-156.250000
1867,-160.156250
1868,-156.250000
1869,-156.250000
1870,-156.250000
1871,-156.250000
1872,-156.250000
1873,-156.250000
1874,-156.250000
1875,-152.343750
1876,-152.343750
1877,-152.343750
1878,-152.343750
1879,-152.343750
1880,-152.343750
1881,-152.343750
1882,-152.343750
1883,-148.437500
1884,-148.437500
1885,-148.437500
1886,-148.437500
1887,-148.437500
1888,-148.437500
1889,-148.437500
1890,-144.531250
1891,-144.531250
1892,-144.531250
1893,-144.531250
1894,-144.531250
1895,-144.531250
1896,-144.531250
1897,-140.625000
1898,-140.625000
1899,-140.625000
1900,-140.625000
1901,-136.718750
1902,-136.718750
1903,-136.718750
1904,-136.718750
1905,-136.718750
1906,-136.718750
1907,-136.718750
1908,-136.718750
1909,-132.812500
1910,-132.812500
1911,-132.812500
1912,-132.812500
1913,-132.812500
1914,-128.906250
1915,-128.906250
1916,-128.906250
1917,-128.906250
1918,-128.906250
1919,-128.906250
1920,-125.000000
1921,-125.000000
1922,-125.000000
1923,-125.000000
1924,-125.000000
1925,-121.093750
1926,-121.093750
1927,-121.093750
1928,-121.093750
1929,-121.093750
1930,-117.187500
1931,-117.187500
1932,-117.187500
1933,-117.187500
1934,-117.187500
1935,-113.281250
1936,-113.281250
1937,-113.281250
1938,-113.281250
1939,-113.281250
1940,-109.375000
1941,-109.375000
1942,-109.375000
1943,-109.375000
1944,-109.375000
1945,-105.468750
1946,-105.468750
1947,-105.468750
1948,-105.468750
1949,-101.562500
1950,-101.562500
1951,-101.562500
1952,-101.562500
1953,-101.562500
1954,-97.656250
1955,-97.656250
1956,-97.656250
1957,-97.656250
1958,-93.750000
1959,-93.750000
1960,-93.750000
1961,-93.750000
1962,-89.843750
1963,-89.843750
1964,-89.843750
1965,-89.843750
1966,-89.843750
1967,-85.937500
1968,-85.937500
1969,-85.937500
1970,-85.937500
1971,-85.937500
1972,-82.031250
1973,-82.031250
1974,-82.031250
1975,-78.125000
1976,-78.125000
1977,-78.125000
1978,-78.125000
1979,-74.218750
1980,-74.218750
1981,-74.218750
1982,-74.218750
1983,-74.218750
1984,-70.312500
1985,-70.312500
1986,-70.312500
1987,-70.312500
1988,-66.406250
1989,-66.406250
1990,-66.406250
1991,-66.406250
1992,-62.500000
1993,-62.500000
1994,-62.500000
1995,-62.500000
1996,-58.593750
1997,-58.593750
1998,-58.593750
1999,-54.687500
2000,-54.687500
2001,-54.687500
2002,-54.687500
2003,-54.687500
2004,-50.781250
2005,-50.781250
2006,-50.781250
2007,-46.875000
2008,-46.875000
2009,-46.875000
2010,-46.875000
2011,-46.875000
2012,-42.968750
2013,-42.968750
2014,-42.968750
2015,-42.968750
2016,-39.062500
2017,-39.062500
2018,-39.062500
2019,-39.062500
2020,-35.156250
2021,-35.156250
2022,-35.156250
2023,-35.156250
2024,-31.250000
2025,-31.250000
2026,-31.250000
2027,-31.250000
2028,-27.343750
2029,-27.343750
2030,-27.343750
2031,-27.343750
2032,-23.437500
2033,-23.437500
2034,-23.437500
2035,-23.437500
2036,-19.531250
2037,-19.531250
2038,-19.531250
2039,-19.531250
2040,-15.625000
2041,-15.625000
2042,-15.625000
2043,-15.625000
2044,-11.718750
2045,-11.718750
2046,-11.718750
2047,-11.718750
2048,-7.812500
2049,-7.812500
2050,-7.812500
2051,-7.812500
2052,-3.906250
2053,-3.906250
2054,-3.906250
2055,-3.906250
2056,0.000000
2057,0.000000
2058,0.000000
2059,3.906250
2060,3.906250
2061,3.906250
2062,3.906250
2063,3.906250
2064,7.812500
2065,7.812500
2066,7.812500
2067,7.812500
2068,11.718750
2069,11.718750
2070,11.718750
2071,11.718750
2072,15.625000
2073,15.625000
2074,15.625000
2075,15.625000
2076,19.531250
2077,19.531250
2078,19.531250
2079,19.531250
2080,23.437500
2081,23.437500
2082,23.437500
2083,23.437500
2084,23.437500
2085,27.343750
2086,27.343750
2087,27.343750
2088,27.343750
2089,31.250000
2090,31.250000
2091,31.250000
2092,31.250000
2093,35.156250
2094,35.156250
2095,35.156250
2096,35.156250
2097,35.156250
2098,39.062500
2099,39.062500
2100,39.062500
2101,39.062500
2102,42.968750
2103,42.968750
2104,42.968750
2105,42.968750
2106,42.968750
2107,46.875000
2108,46.875000
2109,46.875000
2110,50.781250
2111,50.781250
2112,50.781250
2113,50.781250
2114,50.781250
2115,50.781250
2116,50.781250
2117,54.687500
2118,54.687500
2119,54.687500
2120,54.687500
2121,58.593750
2122,58.593750
2123,58.593750
2124,58.593750
2125,58.593750
2126,62.500000
2127,62.500000
2128,62.500000
2129,62.500000
2130,62.500000
2131,66.406250
2132,66.406250
2133,66.406250
2134,66.406250
2135,70.312500
2136,70.312500
2137,70.312500
2138,70.312500
2139,70.312500
2140,70.312500
2141,70.312500
2142,74.218750
2143,74.218750
2144,74.218750
2145,74.218750
2146,78.125000
2147,78.125000
2148,78.125000
2149,78.125000
2150,78.125000
2151,78.125000
2152,78.125000
2153,82.031250
2154,82.031250
2155,82.031250
2156,82.031250
2157,82.031250
2158,85.937500
2159,85.937500
2160,85.937500
2161,85.937500
2162,85.937500
2163,85.937500
2164,89.843750
2165,89.843750
2166,89.843750
2167,89.843750
2168,89.843750
2169,89.843750
2170,89.843750
2171,93.750000
2172,93.750000
2173,93.750000
2174,93.750000
2175,93.750000
2176,97.656250
2177,93.750000
2178,97.656250
2179,97.656250
2180,97.656250
2181,97.656250
2182,97.656250
2183,97.656250
2184,97.656250
2185,101.562500
2186,101.562500
2187,101.562500
2188,101.562500
2189,101.562500
2190,101.562500
2191,101.562500
2192,105.468750
2193,105.468750
2194,105.468750
2195,105.468750
2196,109.375000
2197,105.468750
2198,105.468750
2199,109.375000
2200,109.375000
2201,109.375000
2202,109.375000
2203,109.375000
2204,109.375000
2205,109.375000
2206,109.375000
2207,109.375000
2208,113.281250
2209,113.281250
2210,113.281250
2211,117.187500
2212,113.281250
2213,113.281250
2214,113.281250
2215,113.281250
2216,117.187500
2217,117.187500
2218,113.281250
2219,117.187500
2220,117.187500
2221,117.187500
2222,117.187500
2223,117.187500
2224,117.187500
2225,117.187500
2226,117.187500
2227,117.187500
2228,121.093750
2229,121.093750
2230,121.093750
2231,121.093750
2232,121.093750
2233,121.093750
2234,121.093750
2235,121.093750
2236,121.093750
2237,121.093750
2238,121.093750
2239,121.093750
2240,121.093750
2241,125.000000
2242,125.000000
2243,125.000000
2244,125.000000
2245,125.000000
2246,125.000000
2247,125.000000
2248,125.000000
2249,125.000000
2250,125.000000
2251,125.000000
2252,125.000000
2253,125.000000
2254,128.906250
2255,125.000000
2256,128.906250
2257,125.000000
2258,128.906250
2259,125.000000
2260,128.906250
2261,128.906250
2262,128.906250
2263,128.906250
2264,128.906250
2265,128.906250
2266,128.906250
2267,128.906250
2268,128.906250
2269,128.906250
2270,128.906250
2271,128.906250
2272,128.906250
2273,128.906250
2274,128.906250
2275,128.906250
2276,128.906250
2277,128.906250
2278,128.906250
2279,128.906250
2280,128.906250
2281,128.906250
2282,128.906250
2283,128.906250
2284,132.812500
2285,128.906250
2286,132.812500
2287,128.906250
2288,132.812500
2289,128.906250
2290,132.812500
2291,128.906250
2292,132.812500
2293,128.906250
2294,132.812500
2295,132.812500
2296,132.812500
2297,128.906250
2298,132.812500
2299,132.812500
2300,132.812500
2301,128.906250
2302,132.812500
2303,132.812500
2304,132.812500
2305,128.906250
2306,132.812500
2307,128.906250
2308,132.812500
2309,128.906250
2310,132.812500
2311,128.906250
2312,128.906250
2313,128.906250
2314,128.906250
2315,128.906250
2316,128.906250
2317,128.906250
2318,128.906250
2319,128.906250
2320,128.906250
2321,128.906250
2322,128.906250
2323,128.906250
2324,128.906250
2325,128.906250
2326,128.906250
2327,128.906250
2328,128.906250
2329,128.906250
2330,128.906250
2331,128.906250
2332,128.906250
2333,128.906250
2334,128.906250
2335,128.906250
2336,128.906250
2337,128.906250
2338,128.906250
2339,128.906250
2340,128.906250
2341,128.906250
2342,128.906250
2343,128.906250
2344,125.000000
2345,125.000000
2346,125.000000
2347,125.000000
2348,125.000000
2349,125.000000
2350,125.000000
2351,125.000000
2352,125.000000
2353,125.000000
2354,125.000000
2355,125.000000
2356,125.000000
2357,125.000000
2358,125.000000
2359,125.000000
2360,121.093750
2361,121.093750
2362,121.093750
2363,121.093750
2364,121.093750
2365,121.093750
2366,121.093750
2367,121.093750
2368,121.093750
2369,121.093750
2370,121.093750
2371,117.187500
2372,117.187500
2373,117.187500
2374,117.187500
2375,117.187500
2376,117.187500
2377,117.187500
2378,117.187500
2379,117.187500
2380,117.187500
2381,117.187500
2382,117.187500
2383,113.281250
2384,113.281250
2385,113.281250
2386,113.281250
2387,113.281250
2388,113.281250
2389,113.281250
2390,113.281250
2391,109.375000
2392,109.375000
2393,109.375000
2394,109.375000
2395,109.375000
2396,109.375000
2397,109.375000
2398,109.375000
2399,109.375000
2400,109.375000
2401,105.468750
2402,105.468750
2403,105.468750
2404,105.468750
2405,105.468750
2406,105.468750
2407,105.468750
2408,105.468750
2409,101.562500
2410,101.562500
2411,101.562500
2412,101.562500
2413,101.562500
2414,101.562500
2415,97.656250
2416,97.656250
2417,97.656250
2418,97.656250
2419,97.656250
2420,97.656250
2421,97.656250
2422,97.656250
2423,93.750000
2424,93.750000
2425,93.750000
2426,93.750000
2427,93.750000
2428,93.750000
2429,89.843750
2430,89.843750
2431,89.843750
2432,89.843750
2433,89.843750
2434,89.843750
2435,85.937500
2436,85.937500
2437,85.937500
2438,85.937500
2439,85.937500
2440,85.937500
2441,85.937500
2442,82.031250
2443,82.031250
2444,82.031250
2445,82.031250
2446,82.031250
2447,78.125000
2448,78.125000
2449,78.125000
2450,78.125000
2451,78.125000
2452,78.125000
2453,74.218750
2454,74.218750
2455,74.218750
2456,74.218750
2457,74.218750
2458,70.312500
2459,70.312500
2460,70.312500
2461,70.312500
2462,70.312500
2463,66.406250
2464,66.406250
2465,66.406250
2466,66.406250
2467,66.406250
2468,62.500000
2469,62.500000
2470,62.500000
2471,62.500000
2472,62.500000
2473,58.593750
2474,58.593750
2475,58.593750
2476,58.593750
2477,58.593750
2478,58.593750
2479,54.687500
2480,54.687500
2481,54.687500
2482,54.687500
2483,54.687500
2484,50.781250
2485,50.781250
2486,50.781250
2487,50.781250
2488,46.875000
2489,46.875000
2490,46.875000
2491,46.875000
2492,46.875000
2493,42.968750
2494,42.968750
2495,42.968750
2496,42.968750
2497,39.062500
2498,39.062500
2499,39.062500
2500,39.062500
2501,39.062500
2502,35.156250
2503,35.156250
2504,35.156250
2505,35.156250
2506,35.156250
2507,31.250000
2508,31.250000
2509,31.250000
2510,27.343750
2511,27.343750
2512,27.343750
2513,27.343750
2514,23.437500
2515,23.437500
2516,23.437500
2517,23.437500
2518,23.437500
2519,19.531250
2520,19.531250
2521,19.531250
2522,19.531250
2523,15.625000
2524,15.625000
2525,15.625000
2526,15.625000
2527,11.718750
2528,11.718750
2529,11.718750
2530,11.718750
2531,7.812500
2532,7.812500
2533,7.812500
2534,7.812500
2535,3.906250
2536,3.906250
2537,3.906250
2538,3.906250
2539,0.000000
2540,0.000000
2541,0.000000
2542,0.000000
2543,-3.906250
2544,-3.906250
2545,-3.906250
2546,-3.906250
2547,-7.812500
2548,-7.812500
2549,-7.812500
2550,-11.718750
2551,-11.718750
2552,-11.718750
2553,-11.718750
2554,-15.625000
2555,-15.625000
2556,-15.625000
2557,-15.625000
2558,-15.625000
2559,-19.531250
2560,-19.531250
2561,-19.531250
2562,-23.437500
2563,-23.437500
2564,-23.437500
2565,-23.437500
2566,-27.343750
2567,-27.343750
2568,-27.343750
2569,-27.343750
2570,-31.250000
2571,-31.250000
2572,-31.250000
2573,-31.250000
2574,-35.156250
2575,-35.156250
2576,-35.156250
2577,-35.156250
2578,-39.062500
2579,-39.062500
2580,-39.062500
2581,-42.968750
2582,-42.968750
2583,-42.968750
2584,-46.875000
2585,-46.875000
2586,-46.875000
2587,-46.875000
2588,-46.875000
2589,-50.781250
2590,-50.781250
2591,-50.781250
2592,-50.781250
2593,-54.687500
2594,-54.687500
2595,-54.687500
2596,-54.687500
2597,-54.687500
2598,-58.593750
2599,-58.593750
2600,-62.500000
2601,-62.500000
2602,-62.500000
2603,-62.500000
2604,-62.500000
2605,-66.406250
2606,-66.406250
2607,-66.406250
2608,-66.406250
2609,-66.406250
2610,-70.312500
2611,-70.312500
2612,-70.312500
2613,-74.218750
2614,-74.218750
2615,-70.312500
2616,-74.218750
2617,-78.125000
2618,-78.125000
2619,-78.125000
2620,-78.125000
2621,-78.125000
2622,-82.031250
2623,-82.031250
2624,-82.031250
2625,-82.031250
2626,-85.937500
2627,-85.937500
2628,-85.937500
2629,-85.937500
2630,-89.843750
2631,-89.843750
2632,-89.843750
2633,-89.843750
2634,-93.750000
2635,-93.750000
2636,-93.750000
2637,-93.750000
2638,-93.750000
2639,-97.656250
2640,-97.656250
2641,-97.656250
2642,-97.656250
2643,-97.656250
2644,-101.562500
2645,-101.562500
2646,-101.562500
2647,-101.562500
2648,-105.468750
2649,-105.468750
2650,-105.468750
2651,-105.468750
2652,-109.375000
2653,-109.375000
2654,-109.375000
2655,-109.375000
2656,-109.375000
2657,-113.281250
2658,-113.281250
2659,-113.281250
2660,-113.281250
2661,-113.281250
2662,-117.187500
2663,-117.187500
2664,-117.187500
2665,-117.187500
2666,-117.187500
2667,-121.093750
2668,-121.093750
2669,-121.093750
2670,-121.093750
2671,-125.000000
2672,-125.000000
2673,-125.000000
2674,-125.000000
2675,-125.000000
2676,-125.000000
2677,-128.906250
2678,-128.906250
2679,-128.906250
2680,-128.906250
2681,-128.906250
2682,-132.812500
2683,-132.812500
2684,-132.812500
2685,-128.906250
2686,-132.812500
2687,-136.718750
2688,-132.812500
2689,-136.718750
2690,-136.718750
2691,-136.718750
2692,-136.718750
2693,-140.625000
2694,-136.718750
2695,-140.625000
2696,-140.625000
2697,-140.625000
2698,-140.625000
2699,-144.531250
2700,-140.625000
2701,-144.531250
2702,-144.531250
2703,-144.531250
2704,-144.531250
2705,-144.531250
2706,-144.531250
2707,-148.437500
2708,-148.437500
2709,-148.437500
2710,-148.437500
2711,-148.437500
2712,-148.437500
2713,-148.437500
2714,-152.343750
2715,-152.343750
2716,-152.343750
2717,-152.343750
2718,-152.343750
2719,-152.343750
2720,-152.343750
2721,-156.250000
2722,-152.343750
2723,-156.250000
2724,-156.250000
2725,-156.250000
2726,-156.250000
2727,-156.250000
2728,-156.250000
2729,-156.250000
2730,-160.156250
2731,-160.156250
2732,-160.156250
2733,-160.156250
2734,-160.156250
2735,-160.156250
2736,-160.156250
2737,-160.156250
2738,-160.156250
2739,-160.156250
2740,-160.156250
2741,-160.156250
2742,-164.062500
2743,-164.062500
2744,-164.062500
2745,-164.062500
2746,-164.062500
2747,-164.062500
2748,-164.062500
2749,-164.062500
2750,-164.062500
2751,-167.968750
2752,-164.062500
2753,-164.062500
2754,-164.062500
2755,-167.968750
2756,-167.968750
2757,-167.968750
2758,-167.968750
2759,-167.968750
2760,-167.968750
2761,-167.968750
2762,-167.968750
2763,-167.968750
2764,-167.968750
2765,-167.968750
2766,-167.968750
2767,-167.968750
2768,-167.968750
2769,-171.875000
2770,-171.875000
2771,-167.968750
2772,-171.875000
2773,-171.875000
2774,-171.875000
2775,-171.875000
2776,-171.875000
2777,-171.875000
2778,-167.968750
2779,-171.875000
2780,-171.875000
2781,-171.875000
2782,-171.875000
2783,-171.875000
2784,-171.875000
2785,-171.875000
2786,-171.875000
2787,-171.875000
2788,-171.875000
2789,-171.875000
2790,-171.875000
2791,-171.875000
2792,-171.875000
2793,-171.875000
2794,-171.875000
2795,-171.875000
2796,-171.875000
2797,-171.875000
2798,-171.875000
2799,-171.875000
2800,-171.875000
2801,-171.875000
2802,-171.875000
2803,-171.875000
2804,-171.875000
2805,-171.875000
2806,-171.875000
2807,-171.875000
2808,-171.875000
2809,-171.875000
2810,-171.875000
2811,-171.875000
2812,-171.875000
2813,-171.875000
2814,-167.968750
2815,-167.968750
2816,-167.968750
2817,-167.968750
2818,-167.968750
2819,-167.968750
2820,-167.968750
2821,-167.968750
2822,-167.968750
2823,-167.968750
2824,-167.968750
2825,-167.968750
2826,-167.968750
2827,-167.968750
2828,-167.968750
2829,-167.968750
2830,-167.968750
2831,-167.968750
2832,-164.062500
2833,-164.062500
2834,-164.062500
2835,-164.062500
2836,-164.062500
2837,-164.062500
2838,-164.062500
2839,-164.062500
2840,-164.062500
2841,-164.062500
2842,-164.062500
2843,-164.062500
2844,-160.156250
2845,-160.156250
2846,-160.156250
2847,-160.156250
2848,-160.156250
2849,-160.156250
2850,-160.156250
2851,-160.156250
2852,-160.156250
2853,-160.156250
2854,-156.250000
2855,-156.250000
2856,-156.250000
2857,-156.250000
2858,-156.250000
2859,-156.250000
2860,-156.250000
2861,-156.250000
2862,-156.250000
2863,-152.343750
2864,-152.343750
2865,-152.343750
2866,-152.343750
2867,-152.343750
2868,-152.343750
2869,-152.343750
2870,-148.437500
2871,-148.437500
2872,-148.437500
2873,-148.437500
2874,-148.437500
2875,-148.437500
2876,-148.437500
2877,-148.437500
2878,-144.531250
2879,-144.531250
2880,-144.531250
2881,-144.531250
2882,-144.531250
2883,-144.531250
2884,-140.625000
2885,-140.625000
2886,-140.625000
2887,-140.625000
2888,-140.625000
2889,-140.625000
2890,-140.625000
2891,-136.718750
2892,-136.718750
2893,-136.718750
2894,-136.718750
2895,-136.718750
2896,-132.812500
2897,-132.812500
2898,-132.812500
2899,-132.812500
2900,-132.812500
2901,-132.812500
2902,-128.906250
2903,-132.812500
2904,-128.906250
2905,-128.906250
2906,-128.906250
2907,-128.906250
2908,-125.000000
2909,-125.000000
2910,-125.000000
2911,-125.000000
2912,-125.000000
2913,-121.093750
2914,-121.093750
2915,-121.093750
2916,-121.093750
2917,-121.093750
2918,-117.187500
2919,-117.187500
2920,-117.187500
2921,-117.187500
2922,-117.187500
2923,-113.281250
2924,-113.281250
2925,-113.281250
2926,-113.281250
2927,-113.281250
2928,-109.375000
2929,-109.375000
2930,-109.375000
2931,-109.375000
2932,-105.468750
2933,-105.468750
2934,-105.468750
2935,-105.468750
2936,-105.468750
2937,-105.468750
2938,-101.562500
2939,-101.562500
2940,-101.562500
2941,-101.562500
2942,-97.656250
2943,-97.656250
2944,-97.656250
2945,-97.656250
2946,-93.750000
2947,-93.750000
2948,-93.750000
2949,-93.750000
2950,-93.750000
2951,-93.750000
2952,-89.843750
2953,-89.843750
2954,-89.843750
2955,-85.937500
2956,-85.937500
2957,-85.937500
2958,-85.937500
2959,-85.937500
2960,-82.031250
2961,-82.031250
2962,-82.031250
2963,-82.031250
2964,-78.125000
2965,-78.125000
2966,-78.125000
2967,-78.125000
2968,-78.125000
2969,-74.218750
2970,-74.218750
2971,-74.218750
2972,-70.312500
2973,-70.312500
2974,-70.312500
2975,-70.312500
2976,-66.406250
2977,-66.406250
2978,-66.406250
2979,-66.406250
2980,-62.500000
2981,-62.500000
2982,-62.500000
2983,-62.500000
2984,-58.593750
2985,-58.593750
2986,-58.593750
2987,-58.593750
2988,-58.593750
2989,-58.593750
2990,-54.687500
2991,-54.687500
2992,-50.781250
2993,-50.781250
2994,-50.781250
2995,-50.781250
2996,-46.875000
2997,-46.875000
2998,-46.875000
2999,-46.875000
3000,-42.968750
3001,-42.968750
3002,-42.968750
3003,-42.968750
3004,-39.062500
3005,-39.062500
3006,-39.062500
3007,-35.156250
3008,-39.062500
3009,-35.156250
3010,-35.156250
3011,-35.156250
3012,-31.250000
3013,-31.250000
3014,-31.250000
3015,-31.250000
3016,-27.343750
3017,-27.343750
3018,-27.343750
3019,-23.437500
3020,-27.343750
3021,-23.437500
3022,-23.437500
3023,-23.437500
3024,-19.531250
3025,-19.531250
3026,-19.531250
3027,-19.531250
3028,-15.625000
3029,-15.625000
3030,-15.625000
3031,-15.625000
3032,-15.625000
3033,-11.718750
3034,-11.718750
3035,-11.718750
3036,-7.812500
3037,-7.812500
3038,-7.812500
3039,-7.812500
3040,-3.906250
3041,-3.906250
3042,-3.906250
3043,-3.906250
3044,0.000000
3045,0.000000
3046,0.000000
3047,0.000000
3048,3.906250
3049,3.906250
3050,3.906250
3051,3.906250
3052,3.906250
3053,7.812500
3054,7.812500
3055,7.812500
3056,7.812500
3057,11.718750
3058,11.718750
3059,11.718750
3060,11.718750
3061,15.625000
3062,15.625000
3063,15.625000
3064,15.625000
3065,15.625000
3066,19.531250
3067,19.531250
3068,19.531250
3069,23.437500
3070,23.437500
3071,23.437500
3072,23.437500
3073,23.437500
3074,27.343750
3075,27.343750
3076,27.343750
3077,27.343750
3078,31.250000
3079,31.250000
3080,31.250000
3081,31.250000
3082,35.156250
3083,35.156250
3084,35.156250
3085,35.156250
3086,39.062500
3087,39.062500
3088,39.062500
3089,39.062500
3090,39.062500
3091,42.968750
3092,42.968750
3093,42.968750
3094,42.968750
3095,42.968750
3096,46.875000
3097,46.875000
3098,46.875000
3099,46.875000
3100,46.875000
3101,50.781250
3102,50.781250
3103,50.781250
3104,54.687500
3105,54.687500
3106,54.687500
3107,54.687500
3108,54.687500
3109,54.687500
3110,58.593750
3111,58.593750
3112,58.593750
3113,58.593750
3114,58.593750
3115,62.500000
3116,62.500000
3117,62.500000
3118,62.500000
3119,66.406250
3120,66.406250
3121,66.406250
3122,66.406250
3123,66.406250
3124,66.406250
3125,70.312500
3126,70.312500
3127,70.312500
3128,70.312500
3129,70.312500
3130,74.218750
3131,74.218750
3132,74.218750
3133,74.218750
3134,74.218750
3135,78.125000
3136,78.125000
3137,78.125000
3138,78.125000
3139,78.125000
3140,78.125000
3141,78.125000
3142,82.031250
3143,82.031250
3144,82.031250
3145,82.031250
3146,82.031250
3147,85.937500
3148,85.937500
3149,85.937500
3150,85.937500
3151,85.937500
3152,85.937500
3153,89.843750
3154,89.843750
3155,89.843750
3156,89.843750
3157,89.843750
3158,89.843750
3159,89.843750
3160,93.750000
3161,93.750000
3162,93.750000
3163,93.750000
3164,93.750000
3165,93.750000
3166,97.656250
3167,97.656250
3168,97.656250
3169,97.656250
3170,97.656250
3171,97.656250
3172,97.656250
3173,101.562500
3174,101.562500
3175,101.562500
3176,101.562500
3177,101.562500
3178,101.562500
3179,101.562500
3180,101.562500
3181,105.468750
3182,105.468750
3183,105.468750
3184,105.468750
3185,105.468750
3186,105.468750
3187,105.468750
3188,109.375000
3189,109.375000
3190,109.375000
3191,109.375000
3192,109.375000
3193,109.375000
3194,109.375000
3195,109.375000
3196,113.281250
3197,109.375000
3198,113.281250
3199,113.281250
3200,113.281250
3201,113.281250
3202,113.281250
3203,113.281250
3204,113.281250
3205,113.281250
3206,113.281250
3207,117.187500
3208,117.187500
3209,117.187500
3210,117.187500
3211,117.187500
3212,117.187500
3213,117.187500
3214,117.187500
3215,117.187500
3216,121.093750
3217,121.093750
3218,121.093750
3219,121.093750
3220,121.093750
3221,121.093750
3222,121.093750
3223,121.093750
3224,121.093750
3225,121.093750
3226,121.093750
3227,121.093750
3228,121.093750
3229,121.093750
3230,125.000000
3231,125.000000
3232,125.000000
3233,125.000000
3234,125.000000
3235,125.000000
3236,125.000000
3237,125.000000
3238,125.000000
3239,125.000000
3240,125.000000
3241,128.906250
3242,125.000000
3243,125.000000
3244,125.000000
3245,125.000000
3246,128.906250
3247,125.000000
3248,128.906250
3249,128.906250
3250,128.906250
3251,128.906250
3252,128.906250
3253,128.906250
3254,128.906250
3255,128.906250
3256,128.906250
3257,128.906250
3258,128.906250
3259,128.906250
3260,128.906250
3261,128.906250
3262,128.906250
3263,128.906250
3264,128.906250
3265,128.906250
3266,128.906250
3267,128.906250
3268,132.812500
3269,132.812500
3270,132.812500
3271,128.906250
3272,132.812500
3273,132.812500
3274,132.812500
3275,128.906250
3276,132.812500
3277,132.812500
3278,132.812500
3279,132.812500
3280,132.812500
3281,132.812500
3282,132.812500
3283,132.812500
3284,132.812500
3285,132.812500
3286,132.812500
3287,132.812500
3288,132.812500
3289,132.812500
3290,132.812500
3291,132.812500
3292,132.812500
3293,132.812500
3294,132.812500
3295,132.812500
3296,132.812500
3297,132.812500
3298,132.812500
3299,132.812500
3300,132.812500
3301,132.812500
3302,132.812500
3303,128.906250
3304,132.812500
3305,132.812500
3306,132.812500
3307,128.906250
3308,132.812500
3309,132.812500
3310,132.812500
3311,128.906250
3312,128.906250
3313,128.906250
3314,128.906250
3315,128.906250
3316,128.906250
3317,128.906250
3318,128.906250
3319,128.906250
3320,128.906250
3321,128.906250
3322,128.906250
3323,128.906250
3324,128.906250
3325,128.906250
3326,128.906250
3327,128.906250
3328,128.906250
3329,128.906250
3330,128.906250
3331,128.906250
3332,128.906250
3333,128.906250
3334,128.906250
3335,125.000000
3336,125.000000
3337,125.000000
3338,125.000000
3339,125.000000
3340,125.000000
3341,125.000000
3342,125.000000
3343,125.000000
3344,125.000000
3345,125.000000
3346,125.000000
3347,125.000000
3348,125.000000
3349,125.000000
3350,121.093750
3351,121.093750
3352,121.093750
3353,121.093750
3354,121.093750
3355,121.093750
3356,121.093750
3357,121.093750
3358,121.093750
3359,121.093750
3360,121.093750
3361,121.093750
3362,117.187500
3363,117.187500
3364,117.187500
3365,117.187500
3366,117.187500
3367,117.187500
3368,117.187500
3369,117.187500
3370,117.187500
3371,117.187500
3372,117.187500
3373,113.281250
3374,113.281250
3375,113.281250
3376,113.281250
3377,113.281250
3378,113.281250
3379,113.281250
3380,113.281250
3381,113.281250
3382,109.375000
3383,109.375000
3384,109.375000
3385,109.375000
3386,109.375000
3387,109.375000
3388,109.375000
3389,109.375000
3390,109.375000
3391,109.375000
3392,109.375000
3393,105.468750
3394,105.468750
3395,105.468750
3396,105.468750
3397,105.468750
3398,105.468750
3399,101.562500
3400,101.562500
3401,101.562500
3402,101.562500
3403,101.562500
3404,101.562500
3405,101.562500
3406,101.562500
3407,97.656250
3408,97.656250
3409,97.656250
3410,97.656250
3411,97.656250
3412,97.656250
3413,93.750000
3414,93.750000
3415,93.750000
3416,93.750000
3417,93.750000
3418,93.750000
3419,93.750000
3420,89.843750
3421,89.843750
3422,89.843750
3423,89.843750
3424,89.843750
3425,89.843750
3426,89.843750
3427,85.937500
3428,85.937500
3429,85.937500
3430,85.937500
3431,85.937500
3432,85.937500
3433,82.031250
3434,82.031250
3435,82.031250
3436,82.031250
3437,82.031250
3438,78.125000
3439,78.125000
3440,78.125000
3441,78.125000
3442,78.125000
3443,74.218750
3444,74.218750
3445,74.218750
3446,74.218750
3447,74.218750
3448,74.218750
3449,70.312500
3450,70.312500
3451,70.312500
3452,70.312500
3453,70.312500
3454,66.406250
3455,66.406250
3456,66.406250
3457,66.406250
3458,66.406250
3459,62.500000
3460,62.500000
3461,62.500000
3462,62.500000
3463,58.593750
3464,58.593750
3465,58.593750
3466,58.593750
3467,58.593750
3468,54.687500
3469,54.687500
3470,54.687500
3471,54.687500
3472,54.687500
3473,50.781250
3474,50.781250
3475,50.781250
3476,50.781250
3477,50.781250
3478,50.781250
3479,46.875000
3480,46.875000
3481,46.875000
3482,42.968750
3483,42.968750
3484,42.968750
3485,42.968750
3486,42.968750
3487,39.062500
3488,39.062500
3489,39.062500
3490,39.062500
3491,35.156250
3492,35.156250
3493,35.156250
3494,35.156250
3495,31.250000
3496,31.250000
3497,31.250000
3498,31.250000
3499,31.250000
3500,27.343750
3501,27.343750
3502,27.343750
3503,27.343750
3504,23.437500
3505,23.437500
3506,23.437500
3507,23.437500
3508,23.437500
3509,19.531250
3510,19.531250
3511,19.531250
3512,19.531250
3513,15.625000
3514,15.625000
3515,15.625000
3516,15.625000
3517,11.718750
3518,11.718750
3519,11.718750
3520,11.718750
3521,7.812500
3522,7.812500
3523,7.812500
3524,7.812500
3525,3.906250
3526,3.906250
3527,3.906250
3528,0.000000
3529,0.000000
3530,0.000000
3531,0.000000
3532,0.000000
3533,-3.906250
3534,-3.906250
3535,-3.906250
3536,-7.812500
3537,-7.812500
3538,-7.812500
3539,-7.812500
3540,-7.812500
3541,-11.718750
3542,-11.718750
3543,-11.718750
3544,-11.718750
3545,-15.625000
3546,-15.625000
3547,-15.625000
3548,-19.531250
3549,-19.531250
3550,-19.531250
3551,-19.531250
3552,-23.437500
3553,-23.437500
3554,-23.437500
3555,-23.437500
3556,-27.343750
3557,-27.343750
3558,-27.343750
3559,-27.343750
3560,-27.343750
3561,-31.250000
3562,-31.250000
3563,-31.250000
3564,-31.250000
3565,-35.156250
3566,-35.156250
3567,-35.156250
3568,-39.062500
3569,-39.062500
3570,-39.062500
3571,-39.062500
3572,-42.968750
3573,-42.968750
3574,-42.968750
3575,-46.875000
3576,-46.875000
3577,-46.875000
3578,-46.875000
3579,-50.781250
3580,-50.781250
3581,-50.781250
3582,-50.781250
3583,-50.781250
3584,-54.687500
3585,-54.687500
3586,-54.687500
3587,-58.593750
3588,-58.593750
3589,-58.593750
3590,-58.593750
3591,-62.500000
3592,-62.500000
3593,-62.500000
3594,-62.500000
3595,-66.406250
3596,-66.406250
3597,-66.406250
3598,-66.406250
3599,-70.312500
3600,-70.312500
3601,-70.312500
3602,-70.312500
3603,-74.218750
3604,-74.218750
3605,-74.218750
3606,-74.218750
3607,-78.125000
3608,-78.125000
3609,-78.125000
3610,-78.125000
3611,-82.031250
3612,-82.031250
3613,-82.031250
3614,-82.031250
3615,-82.031250
3616,-85.937500
3617,-85.937500
3618,-85.937500
3619,-85.937500
3620,-89.843750
3621,-89.843750
3622,-89.843750
3623,-89.843750
3624,-93.750000
3625,-93.750000
3626,-93.750000
3627,-93.750000
3628,-93.750000
3629,-97.656250
3630,-97.656250
3631,-97.656250
3632,-97.656250
3633,-101.562500
3634,-101.562500
3635,-101.562500
3636,-101.562500
3637,-101.562500
3638,-105.468750
3639,-105.468750
3640,-105.468750
3641,-105.468750
3642,-109.375000
3643,-109.375000
3644,-109.375000
3645,-109.375000
3646,-109.375000
3647,-109.375000
3648,-113.281250
3649,-113.281250
3650,-113.281250
3651,-117.187500
3652,-117.187500
3653,-117.187500
3654,-117.187500
3655,-117.187500
3656,-121.093750
3657,-121.093750
3658,-121.093750
3659,-121.093750
3660,-121.093750
3661,-121.093750
3662,-125.000000
3663,-125.000000
3664,-125.000000
3665,-125.000000
3666,-125.000000
3667,-128.906250
3668,-128.906250
3669,-128.906250
3670,-128.906250
3671,-128.906250
3672,-128.906250
3673,-132.812500
3674,-132.812500
3675,-132.812500
3676,-132.812500
3677,-132.812500
3678,-136.718750
3679,-136.718750
3680,-136.718750
3681,-136.718750
3682,-136.718750
3683,-136.718750
3684,-140.625000
3685,-140.625000
3686,-140.625000
3687,-140.625000
3688,-140.625000
3689,-144.531250
3690,-144.531250
3691,-144.531250
3692,-144.531250
3693,-144.531250
3694,-144.531250
3695,-144.531250
3696,-144.531250
3697,-148.437500
3698,-148.437500
3699,-148.437500
3700,-148.437500
3701,-148.437500
3702,-148.437500
3703,-152.343750
3704,-152.343750
3705,-152.343750
3706,-152.343750
3707,-152.343750
3708,-152.343750
3709,-152.343750
3710,-152.343750
3711,-156.250000
3712,-156.250000
3713,-156.250000
3714,-156.250000
3715,-156.250000
3716,-156.250000
3717,-156.250000
3718,-156.250000
3719,-160.156250
3720,-160.156250
3721,-160.156250
3722,-160.156250
3723,-160.156250
3724,-160.156250
3725,-160.156250
3726,-160.156250
3727,-160.156250
3728,-160.156250
3729,-160.156250
3730,-160.156250
3731,-164.062500
3732,-164.062500
3733,-164.062500
3734,-164.062500
3735,-164.062500
3736,-164.062500
3737,-164.062500
3738,-164.062500
3739,-164.062500
3740,-164.062500
3741,-167.968750
3742,-167.968750
3743,-167.968750
3744,-167.968750
3745,-167.968750
3746,-167.968750
3747,-167.968750
3748,-167.968750
3749,-167.968750
3750,-167.968750
3751,-167.968750
3752,-167.968750
3753,-167.968750
3754,-167.968750
3755,-167.968750
3756,-167.968750
3757,-171.875000
3758,-171.875000
3759,-171.875000
3760,-171.875000
3761,-171.875000
3762,-171.875000
3763,-171.875000
3764,-171.875000
3765,-171.875000
3766,-171.875000
3767,-171.875000
3768,-171.875000
3769,-171.875000
3770,-171.875000
3771,-171.875000
3772,-171.875000
3773,-171.875000
3774,-171.875000
3775,-171.875000
3776,-171.875000
3777,-171.875000
3778,-171.875000
3779,-171.875000
3780,-171.875000
3781,-171.875000
3782,-171.875000
3783,-171.875000
3784,-171.875000
3785,-171.875000
3786,-171.875000
3787,-171.875000
3788,-171.875000
3789,-171.875000
3790,-171.875000
3791,-171.875000
3792,-171.875000
3793,-171.875000
3794,-171.875000
3795,-171.875000
3796,-171.875000
3797,-171.875000
3798,-171.875000
3799,-171.875000
3800,-171.875000
3801,-167.968750
3802,-171.875000
3803,-171.875000
3804,-171.875000
3805,-167.968750
3806,-167.968750
3807,-167.968750
3808,-171.875000
3809,-167.968750
3810,-167.968750
3811,-167.968750
3812,-167.968750
3813,-167.968750
3814,-167.968750
3815,-167.968750
3816,-167.968750
3817,-167.968750
3818,-167.968750
3819,-167.968750
3820,-167.968750
3821,-167.968750
3822,-167.968750
3823,-167.968750
3824,-164.062500
3825,-164.062500
3826,-164.062500
3827,-164.062500
3828,-164.062500
3829,-164.062500
3830,-164.062500
3831,-164.062500
3832,-164.062500
3833,-164.062500
3834,-164.062500
3835,-164.062500
3836,-160.156250
3837,-160.156250
3838,-160.156250
3839,-160.156250
3840,-160.156250
3841,-160.156250
3842,-160.156250
3843,-160.156250
3844,-160.156250
3845,-160.156250
3846,-160.156250
3847,-156.250000
3848,-156.250000
3849,-156.250000
3850,-156.250000
3851,-156.250000
3852,-156.250000
3853,-156.250000
3854,-156.250000
3855,-152.343750
3856,-152.343750
3857,-152.343750
3858,-152.343750
3859,-152.343750
3860,-152.343750
3861,-152.343750
3862,-152.343750
3863,-148.437500
3864,-148.437500
3865,-148.437500
3866,-148.437500
3867,-148.437500
3868,-148.437500
3869,-144.531250
3870,-148.437500
3871,-144.531250
3872,-144.531250
3873,-144.531250
3874,-144.531250
3875,-144.531250
3876,-144.531250
3877,-140.625000
3878,-140.625000
3879,-140.625000
3880,-140.625000
3881,-140.625000
3882,-140.625000
3883,-136.718750
3884,-136.718750
3885,-136.718750
3886,-136.718750
3887,-136.718750
3888,-132.812500
3889,-132.812500
3890,-132.812500
3891,-132.812500
3892,-132.812500
3893,-132.812500
3894,-128.906250
3895,-128.906250
3896,-128.906250
3897,-128.906250
3898,-125.000000
3899,-125.000000
3900,-125.000000
3901,-125.000000
3902,-125.000000
3903,-125.000000
3904,-121.093750
3905,-121.093750
3906,-121.093750
3907,-121.093750
3908,-117.187500
3909,-117.187500
3910,-117.187500
3911,-117.187500
3912,-117.187500
3913,-117.187500
3914,-113.281250
3915,-113.281250
3916,-113.281250
3917,-113.281250
3918,-109.375000
3919,-109.375000
3920,-109.375000
3921,-109.375000
3922,-109.375000
3923,-109.375000
3924,-105.468750
3925,-105.468750
3926,-105.468750
3927,-101.562500
3928,-101.562500
3929,-101.562500
3930,-101.562500
3931,-101.562500
3932,-97.656250
3933,-97.656250
3934,-97.656250
3935,-97.656250
3936,-93.750000
3937,-93.750000
3938,-93.750000
3939,-93.750000
3940,-93.750000
3941,-93.750000
3942,-89.843750
3943,-89.843750
3944,-89.843750
3945,-89.843750
3946,-85.937500
3947,-85.937500
3948,-85.937500
3949,-85.937500
3950,-82.031250
3951,-82.031250
3952,-82.031250
3953,-82.031250
3954,-78.125000
3955,-78.125000
3956,-78.125000
3957,-78.125000
3958,-74.218750
3959,-74.218750
3960,-74.218750
3961,-74.218750
3962,-74.218750
3963,-70.312500
3964,-70.312500
3965,-70.312500
3966,-70.312500
3967,-66.406250
3968,-66.406250
3969,-66.406250
3970,-66.406250
3971,-62.500000
3972,-62.500000
3973,-62.500000
3974,-62.500000
3975,-58.593750
3976,-58.593750
3977,-58.593750
3978,-58.593750
3979,-54.687500
3980,-54.687500
3981,-54.687500
3982,-54.687500
3983,-50.781250
3984,-50.781250
3985,-50.781250
3986,-46.875000
3987,-46.875000
3988,-46.875000
3989,-46.875000
3990,-42.968750
3991,-42.968750
3992,-42.968750
3993,-42.968750
3994,-42.968750
3995,-39.062500
3996,-39.062500
3997,-39.062500
3998,-39.062500
3999,-35.156250
4000,-35.156250
4001,-35.156250
4002,-31.250000
4003,-31.250000
4004,-31.250000
4005,-31.250000
4006,-31.250000
4007,-31.250000
4008,-27.343750
4009,-27.343750
4010,-23.437500
4011,-23.437500
4012,-23.437500
4013,-23.437500
4014,-19.531250
4015,-19.531250
4016,-19.531250
4017,-19.531250
4018,-19.531250
4019,-15.625000
4020,-15.625000
4021,-15.625000
4022,-11.718750
4023,-11.718750
4024,-11.718750
4025,-11.718750
4026,-7.812500
4027,-7.812500
4028,-7.812500
4029,-7.812500
4030,-3.906250
4031,-3.906250
4032,-3.906250
4033,-3.906250
4034,0.000000
4035,0.000000
4036,0.000000
4037,0.000000
4038,0.000000
4039,3.906250
4040,3.906250
4041,3.906250
4042,7.812500
4043,7.812500
4044,7.812500
4045,7.812500
4046,11.718750
4047,11.718750
4048,11.718750
4049,11.718750
4050,15.625000
4051,15.625000
4052,15.625000
4053,15.625000
4054,15.625000
4055,19.531250
4056,19.531250
4057,19.531250
4058,19.531250
4059,23.437500
4060,23.437500
4061,23.437500
4062,23.437500
4063,23.437500
4064,27.343750
4065,27.343750
4066,27.343750
4067,27.343750
4068,31.250000
4069,31.250000
4070,31.250000
4071,31.250000
4072,35.156250
4073,35.156250
4074,39.062500
4075,35.156250
4076,39.062500
4077,39.062500
4078,42.968750
4079,39.062500
4080,39.062500
4081,42.968750
4082,42.968750
4083,42.968750
4084,42.968750
4085,42.968750
4086,46.875000
4087,46.875000
4088,46.875000
4089,46.875000
4090,50.781250
4091,50.781250
4092,50.781250
4093,50.781250
4094,54.687500
4095,54.687500
4096,54.687500
4097,54.687500
4098,54.687500
4099,54.687500
4100,58.593750
4101,58.593750
4102,58.593750
4103,58.593750
4104,62.500000
4105,62.500000
4106,62.500000
4107,62.500000
4108,62.500000
4109,62.500000
4110,66.406250
4111,66.406250
4112,66.406250
4113,66.406250
4114,70.312500
4115,70.312500
4116,70.312500
4117,70.312500
4118,70.312500
4119,70.312500
4120,74.218750
4121,74.218750
4122,74.218750
4123,74.218750
4124,74.218750
4125,74.218750
4126,74.218750
4127,78.125000
4128,78.125000
4129,78.125000
4130,78.125000
4131,82.031250
4132,82.031250
4133,82.031250
4134,85.937500
4135,82.031250
4136,82.031250
4137,82.031250
4138,85.937500
4139,85.937500
4140,85.937500
4141,85.937500
4142,85.937500
4143,85.937500
4144,89.843750
4145,89.843750
4146,89.843750
4147,89.843750
4148,89.843750
4149,89.843750
4150,93.750000
4151,93.750000
4152,93.750000
4153,93.750000
4154,93.750000
4155,93.750000
4156,93.750000
4157,97.656250
4158,97.656250
4159,97.656250
4160,97.656250
4161,97.656250
4162,101.562500
4163,93.750000
4164,97.656250
4165,101.562500
4166,101.562500
4167,101.562500
4168,101.562500
4169,101.562500
4170,101.562500
4171,105.468750
4172,105.468750
4173,105.468750
4174,105.468750
4175,105.468750
4176,105.468750
4177,105.468750
4178,109.375000
4179,109.375000
4180,109.375000
4181,109.375000
4182,109.375000
4183,109.375000
4184,109.375000
4185,109.375000
4186,109.375000
4187,109.375000
4188,113.281250
4189,113.281250
4190,113.281250
4191,113.281250
4192,113.281250
4193,113.281250
4194,113.281250
4195,113.281250
4196,117.187500
4197,117.187500
4198,117.187500
4199,117.187500
4200,117.187500
4201,117.187500
4202,117.187500
4203,117.187500
4204,117.187500
4205,117.187500
4206,117.187500
4207,121.093750
4208,121.093750
4209,121.093750
4210,121.093750
4211,121.093750
4212,121.093750
4213,121.093750
4214,121.093750
4215,121.093750
4216,121.093750
4217,121.093750
4218,121.093750
4219,121.093750
4220,121.093750
4221,121.093750
4222,125.000000
4223,125.000000
4224,125.000000
4225,125.000000
4226,125.000000
4227,125.000000
4228,125.000000
4229,125.000000
4230,125.000000
4231,125.000000
4232,125.000000
4233,125.000000
4234,125.000000
4235,128.906250
4236,125.000000
4237,128.906250
4238,128.906250
4239,128.906250
4240,128.906250
4241,128.906250
4242,128.906250
4243,128.906250
4244,128.906250
4245,128.906250
4246,128.906250
4247,128.906250
4248,128.906250
4249,128.906250
4250,128.906250
4251,128.906250
4252,128.906250
4253,128.906250
4254,128.906250
4255,128.906250
4256,128.906250
4257,128.906250
4258,128.906250
4259,128.906250
4260,128.906250
4261,128.906250
4262,132.812500
4263,132.812500
4264,128.906250
4265,128.906250
4266,128.906250
4267,128.906250
4268,128.906250
4269,128.906250
4270,132.812500
4271,132.812500
4272,132.812500
4273,132.812500
4274,128.906250
4275,132.812500
4276,132.812500
4277,128.906250
4278,132.812500
4279,128.906250
4280,132.812500
4281,132.812500
4282,132.812500
4283,132.812500
4284,132.812500
4285,128.906250
4286,132.812500
4287,132.812500
4288,132.812500
4289,128.906250
4290,132.812500
4291,128.906250
4292,132.812500
4293,128.906250
4294,132.812500
4295,128.906250
4296,132.812500
4297,132.812500
4298,132.812500
4299,128.906250
4300,128.906250
4301,128.906250
4302,128.906250
4303,128.906250
4304,128.906250
4305,128.906250
4306,128.906250
4307,128.906250
4308,128.906250
4309,128.906250
4310,128.906250
4311,128.906250
4312,128.906250
4313,128.906250
4314,128.906250
4315,128.906250
4316,128.906250
4317,128.906250
4318,128.906250
4319,125.000000
4320,128.906250
4321,125.000000
4322,128.906250
4323,128.906250
4324,128.906250
4325,125.000000
4326,125.000000
4327,125.000000
4328,125.000000
4329,125.000000
4330,125.000000
4331,125.000000
4332,125.000000
4333,125.000000
4334,125.000000
4335,125.000000
4336,125.000000
4337,125.000000
4338,125.000000
4339,125.000000
4340,125.000000
4341,121.093750
4342,121.093750
4343,121.093750
4344,121.093750
4345,121.093750
4346,121.093750
4347,121.093750
4348,121.093750
4349,121.093750
4350,121.093750
4351,117.187500
4352,121.093750
4353,117.187500
4354,117.187500
4355,117.187500
4356,117.187500
4357,117.187500
4358,117.187500
4359,117.187500
4360,117.187500
4361,117.187500
4362,117.187500
4363,117.187500
4364,113.281250
4365,113.281250
4366,113.281250
4367,113.281250
4368,113.281250
4369,113.281250
4370,113.281250
4371,113.281250
4372,109.375000
4373,109.375000
4374,109.375000
4375,109.375000
4376,109.375000
4377,109.375000
4378,109.375000
4379,109.375000
4380,105.468750
4381,105.468750
4382,109.375000
4383,105.468750
4384,105.468750
4385,105.468750
4386,105.468750
4387,105.468750
4388,105.468750
4389,101.562500
4390,101.562500
4391,101.562500
4392,101.562500
4393,101.562500
4394,97.656250
4395,101.562500
4396,101.562500
4397,101.562500
4398,97.656250
4399,97.656250
4400,97.656250
4401,97.656250
4402,97.656250
4403,97.656250
4404,97.656250
4405,93.750000
4406,93.750000
4407,93.750000
4408,93.750000
4409,93.750000
4410,89.843750
4411,89.843750
4412,89.843750
4413,89.843750
4414,89.843750
4415,85.937500
4416,89.843750
4417,85.937500
4418,85.937500
4419,85.937500
4420,85.937500
4421,85.937500
4422,82.031250
4423,82.031250
4424,82.031250
4425,82.031250
4426,82.031250
4427,78.125000
4428,82.031250
4429,78.125000
4430,78.125000
4431,78.125000
4432,78.125000
4433,74.218750
4434,74.218750
4435,74.218750
4436,74.218750
4437,74.218750
4438,74.218750
4439,70.312500
4440,70.312500
4441,70.312500
4442,70.312500
4443,70.312500
4444,66.406250
4445,66.406250
4446,66.406250
4447,66.406250
4448,66.406250
4449,66.406250
4450,62.500000
4451,62.500000
4452,62.500000
4453,58.593750
4454,58.593750
4455,58.593750
4456,58.593750
4457,58.593750
4458,54.687500
4459,54.687500
4460,54.687500
4461,54.687500
4462,54.687500
4463,54.687500
4464,50.781250
4465,50.781250
4466,50.781250
4467,50.781250
4468,46.875000
4469,46.875000
4470,46.875000
4471,46.875000
4472,42.968750
4473,42.968750
4474,42.968750
4475,42.968750
4476,39.062500
4477,39.062500
4478,39.062500
4479,39.062500
4480,39.062500
4481,35.156250
4482,35.156250
4483,35.156250
4484,35.156250
4485,31.250000
4486,31.250000
4487,31.250000
4488,31.250000
4489,31.250000
4490,27.343750
4491,27.343750
4492,27.343750
4493,27.343750
4494,23.437500
4495,23.437500
4496,23.437500
4497,23.437500
4498,19.531250
4499,19.531250
4500,19.531250
4501,19.531250
4502,15.625000
4503,15.625000
4504,15.625000
4505,15.625000
4506,15.625000
4507,11.718750
4508,11.718750
4509,11.718750
4510,7.812500
4511,7.812500
4512,7.812500
4513,7.812500
4514,7.812500
4515,3.906250
4516,3.906250
4517,3.906250
4518,3.906250
4519,0.000000
4520,0.000000
4521,-3.906250
4522,0.000000
4523,-3.906250
4524,-3.906250
4525,-3.906250
4526,-3.906250
4527,-7.812500
4528,-7.812500
4529,-7.812500
4530,-7.812500
4531,-11.718750
4532,-11.718750
4533,-11.718750
4534,-15.625000
4535,-15.625000
4536,-15.625000
4537,-15.625000
4538,-15.625000
4539,-19.531250
4540,-19.531250
4541,-19.531250
4542,-23.437500
4543,-23.437500
4544,-23.437500
4545,-23.437500
4546,-23.437500
4547,-27.343750
4548,-27.343750
4549,-27.343750
4550,-31.250000
4551,-31.250000
4552,-31.250000
4553,-31.250000
4554,-35.156250
4555,-35.156250
4556,-35.156250
4557,-35.156250
4558,-39.062500
4559,-39.062500
4560,-39.062500
4561,-39.062500
4562,-42.968750
4563,-42.968750
4564,-42.968750
4565,-46.875000
4566,-46.875000
4567,-46.875000
4568,-46.875000
4569,-46.875000
4570,-50.781250
4571,-50.781250
4572,-50.781250
4573,-50.781250
4574,-54.687500
4575,-54.687500
4576,-54.687500
4577,-54.687500
4578,-58.593750
4579,-58.593750
4580,-58.593750
4581,-58.593750
4582,-62.500000
4583,-62.500000
4584,-62.500000
4585,-66.406250
4586,-66.406250
4587,-66.406250
4588,-66.406250
4589,-66.406250
4590,-70.312500
4591,-70.312500
4592,-70.312500
4593,-74.218750
4594,-74.218750
4595,-74.218750
4596,-74.218750
4597,-74.218750
4598,-78.125000
4599,-78.125000
4600,-78.125000
4601,-78.125000
4602,-82.031250
4603,-82.031250
4604,-82.031250
4605,-82.031250
4606,-85.937500
4607,-85.937500
4608,-85.937500
4609,-85.937500
4610,-89.843750
4611,-89.843750
4612,-89.843750
4613,-93.750000
4614,-93.750000
4615,-93.750000
4616,-93.750000
4617,-97.656250
4618,-97.656250
4619,-97.656250
4620,-97.656250
4621,-97.656250
4622,-97.656250
4623,-101.562500
4624,-101.562500
4625,-101.562500
4626,-101.562500
4627,-105.468750
4628,-105.468750
4629,-105.468750
4630,-105.468750
4631,-105.468750
4632,-109.375000
4633,-109.375000
4634,-109.375000
4635,-109.375000
4636,-113.281250
4637,-113.281250
4638,-113.281250
4639,-113.281250
4640,-113.281250
4641,-113.281250
4642,-117.187500
4643,-117.187500
4644,-117.187500
4645,-117.187500
4646,-121.093750
4647,-121.093750
4648,-121.093750
4649,-121.093750
4650,-121.093750
4651,-125.000000
4652,-125.000000
4653,-125.000000
4654,-125.000000
4655,-125.000000
4656,-125.000000
4657,-128.906250
4658,-128.906250
4659,-128.906250
4660,-128.906250
4661,-128.906250
4662,-132.812500
4663,-132.812500
4664,-132.812500
4665,-132.812500
4666,-132.812500
4667,-132.812500
4668,-136.718750
4669,-136.718750
4670,-136.718750
4671,-136.718750
4672,-136.718750
4673,-140.625000
4674,-140.625000
4675,-140.625000
4676,-140.625000
4677,-140.625000
4678,-140.625000
4679,-140.625000
4680,-144.531250
4681,-144.531250
4682,-144.531250
4683,-144.531250
4684,-144.531250
4685,-144.531250
4686,-144.531250
4687,-148.437500
4688,-148.437500
4689,-148.437500
4690,-148.437500
4691,-148.437500
4692,-148.437500
4693,-152.343750
4694,-152.343750
4695,-152.343750
4696,-152.343750
4697,-152.343750
4698,-152.343750
4699,-152.343750
4700,-152.343750
4701,-152.343750
4702,-152.343750
4703,-156.250000
4704,-156.250000
4705,-156.250000
4706,-156.250000
4707,-156.250000
4708,-156.250000
4709,-156.250000
4710,-160.156250
4711,-160.156250
4712,-160.156250
4713,-160.156250
4714,-160.156250
4715,-160.156250
4716,-160.156250
4717,-160.156250
4718,-164.062500
4719,-164.062500
4720,-164.062500
4721,-164.062500
4722,-164.062500
4723,-164.062500
4724,-164.062500
4725,-164.062500
4726,-164.062500
4727,-164.062500
4728,-164.062500
4729,-164.062500
4730,-164.062500
4731,-164.062500
4732,-167.968750
4733,-167.968750
4734,-167.968750
4735,-167.968750
4736,-167.968750
4737,-167.968750
4738,-167.968750
4739,-167.968750
4740,-167.968750
4741,-167.968750
4742,-167.968750
4743,-167.968750
4744,-167.968750
4745,-167.968750
4746,-167.968750
4747,-167.968750
4748,-167.968750
4749,-171.875000
4750,-171.875000
4751,-171.875000
4752,-167.968750
4753,-167.968750
4754,-171.875000
4755,-171.875000
4756,-171.875000
4757,-171.875000
4758,-171.875000
4759,-171.875000
4760,-171.875000
4761,-171.875000
4762,-171.875000
4763,-171.875000
4764,-171.875000
4765,-171.875000
4766,-171.875000
4767,-171.875000
4768,-171.875000
4769,-171.875000
4770,-171.875000
4771,-171.875000
4772,-171.875000
4773,-171.875000
4774,-171.875000
4775,-171.875000
4776,-171.875000
4777,-171.875000
4778,-171.875000
4779,-171.875000
4780,-171.875000
4781,-171.875000
4782,-171.875000
4783,-171.875000
4784,-171.875000
4785,-171.875000
4786,-171.875000
4787,-171.875000
4788,-171.875000
4789,-171.875000
4790,-171.875000
4791,-171.875000
4792,-167.968750
4793,-171.875000
4794,-167.968750
4795,-171.875000
4796,-167.968750
4797,-167.968750
4798,-167.968750
4799,-167.968750
4800,-167.968750
4801,-167.968750
4802,-167.968750
4803,-167.968750
4804,-167.968750
4805,-167.968750
4806,-167.968750
4807,-167.968750
4808,-167.968750
4809,-167.968750
4810,-167.968750
4811,-164.062500
4812,-164.062500
4813,-164.062500
4814,-164.062500
4815,-164.062500
4816,-164.062500
4817,-164.062500
4818,-164.062500
4819,-164.062500
4820,-164.062500
4821,-164.062500
4822,-164.062500
4823,-160.156250
4824,-164.062500
4825,-160.156250
4826,-160.156250
4827,-160.156250
4828,-160.156250
4829,-160.156250
4830,-160.156250
4831,-160.156250
4832,-160.156250
4833,-156.250000
4834,-156.250000
4835,-160.156250
4836,-156.250000
4837,-156.250000
4838,-156.250000
4839,-156.250000
4840,-156.250000
4841,-156.250000
4842,-156.250000
4843,-152.343750
4844,-152.343750
4845,-152.343750
4846,-152.343750
4847,-152.343750
4848,-152.343750
4849,-152.343750
4850,-148.437500
4851,-148.437500
4852,-148.437500
4853,-148.437500
4854,-148.437500
4855,-148.437500
4856,-148.437500
4857,-144.531250
4858,-144.531250
4859,-144.531250
4860,-144.531250
4861,-144.531250
4862,-144.531250
4863,-144.531250
4864,-140.625000
4865,-140.625000
4866,-140.625000
4867,-140.625000
4868,-140.625000
4869,-140.625000
4870,-136.718750
4871,-136.718750
4872,-136.718750
4873,-136.718750
4874,-136.718750
4875,-136.718750
4876,-136.718750
4877,-132.812500
4878,-132.812500
4879,-132.812500
4880,-132.812500
4881,-132.812500
4882,-132.812500
4883,-128.906250
4884,-128.906250
4885,-128.906250
4886,-125.000000
4887,-125.000000
4888,-125.000000
4889,-125.000000
4890,-125.000000
4891,-125.000000
4892,-125.000000
4893,-121.093750
4894,-121.093750
4895,-121.093750
4896,-121.093750
4897,-121.093750
4898,-117.187500
4899,-117.187500
4900,-117.187500
4901,-117.187500
4902,-113.281250
4903,-117.187500
4904,-113.281250
4905,-113.281250
4906,-113.281250
4907,-113.281250
4908,-109.375000
4909,-109.375000
4910,-109.375000
4911,-109.375000
4912,-105.468750
4913,-105.468750
4914,-105.468750
4915,-105.468750
4916,-105.468750
4917,-101.562500
4918,-101.562500
4919,-101.562500
4920,-101.562500
4921,-97.656250
4922,-97.656250
4923,-97.656250
4924,-97.656250
4925,-97.656250
4926,-97.656250
4927,-93.750000
4928,-93.750000
4929,-93.750000
4930,-89.843750
4931,-89.843750
4932,-89.843750
4933,-89.843750
4934,-85.937500
4935,-89.843750
4936,-85.937500
4937,-85.937500
4938,-85.937500
4939,-82.031250
4940,-82.031250
4941,-82.031250
4942,-82.031250
4943,-78.125000
4944,-78.125000
4945,-78.125000
4946,-78.125000
4947,-78.125000
4948,-74.218750
4949,-74.218750
4950,-74.218750
4951,-70.312500
4952,-70.312500
4953,-70.312500
4954,-70.312500
4955,-70.312500
4956,-66.406250
4957,-66.406250
4958,-66.406250
4959,-66.406250
4960,-62.500000
4961,-62.500000
4962,-62.500000
4963,-58.593750
4964,-58.593750
4965,-58.593750
4966,-58.593750
4967,-58.593750
4968,-54.687500
4969,-54.687500
4970,-54.687500
4971,-50.781250
4972,-50.781250
4973,-50.781250
4974,-50.781250
4975,-50.781250
4976,-46.875000
4977,-46.875000
4978,-46.875000
4979,-46.875000
4980,-42.968750
4981,-42.968750
4982,-42.968750
4983,-42.968750
4984,-39.062500
4985,-39.062500
4986,-39.062500
4987,-39.062500
4988,-35.156250
4989,-35.156250
4990,-35.156250
4991,-35.156250
4992,-31.250000
4993,-31.250000
4994,-31.250000
4995,-31.250000
4996,-27.343750
4997,-27.343750
4998,-27.343750
4999,-27.343750
5000,-23.437500
5001,-23.437500
5002,-23.437500
5003,-19.531250
5004,-19.531250
5005,-19.531250
5006,-19.531250
5007,-19.531250
5008,-15.625000
5009,-15.625000
5010,-15.625000
5011,-15.625000
5012,-11.718750
5013,-11.718750
5014,-11.718750
5015,-11.718750
5016,-7.812500
5017,-7.812500
5018,-7.812500
5019,-7.812500
5020,-3.906250
5021,-3.906250
5022,-3.906250
5023,-3.906250
5024,0.000000
5025,0.000000
5026,0.000000
5027,3.906250
5028,3.906250
5029,3.906250
5030,3.906250
5031,3.906250
5032,7.812500
5033,7.812500
5034,7.812500
5035,7.812500
5036,11.718750
5037,11.718750
5038,11.718750
5039,11.718750
5040,15.625000
5041,15.625000
5042,15.625000
5043,15.625000
5044,19.531250
5045,19.531250
5046,19.531250
5047,19.531250
5048,23.437500
5049,23.437500
5050,23.437500
5051,23.437500
5052,23.437500
5053,27.343750
5054,27.343750
5055,27.343750
5056,27.343750
5057,31.250000
5058,31.250000
5059,31.250000
5060,31.250000
5061,35.156250
5062,35.156250
5063,35.156250
5064,35.156250
5065,35.156250
5066,39.062500
5067,39.062500
5068,39.062500
5069,39.062500
5070,42.968750
5071,42.968750
5072,42.968750
5073,42.968750
5074,42.968750
5075,46.875000
5076,46.875000
5077,46.875000
5078,50.781250
5079,50.781250
5080,50.781250
5081,50.781250
5082,50.781250
5083,50.781250
5084,54.687500
5085,54.687500
5086,54.687500
5087,54.687500
5088,54.687500
5089,58.593750
5090,58.593750
5091,58.593750
5092,58.593750
5093,62.500000
5094,62.500000
5095,62.500000
5096,62.500000
5097,62.500000
5098,62.500000
5099,66.406250
5100,66.406250
5101,66.406250
5102,66.406250
5103,70.312500
5104,70.312500
5105,70.312500
5106,70.312500
5107,70.312500
5108,70.312500
5109,74.218750
5110,74.218750
5111,74.218750
5112,74.218750
5113,74.218750
5114,74.218750
5115,74.218750
5116,78.125000
5117,78.125000
5118,78.125000
5119,78.125000
5120,82.031250
5121,82.031250
5122,82.031250
5123,82.031250
5124,82.031250
5125,82.031250
5126,85.937500
5127,85.937500
5128,85.937500
5129,85.937500
5130,85.937500
5131,89.843750
5132,89.843750
5133,89.843750
5134,89.843750
5135,89.843750
5136,89.843750
5137,89.843750
5138,93.750000
5139,93.750000
5140,93.750000
5141,93.750000
5142,93.750000
5143,93.750000
5144,97.656250
5145,93.750000
5146,97.656250
5147,97.656250
5148,97.656250
5149,97.656250
5150,97.656250
5151,97.656250
5152,101.562500
5153,101.562500
5154,101.562500
5155,101.562500
5156,101.562500
5157,101.562500
5158,101.562500
5159,101.562500
5160,105.468750
5161,105.468750
5162,105.468750
5163,105.468750
5164,105.468750
5165,105.468750
5166,105.468750
5167,105.468750
5168,109.375000
5169,109.375000
5170,109.375000
5171,109.375000
5172,109.375000
5173,109.375000
5174,109.375000
5175,109.375000
5176,113.281250
5177,113.281250
5178,113.281250
5179,113.281250
5180,113.281250
5181,113.281250
5182,113.281250
5183,113.281250
5184,117.187500
5185,117.187500
5186,117.187500
5187,117.187500
5188,117.187500
5189,117.187500
5190,117.187500
5191,117.187500
5192,117.187500
5193,117.187500
5194,117.187500
5195,117.187500
5196,121.093750
5197,121.093750
5198,121.093750
5199,121.093750
5200,121.093750
5201,121.093750
5202,121.093750
5203,121.093750
5204,121.093750
5205,121.093750
5206,121.093750
5207,121.093750
5208,125.000000
5209,125.000000
5210,125.000000
5211,125.000000
5212,125.000000
5213,125.000000
5214,125.000000
5215,125.000000
5216,125.000000
5217,125.000000
5218,125.000000
5219,125.000000
5220,128.906250
5221,125.000000
5222,128.906250
5223,128.906250
5224,128.906250
5225,128.906250
5226,128.906250
5227,128.906250
5228,128.906250
5229,128.906250
5230,128.906250
5231,128.906250
5232,128.906250
5233,128.906250
5234,128.906250
5235,128.906250
5236,128.906250
5237,128.906250
5238,128.906250
5239,128.906250
5240,128.906250
5241,128.906250
5242,132.812500
5243,132.812500
5244,132.812500
5245,132.812500
5246,128.906250
5247,128.906250
5248,132.812500
5249,132.812500
5250,132.812500
5251,132.812500
5252,132.812500
5253,132.812500
5254,132.812500
5255,132.812500
5256,132.812500
5257,132.812500
5258,132.812500
5259,132.812500
5260,132.812500
5261,132.812500
5262,132.812500
5263,132.812500
5264,132.812500
5265,132.812500
5266,132.812500
5267,132.812500
5268,132.812500
5269,132.812500
5270,132.812500
5271,132.812500
5272,132.812500
5273,132.812500
5274,132.812500
5275,132.812500
5276,132.812500
5277,132.812500
5278,132.812500
5279,132.812500
5280,132.812500
5281,132.812500
5282,132.812500
5283,132.812500
5284,132.812500
5285,132.812500
5286,132.812500
5287,132.812500
5288,132.812500
5289,128.906250
5290,132.812500
5291,132.812500
5292,132.812500
5293,128.906250
5294,132.812500
5295,128.906250
5296,128.906250
5297,128.906250
5298,132.812500
5299,128.906250
5300,128.906250
5301,128.906250
5302,128.906250
5303,128.906250
5304,128.906250
5305,128.906250
5306,128.906250
5307,128.906250
5308,128.906250
5309,128.906250
5310,128.906250
5311,128.906250
5312,128.906250
5313,128.906250
5314,128.906250
5315,128.906250
5316,128.906250
5317,128.906250
5318,125.000000
5319,125.000000
5320,125.000000
5321,125.000000
5322,125.000000
5323,125.000000
5324,125.000000
5325,125.000000
5326,125.000000
5327,125.000000
5328,125.000000
5329,125.000000
5330,125.000000
5331,125.000000
5332,121.093750
5333,121.093750
5334,121.093750
5335,121.093750
5336,121.093750
5337,121.093750
5338,121.093750
5339,121.093750
5340,121.093750
5341,121.093750
5342,121.093750
5343,117.187500
5344,121.093750
5345,117.187500
5346,117.187500
5347,117.187500
5348,117.187500
5349,117.187500
5350,117.187500
5351,117.187500
5352,117.187500
5353,113.281250
5354,117.187500
5355,113.281250
5356,113.281250
5357,113.281250
5358,113.281250
5359,113.281250
5360,113.281250
5361,113.281250
5362,113.281250
5363,113.281250
5364,113.281250
5365,109.375000
5366,109.375000
5367,109.375000
5368,109.375000
5369,109.375000
5370,109.375000
5371,105.468750
5372,105.468750
5373,105.468750
5374,105.468750
5375,105.468750
5376,105.468750
5377,105.468750
5378,105.468750
5379,105.468750
5380,101.562500
5381,101.562500
5382,101.562500
5383,101.562500
5384,101.562500
5385,101.562500
5386,97.656250
5387,97.656250
5388,97.656250
5389,97.656250
5390,97.656250
5391,97.656250
5392,97.656250
5393,93.750000
5394,93.750000
5395,93.750000
5396,93.750000
5397,93.750000
5398,93.750000
5399,93.750000
5400,89.843750
5401,89.843750
5402,89.843750
5403,89.843750
5404,89.843750
5405,89.843750
5406,85.937500
5407,85.937500
5408,85.937500
5409,85.937500
5410,85.937500
5411,82.031250
5412,85.937500
5413,82.031250
5414,82.031250
5415,82.031250
5416,82.031250
5417,82.031250
5418,82.031250
5419,78.125000
5420,78.125000
5421,78.125000
5422,78.125000
5423,74.218750
5424,74.218750
5425,74.218750
5426,70.312500
5427,74.218750
5428,74.218750
5429,70.312500
5430,70.312500
5431,70.312500
5432,70.312500
5433,66.406250
5434,66.406250
5435,66.406250
5436,66.406250
5437,66.406250
5438,62.500000
5439,62.500000
5440,62.500000
5441,62.500000
5442,62.500000
5443,58.593750
5444,58.593750
5445,58.593750
5446,58.593750
5447,58.593750
5448,54.687500
5449,54.687500
5450,54.687500
5451,54.687500
5452,54.687500
5453,50.781250
5454,50.781250
5455,50.781250
5456,50.781250
5457,46.875000
5458,46.875000
5459,46.875000
5460,46.875000
5461,46.875000
5462,42.968750
5463,42.968750
5464,42.968750
5465,42.968750
5466,42.968750
5467,39.062500
5468,39.062500
5469,39.062500
5470,39.062500
5471,39.062500
5472,35.156250
5473,35.156250
5474,35.156250
5475,35.156250
5476,31.250000
5477,31.250000
5478,31.250000
5479,27.343750
5480,27.343750
5481,27.343750
5482,27.343750
5483,23.437500
5484,23.437500
5485,23.437500
5486,23.437500
5487,23.437500
5488,19.531250
5489,19.531250
5490,19.531250
5491,19.531250
5492,19.531250
5493,15.625000
5494,15.625000
5495,15.625000
5496,11.718750
5497,11.718750
5498,11.718750
5499,11.718750
5500,7.812500
5501,7.812500
5502,7.812500
5503,7.812500
5504,3.906250
5505,3.906250
5506,3.906250
5507,0.000000
5508,0.000000
5509,0.000000
5510,0.000000
5511,0.000000
5512,0.000000
5513,-3.906250
5514,-3.906250
5515,-3.906250
5516,-7.812500
5517,-7.812500
5518,-7.812500
5519,-7.812500
5520,-11.718750
5521,-11.718750
5522,-11.718750
5523,-11.718750
5524,-15.625000
5525,-15.625000
5526,-15.625000
5527,-19.531250
5528,-19.531250
5529,-19.531250
5530,-19.531250
5531,-19.531250
5532,-23.437500
5533,-23.437500
5534,-23.437500
5535,-27.343750
5536,-27.343750
5537,-27.343750
5538,-27.343750
5539,-31.250000
5540,-31.250000
5541,-31.250000
5542,-31.250000
5543,-35.156250
5544,-35.156250
5545,-35.156250
5546,-35.156250
5547,-39.062500
5548,-39.062500
5549,-39.062500
5550,-39.062500
5551,-42.968750
5552,-42.968750
5553,-42.968750
5554,-42.968750
5555,-46.875000
5556,-46.875000
5557,-46.875000
5558,-50.781250
5559,-50.781250
5560,-50.781250
5561,-50.781250
5562,-50.781250
5563,-54.687500
5564,-54.687500
5565,-54.687500
5566,-54.687500
5567,-58.593750
5568,-58.593750
5569,-58.593750
5570,-58.593750
5571,-62.500000
5572,-62.500000
5573,-62.500000
5574,-62.500000
5575,-66.406250
5576,-66.406250
5577,-66.406250
5578,-66.406250
5579,-70.312500
5580,-70.312500
5581,-70.312500
5582,-70.312500
5583,-74.218750
5584,-74.218750
5585,-74.218750
5586,-74.218750
5587,-78.125000
5588,-78.125000
5589,-78.125000
5590,-78.125000
5591,-82.031250
5592,-82.031250
5593,-82.031250
5594,-82.031250
5595,-85.937500
5596,-85.937500
5597,-85.937500
5598,-85.937500
5599,-89.843750
5600,-89.843750
5601,-89.843750
5602,-89.843750
5603,-93.750000
5604,-93.750000
5605,-93.750000
5606,-93.750000
5607,-93.750000
5608,-97.656250
5609,-97.656250
5610,-97.656250
5611,-97.656250
5612,-101.562500
5613,-101.562500
5614,-101.562500
5615,-101.562500
5616,-101.562500
5617,-105.468750
5618,-105.468750
5619,-105.468750
5620,-105.468750
5621,-105.468750
5622,-109.375000
5623,-109.375000
5624,-109.375000
5625,-109.375000
5626,-113.281250
5627,-113.281250
5628,-113.281250
5629,-113.281250
5630,-113.281250
5631,-117.187500
5632,-117.187500
5633,-117.187500
5634,-117.187500
5635,-121.093750
5636,-121.093750
5637,-121.093750
5638,-121.093750
5639,-125.000000
5640,-125.000000
5641,-125.000000
5642,-125.000000
5643,-125.000000
5644,-125.000000
5645,-125.000000
5646,-128.906250
5647,-128.906250
5648,-128.906250
5649,-128.906250
5650,-128.906250
5651,-128.906250
5652,-132.812500
5653,-132.812500
5654,-132.812500
5655,-136.718750
5656,-132.812500
5657,-136.718750
5658,-136.718750
5659,-136.718750
5660,-136.718750
5661,-136.718750
5662,-140.625000
5663,-140.625000
5664,-140.625000
5665,-140.625000
5666,-140.625000
5667,-140.625000
5668,-140.625000
5669,-144.531250
5670,-144.531250
5671,-144.531250
5672,-144.531250
5673,-144.531250
5674,-144.531250
5675,-148.437500
5676,-148.437500
5677,-148.437500
5678,-148.437500
5679,-148.437500
5680,-148.437500
5681,-148.437500
5682,-152.343750
5683,-152.343750
5684,-152.343750
5685,-152.343750
5686,-152.343750
5687,-152.343750
5688,-152.343750
5689,-156.250000
5690,-156.250000
5691,-156.250000
5692,-156.250000
5693,-156.250000
5694,-156.250000
5695,-160.156250
5696,-156.250000
5697,-160.156250
5698,-160.156250
5699,-160.156250
5700,-160.156250
5701,-160.156250
5702,-160.156250
5703,-160.156250
5704,-160.156250
5705,-160.156250
5706,-160.156250
5707,-164.062500
5708,-164.062500
5709,-164.062500
5710,-164.062500
5711,-167.968750
5712,-164.062500
5713,-164.062500
5714,-164.062500
5715,-164.062500
5716,-164.062500
5717,-164.062500
5718,-164.062500
5719,-167.968750
5720,-167.968750
5721,-167.968750
5722,-167.968750
5723,-167.968750
5724,-167.968750
5725,-167.968750
5726,-167.968750
5727,-167.968750
5728,-167.968750
5729,-167.968750
5730,-167.968750
5731,-171.875000
5732,-167.968750
5733,-167.968750
5734,-167.968750
5735,-167.968750
5736,-167.968750
5737,-171.875000
5738,-171.875000
5739,-171.875000
5740,-171.875000
5741,-171.875000
5742,-171.875000
5743,-171.875000
5744,-171.875000
5745,-171.875000
5746,-171.875000
5747,-171.875000
5748,-171.875000
5749,-171.875000
5750,-171.875000
5751,-171.875000
5752,-171.875000
5753,-171.875000
5754,-171.875000
5755,-171.875000
5756,-171.875000
5757,-171.875000
5758,-171.875000
5759,-171.875000
5760,-171.875000
5761,-171.875000
5762,-171.875000
5763,-171.875000
5764,-171.875000
5765,-171.875000
5766,-171.875000
5767,-171.875000
5768,-171.875000
5769,-171.875000
5770,-171.875000
5771,-171.875000
5772,-171.875000
5773,-171.875000
5774,-171.875000
5775,-171.875000
5776,-171.875000
5777,-167.968750
5778,-171.875000
5779,-171.875000
5780,-167.968750
5781,-171.875000
5782,-171.875000
5783,-171.875000
5784,-171.875000
5785,-171.875000
5786,-167.968750
5787,-171.875000
5788,-171.875000
5789,-167.968750
5790,-171.875000
5791,-171.875000
5792,-167.968750
5793,-167.968750
5794,-167.968750
5795,-167.968750
5796,-167.968750
5797,-167.968750
5798,-167.968750
5799,-167.968750
5800,-167.968750
5801,-167.968750
5802,-167.968750
5803,-167.968750
5804,-167.968750
5805,-167.968750
5806,-167.968750
5807,-164.062500
5808,-164.062500
5809,-164.062500
5810,-164.062500
5811,-164.062500
5812,-164.062500
5813,-164.062500
5814,-164.062500
5815,-164.062500
5816,-160.156250
5817,-160.156250
5818,-160.156250
5819,-160.156250
5820,-160.156250
5821,-160.156250
5822,-160.156250
5823,-160.156250
5824,-160.156250
5825,-160.156250
5826,-156.250000
5827,-160.156250
5828,-156.250000
5829,-156.250000
5830,-156.250000
5831,-156.250000
5832,-156.250000
5833,-156.250000
5834,-152.343750
5835,-152.343750
5836,-152.343750
5837,-152.343750
5838,-152.343750
5839,-152.343750
5840,-152.343750
5841,-148.437500
5842,-148.437500
5843,-148.437500
5844,-148.437500
5845,-148.437500
5846,-148.437500
5847,-148.437500
5848,-148.437500
5849,-144.531250
5850,-144.531250
5851,-144.531250
5852,-144.531250
5853,-144.531250
5854,-144.531250
5855,-144.531250
5856,-140.625000
5857,-140.625000
5858,-140.625000
5859,-140.625000
5860,-140.625000
5861,-140.625000
5862,-136.718750
5863,-136.718750
5864,-136.718750
5865,-136.718750
5866,-136.718750
5867,-136.718750
5868,-132.812500
5869,-132.812500
5870,-132.812500
5871,-132.812500
5872,-132.812500
5873,-132.812500
5874,-128.906250
5875,-128.906250
5876,-128.906250
5877,-128.906250
5878,-125.000000
5879,-125.000000
5880,-125.000000
5881,-125.000000
5882,-125.000000
5883,-125.000000
5884,-121.093750
5885,-121.093750
5886,-121.093750
5887,-121.093750
5888,-121.093750
5889,-121.093750
5890,-117.187500
5891,-117.187500
5892,-117.187500
5893,-117.187500
5894,-113.281250
5895,-113.281250
5896,-113.281250
5897,-113.281250
5898,-113.281250
5899,-113.281250
5900,-109.375000
5901,-109.375000
5902,-109.375000
5903,-105.468750
5904,-105.468750
5905,-105.468750
5906,-105.468750
5907,-105.468750
5908,-105.468750
5909,-101.562500
5910,-101.562500
5911,-101.562500
5912,-101.562500
5913,-97.656250
5914,-97.656250
5915,-97.656250
5916,-97.656250
5917,-93.750000
5918,-93.750000
5919,-93.750000
5920,-93.750000
5921,-93.750000
5922,-89.843750
5923,-89.843750
5924,-89.843750
5925,-89.843750
5926,-85.937500
5927,-85.937500
5928,-85.937500
5929,-85.937500
5930,-82.031250
5931,-82.031250
5932,-82.031250
5933,-82.031250
5934,-78.125000
5935,-78.125000
5936,-78.125000
5937,-78.125000
5938,-74.218750
5939,-74.218750
5940,-74.218750
5941,-74.218750
5942,-70.312500
5943,-70.312500
5944,-70.312500
5945,-66.406250
5946,-66.406250
5947,-66.406250
5948,-66.406250
5949,-66.406250
5950,-62.500000
5951,-62.500000
5952,-62.500000
5953,-62.500000
5954,-58.593750
5955,-58.593750
5956,-58.593750
5957,-58.593750
5958,-58.593750
5959,-54.687500
5960,-54.687500
5961,-54.687500
5962,-54.687500
5963,-50.781250
5964,-50.781250
5965,-50.781250
5966,-46.875000
5967,-46.875000
5968,-46.875000
5969,-46.875000
5970,-46.875000
5971,-42.968750
5972,-42.968750
5973,-42.968750
5974,-42.968750
5975,-39.062500
5976,-39.062500
5977,-39.062500
5978,-35.156250
5979,-35.156250
5980,-35.156250
5981,-35.156250
5982,-31.250000
5983,-31.250000
5984,-31.250000
5985,-31.250000
5986,-27.343750
5987,-27.343750
5988,-27.343750
5989,-27.343750
5990,-27.343750
5991,-23.437500
5992,-23.437500
5993,-23.437500
5994,-19.531250
5995,-19.531250
5996,-19.531250
5997,-19.531250
5998,-15.625000
5999,-15.625000
6000,-15.625000
6001,-11.718750
6002,-11.718750
6003,-11.718750
6004,-11.718750
6005,-11.718750
6006,-7.812500
6007,-7.812500
6008,-7.812500
6009,-7.812500
6010,-3.906250
6011,-3.906250
6012,-3.906250
6013,-3.906250
6014,0.000000
6015,0.000000
6016,0.000000
6017,0.000000
6018,3.906250
6019,3.906250
6020,3.906250
6021,3.906250
6022,7.812500
6023,7.812500
6024,7.812500
6025,7.812500
6026,11.718750
6027,11.718750
6028,11.718750
6029,11.718750
6030,11.718750
6031,15.625000
6032,15.625000
6033,15.625000
6034,19.531250
6035,19.531250
6036,19.531250
6037,19.531250
6038,19.531250
6039,23.437500
6040,23.437500
6041,23.437500
6042,23.437500
6043,27.343750
6044,27.343750
6045,27.343750
6046,27.343750
6047,31.250000
6048,31.250000
6049,31.250000
6050,31.250000
6051,31.250000
6052,35.156250
6053,35.156250
6054,35.156250
6055,35.156250
6056,39.062500
6057,39.062500
6058,39.062500
6059,39.062500
6060,39.062500
6061,42.968750
6062,42.968750
6063,42.968750
6064,42.968750
6065,42.968750
6066,46.875000
6067,46.875000
6068,46.875000
6069,46.875000
6070,50.781250
6071,50.781250
6072,50.781250
6073,50.781250
6074,54.687500
6075,54.687500
6076,54.687500
6077,54.687500
6078,54.687500
6079,54.687500
6080,58.593750
6081,58.593750
6082,58.593750
6083,58.593750
6084,62.500000
6085,62.500000
6086,62.500000
6087,66.406250
6088,62.500000
6089,66.406250
6090,66.406250
6091,66.406250
6092,66.406250
6093,70.312500
6094,70.312500
6095,70.312500
6096,70.312500
6097,70.312500
6098,70.312500
6099,70.312500
6100,74.218750
6101,74.218750
6102,74.218750
6103,74.218750
6104,78.125000
6105,74.218750
6106,78.125000
6107,78.125000
6108,78.125000
6109,78.125000
6110,78.125000
6111,82.031250
6112,82.031250
6113,82.031250
6114,85.937500
6115,82.031250
6116,82.031250
6117,85.937500
6118,85.937500
6119,85.937500
6120,89.843750
6121,85.937500
6122,85.937500
6123,89.843750
6124,89.843750
6125,89.843750
6126,89.843750
6127,89.843750
6128,89.843750
6129,93.750000
6130,93.750000
6131,93.750000
6132,93.750000
6133,93.750000
6134,93.750000
6135,93.750000
6136,97.656250
6137,97.656250
6138,97.656250
6139,97.656250
6140,97.656250
6141,97.656250
6142,101.562500
6143,101.562500
6144,101.562500
6145,101.562500
6146,101.562500
6147,101.562500
6148,101.562500
6149,101.562500
6150,101.562500
6151,101.562500
6152,105.468750
6153,105.468750
6154,105.468750
6155,105.468750
6156,105.468750
6157,105.468750
6158,109.375000
6159,109.375000
6160,109.375000
6161,109.375000
6162,109.375000
6163,109.375000
6164,109.375000
6165,109.375000
6166,109.375000
6167,113.281250
6168,113.281250
6169,113.281250
6170,113.281250
6171,113.281250
6172,113.281250
6173,113.281250
6174,113.281250
6175,113.281250
6176,117.187500
6177,117.187500
6178,117.187500
6179,117.187500
6180,117.187500
6181,117.187500
6182,117.187500
6183,117.187500
6184,117.187500
6185,117.187500
6186,121.093750
6187,117.187500
6188,121.093750
6189,121.093750
6190,121.093750
6191,121.093750
6192,121.093750
6193,121.093750
6194,121.093750
6195,121.093750
6196,121.093750
6197,121.093750
6198,121.093750
6199,125.000000
6200,121.093750
6201,121.093750
6202,125.000000
6203,125.000000
6204,125.000000
6205,125.000000
6206,125.000000
6207,125.000000
6208,125.000000
6209,125.000000
6210,125.000000
6211,125.000000
6212,125.000000
6213,125.000000
6214,128.906250
6215,125.000000
6216,128.906250
6217,128.906250
6218,128.906250
6219,128.906250
6220,128.906250
6221,128.906250
6222,128.906250
6223,128.906250
6224,128.906250
6225,128.906250
6226,128.906250
6227,128.906250
6228,128.906250
6229,128.906250
6230,128.906250
6231,128.906250
6232,128.906250
6233,128.906250
6234,128.906250
6235,128.906250
6236,132.812500
6237,128.906250
6238,132.812500
6239,128.906250
6240,132.812500
6241,132.812500
6242,132.812500
6243,128.906250
6244,132.812500
6245,132.812500
6246,132.812500
6247,132.812500
6248,132.812500
6249,132.812500
6250,132.812500
6251,132.812500
6252,132.812500
6253,132.812500
6254,132.812500
6255,132.812500
6256,132.812500
6257,132.812500
6258,132.812500
6259,132.812500
6260,132.812500
6261,132.812500
6262,132.812500
6263,132.812500
6264,132.812500
6265,132.812500
6266,132.812500
6267,132.812500
6268,132.812500
6269,132.812500
6270,132.812500
6271,132.812500
6272,132.812500
6273,128.906250
6274,132.812500
6275,132.812500
6276,132.812500
6277,128.906250
6278,132.812500
6279,132.812500
6280,132.812500
6281,128.906250
6282,132.812500
6283,128.906250
6284,128.906250
6285,128.906250
6286,128.906250
6287,128.906250
6288,128.906250
6289,128.906250
6290,128.906250
6291,128.906250
6292,128.906250
6293,128.906250
6294,128.906250
6295,128.906250
6296,128.906250
6297,128.906250
6298,128.906250
6299,128.906250
6300,128.906250
6301,128.906250
6302,128.906250
6303,128.906250
6304,128.906250
6305,125.000000
6306,125.000000
6307,125.000000
6308,125.000000
6309,125.000000
6310,125.000000
6311,125.000000
6312,125.000000
6313,125.000000
6314,125.000000
6315,125.000000
6316,125.000000
6317,125.000000
6318,125.000000
6319,121.093750
6320,121.093750
6321,121.093750
6322,121.093750
6323,121.093750
6324,121.093750
6325,121.093750
6326,121.093750
6327,121.093750
6328,121.093750
6329,121.093750
6330,121.093750
6331,121.093750
6332,121.093750
6333,121.093750
6334,117.187500
6335,117.187500
6336,117.187500
6337,117.187500
6338,117.187500
6339,117.187500
6340,117.187500
6341,117.187500
6342,117.187500
6343,117.187500
6344,113.281250
6345,113.281250
6346,113.281250
6347,113.281250
6348,113.281250
6349,113.281250
6350,113.281250
6351,109.375000
6352,109.375000
6353,109.375000
6354,109.375000
6355,109.375000
6356,109.375000
6357,109.375000
6358,105.468750
6359,109.375000
6360,109.375000
6361,105.468750
6362,105.468750
6363,105.468750
6364,105.468750
6365,105.468750
6366,105.468750
6367,105.468750
6368,105.468750
6369,101.562500
6370,101.562500
6371,101.562500
6372,101.562500
6373,101.562500
6374,101.562500
6375,101.562500
6376,97.656250
6377,97.656250
6378,97.656250
6379,97.656250
6380,97.656250
6381,97.656250
6382,97.656250
6383,93.750000
6384,93.750000
6385,93.750000
6386,93.750000
6387,93.750000
6388,93.750000
6389,93.750000
6390,89.843750
6391,89.843750
6392,89.843750
6393,89.843750
6394,89.843750
6395,85.937500
6396,85.937500
6397,85.937500
6398,85.937500
6399,85.937500
6400,85.937500
6401,82.031250
6402,82.031250
6403,82.031250
6404,82.031250
6405,82.031250
6406,82.031250
6407,82.031250
6408,78.125000
6409,78.125000
6410,78.125000
6411,78.125000
6412,78.125000
6413,74.218750
6414,74.218750
6415,74.218750
6416,74.218750
6417,74.218750
6418,70.312500
6419,70.312500
6420,70.312500
6421,70.312500
6422,70.312500
6423,66.406250
6424,66.406250
6425,66.406250
6426,66.406250
6427,66.406250
6428,66.406250
6429,62.500000
6430,62.500000
6431,62.500000
6432,62.500000
6433,58.593750
6434,58.593750
6435,58.593750
6436,58.593750
6437,58.593750
6438,54.687500
6439,54.687500
6440,54.687500
6441,54.687500
6442,54.687500
6443,50.781250
6444,50.781250
6445,50.781250
6446,50.781250
6447,46.875000
6448,46.875000
6449,46.875000
6450,46.875000
6451,46.875000
6452,42.968750
6453,42.968750
6454,42.968750
6455,39.062500
6456,39.062500
6457,39.062500
6458,39.062500
6459,39.062500
6460,39.062500
6461,35.156250
6462,35.156250
6463,35.156250
6464,35.156250
6465,31.250000
6466,31.250000
6467,31.250000
6468,31.250000
6469,27.343750
6470,27.343750
6471,27.343750
6472,27.343750
6473,23.437500
6474,23.437500
6475,23.437500
6476,23.437500
6477,23.437500
6478,19.531250
6479,19.531250
6480,19.531250
6481,19.531250
6482,15.625000
6483,15.625000
6484,15.625000
6485,15.625000
6486,11.718750
6487,11.718750
6488,11.718750
6489,11.718750
6490,7.812500
6491,7.812500
6492,7.812500
6493,7.812500
6494,7.812500
6495,3.906250
6496,3.906250
6497,3.906250
6498,0.000000
6499,0.000000
6500,0.000000
6501,-3.906250
6502,-3.906250
6503,-3.906250
6504,-3.906250
6505,-3.906250
6506,-7.812500
6507,-7.812500
6508,-7.812500
6509,-7.812500
6510,-11.718750
6511,-11.718750
6512,-11.718750
6513,-11.718750
6514,-15.625000
6515,-15.625000
6516,-15.625000
6517,-19.531250
6518,-19.531250
6519,-19.531250
6520,-19.531250
6521,-23.437500
6522,-23.437500
6523,-23.437500
6524,-23.437500
6525,-27.343750
6526,-27.343750
6527,-27.343750
6528,-27.343750
6529,-27.343750
6530,-31.250000
6531,-31.250000
6532,-31.250000
6533,-35.156250
6534,-35.156250
6535,-35.156250
6536,-35.156250
6537,-39.062500
6538,-39.062500
6539,-39.062500
6540,-39.062500
6541,-42.968750
6542,-42.968750
6543,-42.968750
6544,-42.968750
6545,-46.875000
6546,-46.875000
6547,-46.875000
6548,-46.875000
6549,-50.781250
6550,-50.781250
6551,-50.781250
6552,-50.781250
6553,-54.687500
6554,-54.687500
6555,-54.687500
6556,-54.687500
6557,-58.593750
6558,-58.593750
6559,-58.593750
6560,-58.593750
6561,-62.500000
6562,-62.500000
6563,-62.500000
6564,-66.406250
6565,-66.406250
6566,-66.406250
6567,-66.406250
6568,-66.406250
6569,-70.312500
6570,-70.312500
6571,-70.312500
6572,-74.218750
6573,-74.218750
6574,-74.218750
6575,-74.218750
6576,-74.218750
6577,-78.125000
6578,-78.125000
6579,-78.125000
6580,-78.125000
6581,-82.031250
6582,-82.031250
6583,-82.031250
6584,-82.031250
6585,-85.937500
6586,-85.937500
6587,-85.937500
6588,-85.937500
6589,-89.843750
6590,-89.843750
6591,-89.843750
6592,-89.843750
6593,-93.750000
6594,-93.750000
6595,-93.750000
6596,-93.750000
6597,-93.750000
6598,-97.656250
6599,-97.656250
6600,-97.656250
6601,-97.656250
6602,-101.562500
6603,-101.562500
6604,-101.562500
6605,-101.562500
6606,-105.468750
6607,-105.468750
6608,-105.468750
6609,-105.468750
6610,-105.468750
6611,-109.375000
6612,-109.375000
6613,-109.375000
6614,-109.375000
6615,-113.281250
6616,-113.281250
6617,-113.281250
6618,-113.281250
6619,-113.281250
6620,-113.281250
6621,-113.281250
6622,-117.187500
6623,-117.187500
6624,-117.187500
6625,-121.093750
6626,-121.093750
6627,-121.093750
6628,-121.093750
6629,-121.093750
6630,-121.093750
6631,-125.000000
6632,-125.000000
6633,-125.000000
6634,-125.000000
6635,-125.000000
6636,-128.906250
6637,-128.906250
6638,-128.906250
6639,-128.906250
6640,-128.906250
6641,-132.812500
6642,-132.812500
6643,-132.812500
6644,-132.812500
6645,-132.812500
6646,-132.812500
6647,-136.718750
6648,-136.718750
6649,-136.718750
6650,-136.718750
6651,-136.718750
6652,-136.718750
6653,-140.625000
6654,-140.625000
6655,-140.625000
6656,-140.625000
6657,-140.625000
6658,-144.531250
6659,-144.531250
6660,-144.531250
6661,-144.531250
6662,-144.531250
6663,-144.531250
6664,-144.531250
6665,-144.531250
6666,-148.437500
6667,-148.437500
6668,-148.437500
6669,-148.437500
6670,-148.437500
6671,-148.437500
6672,-148.437500
6673,-152.343750
6674,-152.343750
6675,-152.343750
6676,-152.343750
6677,-152.343750
6678,-152.343750
6679,-152.343750
6680,-152.343750
6681,-156.250000
6682,-156.250000
6683,-156.250000
6684,-156.250000
6685,-156.250000
6686,-156.250000
6687,-156.250000
6688,-156.250000
6689,-160.156250
6690,-160.156250
6691,-160.156250
6692,-160.156250
6693,-160.156250
6694,-160.156250
6695,-160.156250
6696,-160.156250
6697,-160.156250
6698,-160.156250
6699,-164.062500
6700,-164.062500
6701,-164.062500
6702,-164.062500
6703,-164.062500
6704,-164.062500
6705,-164.062500
6706,-164.062500
6707,-164.062500
6708,-164.062500
6709,-164.062500
6710,-164.062500
6711,-167.968750
6712,-167.968750
6713,-167.968750
6714,-167.968750
6715,-167.968750
6716,-167.968750
6717,-167.968750
6718,-167.968750
6719,-167.968750
6720,-167.968750
6721,-167.968750
6722,-167.968750
6723,-167.968750
6724,-167.968750
6725,-167.968750
6726,-167.968750
6727,-167.968750
6728,-167.968750
6729,-167.968750
6730,-171.875000
6731,-171.875000
6732,-171.875000
6733,-171.875000
6734,-171.875000
6735,-171.875000
6736,-171.875000
6737,-171.875000
6738,-171.875000
6739,-171.875000
6740,-171.875000
6741,-171.875000
6742,-171.875000
6743,-171.875000
6744,-171.875000
6745,-171.875000
6746,-171.875000
6747,-171.875000
6748,-171.875000
6749,-171.875000
6750,-171.875000
6751,-171.875000
6752,-171.875000
6753,-171.875000
6754,-171.875000
6755,-171.875000
6756,-171.875000
6757,-171.875000
6758,-171.875000
6759,-171.875000
6760,-171.875000
6761,-171.875000
6762,-171.875000
6763,-171.875000
6764,-171.875000
6765,-171.875000
6766,-171.875000
6767,-171.875000
6768,-171.875000
6769,-171.875000
6770,-171.875000
6771,-171.875000
6772,-167.968750
6773,-167.968750
6774,-167.968750
6775,-167.968750
6776,-171.875000
6777,-167.968750
6778,-167.968750
6779,-167.968750
6780,-167.968750
6781,-167.968750
6782,-167.968750
6783,-167.968750
6784,-167.968750
6785,-167.968750
6786,-167.968750
6787,-167.968750
6788,-167.968750
6789,-167.968750
6790,-164.062500
6791,-167.968750
6792,-164.062500
6793,-164.062500
6794,-164.062500
6795,-164.062500
6796,-164.062500
6797,-164.062500
6798,-164.062500
6799,-164.062500
6800,-164.062500
6801,-164.062500
6802,-164.062500
6803,-164.062500
6804,-160.156250
6805,-164.062500
6806,-160.156250
6807,-160.156250
6808,-160.156250
6809,-160.156250
6810,-160.156250
6811,-160.156250
6812,-160.156250
6813,-156.250000
6814,-160.156250
6815,-156.250000
6816,-156.250000
6817,-156.250000
6818,-156.250000
6819,-156.250000
6820,-156.250000
6821,-156.250000
6822,-156.250000
6823,-156.250000
6824,-152.343750
6825,-152.343750
6826,-152.343750
6827,-152.343750
6828,-152.343750
6829,-152.343750
6830,-148.437500
6831,-148.437500
6832,-148.437500
6833,-148.437500
6834,-148.437500
6835,-148.437500
6836,-144.531250
6837,-144.531250
6838,-144.531250
6839,-144.531250
6840,-144.531250
6841,-144.531250
6842,-144.531250
6843,-144.531250
6844,-140.625000
6845,-140.625000
6846,-140.625000
6847,-140.625000
6848,-140.625000
6849,-140.625000
6850,-140.625000
6851,-136.718750
6852,-136.718750
6853,-136.718750
6854,-136.718750
6855,-136.718750
6856,-132.812500
6857,-132.812500
6858,-132.812500
6859,-132.812500
6860,-132.812500
6861,-132.812500
6862,-128.906250
6863,-128.906250
6864,-128.906250
6865,-128.906250
6866,-128.906250
6867,-125.000000
6868,-125.000000
6869,-125.000000
6870,-125.000000
6871,-125.000000
6872,-121.093750
6873,-121.093750
6874,-117.187500
6875,-121.093750
6876,-121.093750
6877,-117.187500
6878,-117.187500
6879,-117.187500
6880,-117.187500
6881,-117.187500
6882,-113.281250
6883,-113.281250
6884,-113.281250
6885,-113.281250
6886,-109.375000
6887,-109.375000
6888,-109.375000
6889,-109.375000
6890,-109.375000
6891,-109.375000
6892,-105.468750
6893,-105.468750
6894,-105.468750
6895,-105.468750
6896,-101.562500
6897,-101.562500
6898,-101.562500
6899,-101.562500
6900,-97.656250
6901,-97.656250
6902,-97.656250
6903,-97.656250
6904,-97.656250
6905,-93.750000
6906,-93.750000
6907,-93.750000
6908,-93.750000
6909,-89.843750
6910,-89.843750
6911,-89.843750
6912,-89.843750
6913,-89.843750
6914,-85.937500
6915,-85.937500
6916,-85.937500
6917,-85.937500
6918,-82.031250
6919,-82.031250
6920,-82.031250
6921,-82.031250
6922,-78.125000
6923,-78.125000
6924,-78.125000
6925,-78.125000
6926,-74.218750
6927,-74.218750
6928,-74.218750
6929,-74.218750
6930,-74.218750
6931,-70.312500
6932,-70.312500
6933,-70.312500
6934,-66.406250
6935,-66.406250
6936,-66.406250
6937,-66.406250
6938,-66.406250
6939,-62.500000
6940,-62.500000
6941,-62.500000
6942,-58.593750
6943,-58.593750
6944,-58.593750
6945,-58.593750
6946,-58.593750
6947,-54.687500
6948,-54.687500
6949,-54.687500
6950,-54.687500
6951,-50.781250
6952,-50.781250
6953,-50.781250
6954,-50.781250
6955,-46.875000
6956,-46.875000
6957,-46.875000
6958,-46.875000
6959,-42.968750
6960,-42.968750
6961,-42.968750
6962,-39.062500
6963,-42.968750
6964,-39.062500
6965,-39.062500
6966,-39.062500
6967,-35.156250
6968,-35.156250
6969,-35.156250
6970,-35.156250
6971,-31.250000
6972,-31.250000
6973,-31.250000
6974,-31.250000
6975,-27.343750
6976,-27.343750
6977,-27.343750
6978,-23.437500
6979,-23.437500
6980,-23.437500
6981,-23.437500
6982,-19.531250
6983,-19.531250
6984,-19.531250
6985,-19.531250
6986,-15.625000
6987,-15.625000
6988,-15.625000
6989,-15.625000
6990,-11.718750
6991,-11.718750
6992,-11.718750
6993,-11.718750
6994,-7.812500
6995,-7.812500
6996,-7.812500
6997,-7.812500
6998,-7.812500
6999,-3.906250
7000,-3.906250
7001,-3.906250
7002,0.000000
7003,0.000000
7004,0.000000
7005,0.000000
7006,3.906250
7007,3.906250
7008,3.906250
7009,3.906250
7010,7.812500
7011,7.812500
7012,7.812500
7013,7.812500
7014,11.718750
7015,11.718750
7016,11.718750
7017,11.718750
7018,11.718750
7019,15.625000
7020,15.625000
7021,15.625000
7022,19.531250
7023,19.531250
7024,19.531250
7025,19.531250
7026,19.531250
7027,23.437500
7028,23.437500
7029,23.437500
7030,23.437500
7031,27.343750
7032,27.343750
7033,27.343750
7034,27.343750
7035,27.343750
7036,31.250000
7037,31.250000
7038,31.250000
7039,31.250000
7040,35.156250
7041,35.156250
7042,35.156250
7043,39.062500
7044,39.062500
7045,39.062500
7046,39.062500
7047,39.062500
7048,39.062500
7049,42.968750
7050,42.968750
7051,42.968750
7052,42.968750
7053,46.875000
7054,46.875000
7055,46.875000
7056,46.875000
7057,46.875000
7058,50.781250
7059,50.781250
7060,50.781250
7061,50.781250
7062,54.687500
7063,54.687500
7064,54.687500
7065,54.687500
7066,54.687500
7067,58.593750
7068,58.593750
7069,58.593750
7070,58.593750
7071,58.593750
7072,58.593750
7073,62.500000
7074,62.500000
7075,62.500000
7076,62.500000
7077,66.406250
7078,66.406250
7079,66.406250
7080,66.406250
7081,66.406250
7082,70.312500
7083,70.312500
7084,70.312500
7085,70.312500
7086,70.312500
7087,70.312500
7088,70.312500
7089,74.218750
7090,74.218750
7091,74.218750
7092,74.218750
7093,78.125000
7094,78.125000
7095,78.125000
7096,78.125000
7097,78.125000
7098,78.125000
7099,78.125000
7100,82.031250
7101,82.031250
7102,82.031250
7103,82.031250
7104,82.031250
7105,85.937500
7106,85.937500
7107,85.937500
7108,85.937500
7109,85.937500
7110,85.937500
7111,89.843750
7112,89.843750
7113,89.843750
7114,89.843750
7115,89.843750
7116,89.843750
7117,89.843750
7118,93.750000
7119,93.750000
7120,93.750000
7121,93.750000
7122,93.750000
7123,93.750000
7124,97.656250
7125,97.656250
7126,97.656250
7127,97.656250
7128,97.656250
7129,97.656250
7130,101.562500
7131,101.562500
7132,101.562500
7133,101.562500
7134,101.562500
7135,101.562500
7136,101.562500
7137,101.562500
7138,105.468750
7139,105.468750
7140,105.468750
7141,105.468750
7142,105.468750
7143,105.468750
7144,105.468750
7145,105.468750
7146,109.375000
7147,109.375000
7148,109.375000
7149,109.375000
7150,109.375000
7151,109.375000
7152,109.375000
7153,109.375000
7154,113.281250
7155,113.281250
7156,113.281250
7157,113.281250
7158,113.281250
7159,113.281250
7160,113.281250
7161,113.281250
7162,113.281250
7163,113.281250
7164,117.187500
7165,117.187500
7166,117.187500
7167,117.187500
7168,117.187500
7169,117.187500
7170,117.187500
7171,117.187500
7172,117.187500
7173,117.187500
7174,121.093750
7175,121.093750
7176,121.093750
7177,121.093750
7178,121.093750
7179,121.093750
7180,121.093750
7181,121.093750
7182,121.093750
7183,121.093750
7184,121.093750
7185,121.093750
7186,125.000000
7187,125.000000
7188,125.000000
7189,125.000000
7190,125.000000
7191,125.000000
7192,125.000000
7193,125.000000
7194,125.000000
7195,125.000000
7196,125.000000
7197,125.000000
7198,125.000000
7199,125.000000
7200,128.906250
7201,125.000000
7202,128.906250
7203,128.906250
7204,128.906250
7205,128.906250
7206,128.906250
7207,128.906250
7208,128.906250
7209,128.906250
7210,128.906250
7211,128.906250
7212,128.906250
7213,128.906250
7214,128.906250
7215,128.906250
7216,128.906250
7217,128.906250
7218,128.906250
7219,128.906250
7220,128.906250
7221,128.906250
7222,128.906250
7223,128.906250
7224,132.812500
7225,128.906250
7226,132.812500
7227,132.812500
7228,128.906250
7229,132.812500
7230,132.812500
7231,128.906250
7232,132.812500
7233,132.812500
7234,132.812500
7235,132.812500
7236,132.812500
7237,132.812500
7238,132.812500
7239,132.812500
7240,132.812500
7241,132.812500
7242,132.812500
7243,132.812500
7244,132.812500
7245,132.812500
7246,132.812500
7247,132.812500
7248,132.812500
7249,132.812500
7250,132.812500
7251,132.812500
7252,132.812500
7253,132.812500
7254,132.812500
7255,132.812500
7256,132.812500
7257,128.906250
7258,132.812500
7259,132.812500
7260,132.812500
7261,132.812500
7262,132.812500
7263,132.812500
7264,132.812500
7265,132.812500
7266,132.812500
7267,132.812500
7268,132.812500
7269,132.812500
7270,132.812500
7271,132.812500
7272,132.812500
7273,132.812500
7274,132.812500
7275,128.906250
7276,132.812500
7277,128.906250
7278,128.906250
7279,128.906250
7280,128.906250
7281,132.812500
7282,132.812500
7283,128.906250
7284,128.906250
7285,128.906250
7286,128.906250
7287,128.906250
7288,128.906250
7289,128.906250
7290,128.906250
7291,128.906250
7292,128.906250
7293,128.906250
7294,128.906250
7295,128.906250
7296,128.906250
7297,128.906250
7298,128.906250
7299,125.000000
7300,125.000000
7301,125.000000
7302,125.000000
7303,125.000000
7304,125.000000
7305,125.000000
7306,125.000000
7307,125.000000
7308,125.000000
7309,125.000000
7310,125.000000
7311,125.000000
7312,125.000000
7313,125.000000
7314,121.093750
7315,121.093750
7316,121.093750
7317,121.093750
7318,121.093750
7319,121.093750
7320,121.093750
7321,121.093750
7322,121.093750
7323,121.093750
7324,117.187500
7325,117.187500
7326,117.187500
7327,117.187500
7328,117.187500
7329,117.187500
7330,117.187500
7331,117.187500
7332,117.187500
7333,113.281250
7334,113.281250
7335,113.281250
7336,113.281250
7337,113.281250
7338,113.281250
7339,113.281250
7340,113.281250
7341,113.281250
7342,113.281250
7343,113.281250
7344,109.375000
7345,109.375000
7346,109.375000
7347,109.375000
7348,109.375000
7349,109.375000
7350,109.375000
7351,109.375000
7352,105.468750
7353,105.468750
7354,105.468750
7355,105.468750
7356,105.468750
7357,105.468750
7358,105.468750
7359,101.562500
7360,101.562500
7361,101.562500
7362,101.562500
7363,101.562500
7364,101.562500
7365,101.562500
7366,97.656250
7367,101.562500
7368,97.656250
7369,97.656250
7370,97.656250
7371,97.656250
7372,97.656250
7373,93.750000
7374,93.750000
7375,93.750000
7376,93.750000
7377,93.750000
7378,93.750000
7379,93.750000
7380,93.750000
7381,89.843750
7382,89.843750
7383,89.843750
7384,89.843750
7385,85.937500
7386,85.937500
7387,85.937500
7388,85.937500
7389,85.937500
7390,85.937500
7391,85.937500
7392,82.031250
7393,82.031250
7394,82.031250
7395,82.031250
7396,82.031250
7397,82.031250
7398,78.125000
7399,78.125000
7400,78.125000
7401,78.125000
7402,78.125000
7403,78.125000
7404,74.218750
7405,74.218750
7406,74.218750
7407,74.218750
7408,74.218750
7409,70.312500
7410,70.312500
7411,70.312500
7412,70.312500
7413,70.312500
7414,66.406250
7415,66.406250
7416,66.406250
7417,66.406250
7418,66.406250
7419,62.500000
7420,62.500000
7421,62.500000
7422,62.500000
7423,58.593750
7424,58.593750
7425,58.593750
7426,58.593750
7427,58.593750
7428,58.593750
7429,54.687500
7430,54.687500
7431,54.687500
7432,54.687500
7433,50.781250
7434,50.781250
7435,50.781250
7436,50.781250
7437,50.781250
7438,50.781250
7439,46.875000
7440,46.875000
7441,46.875000
7442,46.875000
7443,42.968750
7444,42.968750
7445,42.968750
7446,42.968750
7447,39.062500
7448,39.062500
7449,39.062500
7450,39.062500
7451,35.156250
7452,35.156250
7453,35.156250
7454,35.156250
7455,35.156250
7456,31.250000
7457,31.250000
7458,31.250000
7459,31.250000
7460,27.343750
7461,27.343750
7462,27.343750
7463,27.343750
7464,23.437500
7465,23.437500
7466,23.437500
7467,23.437500
7468,23.437500
7469,19.531250
7470,19.531250
7471,19.531250
7472,15.625000
7473,15.625000
7474,15.625000
7475,15.625000
7476,11.718750
7477,11.718750
7478,11.718750
7479,11.718750
7480,7.812500
7481,7.812500
7482,7.812500
7483,7.812500
7484,7.812500
7485,3.906250
7486,3.906250
7487,3.906250
7488,3.906250
7489,0.000000
7490,0.000000
7491,0.000000
7492,-3.906250
7493,-3.906250
7494,-3.906250
7495,-3.906250
7496,-7.812500
7497,-7.812500
7498,-7.812500
7499,-7.812500
7500,-11.718750
7501,-11.718750
7502,-11.718750
7503,-11.718750
7504,-15.625000
7505,-15.625000
7506,-15.625000
7507,-15.625000
7508,-19.531250
7509,-19.531250
7510,-19.531250
7511,-19.531250
7512,-23.437500
7513,-23.437500
7514,-23.437500
7515,-23.437500
7516,-27.343750
7517,-27.343750
7518,-27.343750
7519,-27.343750
7520,-31.250000
7521,-31.250000
7522,-31.250000
7523,-31.250000
7524,-35.156250
7525,-35.156250
7526,-35.156250
7527,-35.156250
7528,-39.062500
7529,-39.062500
7530,-39.062500
7531,-39.062500
7532,-42.968750
7533,-42.968750
7534,-42.968750
7535,-46.875000
7536,-46.875000
7537,-46.875000
7538,-46.875000
7539,-46.875000
7540,-50.781250
7541,-50.781250
7542,-50.781250
7543,-54.687500
7544,-54.687500
7545,-54.687500
7546,-54.687500
7547,-58.593750
7548,-58.593750
7549,-58.593750
7550,-58.593750
7551,-62.500000
7552,-62.500000
7553,-62.500000
7554,-62.500000
7555,-66.406250
7556,-66.406250
7557,-66.406250
7558,-66.406250
7559,-70.312500
7560,-70.312500
7561,-70.312500
7562,-70.312500
7563,-74.218750
7564,-74.218750
7565,-74.218750
7566,-78.125000
7567,-74.218750
7568,-78.125000
7569,-78.125000
7570,-78.125000
7571,-82.031250
7572,-82.031250
7573,-82.031250
7574,-82.031250
7575,-85.937500
7576,-85.937500
7577,-85.937500
7578,-85.937500
7579,-89.843750
7580,-89.843750
7581,-89.843750
7582,-89.843750
7583,-93.750000
7584,-93.750000
7585,-93.750000
7586,-93.750000
7587,-93.750000
7588,-93.750000
7589,-97.656250
7590,-97.656250
7591,-97.656250
7592,-97.656250
7593,-101.562500
7594,-101.562500
7595,-101.562500
7596,-101.562500
7597,-105.468750
7598,-105.468750
7599,-105.468750
7600,-105.468750
7601,-109.375000
7602,-109.375000
7603,-109.375000
7604,-109.375000
7605,-113.281250
7606,-113.281250
7607,-113.281250
7608,-113.281250
7609,-113.281250
7610,-113.281250
7611,-117.187500
7612,-117.187500
7613,-117.187500
7614,-117.187500
7615,-121.093750
7616,-121.093750
7617,-121.093750
7618,-121.093750
7619,-121.093750
7620,-121.093750
7621,-125.000000
7622,-125.000000
7623,-125.000000
7624,-125.000000
7625,-125.000000
7626,-128.906250
7627,-128.906250
7628,-128.906250
7629,-128.906250
7630,-128.906250
7631,-132.812500
7632,-132.812500
7633,-132.812500
7634,-132.812500
7635,-132.812500
7636,-132.812500
7637,-136.718750
7638,-136.718750
7639,-136.718750
7640,-136.718750
7641,-136.718750
7642,-140.625000
7643,-140.625000
7644,-140.625000
7645,-140.625000
7646,-140.625000
7647,-140.625000
7648,-140.625000
7649,-144.531250
7650,-144.531250
7651,-144.531250
7652,-144.531250
7653,-144.531250
7654,-144.531250
7655,-144.531250
7656,-148.437500
7657,-148.437500
7658,-148.437500
7659,-148.437500
7660,-148.437500
7661,-148.437500
7662,-152.343750
7663,-152.343750
7664,-152.343750
7665,-152.343750
7666,-152.343750
7667,-152.343750
7668,-152.343750
7669,-152.343750
7670,-156.250000
7671,-156.250000
7672,-156.250000
7673,-156.250000
7674,-156.250000
7675,-156.250000
7676,-156.250000
7677,-156.250000
7678,-160.156250
7679,-160.156250
7680,-160.156250
7681,-160.156250
7682,-160.156250
7683,-160.156250
7684,-160.156250
7685,-160.156250
7686,-160.156250
7687,-160.156250
7688,-164.062500
7689,-164.062500
7690,-164.062500
7691,-164.062500
7692,-164.062500
7693,-164.062500
7694,-164.062500
7695,-164.062500
7696,-164.062500
7697,-164.062500
7698,-164.062500
7699,-164.062500
7700,-167.968750
7701,-164.062500
7702,-167.968750
7703,-167.968750
7704,-167.968750
7705,-167.968750
7706,-167.968750
7707,-167.968750
7708,-167.968750
7709,-167.968750
7710,-167.968750
7711,-167.968750
7712,-167.968750
7713,-167.968750
7714,-167.968750
7715,-171.875000
7716,-171.875000
7717,-171.875000
7718,-171.875000
7719,-171.875000
7720,-171.875000
7721,-171.875000
7722,-171.875000
7723,-171.875000
7724,-171.875000
7725,-171.875000
7726,-171.875000
7727,-171.875000
7728,-171.875000
7729,-171.875000
7730,-171.875000
7731,-171.875000
7732,-171.875000
7733,-171.875000
7734,-171.875000
7735,-171.875000
7736,-171.875000
7737,-171.875000
7738,-171.875000
7739,-171.875000
7740,-171.875000
7741,-171.875000
7742,-171.875000
7743,-171.875000
7744,-171.875000
7745,-171.875000
7746,-171.875000
7747,-171.875000
7748,-171.875000
7749,-171.875000
7750,-171.875000
7751,-171.875000
7752,-171.875000
7753,-171.875000
7754,-171.875000
7755,-171.875000
7756,-171.875000
7757,-171.875000
7758,-171.875000
7759,-171.875000
7760,-171.875000
7761,-171.875000
7762,-171.875000
7763,-171.875000
7764,-167.968750
7765,-171.875000
7766,-167.968750
7767,-167.968750
7768,-171.875000
7769,-167.968750
7770,-167.968750
7771,-167.968750
7772,-167.968750
7773,-167.968750
7774,-167.968750
7775,-167.968750
7776,-167.968750
7777,-167.968750
7778,-167.968750
7779,-167.968750
7780,-167.968750
7781,-167.968750
7782,-167.968750
7783,-167.968750
7784,-164.062500
7785,-164.062500
7786,-164.062500
7787,-164.062500
7788,-164.062500
7789,-164.062500
7790,-164.062500
7791,-164.062500
7792,-164.062500
7793,-164.062500
7794,-164.062500
7795,-164.062500
7796,-160.156250
7797,-160.156250
7798,-160.156250
7799,-160.156250
7800,-160.156250
7801,-160.156250
7802,-160.156250
7803,-160.156250
7804,-160.156250
7805,-160.156250
7806,-156.250000
7807,-156.250000
7808,-156.250000
7809,-156.250000
7810,-156.250000
7811,-156.250000
7812,-152.343750
7813,-156.250000
7814,-152.343750
7815,-152.343750
7816,-152.343750
7817,-152.343750
7818,-152.343750
7819,-152.343750
7820,-152.343750
7821,-148.437500
7822,-148.437500
7823,-148.437500
7824,-148.437500
7825,-148.437500
7826,-148.437500
7827,-148.437500
7828,-148.437500
7829,-144.531250
7830,-144.531250
7831,-144.531250
7832,-144.531250
7833,-144.531250
7834,-140.625000
7835,-140.625000
7836,-140.625000
7837,-140.625000
7838,-140.625000
7839,-140.625000
7840,-140.625000
7841,-136.718750
7842,-136.718750
7843,-136.718750
7844,-136.718750
7845,-136.718750
7846,-136.718750
7847,-136.718750
7848,-132.812500
7849,-132.812500
7850,-132.812500
7851,-132.812500
7852,-132.812500
7853,-128.906250
7854,-128.906250
7855,-128.906250
7856,-128.906250
7857,-128.906250
7858,-125.000000
7859,-128.906250
7860,-125.000000
7861,-125.000000
7862,-125.000000
7863,-125.000000
7864,-121.093750
7865,-121.093750
7866,-121.093750
7867,-121.093750
7868,-117.187500
7869,-117.187500
7870,-117.187500
7871,-117.187500
7872,-117.187500
7873,-117.187500
7874,-113.281250
7875,-113.281250
7876,-113.281250
7877,-109.375000
7878,-109.375000
7879,-109.375000
7880,-109.375000
7881,-109.375000
7882,-109.375000
7883,-105.468750
7884,-105.468750
7885,-105.468750
7886,-105.468750
7887,-101.562500
7888,-101.562500
7889,-101.562500
7890,-101.562500
7891,-97.656250
7892,-97.656250
7893,-97.656250
7894,-97.656250
7895,-97.656250
7896,-93.750000
7897,-93.750000
7898,-93.750000
7899,-93.750000
7900,-89.843750
7901,-89.843750
7902,-89.843750
7903,-89.843750
7904,-89.843750
7905,-85.937500
7906,-85.937500
7907,-85.937500
7908,-85.937500
7909,-82.031250
7910,-82.031250
7911,-82.031250
7912,-82.031250
7913,-78.125000
7914,-78.125000
7915,-78.125000
7916,-78.125000
7917,-74.218750
7918,-74.218750
7919,-74.218750
7920,-74.218750
7921,-70.312500
7922,-70.312500
7923,-70.312500
7924,-70.312500
7925,-70.312500
7926,-66.406250
7927,-66.406250
7928,-66.406250
7929,-66.406250
7930,-62.500000
7931,-62.500000
7932,-62.500000
7933,-62.500000
7934,-58.593750
7935,-58.593750
7936,-58.593750
7937,-58.593750
7938,-54.687500
7939,-54.687500
7940,-54.687500
7941,-54.687500
7942,-50.781250
7943,-50.781250
7944,-50.781250
7945,-46.875000
7946,-46.875000
7947,-46.875000
7948,-46.875000
7949,-46.875000
7950,-42.968750
7951,-42.968750
7952,-42.968750
7953,-42.968750
7954,-39.062500
7955,-39.062500
7956,-39.062500
7957,-39.062500
7958,-35.156250
7959,-35.156250
7960,-35.156250
7961,-31.250000
7962,-31.250000
7963,-31.250000
7964,-31.250000
7965,-27.343750
7966,-27.343750
7967,-27.343750
7968,-27.343750
7969,-27.343750
7970,-23.437500
7971,-23.437500
7972,-23.437500
7973,-23.437500
7974,-19.531250
7975,-19.531250
7976,-19.531250
7977,-15.625000
7978,-15.625000
7979,-15.625000
7980,-15.625000
7981,-15.625000
7982,-11.718750
7983,-11.718750
7984,-11.718750
7985,-11.718750
7986,-7.812500
7987,-7.812500
7988,-7.812500
7989,-3.906250
7990,-3.906250
7991,-3.906250
7992,-3.906250
7993,-3.906250
7994,0.000000
7995,0.000000
7996,0.000000
7997,0.000000
7998,3.906250
7999,3.906250
8000,3.906250
8001,7.812500
8002,7.812500
8003,7.812500
8004,7.812500
8005,7.812500
8006,11.718750
8007,11.718750
8008,11.718750
8009,11.718750
8010,15.625000
8011,15.625000
8012,15.625000
8013,15.625000
8014,19.531250
8015,19.531250
8016,19.531250
8017,19.531250
8018,23.437500
8019,23.437500
8020,23.437500
8021,23.437500
8022,27.343750
8023,27.343750
8024,27.343750
8025,27.343750
8026,27.343750
8027,31.250000
8028,31.250000
8029,31.250000
8030,31.250000
8031,35.156250
8032,35.156250
8033,35.156250
8034,35.156250
8035,39.062500
8036,39.062500
8037,39.062500
8038,39.062500
8039,39.062500
8040,42.968750
8041,42.968750
8042,42.968750
8043,42.968750
8044,42.968750
8045,46.875000
8046,46.875000
8047,46.875000
8048,46.875000
8049,50.781250
8050,50.781250
8051,50.781250
8052,50.781250
8053,50.781250
8054,50.781250
8055,54.687500
8056,54.687500
8057,54.687500
8058,54.687500
8059,58.593750
8060,58.593750
8061,58.593750
8062,58.593750
8063,58.593750
8064,62.500000
8065,62.500000
8066,62.500000
8067,62.500000
8068,62.500000
8069,66.406250
8070,66.406250
8071,66.406250
8072,66.406250
8073,66.406250
8074,70.312500
8075,70.312500
8076,70.312500
8077,70.312500
8078,74.218750
8079,74.218750
8080,74.218750
8081,74.218750
8082,74.218750
8083,74.218750
8084,78.125000
8085,78.125000
8086,78.125000
8087,78.125000
8088,78.125000
8089,78.125000
8090,82.031250
8091,82.031250
8092,82.031250
8093,82.031250
8094,82.031250
8095,85.937500
8096,85.937500
8097,85.937500
8098,85.937500
8099,85.937500
8100,85.937500
8101,85.937500
8102,89.843750
8103,89.843750
8104,89.843750
8105,89.843750
8106,89.843750
8107,89.843750
8108,93.750000
8109,93.750000
8110,93.750000
8111,93.750000
8112,93.750000
8113,93.750000
8114,93.750000
8115,97.656250
8116,97.656250
8117,97.656250
8118,97.656250
8119,97.656250
8120,97.656250
8121,97.656250
8122,101.562500
8123,101.562500
8124,101.562500
8125,101.562500
8126,101.562500
8127,101.562500
8128,101.562500
8129,101.562500
8130,105.468750
8131,105.468750
8132,105.468750
8133,105.468750
8134,105.468750
8135,105.468750
8136,105.468750
8137,109.375000
8138,109.375000
8139,109.375000
8140,109.375000
8141,109.375000
8142,109.375000
8143,109.375000
8144,109.375000
8145,109.375000
8146,113.281250
8147,113.281250
8148,113.281250
8149,113.281250
8150,113.281250
8151,113.281250
8152,113.281250
8153,113.281250
8154,113.281250
8155,113.281250
8156,117.187500
8157,117.187500
8158,117.187500
8159,117.187500
8160,117.187500
8161,117.187500
8162,117.187500
8163,117.187500
8164,117.187500
8165,117.187500
8166,121.093750
8167,121.093750
8168,121.093750
8169,121.093750
8170,121.093750
8171,121.093750
8172,121.093750
8173,121.093750
8174,121.093750
8175,121.093750
8176,121.093750
8177,125.000000
8178,125.000000
8179,121.093750
8180,125.000000
8181,125.000000
8182,125.000000
8183,125.000000
8184,125.000000
8185,125.000000
8186,125.000000
8187,125.000000
8188,125.000000
8189,125.000000
8190,125.000000
8191,125.000000
8192,125.000000
8193,125.000000
8194,128.906250
8195,128.906250
8196,128.906250
8197,128.906250
8198,128.906250
8199,128.906250
8200,128.906250
8201,128.906250
8202,128.906250
8203,128.906250
8204,128.906250
8205,128.906250
8206,128.906250
8207,128.906250
8208,128.906250
8209,128.906250
8210,128.906250
8211,128.906250
8212,128.906250
8213,128.906250
8214,128.906250
8215,128.906250
8216,132.812500
8217,128.906250
8218,132.812500
8219,128.906250
8220,132.812500
8221,132.812500
8222,132.812500
8223,128.906250
8224,128.906250
8225,128.906250
8226,132.812500
8227,132.812500
8228,132.812500
8229,132.812500
8230,132.812500
8231,132.812500
8232,132.812500
8233,132.812500
8234,132.812500
8235,132.812500
8236,132.812500
8237,128.906250
8238,132.812500
8239,132.812500
8240,132.812500
8241,132.812500
8242,132.812500
8243,132.812500
8244,132.812500
8245,128.906250
8246,132.812500
8247,132.812500
8248,128.906250
8249,132.812500
8250,132.812500
8251,132.812500
8252,132.812500
8253,128.906250
8254,132.812500
8255,132.812500
8256,132.812500
8257,132.812500
8258,132.812500
8259,128.906250
8260,128.906250
8261,128.906250
8262,128.906250
8263,128.906250
8264,128.906250
8265,128.906250
8266,128.906250
8267,128.906250
8268,128.906250
8269,128.906250
8270,128.906250
8271,128.906250
8272,128.906250
8273,128.906250
8274,128.906250
8275,128.906250
8276,128.906250
8277,128.906250
8278,128.906250
8279,128.906250
8280,128.906250
8281,128.906250
8282,128.906250
8283,125.000000
8284,128.906250
8285,125.000000
8286,125.000000
8287,125.000000
8288,125.000000
8289,125.000000
8290,125.000000
8291,125.000000
8292,125.000000
8293,125.000000
8294,125.000000
8295,125.000000
8296,125.000000
8297,121.093750
8298,121.093750
8299,121.093750
8300,121.093750
8301,121.093750
8302,121.093750
8303,121.093750
8304,121.093750
8305,121.093750
8306,121.093750
8307,121.093750
8308,121.093750
8309,121.093750
8310,121.093750
8311,117.187500
8312,117.187500
8313,117.187500
8314,117.187500
8315,117.187500
8316,117.187500
8317,117.187500
8318,117.187500
8319,117.187500
8320,117.187500
8321,117.187500
8322,113.281250
8323,113.281250
8324,113.281250
8325,113.281250
8326,113.281250
8327,113.281250
8328,113.281250
8329,113.281250
8330,113.281250
8331,113.281250
8332,113.281250
8333,109.375000
8334,109.375000
8335,109.375000
8336,109.375000
8337,109.375000
8338,109.375000
8339,109.375000
8340,109.375000
8341,105.468750
8342,105.468750
8343,105.468750
8344,105.468750
8345,105.468750
8346,105.468750
8347,101.562500
8348,101.562500
8349,101.562500
8350,101.562500
8351,101.562500
8352,101.562500
8353,101.562500
8354,101.562500
8355,97.656250
8356,97.656250
8357,97.656250
8358,97.656250
8359,97.656250
8360,97.656250
8361,97.656250
8362,97.656250
8363,93.750000
8364,93.750000
8365,93.750000
8366,93.750000
8367,93.750000
8368,93.750000
8369,89.843750
8370,89.843750
8371,89.843750
8372,89.843750
8373,89.843750
8374,89.843750
8375,85.937500
8376,85.937500
8377,85.937500
8378,85.937500
8379,82.031250
8380,85.937500
8381,82.031250
8382,82.031250
8383,82.031250
8384,82.031250
8385,82.031250
8386,78.125000
8387,78.125000
8388,78.125000
8389,78.125000
8390,78.125000
8391,78.125000
8392,74.218750
8393,74.218750
8394,74.218750
8395,74.218750
8396,74.218750
8397,70.312500
8398,70.312500
8399,70.312500
8400,70.312500
8401,70.312500
8402,66.406250
8403,66.406250
8404,66.406250
8405,66.406250
8406,66.406250
8407,62.500000
8408,62.500000
8409,62.500000
8410,62.500000
8411,62.500000
8412,58.593750
8413,58.593750
8414,58.593750
8415,58.593750
8416,54.687500
8417,54.687500
8418,54.687500
8419,54.687500
8420,54.687500
8421,50.781250
8422,50.781250
8423,50.781250
8424,50.781250
8425,50.781250
8426,46.875000
8427,46.875000
8428,46.875000
8429,46.875000
8430,42.968750
8431,42.968750
8432,42.968750
8433,42.968750
8434,42.968750
8435,39.062500
8436,39.062500
8437,39.062500
8438,39.062500
8439,35.156250
8440,35.156250
8441,35.156250
8442,35.156250
8443,35.156250
8444,31.250000
8445,31.250000
8446,31.250000
8447,31.250000
8448,27.343750
8449,27.343750
8450,27.343750
8451,27.343750
8452,23.437500
8453,23.437500
8454,23.437500
8455,23.437500
8456,19.531250
8457,19.531250
8458,19.531250
8459,19.531250
8460,19.531250
8461,15.625000
8462,15.625000
8463,15.625000
8464,15.625000
8465,11.718750
8466,11.718750
8467,11.718750
8468,11.718750
8469,7.812500
8470,7.812500
8471,7.812500
8472,7.812500
8473,3.906250
8474,3.906250
8475,3.906250
8476,3.906250
8477,0.000000
8478,0.000000
8479,0.000000
8480,0.000000
8481,-3.906250
8482,-3.906250
8483,-3.906250
8484,-3.906250
8485,-7.812500
8486,-7.812500
8487,-7.812500
8488,-11.718750
8489,-11.718750
8490,-11.718750
8491,-11.718750
8492,-15.625000
8493,-15.625000
8494,-15.625000
8495,-15.625000
8496,-19.531250
8497,-19.531250
8498,-19.531250
8499,-19.531250
8500,-23.437500
8501,-23.437500
8502,-23.437500
8503,-23.437500
8504,-27.343750
8505,-27.343750
8506,-27.343750
8507,-31.250000
8508,-31.250000
8509,-31.250000
8510,-31.250000
8511,-31.250000
8512,-35.156250
8513,-35.156250
8514,-35.156250
8515,-39.062500
8516,-39.062500
8517,-39.062500
8518,-39.062500
8519,-39.062500
8520,-42.968750
8521,-42.968750
8522,-46.875000
8523,-46.875000
8524,-46.875000
8525,-46.875000
8526,-46.875000
8527,-50.781250
8528,-50.781250
8529,-50.781250
8530,-50.781250
8531,-54.687500
8532,-54.687500
8533,-54.687500
8534,-54.687500
8535,-58.593750
8536,-58.593750
8537,-58.593750
8538,-58.593750
8539,-62.500000
8540,-62.500000
8541,-62.500000
8542,-62.500000
8543,-66.406250
8544,-66.406250
8545,-66.406250
8546,-66.406250
8547,-70.312500
8548,-70.312500
8549,-70.312500
8550,-70.312500
8551,-74.218750
8552,-74.218750
8553,-74.218750
8554,-74.218750
8555,-78.125000
8556,-78.125000
8557,-78.125000
8558,-78.125000
8559,-82.031250
8560,-82.031250
8561,-82.031250
8562,-82.031250
8563,-85.937500
8564,-85.937500
8565,-85.937500
8566,-85.937500
8567,-85.937500
8568,-89.843750
8569,-89.843750
8570,-89.843750
8571,-89.843750
8572,-93.750000
8573,-93.750000
8574,-93.750000
8575,-93.750000
8576,-97.656250
8577,-97.656250
8578,-97.656250
8579,-97.656250
8580,-97.656250
8581,-101.562500
8582,-101.562500
8583,-101.562500
8584,-101.562500
8585,-105.468750
8586,-105.468750
8587,-105.468750
8588,-105.468750
8589,-105.468750
8590,-109.375000
8591,-109.375000
8592,-109.375000
8593,-109.375000
8594,-113.281250
8595,-113.281250
8596,-113.281250
8597,-113.281250
8598,-113.281250
8599,-117.187500
8600,-117.187500
8601,-117.187500
8602,-117.187500
8603,-117.187500
8604,-121.093750
8605,-121.093750
8606,-121.093750
8607,-121.093750
8608,-121.093750
8609,-125.000000
8610,-125.000000
8611,-125.000000
8612,-125.000000
8613,-125.000000
8614,-125.000000
8615,-128.906250
8616,-128.906250
8617,-128.906250
8618,-128.906250
8619,-132.812500
8620,-132.812500
8621,-132.812500
8622,-132.812500
8623,-132.812500
8624,-132.812500
8625,-136.718750
8626,-136.718750
8627,-136.718750
8628,-136.718750
8629,-136.718750
8630,-140.625000
8631,-140.625000
8632,-140.625000
8633,-140.625000
8634,-140.625000
8635,-140.625000
8636,-144.531250
8637,-144.531250
8638,-144.531250
8639,-144.531250
8640,-144.531250
8641,-144.531250
8642,-144.531250
8643,-144.531250
8644,-148.437500
8645,-148.437500
8646,-148.437500
8647,-148.437500
8648,-148.437500
8649,-148.437500
8650,-148.437500
8651,-152.343750
8652,-152.343750
8653,-152.343750
8654,-152.343750
8655,-152.343750
8656,-152.343750
8657,-156.250000
8658,-156.250000
8659,-156.250000
8660,-156.250000
8661,-156.250000
8662,-156.250000
8663,-156.250000
8664,-156.250000
8665,-160.156250
8666,-160.156250
8667,-160.156250
8668,-160.156250
8669,-160.156250
8670,-160.156250
8671,-160.156250
8672,-160.156250
8673,-160.156250
8674,-160.156250
8675,-164.062500
8676,-160.156250
8677,-164.062500
8678,-164.062500
8679,-164.062500
8680,-164.062500
8681,-164.062500
8682,-164.062500
8683,-164.062500
8684,-164.062500
8685,-164.062500
8686,-167.968750
8687,-167.968750
8688,-167.968750
8689,-164.062500
8690,-167.968750
8691,-167.968750
8692,-167.968750
8693,-167.968750
8694,-167.968750
8695,-167.968750
8696,-167.968750
8697,-167.968750
8698,-167.968750
8699,-167.968750
8700,-167.968750
8701,-171.875000
8702,-167.968750
8703,-167.968750
8704,-167.968750
8705,-167.968750
8706,-171.875000
8707,-171.875000
8708,-171.875000
8709,-171.875000
8710,-171.875000
8711,-171.875000
8712,-171.875000
8713,-171.875000
8714,-171.875000
8715,-171.875000
8716,-171.875000
8717,-171.875000
8718,-171.875000
8719,-171.875000
8720,-171.875000
8721,-171.875000
8722,-171.875000
8723,-171.875000
8724,-171.875000
8725,-171.875000
8726,-171.875000
8727,-171.875000
8728,-171.875000
8729,-171.875000
8730,-171.875000
8731,-171.875000
8732,-171.875000
8733,-171.875000
8734,-171.875000
8735,-171.875000
8736,-171.875000
8737,-171.875000
8738,-171.875000
8739,-171.875000
8740,-171.875000
8741,-171.875000
8742,-171.875000
8743,-171.875000
8744,-171.875000
8745,-171.875000
8746,-171.875000
8747,-171.875000
8748,-171.875000
8749,-171.875000
8750,-171.875000
8751,-171.875000
8752,-171.875000
8753,-171.875000
8754,-171.875000
8755,-171.875000
8756,-167.968750
8757,-167.968750
8758,-167.968750
8759,-167.968750
8760,-167.968750
8761,-167.968750
8762,-167.968750
8763,-167.968750
8764,-167.968750
8765,-167.968750
8766,-167.968750
8767,-167.968750
8768,-167.968750
8769,-167.968750
8770,-167.968750
8771,-167.968750
8772,-167.968750
8773,-167.968750
8774,-164.062500
8775,-164.062500
8776,-164.062500
8777,-164.062500
8778,-164.062500
8779,-164.062500
8780,-164.062500
8781,-164.062500
8782,-164.062500
8783,-164.062500
8784,-164.062500
8785,-164.062500
8786,-160.156250
8787,-160.156250
8788,-160.156250
8789,-160.156250
8790,-160.156250
8791,-160.156250
8792,-160.156250
8793,-160.156250
8794,-160.156250
8795,-156.250000
8796,-156.250000
8797,-156.250000
8798,-156.250000
8799,-156.250000
8800,-156.250000
8801,-156.250000
8802,-156.250000
8803,-156.250000
8804,-152.343750
8805,-152.343750
8806,-152.343750
8807,-152.343750
8808,-152.343750
8809,-152.343750
8810,-152.343750
8811,-152.343750
8812,-148.437500
8813,-148.437500
8814,-148.437500
8815,-148.437500
8816,-148.437500
8817,-148.437500
8818,-144.531250
8819,-144.531250
8820,-144.531250
8821,-144.531250
8822,-144.531250
8823,-144.531250
8824,-140.625000
8825,-140.625000
8826,-140.625000
8827,-140.625000
8828,-140.625000
8829,-140.625000
8830,-140.625000
8831,-136.718750
8832,-136.718750
8833,-136.718750
8834,-136.718750
8835,-136.718750
8836,-132.812500
8837,-132.812500
8838,-132.812500
8839,-132.812500
8840,-132.812500
8841,-132.812500
8842,-128.906250
8843,-128.906250
8844,-128.906250
8845,-128.906250
8846,-128.906250
8847,-128.906250
8848,-125.000000
8849,-125.000000
8850,-125.000000
8851,-125.000000
8852,-121.093750
8853,-121.093750
8854,-121.093750
8855,-121.093750
8856,-121.093750
8857,-121.093750
8858,-117.187500
8859,-117.187500
8860,-117.187500
8861,-117.187500
8862,-113.281250
8863,-113.281250
8864,-113.281250
8865,-113.281250
8866,-113.281250
8867,-109.375000
8868,-109.375000
8869,-109.375000
8870,-109.375000
8871,-109.375000
8872,-105.468750
8873,-105.468750
8874,-105.468750
8875,-105.468750
8876,-105.468750
8877,-101.562500
8878,-101.562500
8879,-101.562500
8880,-101.562500
8881,-101.562500
8882,-97.656250
8883,-97.656250
8884,-97.656250
8885,-93.750000
8886,-93.750000
8887,-93.750000
8888,-93.750000
8889,-93.750000
8890,-89.843750
8891,-89.843750
8892,-89.843750
8893,-89.843750
8894,-89.843750
8895,-85.937500
8896,-85.937500
8897,-85.937500
8898,-82.031250
8899,-82.031250
8900,-82.031250
8901,-82.031250
8902,-82.031250
8903,-78.125000
8904,-78.125000
8905,-78.125000
8906,-78.125000
8907,-74.218750
8908,-74.218750
8909,-74.218750
8910,-74.218750
8911,-70.312500
8912,-70.312500
8913,-70.312500
8914,-70.312500
8915,-66.406250
8916,-66.406250
8917,-66.406250
8918,-66.406250
8919,-62.500000
8920,-62.500000
8921,-62.500000
8922,-62.500000
8923,-58.593750
8924,-58.593750
8925,-58.593750
8926,-58.593750
8927,-54.687500
8928,-54.687500
8929,-54.687500
8930,-54.687500
8931,-50.781250
8932,-50.781250
8933,-50.781250
8934,-50.781250
8935,-46.875000
8936,-46.875000
8937,-46.875000
8938,-42.968750
8939,-46.875000
8940,-42.968750
8941,-42.968750
8942,-42.968750
8943,-39.062500
8944,-39.062500
8945,-39.062500
8946,-39.062500
8947,-39.062500
8948,-35.156250
8949,-35.156250
8950,-35.156250
8951,-31.250000
8952,-31.250000
8953,-31.250000
8954,-31.250000
8955,-27.343750
8956,-27.343750
8957,-27.343750
8958,-27.343750
8959,-23.437500
8960,-23.437500
8961,-23.437500
8962,-19.531250
8963,-19.531250
8964,-19.531250
8965,-19.531250
8966,-15.625000
8967,-15.625000
8968,-15.625000
8969,-15.625000
8970,-15.625000
8971,-11.718750
8972,-11.718750
8973,-11.718750
8974,-11.718750
8975,-7.812500
8976,-7.812500
8977,-7.812500
8978,-7.812500
8979,-3.906250
8980,-3.906250
8981,-3.906250
8982,-3.906250
8983,0.000000
8984,0.000000
8985,0.000000
8986,3.906250
8987,3.906250
8988,3.906250
8989,3.906250
8990,7.812500
8991,7.812500
8992,7.812500
8993,7.812500
8994,11.718750
8995,11.718750
8996,11.718750
8997,11.718750
8998,11.718750
8999,11.718750
9000,15.625000
9001,15.625000
9002,15.625000
9003,15.625000
9004,19.531250
9005,19.531250
9006,19.531250
9007,19.531250
9008,23.437500
9009,23.437500
9010,23.437500
9011,23.437500
9012,27.343750
9013,27.343750
9014,27.343750
9015,27.343750
9016,27.343750
9017,31.250000
9018,31.250000
9019,31.250000
9020,35.156250
9021,35.156250
9022,35.156250
9023,35.156250
9024,35.156250
9025,39.062500
9026,39.062500
9027,39.062500
9028,39.062500
9029,39.062500
9030,42.968750
9031,42.968750
9032,42.968750
9033,42.968750
9034,46.875000
9035,46.875000
9036,46.875000
9037,46.875000
9038,46.875000
9039,50.781250
9040,50.781250
9041,50.781250
9042,50.781250
9043,50.781250
9044,54.687500
9045,54.687500
9046,54.687500
9047,54.687500
9048,54.687500
9049,58.593750
9050,58.593750
9051,58.593750
9052,58.593750
9053,62.500000
9054,62.500000
9055,62.500000
9056,62.500000
9057,62.500000
9058,66.406250
9059,66.406250
9060,66.406250
9061,66.406250
9062,66.406250
9063,66.406250
9064,70.312500
9065,70.312500
9066,70.312500
9067,70.312500
9068,70.312500
9069,74.218750
9070,74.218750
9071,74.218750
9072,74.218750
9073,74.218750
9074,74.218750
9075,78.125000
9076,78.125000
9077,78.125000
9078,78.125000
9079,78.125000
9080,82.031250
9081,82.031250
9082,82.031250
9083,82.031250
9084,82.031250
9085,82.031250
9086,85.937500
9087,85.937500
9088,85.937500
9089,85.937500
9090,85.937500
9091,89.843750
9092,89.843750
9093,89.843750
9094,89.843750
9095,89.843750
9096,89.843750
9097,89.843750
9098,89.843750
9099,93.750000
9100,93.750000
9101,93.750000
9102,93.750000
9103,93.750000
9104,93.750000
9105,97.656250
9106,97.656250
9107,97.656250
9108,97.656250
9109,97.656250
9110,97.656250
9111,97.656250
9112,101.562500
9113,101.562500
9114,101.562500
9115,101.562500
9116,101.562500
9117,101.562500
9118,105.468750
9119,101.562500
9120,105.468750
9121,105.468750
9122,105.468750
9123,105.468750
9124,105.468750
9125,105.468750
9126,109.375000
9127,109.375000
9128,109.375000
9129,109.375000
9130,109.375000
9131,109.375000
9132,109.375000
9133,109.375000
9134,109.375000
9135,109.375000
9136,113.281250
9137,113.281250
9138,113.281250
9139,113.281250
9140,113.281250
9141,113.281250
9142,113.281250
9143,113.281250
9144,113.281250
9145,117.187500
9146,117.187500
9147,117.187500
9148,117.187500
9149,117.187500
9150,117.187500
9151,117.187500
9152,117.187500
9153,117.187500
9154,117.187500
9155,117.187500
9156,117.187500
9157,121.093750
9158,121.093750
9159,121.093750
9160,121.093750
9161,121.093750
9162,121.093750
9163,121.093750
9164,121.093750
9165,121.093750
9166,121.093750
9167,121.093750
9168,121.093750
9169,125.000000
9170,125.000000
9171,125.000000
9172,125.000000
9173,125.000000
9174,125.000000
9175,125.000000
9176,125.000000
9177,125.000000
9178,125.000000
9179,125.000000
9180,125.000000
9181,125.000000
9182,128.906250
9183,125.000000
9184,128.906250
9185,125.000000
9186,128.906250
9187,128.906250
9188,128.906250
9189,128.906250
9190,128.906250
9191,128.906250
9192,128.906250
9193,128.906250
9194,128.906250
9195,128.906250
9196,128.906250
9197,128.906250
9198,128.906250
9199,128.906250
9200,128.906250
9201,128.906250
9202,128.906250
9203,128.906250
9204,128.906250
9205,128.906250
9206,128.906250
9207,128.906250
9208,128.906250
9209,128.906250
9210,132.812500
9211,132.812500
9212,132.812500
9213,128.906250
9214,128.906250
9215,132.812500
9216,132.812500
9217,132.812500
9218,132.812500
9219,132.812500
9220,132.812500
9221,132.812500
9222,132.812500
9223,128.906250
9224,132.812500
9225,132.812500
9226,132.812500
9227,132.812500
9228,132.812500
9229,132.812500
9230,132.812500
9231,132.812500
9232,132.812500
9233,132.812500
9234,132.812500
9235,128.906250
9236,132.812500
9237,132.812500
9238,132.812500
9239,132.812500
9240,132.812500
9241,132.812500
9242,132.812500
9243,132.812500
9244,132.812500
9245,132.812500
9246,132.812500
9247,128.906250
9248,132.812500
9249,132.812500
9250,132.812500
9251,128.906250
9252,128.906250
9253,128.906250
9254,132.812500
9255,128.906250
9256,132.812500
9257,128.906250
9258,128.906250
9259,128.906250
9260,128.906250
9261,128.906250
9262,128.906250
9263,128.906250
9264,128.906250
9265,128.906250
9266,128.906250
9267,128.906250
9268,128.906250
9269,128.906250
9270,128.906250
9271,128.906250
9272,128.906250
9273,128.906250
9274,128.906250
9275,125.000000
9276,125.000000
9277,125.000000
9278,125.000000
9279,125.000000
9280,125.000000
9281,125.000000
9282,125.000000
9283,125.000000
9284,125.000000
9285,125.000000
9286,125.000000
9287,121.093750
9288,125.000000
9289,121.093750
9290,125.000000
9291,121.093750
9292,121.093750
9293,121.093750
9294,121.093750
9295,121.093750
9296,121.093750
9297,121.093750
9298,121.093750
9299,121.093750
9300,121.093750
9301,121.093750
9302,121.093750
9303,117.187500
9304,117.187500
9305,117.187500
9306,117.187500
9307,117.187500
9308,117.187500
9309,117.187500
9310,117.187500
9311,117.187500
9312,113.281250
9313,113.281250
9314,113.281250
9315,113.281250
9316,113.281250
9317,113.281250
9318,113.281250
9319,113.281250
9320,113.281250
9321,113.281250
9322,109.375000
9323,109.375000
9324,109.375000
9325,109.375000
9326,109.375000
9327,109.375000
9328,109.375000
9329,109.375000
9330,109.375000
9331,105.468750
9332,105.468750
9333,105.468750
9334,105.468750
9335,105.468750
9336,105.468750
9337,105.468750
9338,101.562500
9339,101.562500
9340,101.562500
9341,101.562500
9342,101.562500
9343,101.562500
9344,101.562500
9345,101.562500
9346,97.656250
9347,97.656250
9348,97.656250
9349,97.656250
9350,97.656250
9351,97.656250
9352,97.656250
9353,93.750000
9354,93.750000
9355,93.750000
9356,93.750000
9357,93.750000
9358,93.750000
9359,89.843750
9360,89.843750
9361,89.843750
9362,89.843750
9363,89.843750
9364,89.843750
9365,85.937500
9366,85.937500
9367,85.937500
9368,85.937500
9369,85.937500
9370,85.937500
9371,82.031250
9372,82.031250
9373,82.031250
9374,82.031250
9375,82.031250
9376,82.031250
9377,78.125000
9378,78.125000
9379,78.125000
9380,78.125000
9381,78.125000
9382,78.125000
9383,74.218750
9384,74.218750
9385,74.218750
9386,74.218750
9387,70.312500
9388,70.312500
9389,70.312500
9390,70.312500
9391,70.312500
9392,66.406250
9393,66.406250
9394,66.406250
9395,66.406250
9396,66.406250
9397,66.406250
9398,62.500000
9399,62.500000
9400,62.500000
9401,58.593750
9402,58.593750
9403,58.593750
9404,58.593750
9405,58.593750
9406,58.593750
9407,54.687500
9408,54.687500
9409,54.687500
9410,54.687500
9411,50.781250
9412,50.781250
9413,50.781250
9414,50.781250
9415,50.781250
9416,50.781250
9417,46.875000
9418,46.875000
9419,46.875000
9420,46.875000
9421,42.968750
9422,42.968750
9423,42.968750
9424,42.968750
9425,39.062500
9426,39.062500
9427,39.062500
9428,39.062500
9429,39.062500
9430,35.156250
9431,35.156250
9432,35.156250
9433,35.156250
9434,35.156250
9435,31.250000
9436,31.250000
9437,31.250000
9438,27.343750
9439,27.343750
9440,27.343750
9441,27.343750
9442,27.343750
9443,23.437500
9444,23.437500
9445,23.437500
9446,23.437500
9447,19.531250
9448,19.531250
9449,19.531250
9450,19.531250
9451,15.625000
9452,15.625000
9453,15.625000
9454,15.625000
9455,11.718750
9456,11.718750
9457,11.718750
9458,11.718750
9459,7.812500
9460,7.812500
9461,7.812500
9462,7.812500
9463,7.812500
9464,3.906250
9465,3.906250
9466,3.906250
9467,0.000000
9468,0.000000
9469,0.000000
9470,0.000000
9471,-3.906250
9472,-3.906250
9473,-3.906250
9474,-3.906250
9475,-7.812500
9476,-7.812500
9477,-7.812500
9478,-7.812500
9479,-7.812500
9480,-11.718750
9481,-11.718750
9482,-11.718750
9483,-15.625000
9484,-15.625000
9485,-15.625000
9486,-15.625000
9487,-19.531250
9488,-19.531250
9489,-19.531250
9490,-19.531250
9491,-23.437500
9492,-23.437500
9493,-23.437500
9494,-23.437500
9495,-27.343750
9496,-27.343750
9497,-27.343750
9498,-27.343750
9499,-31.250000
9500,-31.250000
9501,-31.250000
9502,-31.250000
9503,-35.156250
9504,-35.156250
9505,-35.156250
9506,-39.062500
9507,-39.062500
9508,-39.062500
9509,-39.062500
9510,-42.968750
9511,-42.968750
9512,-42.968750
9513,-46.875000
9514,-46.875000
9515,-46.875000
9516,-46.875000
9517,-46.875000
9518,-50.781250
9519,-50.781250
9520,-50.781250
9521,-54.687500
9522,-54.687500
9523,-54.687500
9524,-54.687500
9525,-54.687500
9526,-58.593750
9527,-58.593750
9528,-58.593750
9529,-62.500000
9530,-62.500000
9531,-62.500000
9532,-62.500000
9533,-66.406250
9534,-66.406250
9535,-66.406250
9536,-66.406250
9537,-66.406250
9538,-70.312500
9539,-70.312500
9540,-70.312500
9541,-74.218750
9542,-74.218750
9543,-74.218750
9544,-74.218750
9545,-78.125000
9546,-78.125000
9547,-78.125000
9548,-78.125000
9549,-78.125000
9550,-82.031250
9551,-82.031250
9552,-82.031250
9553,-85.937500
9554,-85.937500
9555,-85.937500
9556,-85.937500
9557,-89.843750
9558,-89.843750
9559,-89.843750
9560,-89.843750
9561,-89.843750
9562,-93.750000
9563,-93.750000
9564,-93.750000
9565,-93.750000
9566,-97.656250
9567,-97.656250
9568,-97.656250
9569,-97.656250
9570,-97.656250
9571,-101.562500
9572,-101.562500
9573,-101.562500
9574,-101.562500
9575,-105.468750
9576,-105.468750
9577,-105.468750
9578,-105.468750
9579,-109.375000
9580,-109.375000
9581,-109.375000
9582,-109.375000
9583,-109.375000
9584,-109.375000
9585,-113.281250
9586,-113.281250
9587,-113.281250
9588,-113.281250
9589,-117.187500
9590,-117.187500
9591,-117.187500
9592,-117.187500
9593,-117.187500
9594,-121.093750
9595,-121.093750
9596,-121.093750
9597,-125.000000
9598,-121.093750
9599,-125.000000
9600,-125.000000
9601,-125.000000
9602,-125.000000
9603,-125.000000
9604,-128.906250
9605,-128.906250
9606,-128.906250
9607,-128.906250
9608,-128.906250
9609,-132.812500
9610,-132.812500
9611,-132.812500
9612,-132.812500
9613,-132.812500
9614,-132.812500
9615,-132.812500
9616,-136.718750
9617,-136.718750
9618,-136.718750
9619,-136.718750
9620,-136.718750
9621,-140.625000
9622,-140.625000
9623,-140.625000
9624,-140.625000
9625,-140.625000
9626,-140.625000
9627,-144.531250
9628,-144.531250
9629,-144.531250
9630,-144.531250
9631,-144.531250
9632,-144.531250
9633,-144.531250
9634,-148.437500
9635,-148.437500
9636,-148.437500
9637,-148.437500
9638,-148.437500
9639,-148.437500
9640,-152.343750
9641,-152.343750
9642,-152.343750
9643,-152.343750
9644,-152.343750
9645,-152.343750
9646,-152.343750
9647,-156.250000
9648,-156.250000
9649,-156.250000
9650,-156.250000
9651,-156.250000
9652,-156.250000
9653,-156.250000
9654,-156.250000
9655,-156.250000
9656,-156.250000
9657,-160.156250
9658,-160.156250
9659,-160.156250
9660,-160.156250
9661,-160.156250
9662,-160.156250
9663,-160.156250
9664,-160.156250
9665,-164.062500
9666,-164.062500
9667,-164.062500
9668,-164.062500
9669,-164.062500
9670,-164.062500
9671,-164.062500
9672,-164.062500
9673,-164.062500
9674,-164.062500
9675,-164.062500
9676,-164.062500
9677,-164.062500
9678,-167.968750
9679,-167.968750
9680,-167.968750
9681,-167.968750
9682,-167.968750
9683,-167.968750
9684,-167.968750
9685,-167.968750
9686,-167.968750
9687,-167.968750
9688,-167.968750
9689,-167.968750
9690,-167.968750
9691,-171.875000
9692,-167.968750
9693,-167.968750
9694,-171.875000
9695,-171.875000
9696,-171.875000
9697,-171.875000
9698,-171.875000
9699,-171.875000
9700,-171.875000
9701,-171.875000
9702,-171.875000
9703,-171.875000
9704,-171.875000
9705,-171.875000
9706,-171.875000
9707,-171.875000
9708,-171.875000
9709,-171.875000
9710,-171.875000
9711,-171.875000
9712,-171.875000
9713,-171.875000
9714,-171.875000
9715,-171.875000
9716,-171.875000
9717,-171.875000
9718,-171.875000
9719,-171.875000
9720,-171.875000
9721,-171.875000
9722,-171.875000
9723,-171.875000
9724,-171.875000
9725,-171.875000
9726,-171.875000
9727,-171.875000
9728,-171.875000
9729,-171.875000
9730,-171.875000
9731,-171.875000
9732,-171.875000
9733,-171.875000
9734,-171.875000
9735,-171.875000
9736,-171.875000
9737,-171.875000
9738,-171.875000
9739,-171.875000
9740,-171.875000
9741,-171.875000
9742,-171.875000
9743,-171.875000
9744,-171.875000
9745,-171.875000
9746,-171.875000
9747,-171.875000
9748,-171.875000
9749,-171.875000
9750,-167.968750
9751,-167.968750
9752,-167.968750
9753,-167.968750
9754,-167.968750
9755,-167.968750
9756,-167.968750
9757,-167.968750
9758,-167.968750
9759,-167.968750
9760,-167.968750
9761,-167.968750
9762,-167.968750
9763,-167.968750
9764,-164.062500
9765,-167.968750
9766,-164.062500
9767,-164.062500
9768,-164.062500
9769,-164.062500
9770,-164.062500
9771,-164.062500
9772,-164.062500
9773,-164.062500
9774,-164.062500
9775,-164.062500
9776,-160.156250
9777,-160.156250
9778,-160.156250
9779,-160.156250
9780,-160.156250
9781,-160.156250
9782,-160.156250
9783,-160.156250
9784,-160.156250
9785,-160.156250
9786,-156.250000
9787,-156.250000
9788,-156.250000
9789,-156.250000
9790,-156.250000
9791,-156.250000
9792,-156.250000
9793,-156.250000
9794,-156.250000
9795,-156.250000
9796,-152.343750
9797,-152.343750
9798,-152.343750
9799,-152.343750
9800,-152.343750
9801,-152.343750
9802,-148.437500
9803,-148.437500
9804,-148.437500
9805,-148.437500
9806,-148.437500
9807,-148.437500
9808,-148.437500
9809,-148.437500
9810,-144.531250
9811,-144.531250
9812,-144.531250
9813,-144.531250
9814,-144.531250
9815,-144.531250
9816,-140.625000
9817,-140.625000
9818,-140.625000
9819,-140.625000
9820,-140.625000
9821,-140.625000
9822,-136.718750
9823,-136.718750
9824,-136.718750
9825,-136.718750
9826,-136.718750
9827,-136.718750
9828,-132.812500
9829,-132.812500
9830,-132.812500
9831,-132.812500
9832,-132.812500
9833,-128.906250
9834,-128.906250
9835,-128.906250
9836,-128.906250
9837,-128.906250
9838,-125.000000
9839,-125.000000
9840,-125.000000
9841,-125.000000
9842,-125.000000
9843,-125.000000
9844,-121.093750
9845,-121.093750
9846,-121.093750
9847,-121.093750
9848,-117.187500
9849,-117.187500
9850,-117.187500
9851,-117.187500
9852,-117.187500
9853,-117.187500
9854,-113.281250
9855,-113.281250
9856,-113.281250
9857,-113.281250
9858,-109.375000
9859,-109.375000
9860,-109.375000
9861,-109.375000
9862,-109.375000
9863,-105.468750
9864,-105.468750
9865,-105.468750
9866,-105.468750
9867,-105.468750
9868,-101.562500
9869,-101.562500
9870,-101.562500
9871,-101.562500
9872,-97.656250
9873,-97.656250
9874,-97.656250
9875,-97.656250
9876,-97.656250
9877,-93.750000
9878,-93.750000
9879,-93.750000
9880,-93.750000
9881,-89.843750
9882,-89.843750
9883,-89.843750
9884,-89.843750
9885,-89.843750
9886,-85.937500
9887,-85.937500
9888,-85.937500
9889,-82.031250
9890,-82.031250
9891,-82.031250
9892,-82.031250
9893,-78.125000
9894,-78.125000
9895,-78.125000
9896,-78.125000
9897,-78.125000
9898,-78.125000
9899,-74.218750
9900,-74.218750
9901,-74.218750
9902,-70.312500
9903,-70.312500
9904,-70.312500
9905,-70.312500
9906,-66.406250
9907,-66.406250
9908,-66.406250
9909,-66.406250
9910,-62.500000
9911,-62.500000
9912,-62.500000
9913,-62.500000
9914,-58.593750
9915,-58.593750
9916,-58.593750
9917,-58.593750
9918,-54.687500
9919,-54.687500
9920,-54.687500
9921,-54.687500
9922,-50.781250
9923,-50.781250
9924,-50.781250
9925,-50.781250
9926,-46.875000
9927,-46.875000
9928,-46.875000
9929,-46.875000
9930,-42.968750
9931,-42.968750
9932,-42.968750
9933,-42.968750
9934,-39.062500
9935,-39.062500
9936,-39.062500
9937,-39.062500
9938,-35.156250
9939,-35.156250
9940,-35.156250
9941,-35.156250
9942,-31.250000
9943,-31.250000
9944,-31.250000
9945,-31.250000
9946,-27.343750
9947,-27.343750
9948,-27.343750
9949,-27.343750
9950,-23.437500
9951,-23.437500
9952,-23.437500
9953,-23.437500
9954,-19.531250
9955,-19.531250
9956,-19.531250
9957,-19.531250
9958,-15.625000
9959,-15.625000
9960,-15.625000
9961,-15.625000
9962,-11.718750
9963,-11.718750
9964,-11.718750
9965,-7.812500
9966,-7.812500
9967,-7.812500
9968,-7.812500
9969,-7.812500
9970,-3.906250
9971,-3.906250
9972,-3.906250
9973,0.000000
9974,0.000000
9975,0.000000
9976,0.000000
9977,3.906250
9978,3.906250
9979,3.906250
9980,3.906250
9981,3.906250
9982,7.812500
9983,7.812500
9984,7.812500
9985,7.812500
9986,11.718750
9987,11.718750
9988,11.718750
9989,15.625000
9990,15.625000
9991,15.625000
9992,15.625000
9993,15.625000
9994,19.531250
9995,19.531250
9996,19.531250
9997,19.531250
9998,23.437500
9999,23.437500
10000,23.437500
