Channel              :,CH1
Frequency            :,1.012kHz
Period               :,0.989ms
PK-PK                :,125.0mV
Probe attenuation    :,1X
Voltage per ADC value:,0.244141mV
Time interval        :,1.00000us

index,CH1_Voltage(mV)
1,-42.968750
2,-42.968750
3,-42.968750
4,-42.968750
5,-42.968750
6,-39.062500
7,-39.062500
8,-39.062500
9,-39.062500
10,-39.062500
11,-39.062500
12,-39.062500
13,-39.062500
14,-39.062500
15,-39.062500
16,-39.062500
17,-35.156250
18,-35.156250
19,-35.156250
20,-35.156250
21,-35.156250
22,-35.156250
23,-35.156250
24,-35.156250
25,-35.156250
26,-35.156250
27,-35.156250
28,-31.250000
29,-31.250000
30,-31.250000
31,-31.250000
32,-31.250000
33,-31.250000
34,-31.250000
35,-31.250000
36,-31.250000
37,-31.250000
38,-27.343750
39,-27.343750
40,-27.343750
41,-27.343750
42,-27.343750
43,-27.343750
44,-27.343750
45,-27.343750
46,-27.343750
47,-27.343750
48,-23.437500
49,-23.437500
50,-23.437500
51,-23.437500
52,-23.437500
53,-23.437500
54,-23.437500
55,-23.437500
56,-23.437500
57,-23.437500
58,-23.437500
59,-19.531250
60,-19.531250
61,-19.531250
62,-19.531250
63,-19.531250
64,-19.531250
65,-19.531250
66,-19.531250
67,-19.531250
68,-15.625000
69,-15.625000
70,-15.625000
71,-15.625000
72,-15.625000
73,-15.625000
74,-15.625000
75,-15.625000
76,-15.625000
77,-15.625000
78,-15.625000
79,-11.718750
80,-11.718750
81,-11.718750
82,-11.718750
83,-11.718750
84,-11.718750
85,-11.718750
86,-11.718750
87,-11.718750
88,-7.812500
89,-7.812500
90,-7.812500
91,-7.812500
92,-7.812500
93,-7.812500
94,-7.812500
95,-7.812500
96,-7.812500
97,-7.812500
98,-7.812500
99,-3.906250
100,-3.906250
101,-3.906250
102,-3.906250
103,-3.906250
104,-3.906250
105,-3.906250
106,-3.906250
107,-3.906250
108,-3.906250
109,-3.906250
110,0.000000
111,0.000000
112,0.000000
113,0.000000
114,0.000000
115,0.000000
116,0.000000
117,0.000000
118,0.000000
119,3.906250
120,3.906250
121,3.906250
122,3.906250
123,3.906250
124,3.906250
125,3.906250
126,3.906250
127,3.906250
128,3.906250
129,3.906250
130,3.906250
131,7.812500
132,7.812500
133,7.812500
134,7.812500
135,7.812500
136,7.812500
137,7.812500
138,7.812500
139,7.812500
140,7.812500
141,11.718750
142,11.718750
143,11.718750
144,11.718750
145,11.718750
146,11.718750
147,11.718750
148,11.718750
149,11.718750
150,15.625000
151,15.625000
152,11.718750
153,15.625000
154,15.625000
155,15.625000
156,15.625000
157,15.625000
158,15.625000
159,15.625000
160,15.625000
161,15.625000
162,15.625000
163,15.625000
164,19.531250
165,19.531250
166,19.531250
167,19.531250
168,19.531250
169,19.531250
170,19.531250
171,19.531250
172,19.531250
173,19.531250
174,19.531250
175,19.531250
176,19.531250
177,23.437500
178,23.437500
179,23.437500
180,23.437500
181,23.437500
182,23.437500
183,23.437500
184,23.437500
185,23.437500
186,23.437500
187,23.437500
188,27.343750
189,23.437500
190,27.343750
191,27.343750
192,27.343750
193,27.343750
194,27.343750
195,27.343750
196,27.343750
197,27.343750
198,27.343750
199,27.343750
200,27.343750
201,27.343750
202,31.250000
203,27.343750
204,31.250000
205,27.343750
206,31.250000
207,31.250000
208,31.250000
209,31.250000
210,31.250000
211,31.250000
212,31.250000
213,31.250000
214,31.250000
215,31.250000
216,31.250000
217,31.250000
218,31.250000
219,31.250000
220,31.250000
221,35.156250
222,35.156250
223,35.156250
224,35.156250
225,35.156250
226,35.156250
227,35.156250
228,35.156250
229,35.156250
230,35.156250
231,35.156250
232,35.156250
233,35.156250
234,35.156250
235,35.156250
236,35.156250
237,35.156250
238,39.062500
239,39.062500
240,39.062500
241,39.062500
242,39.062500
243,39.062500
244,39.062500
245,39.062500
246,39.062500
247,39.062500
248,39.062500
249,39.062500
250,39.062500
251,39.062500
252,39.062500
253,39.062500
254,39.062500
255,39.062500
256,39.062500
257,39.062500
258,39.062500
259,42.968750
260,42.968750
261,42.968750
262,42.968750
263,42.968750
264,42.968750
265,42.968750
266,42.968750
267,42.968750
268,42.968750
269,42.968750
270,42.968750
271,42.968750
272,42.968750
273,42.968750
274,42.968750
275,42.968750
276,42.968750
277,42.968750
278,42.968750
279,42.968750
280,42.968750
281,42.968750
282,42.968750
283,42.968750
284,42.968750
285,42.968750
286,42.968750
287,42.968750
288,42.968750
289,46.875000
290,42.968750
291,46.875000
292,42.968750
293,42.968750
294,42.968750
295,46.875000
296,46.875000
297,46.875000
298,46.875000
299,46.875000
300,46.875000
301,46.875000
302,42.968750
303,46.875000
304,46.875000
305,46.875000
306,46.875000
307,46.875000
308,46.875000
309,46.875000
310,46.875000
311,46.875000
312,46.875000
313,46.875000
314,46.875000
315,46.875000
316,46.875000
317,46.875000
318,46.875000
319,46.875000
320,46.875000
321,46.875000
322,46.875000
323,46.875000
324,46.875000
325,46.875000
326,46.875000
327,46.875000
328,46.875000
329,46.875000
330,46.875000
331,46.875000
332,46.875000
333,46.875000
334,46.875000
335,46.875000
336,46.875000
337,46.875000
338,46.875000
339,46.875000
340,46.875000
341,46.875000
342,46.875000
343,46.875000
344,46.875000
345,46.875000
346,46.875000
347,46.875000
348,46.875000
349,46.875000
350,46.875000
351,46.875000
352,46.875000
353,46.875000
354,46.875000
355,46.875000
356,46.875000
357,46.875000
358,42.968750
359,46.875000
360,46.875000
361,46.875000
362,42.968750
363,42.968750
364,42.968750
365,42.968750
366,42.968750
367,42.968750
368,42.968750
369,42.968750
370,42.968750
371,42.968750
372,42.968750
373,42.968750
374,42.968750
375,42.968750
376,42.968750
377,42.968750
378,42.968750
379,42.968750
380,42.968750
381,42.968750
382,42.968750
383,42.968750
384,42.968750
385,42.968750
386,42.968750
387,42.968750
388,42.968750
389,42.968750
390,42.968750
391,42.968750
392,42.968750
393,42.968750
394,42.968750
395,39.062500
396,39.062500
397,39.062500
398,39.062500
399,39.062500
400,39.062500
401,39.062500
402,42.968750
403,39.062500
404,39.062500
405,39.062500
406,39.062500
407,39.062500
408,39.062500
409,39.062500
410,39.062500
411,39.062500
412,39.062500
413,39.062500
414,39.062500
415,39.062500
416,39.062500
417,39.062500
418,39.062500
419,39.062500
420,39.062500
421,35.156250
422,35.156250
423,35.156250
424,35.156250
425,35.156250
426,35.156250
427,35.156250
428,35.156250
429,35.156250
430,35.156250
431,35.156250
432,35.156250
433,35.156250
434,35.156250
435,35.156250
436,31.250000
437,31.250000
438,31.250000
439,31.250000
440,31.250000
441,31.250000
442,31.250000
443,31.250000
444,31.250000
445,31.250000
446,31.250000
447,31.250000
448,31.250000
449,31.250000
450,31.250000
451,27.343750
452,31.250000
453,27.343750
454,31.250000
455,27.343750
456,27.343750
457,27.343750
458,27.343750
459,27.343750
460,27.343750
461,27.343750
462,27.343750
463,27.343750
464,27.343750
465,27.343750
466,27.343750
467,27.343750
468,23.437500
469,23.437500
470,23.437500
471,23.437500
472,23.437500
473,23.437500
474,23.437500
475,23.437500
476,23.437500
477,23.437500
478,23.437500
479,23.437500
480,23.437500
481,23.437500
482,19.531250
483,19.531250
484,19.531250
485,19.531250
486,19.531250
487,19.531250
488,19.531250
489,19.531250
490,19.531250
491,19.531250
492,19.531250
493,19.531250
494,15.625000
495,15.625000
496,15.625000
497,15.625000
498,15.625000
499,15.625000
500,15.625000
501,15.625000
502,15.625000
503,15.625000
504,15.625000
505,11.718750
506,11.718750
507,11.718750
508,11.718750
509,11.718750
510,11.718750
511,11.718750
512,11.718750
513,11.718750
514,11.718750
515,11.718750
516,11.718750
517,11.718750
518,7.812500
519,7.812500
520,7.812500
521,7.812500
522,7.812500
523,7.812500
524,7.812500
525,7.812500
526,7.812500
527,7.812500
528,3.906250
529,3.906250
530,3.906250
531,3.906250
532,3.906250
533,3.906250
534,3.906250
535,3.906250
536,3.906250
537,3.906250
538,3.906250
539,3.906250
540,3.906250
541,0.000000
542,0.000000
543,0.000000
544,0.000000
545,0.000000
546,0.000000
547,0.000000
548,0.000000
549,0.000000
550,-3.906250
551,-3.906250
552,-3.906250
553,-3.906250
554,-3.906250
555,-3.906250
556,-3.906250
557,-3.906250
558,-3.906250
559,-3.906250
560,-3.906250
561,-7.812500
562,-3.906250
563,-7.812500
564,-7.812500
565,-7.812500
566,-7.812500
567,-7.812500
568,-7.812500
569,-7.812500
570,-7.812500
571,-11.718750
572,-11.718750
573,-11.718750
574,-11.718750
575,-11.718750
576,-11.718750
577,-11.718750
578,-11.718750
579,-11.718750
580,-11.718750
581,-11.718750
582,-15.625000
583,-15.625000
584,-15.625000
585,-15.625000
586,-15.625000
587,-15.625000
588,-15.625000
589,-15.625000
590,-15.625000
591,-15.625000
592,-15.625000
593,-19.531250
594,-19.531250
595,-19.531250
596,-19.531250
597,-19.531250
598,-19.531250
599,-19.531250
600,-19.531250
601,-19.531250
602,-23.437500
603,-23.437500
604,-23.437500
605,-23.437500
606,-23.437500
607,-23.437500
608,-23.437500
609,-23.437500
610,-23.437500
611,-23.437500
612,-27.343750
613,-27.343750
614,-27.343750
615,-27.343750
616,-27.343750
617,-27.343750
618,-27.343750
619,-27.343750
620,-27.343750
621,-27.343750
622,-31.250000
623,-31.250000
624,-31.250000
625,-31.250000
626,-31.250000
627,-31.250000
628,-31.250000
629,-31.250000
630,-31.250000
631,-31.250000
632,-31.250000
633,-31.250000
634,-31.250000
635,-35.156250
636,-35.156250
637,-35.156250
638,-35.156250
639,-35.156250
640,-35.156250
641,-35.156250
642,-35.156250
643,-35.156250
644,-35.156250
645,-39.062500
646,-39.062500
647,-39.062500
648,-39.062500
649,-39.062500
650,-39.062500
651,-39.062500
652,-39.062500
653,-39.062500
654,-42.968750
655,-42.968750
656,-42.968750
657,-42.968750
658,-42.968750
659,-42.968750
660,-42.968750
661,-42.968750
662,-42.968750
663,-42.968750
664,-42.968750
665,-42.968750
666,-42.968750
667,-46.875000
668,-46.875000
669,-46.875000
670,-46.875000
671,-46.875000
672,-46.875000
673,-46.875000
674,-46.875000
675,-46.875000
676,-46.875000
677,-46.875000
678,-46.875000
679,-50.781250
680,-50.781250
681,-50.781250
682,-50.781250
683,-50.781250
684,-50.781250
685,-50.781250
686,-50.781250
687,-50.781250
688,-50.781250
689,-54.687500
690,-50.781250
691,-54.687500
692,-54.687500
693,-50.781250
694,-54.687500
695,-54.687500
696,-54.687500
697,-54.687500
698,-54.687500
699,-54.687500
700,-54.687500
701,-54.687500
702,-54.687500
703,-58.593750
704,-58.593750
705,-58.593750
706,-58.593750
707,-58.593750
708,-58.593750
709,-58.593750
710,-58.593750
711,-58.593750
712,-58.593750
713,-58.593750
714,-58.593750
715,-58.593750
716,-58.593750
717,-62.500000
718,-62.500000
719,-62.500000
720,-62.500000
721,-62.500000
722,-62.500000
723,-62.500000
724,-62.500000
725,-62.500000
726,-62.500000
727,-62.500000
728,-62.500000
729,-62.500000
730,-62.500000
731,-62.500000
732,-62.500000
733,-62.500000
734,-62.500000
735,-66.406250
736,-66.406250
737,-66.406250
738,-66.406250
739,-66.406250
740,-66.406250
741,-66.406250
742,-66.406250
743,-66.406250
744,-66.406250
745,-66.406250
746,-66.406250
747,-66.406250
748,-66.406250
749,-66.406250
750,-66.406250
751,-66.406250
752,-70.312500
753,-66.406250
754,-70.312500
755,-70.312500
756,-70.312500
757,-70.312500
758,-70.312500
759,-70.312500
760,-70.312500
761,-70.312500
762,-70.312500
763,-70.312500
764,-70.312500
765,-70.312500
766,-70.312500
767,-70.312500
768,-70.312500
769,-70.312500
770,-70.312500
771,-70.312500
772,-70.312500
773,-70.312500
774,-70.312500
775,-70.312500
776,-74.218750
777,-74.218750
778,-74.218750
779,-74.218750
780,-74.218750
781,-70.312500
782,-74.218750
783,-74.218750
784,-74.218750
785,-74.218750
786,-74.218750
787,-74.218750
788,-74.218750
789,-74.218750
790,-74.218750
791,-74.218750
792,-74.218750
793,-74.218750
794,-74.218750
795,-74.218750
796,-74.218750
797,-74.218750
798,-74.218750
799,-74.218750
800,-74.218750
801,-74.218750
802,-74.218750
803,-74.218750
804,-74.218750
805,-74.218750
806,-74.218750
807,-74.218750
808,-74.218750
809,-74.218750
810,-74.218750
811,-74.218750
812,-74.218750
813,-74.218750
814,-74.218750
815,-74.218750
816,-74.218750
817,-74.218750
818,-74.218750
819,-74.218750
820,-74.218750
821,-74.218750
822,-74.218750
823,-74.218750
824,-74.218750
825,-74.218750
826,-74.218750
827,-74.218750
828,-74.218750
829,-74.218750
830,-74.218750
831,-74.218750
832,-74.218750
833,-74.218750
834,-74.218750
835,-74.218750
836,-74.218750
837,-74.218750
838,-74.218750
839,-74.218750
840,-74.218750
841,-74.218750
842,-74.218750
843,-74.218750
844,-74.218750
845,-74.218750
846,-74.218750
847,-74.218750
848,-74.218750
849,-74.218750
850,-74.218750
851,-74.218750
852,-74.218750
853,-74.218750
854,-74.218750
855,-74.218750
856,-74.218750
857,-74.218750
858,-74.218750
859,-74.218750
860,-74.218750
861,-74.218750
862,-74.218750
863,-74.218750
864,-74.218750
865,-74.218750
866,-74.218750
867,-74.218750
868,-74.218750
869,-74.218750
870,-74.218750
871,-74.218750
872,-74.218750
873,-74.218750
874,-74.218750
875,-74.218750
876,-74.218750
877,-70.312500
878,-70.312500
879,-70.312500
880,-70.312500
881,-70.312500
882,-70.312500
883,-70.312500
884,-70.312500
885,-70.312500
886,-70.312500
887,-70.312500
888,-70.312500
889,-70.312500
890,-70.312500
891,-70.312500
892,-70.312500
893,-70.312500
894,-70.312500
895,-70.312500
896,-70.312500
897,-70.312500
898,-70.312500
899,-70.312500
900,-66.406250
901,-70.312500
902,-70.312500
903,-66.406250
904,-66.406250
905,-66.406250
906,-66.406250
907,-66.406250
908,-66.406250
909,-66.406250
910,-66.406250
911,-66.406250
912,-66.406250
913,-66.406250
914,-66.406250
915,-66.406250
916,-66.406250
917,-66.406250
918,-66.406250
919,-66.406250
920,-66.406250
921,-62.500000
922,-62.500000
923,-62.500000
924,-62.500000
925,-62.500000
926,-62.500000
927,-62.500000
928,-62.500000
929,-62.500000
930,-62.500000
931,-62.500000
932,-62.500000
933,-62.500000
934,-58.593750
935,-58.593750
936,-58.593750
937,-58.593750
938,-58.593750
939,-58.593750
940,-58.593750
941,-58.593750
942,-58.593750
943,-58.593750
944,-58.593750
945,-58.593750
946,-58.593750
947,-58.593750
948,-54.687500
949,-54.687500
950,-54.687500
951,-58.593750
952,-54.687500
953,-54.687500
954,-54.687500
955,-54.687500
956,-54.687500
957,-54.687500
958,-54.687500
959,-54.687500
960,-54.687500
961,-54.687500
962,-50.781250
963,-50.781250
964,-50.781250
965,-50.781250
966,-50.781250
967,-50.781250
968,-50.781250
969,-50.781250
970,-50.781250
971,-50.781250
972,-46.875000
973,-50.781250
974,-50.781250
975,-46.875000
976,-46.875000
977,-46.875000
978,-46.875000
979,-46.875000
980,-46.875000
981,-46.875000
982,-46.875000
983,-46.875000
984,-46.875000
985,-46.875000
986,-42.968750
987,-42.968750
988,-42.968750
989,-42.968750
990,-42.968750
991,-42.968750
992,-42.968750
993,-42.968750
994,-42.968750
995,-42.968750
996,-42.968750
997,-42.968750
998,-39.062500
999,-39.062500
1000,-39.062500
1001,-39.062500
1002,-39.062500
1003,-39.062500
1004,-39.062500
1005,-39.062500
1006,-35.156250
1007,-39.062500
1008,-35.156250
1009,-39.062500
1010,-35.156250
1011,-35.156250
1012,-35.156250
1013,-35.156250
1014,-35.156250
1015,-35.156250
1016,-35.156250
1017,-35.156250
1018,-35.156250
1019,-31.250000
1020,-31.250000
1021,-31.250000
1022,-31.250000
1023,-31.250000
1024,-31.250000
1025,-31.250000
1026,-31.250000
1027,-31.250000
1028,-27.343750
1029,-27.343750
1030,-27.343750
1031,-27.343750
1032,-27.343750
1033,-27.343750
1034,-27.343750
1035,-27.343750
1036,-27.343750
1037,-23.437500
1038,-23.437500
1039,-23.437500
1040,-23.437500
1041,-23.437500
1042,-23.437500
1043,-23.437500
1044,-23.437500
1045,-23.437500
1046,-23.437500
1047,-23.437500
1048,-19.531250
1049,-19.531250
1050,-19.531250
1051,-19.531250
1052,-19.531250
1053,-19.531250
1054,-19.531250
1055,-19.531250
1056,-19.531250
1057,-15.625000
1058,-15.625000
1059,-15.625000
1060,-15.625000
1061,-15.625000
1062,-15.625000
1063,-15.625000
1064,-15.625000
1065,-15.625000
1066,-15.625000
1067,-11.718750
1068,-11.718750
1069,-11.718750
1070,-11.718750
1071,-11.718750
1072,-11.718750
1073,-11.718750
1074,-11.718750
1075,-11.718750
1076,-11.718750
1077,-7.812500
1078,-7.812500
1079,-7.812500
1080,-7.812500
1081,-7.812500
1082,-7.812500
1083,-7.812500
1084,-7.812500
1085,-7.812500
1086,-7.812500
1087,-3.906250
1088,-3.906250
1089,-3.906250
1090,-3.906250
1091,-3.906250
1092,-3.906250
1093,-3.906250
1094,-3.906250
1095,-3.906250
1096,-3.906250
1097,-3.906250
1098,0.000000
1099,0.000000
1100,0.000000
1101,0.000000
1102,0.000000
1103,0.000000
1104,0.000000
1105,3.906250
1106,0.000000
1107,0.000000
1108,0.000000
1109,3.906250
1110,3.906250
1111,3.906250
1112,3.906250
1113,3.906250
1114,3.906250
1115,3.906250
1116,3.906250
1117,3.906250
1118,3.906250
1119,7.812500
1120,7.812500
1121,7.812500
1122,7.812500
1123,7.812500
1124,7.812500
1125,7.812500
1126,7.812500
1127,7.812500
1128,7.812500
1129,7.812500
1130,11.718750
1131,11.718750
1132,11.718750
1133,11.718750
1134,11.718750
1135,11.718750
1136,11.718750
1137,11.718750
1138,11.718750
1139,11.718750
1140,11.718750
1141,15.625000
1142,15.625000
1143,15.625000
1144,15.625000
1145,15.625000
1146,15.625000
1147,15.625000
1148,15.625000
1149,15.625000
1150,15.625000
1151,15.625000
1152,15.625000
1153,15.625000
1154,15.625000
1155,19.531250
1156,19.531250
1157,19.531250
1158,19.531250
1159,19.531250
1160,19.531250
1161,19.531250
1162,19.531250
1163,19.531250
1164,19.531250
1165,19.531250
1166,23.437500
1167,23.437500
1168,23.437500
1169,23.437500
1170,23.437500
1171,23.437500
1172,23.437500
1173,23.437500
1174,23.437500
1175,23.437500
1176,23.437500
1177,23.437500
1178,27.343750
1179,27.343750
1180,27.343750
1181,27.343750
1182,27.343750
1183,27.343750
1184,27.343750
1185,27.343750
1186,27.343750
1187,27.343750
1188,27.343750
1189,27.343750
1190,31.250000
1191,31.250000
1192,31.250000
1193,31.250000
1194,31.250000
1195,31.250000
1196,31.250000
1197,31.250000
1198,31.250000
1199,31.250000
1200,31.250000
1201,31.250000
1202,31.250000
1203,31.250000
1204,31.250000
1205,35.156250
1206,31.250000
1207,35.156250
1208,35.156250
1209,35.156250
1210,35.156250
1211,35.156250
1212,35.156250
1213,35.156250
1214,35.156250
1215,35.156250
1216,35.156250
1217,35.156250
1218,35.156250
1219,35.156250
1220,35.156250
1221,35.156250
1222,35.156250
1223,35.156250
1224,39.062500
1225,39.062500
1226,35.156250
1227,39.062500
1228,39.062500
1229,39.062500
1230,39.062500
1231,39.062500
1232,39.062500
1233,39.062500
1234,39.062500
1235,39.062500
1236,39.062500
1237,39.062500
1238,39.062500
1239,39.062500
1240,39.062500
1241,39.062500
1242,39.062500
1243,39.062500
1244,39.062500
1245,39.062500
1246,42.968750
1247,42.968750
1248,42.968750
1249,42.968750
1250,42.968750
1251,39.062500
1252,39.062500
1253,42.968750
1254,42.968750
1255,42.968750
1256,42.968750
1257,42.968750
1258,42.968750
1259,42.968750
1260,42.968750
1261,42.968750
1262,42.968750
1263,42.968750
1264,42.968750
1265,42.968750
1266,42.968750
1267,42.968750
1268,42.968750
1269,42.968750
1270,42.968750
1271,42.968750
1272,42.968750
1273,42.968750
1274,42.968750
1275,42.968750
1276,42.968750
1277,42.968750
1278,42.968750
1279,42.968750
1280,46.875000
1281,42.968750
1282,42.968750
1283,42.968750
1284,46.875000
1285,46.875000
1286,46.875000
1287,42.968750
1288,46.875000
1289,46.875000
1290,46.875000
1291,46.875000
1292,46.875000
1293,46.875000
1294,46.875000
1295,46.875000
1296,46.875000
1297,46.875000
1298,46.875000
1299,46.875000
1300,46.875000
1301,46.875000
1302,46.875000
1303,46.875000
1304,46.875000
1305,46.875000
1306,46.875000
1307,46.875000
1308,46.875000
1309,46.875000
1310,46.875000
1311,46.875000
1312,46.875000
1313,46.875000
1314,46.875000
1315,46.875000
1316,46.875000
1317,46.875000
1318,46.875000
1319,46.875000
1320,46.875000
1321,46.875000
1322,46.875000
1323,46.875000
1324,46.875000
1325,46.875000
1326,46.875000
1327,46.875000
1328,46.875000
1329,46.875000
1330,46.875000
1331,46.875000
1332,46.875000
1333,46.875000
1334,46.875000
1335,46.875000
1336,46.875000
1337,46.875000
1338,46.875000
1339,46.875000
1340,46.875000
1341,46.875000
1342,46.875000
1343,46.875000
1344,46.875000
1345,46.875000
1346,46.875000
1347,46.875000
1348,42.968750
1349,42.968750
1350,46.875000
1351,42.968750
1352,42.968750
1353,42.968750
1354,42.968750
1355,46.875000
1356,46.875000
1357,42.968750
1358,42.968750
1359,42.968750
1360,42.968750
1361,42.968750
1362,42.968750
1363,42.968750
1364,42.968750
1365,42.968750
1366,42.968750
1367,42.968750
1368,42.968750
1369,42.968750
1370,42.968750
1371,42.968750
1372,42.968750
1373,42.968750
1374,42.968750
1375,42.968750
1376,42.968750
1377,42.968750
1378,42.968750
1379,42.968750
1380,42.968750
1381,42.968750
1382,39.062500
1383,42.968750
1384,39.062500
1385,39.062500
1386,39.062500
1387,39.062500
1388,39.062500
1389,39.062500
1390,39.062500
1391,39.062500
1392,39.062500
1393,39.062500
1394,39.062500
1395,39.062500
1396,39.062500
1397,39.062500
1398,39.062500
1399,39.062500
1400,39.062500
1401,39.062500
1402,39.062500
1403,39.062500
1404,39.062500
1405,35.156250
1406,39.062500
1407,39.062500
1408,35.156250
1409,35.156250
1410,35.156250
1411,35.156250
1412,35.156250
1413,35.156250
1414,35.156250
1415,35.156250
1416,35.156250
1417,35.156250
1418,35.156250
1419,35.156250
1420,35.156250
1421,35.156250
1422,35.156250
1423,35.156250
1424,35.156250
1425,31.250000
1426,35.156250
1427,31.250000
1428,31.250000
1429,31.250000
1430,31.250000
1431,31.250000
1432,31.250000
1433,31.250000
1434,31.250000
1435,31.250000
1436,31.250000
1437,31.250000
1438,31.250000
1439,31.250000
1440,31.250000
1441,31.250000
1442,31.250000
1443,31.250000
1444,27.343750
1445,27.343750
1446,27.343750
1447,27.343750
1448,27.343750
1449,27.343750
1450,27.343750
1451,27.343750
1452,27.343750
1453,27.343750
1454,27.343750
1455,27.343750
1456,27.343750
1457,27.343750
1458,23.437500
1459,23.437500
1460,23.437500
1461,23.437500
1462,23.437500
1463,23.437500
1464,23.437500
1465,23.437500
1466,23.437500
1467,23.437500
1468,23.437500
1469,23.437500
1470,23.437500
1471,23.437500
1472,19.531250
1473,19.531250
1474,19.531250
1475,19.531250
1476,19.531250
1477,19.531250
1478,19.531250
1479,19.531250
1480,19.531250
1481,19.531250
1482,19.531250
1483,19.531250
1484,15.625000
1485,15.625000
1486,15.625000
1487,15.625000
1488,15.625000
1489,15.625000
1490,15.625000
1491,15.625000
1492,15.625000
1493,15.625000
1494,11.718750
1495,11.718750
1496,11.718750
1497,11.718750
1498,11.718750
1499,11.718750
1500,11.718750
1501,11.718750
1502,11.718750
1503,11.718750
1504,11.718750
1505,11.718750
1506,7.812500
1507,7.812500
1508,7.812500
1509,7.812500
1510,7.812500
1511,7.812500
1512,7.812500
1513,7.812500
1514,7.812500
1515,7.812500
1516,7.812500
1517,7.812500
1518,3.906250
1519,3.906250
1520,3.906250
1521,3.906250
1522,3.906250
1523,3.906250
1524,3.906250
1525,3.906250
1526,3.906250
1527,3.906250
1528,0.000000
1529,0.000000
1530,0.000000
1531,0.000000
1532,0.000000
1533,0.000000
1534,0.000000
1535,0.000000
1536,0.000000
1537,0.000000
1538,0.000000
1539,-3.906250
1540,-3.906250
1541,-3.906250
1542,-3.906250
1543,-3.906250
1544,-3.906250
1545,-3.906250
1546,-3.906250
1547,-3.906250
1548,-3.906250
1549,-7.812500
1550,-3.906250
1551,-7.812500
1552,-7.812500
1553,-7.812500
1554,-7.812500
1555,-7.812500
1556,-7.812500
1557,-7.812500
1558,-7.812500
1559,-11.718750
1560,-7.812500
1561,-11.718750
1562,-11.718750
1563,-11.718750
1564,-11.718750
1565,-11.718750
1566,-11.718750
1567,-11.718750
1568,-11.718750
1569,-11.718750
1570,-11.718750
1571,-15.625000
1572,-15.625000
1573,-15.625000
1574,-15.625000
1575,-15.625000
1576,-15.625000
1577,-15.625000
1578,-15.625000
1579,-15.625000
1580,-15.625000
1581,-15.625000
1582,-19.531250
1583,-19.531250
1584,-19.531250
1585,-19.531250
1586,-19.531250
1587,-19.531250
1588,-19.531250
1589,-19.531250
1590,-19.531250
1591,-19.531250
1592,-23.437500
1593,-23.437500
1594,-23.437500
1595,-23.437500
1596,-23.437500
1597,-23.437500
1598,-23.437500
1599,-23.437500
1600,-23.437500
1601,-27.343750
1602,-23.437500
1603,-27.343750
1604,-27.343750
1605,-27.343750
1606,-27.343750
1607,-27.343750
1608,-27.343750
1609,-27.343750
1610,-27.343750
1611,-27.343750
1612,-27.343750
1613,-31.250000
1614,-27.343750
1615,-31.250000
1616,-31.250000
1617,-31.250000
1618,-31.250000
1619,-31.250000
1620,-31.250000
1621,-31.250000
1622,-31.250000
1623,-35.156250
1624,-35.156250
1625,-35.156250
1626,-35.156250
1627,-35.156250
1628,-35.156250
1629,-35.156250
1630,-35.156250
1631,-35.156250
1632,-35.156250
1633,-39.062500
1634,-39.062500
1635,-39.062500
1636,-39.062500
1637,-39.062500
1638,-39.062500
1639,-39.062500
1640,-39.062500
1641,-39.062500
1642,-39.062500
1643,-39.062500
1644,-42.968750
1645,-42.968750
1646,-42.968750
1647,-42.968750
1648,-42.968750
1649,-42.968750
1650,-42.968750
1651,-42.968750
1652,-42.968750
1653,-42.968750
1654,-42.968750
1655,-42.968750
1656,-42.968750
1657,-46.875000
1658,-46.875000
1659,-46.875000
1660,-46.875000
1661,-46.875000
1662,-46.875000
1663,-46.875000
1664,-46.875000
1665,-46.875000
1666,-46.875000
1667,-46.875000
1668,-50.781250
1669,-50.781250
1670,-50.781250
1671,-50.781250
1672,-50.781250
1673,-50.781250
1674,-50.781250
1675,-50.781250
1676,-50.781250
1677,-50.781250
1678,-50.781250
1679,-50.781250
1680,-54.687500
1681,-50.781250
1682,-54.687500
1683,-54.687500
1684,-54.687500
1685,-54.687500
1686,-54.687500
1687,-54.687500
1688,-54.687500
1689,-54.687500
1690,-54.687500
1691,-54.687500
1692,-58.593750
1693,-54.687500
1694,-58.593750
1695,-54.687500
1696,-58.593750
1697,-58.593750
1698,-58.593750
1699,-58.593750
1700,-58.593750
1701,-58.593750
1702,-58.593750
1703,-58.593750
1704,-58.593750
1705,-58.593750
1706,-58.593750
1707,-58.593750
1708,-58.593750
1709,-58.593750
1710,-62.500000
1711,-62.500000
1712,-62.500000
1713,-62.500000
1714,-62.500000
1715,-62.500000
1716,-62.500000
1717,-62.500000
1718,-62.500000
1719,-62.500000
1720,-62.500000
1721,-62.500000
1722,-62.500000
1723,-62.500000
1724,-62.500000
1725,-62.500000
1726,-66.406250
1727,-66.406250
1728,-66.406250
1729,-66.406250
1730,-66.406250
1731,-66.406250
1732,-66.406250
1733,-66.406250
1734,-66.406250
1735,-66.406250
1736,-66.406250
1737,-66.406250
1738,-66.406250
1739,-66.406250
1740,-66.406250
1741,-66.406250
1742,-66.406250
1743,-66.406250
1744,-70.312500
1745,-70.312500
1746,-70.312500
1747,-70.312500
1748,-70.312500
1749,-70.312500
1750,-70.312500
1751,-70.312500
1752,-70.312500
1753,-70.312500
1754,-70.312500
1755,-70.312500
1756,-70.312500
1757,-70.312500
1758,-70.312500
1759,-70.312500
1760,-70.312500
1761,-70.312500
1762,-70.312500
1763,-70.312500
1764,-70.312500
1765,-70.312500
1766,-70.312500
1767,-70.312500
1768,-70.312500
1769,-70.312500
1770,-74.218750
1771,-70.312500
1772,-70.312500
1773,-74.218750
1774,-74.218750
1775,-74.218750
1776,-74.218750
1777,-74.218750
1778,-74.218750
1779,-74.218750
1780,-74.218750
1781,-74.218750
1782,-74.218750
1783,-74.218750
1784,-74.218750
1785,-74.218750
1786,-74.218750
1787,-74.218750
1788,-74.218750
1789,-74.218750
1790,-74.218750
1791,-74.218750
1792,-74.218750
1793,-74.218750
1794,-74.218750
1795,-74.218750
1796,-74.218750
1797,-74.218750
1798,-74.218750
1799,-74.218750
1800,-74.218750
1801,-74.218750
1802,-74.218750
1803,-74.218750
1804,-74.218750
1805,-74.218750
1806,-74.218750
1807,-74.218750
1808,-74.218750
1809,-74.218750
1810,-74.218750
1811,-74.218750
1812,-74.218750
1813,-74.218750
1814,-74.218750
1815,-74.218750
1816,-74.218750
1817,-74.218750
1818,-74.218750
1819,-74.218750
1820,-74.218750
1821,-74.218750
1822,-74.218750
1823,-74.218750
1824,-74.218750
1825,-74.218750
1826,-74.218750
1827,-74.218750
1828,-74.218750
1829,-74.218750
1830,-74.218750
1831,-74.218750
1832,-74.218750
1833,-74.218750
1834,-74.218750
1835,-74.218750
1836,-74.218750
1837,-74.218750
1838,-74.218750
1839,-74.218750
1840,-74.218750
1841,-74.218750
1842,-74.218750
1843,-74.218750
1844,-74.218750
1845,-74.218750
1846,-74.218750
1847,-74.218750
1848,-74.218750
1849,-74.218750
1850,-74.218750
1851,-74.218750
1852,-74.218750
1853,-74.218750
1854,-74.218750
1855,-74.218750
1856,-74.218750
1857,-74.218750
1858,-74.218750
1859,-74.218750
1860,-74.218750
1861,-74.218750
1862,-70.312500
1863,-70.312500
1864,-70.312500
1865,-70.312500
1866,-70.312500
1867,-70.312500
1868,-70.312500
1869,-70.312500
1870,-70.312500
1871,-70.312500
1872,-70.312500
1873,-70.312500
1874,-70.312500
1875,-70.312500
1876,-70.312500
1877,-70.312500
1878,-70.312500
1879,-70.312500
1880,-70.312500
1881,-70.312500
1882,-70.312500
1883,-66.406250
1884,-66.406250
1885,-70.312500
1886,-70.312500
1887,-70.312500
1888,-70.312500
1889,-66.406250
1890,-66.406250
1891,-70.312500
1892,-66.406250
1893,-66.406250
1894,-66.406250
1895,-66.406250
1896,-66.406250
1897,-66.406250
1898,-66.406250
1899,-66.406250
1900,-66.406250
1901,-66.406250
1902,-66.406250
1903,-66.406250
1904,-66.406250
1905,-66.406250
1906,-66.406250
1907,-66.406250
1908,-62.500000
1909,-62.500000
1910,-62.500000
1911,-62.500000
1912,-62.500000
1913,-62.500000
1914,-62.500000
1915,-62.500000
1916,-62.500000
1917,-62.500000
1918,-62.500000
1919,-62.500000
1920,-62.500000
1921,-62.500000
1922,-58.593750
1923,-58.593750
1924,-58.593750
1925,-58.593750
1926,-58.593750
1927,-58.593750
1928,-58.593750
1929,-58.593750
1930,-58.593750
1931,-58.593750
1932,-58.593750
1933,-58.593750
1934,-58.593750
1935,-58.593750
1936,-58.593750
1937,-58.593750
1938,-58.593750
1939,-54.687500
1940,-54.687500
1941,-54.687500
1942,-54.687500
1943,-54.687500
1944,-54.687500
1945,-54.687500
1946,-54.687500
1947,-54.687500
1948,-54.687500
1949,-54.687500
1950,-54.687500
1951,-54.687500
1952,-50.781250
1953,-50.781250
1954,-50.781250
1955,-50.781250
1956,-50.781250
1957,-50.781250
1958,-46.875000
1959,-50.781250
1960,-50.781250
1961,-50.781250
1962,-50.781250
1963,-46.875000
1964,-46.875000
1965,-46.875000
1966,-46.875000
1967,-46.875000
1968,-46.875000
1969,-46.875000
1970,-46.875000
1971,-46.875000
1972,-46.875000
1973,-46.875000
1974,-42.968750
1975,-42.968750
1976,-42.968750
1977,-42.968750
1978,-42.968750
1979,-42.968750
1980,-42.968750
1981,-42.968750
1982,-42.968750
1983,-42.968750
1984,-42.968750
1985,-39.062500
1986,-39.062500
1987,-39.062500
1988,-39.062500
1989,-39.062500
1990,-39.062500
1991,-39.062500
1992,-39.062500
1993,-39.062500
1994,-39.062500
1995,-39.062500
1996,-39.062500
1997,-35.156250
1998,-35.156250
1999,-35.156250
2000,-35.156250
2001,-35.156250
2002,-35.156250
2003,-35.156250
2004,-35.156250
2005,-35.156250
2006,-35.156250
2007,-35.156250
2008,-31.250000
2009,-31.250000
2010,-31.250000
2011,-31.250000
2012,-31.250000
2013,-31.250000
2014,-31.250000
2015,-31.250000
2016,-31.250000
2017,-31.250000
2018,-27.343750
2019,-27.343750
2020,-27.343750
2021,-27.343750
2022,-27.343750
2023,-27.343750
2024,-27.343750
2025,-27.343750
2026,-27.343750
2027,-27.343750
2028,-23.437500
2029,-23.437500
2030,-23.437500
2031,-23.437500
2032,-23.437500
2033,-23.437500
2034,-23.437500
2035,-23.437500
2036,-23.437500
2037,-23.437500
2038,-19.531250
2039,-19.531250
2040,-19.531250
2041,-19.531250
2042,-19.531250
2043,-19.531250
2044,-19.531250
2045,-19.531250
2046,-19.531250
2047,-19.531250
2048,-19.531250
2049,-15.625000
2050,-15.625000
2051,-15.625000
2052,-15.625000
2053,-15.625000
2054,-15.625000
2055,-15.625000
2056,-15.625000
2057,-11.718750
2058,-15.625000
2059,-15.625000
2060,-11.718750
2061,-11.718750
2062,-11.718750
2063,-11.718750
2064,-11.718750
2065,-11.718750
2066,-11.718750
2067,-7.812500
2068,-7.812500
2069,-7.812500
2070,-7.812500
2071,-7.812500
2072,-7.812500
2073,-7.812500
2074,-7.812500
2075,-7.812500
2076,-7.812500
2077,-7.812500
2078,-3.906250
2079,-3.906250
2080,-3.906250
2081,-3.906250
2082,-3.906250
2083,-3.906250
2084,-3.906250
2085,-3.906250
2086,-3.906250
2087,-3.906250
2088,0.000000
2089,0.000000
2090,0.000000
2091,0.000000
2092,0.000000
2093,0.000000
2094,0.000000
2095,0.000000
2096,0.000000
2097,3.906250
2098,3.906250
2099,3.906250
2100,3.906250
2101,3.906250
2102,3.906250
2103,3.906250
2104,3.906250
2105,3.906250
2106,3.906250
2107,3.906250
2108,3.906250
2109,7.812500
2110,7.812500
2111,7.812500
2112,7.812500
2113,7.812500
2114,7.812500
2115,7.812500
2116,7.812500
2117,7.812500
2118,7.812500
2119,7.812500
2120,11.718750
2121,11.718750
2122,11.718750
2123,11.718750
2124,11.718750
2125,11.718750
2126,11.718750
2127,11.718750
2128,11.718750
2129,11.718750
2130,11.718750
2131,15.625000
2132,15.625000
2133,15.625000
2134,15.625000
2135,15.625000
2136,15.625000
2137,15.625000
2138,15.625000
2139,15.625000
2140,15.625000
2141,15.625000
2142,15.625000
2143,15.625000
2144,19.531250
2145,19.531250
2146,19.531250
2147,19.531250
2148,19.531250
2149,19.531250
2150,19.531250
2151,19.531250
2152,19.531250
2153,19.531250
2154,19.531250
2155,19.531250
2156,23.437500
2157,23.437500
2158,23.437500
2159,23.437500
2160,23.437500
2161,23.437500
2162,23.437500
2163,23.437500
2164,23.437500
2165,23.437500
2166,23.437500
2167,23.437500
2168,23.437500
2169,23.437500
2170,27.343750
2171,27.343750
2172,27.343750
2173,27.343750
2174,27.343750
2175,27.343750
2176,27.343750
2177,27.343750
2178,27.343750
2179,27.343750
2180,27.343750
2181,27.343750
2182,27.343750
2183,31.250000
2184,31.250000
2185,31.250000
2186,31.250000
2187,31.250000
2188,31.250000
2189,31.250000
2190,31.250000
2191,31.250000
2192,31.250000
2193,31.250000
2194,31.250000
2195,31.250000
2196,31.250000
2197,31.250000
2198,31.250000
2199,35.156250
2200,35.156250
2201,35.156250
2202,35.156250
2203,35.156250
2204,35.156250
2205,35.156250
2206,35.156250
2207,35.156250
2208,35.156250
2209,35.156250
2210,35.156250
2211,35.156250
2212,35.156250
2213,39.062500
2214,39.062500
2215,39.062500
2216,39.062500
2217,39.062500
2218,35.156250
2219,39.062500
2220,39.062500
2221,39.062500
2222,39.062500
2223,39.062500
2224,39.062500
2225,39.062500
2226,39.062500
2227,39.062500
2228,39.062500
2229,39.062500
2230,39.062500
2231,39.062500
2232,39.062500
2233,39.062500
2234,39.062500
2235,39.062500
2236,42.968750
2237,39.062500
2238,39.062500
2239,42.968750
2240,42.968750
2241,42.968750
2242,42.968750
2243,42.968750
2244,42.968750
2245,42.968750
2246,42.968750
2247,42.968750
2248,42.968750
2249,42.968750
2250,42.968750
2251,42.968750
2252,42.968750
2253,42.968750
2254,42.968750
2255,42.968750
2256,42.968750
2257,42.968750
2258,42.968750
2259,42.968750
2260,42.968750
2261,46.875000
2262,42.968750
2263,42.968750
2264,42.968750
2265,46.875000
2266,42.968750
2267,42.968750
2268,42.968750
2269,42.968750
2270,46.875000
2271,46.875000
2272,46.875000
2273,46.875000
2274,46.875000
2275,42.968750
2276,42.968750
2277,42.968750
2278,46.875000
2279,46.875000
2280,46.875000
2281,46.875000
2282,46.875000
2283,46.875000
2284,46.875000
2285,46.875000
2286,46.875000
2287,46.875000
2288,46.875000
2289,46.875000
2290,46.875000
2291,46.875000
2292,46.875000
2293,46.875000
2294,46.875000
2295,46.875000
2296,46.875000
2297,46.875000
2298,46.875000
2299,46.875000
2300,46.875000
2301,46.875000
2302,46.875000
2303,46.875000
2304,46.875000
2305,46.875000
2306,46.875000
2307,46.875000
2308,46.875000
2309,46.875000
2310,46.875000
2311,46.875000
2312,46.875000
2313,46.875000
2314,46.875000
2315,46.875000
2316,46.875000
2317,46.875000
2318,46.875000
2319,46.875000
2320,46.875000
2321,46.875000
2322,46.875000
2323,46.875000
2324,46.875000
2325,46.875000
2326,46.875000
2327,46.875000
2328,46.875000
2329,46.875000
2330,46.875000
2331,42.968750
2332,46.875000
2333,46.875000
2334,46.875000
2335,46.875000
2336,46.875000
2337,46.875000
2338,46.875000
2339,46.875000
2340,42.968750
2341,42.968750
2342,42.968750
2343,42.968750
2344,42.968750
2345,42.968750
2346,46.875000
2347,42.968750
2348,42.968750
2349,42.968750
2350,42.968750
2351,42.968750
2352,42.968750
2353,42.968750
2354,42.968750
2355,42.968750
2356,42.968750
2357,42.968750
2358,42.968750
2359,42.968750
2360,42.968750
2361,42.968750
2362,42.968750
2363,42.968750
2364,42.968750
2365,42.968750
2366,42.968750
2367,42.968750
2368,42.968750
2369,42.968750
2370,42.968750
2371,42.968750
2372,42.968750
2373,39.062500
2374,42.968750
2375,39.062500
2376,42.968750
2377,39.062500
2378,39.062500
2379,39.062500
2380,39.062500
2381,39.062500
2382,39.062500
2383,39.062500
2384,39.062500
2385,39.062500
2386,39.062500
2387,39.062500
2388,39.062500
2389,39.062500
2390,39.062500
2391,39.062500
2392,39.062500
2393,39.062500
2394,39.062500
2395,39.062500
2396,39.062500
2397,39.062500
2398,39.062500
2399,35.156250
2400,35.156250
2401,35.156250
2402,35.156250
2403,35.156250
2404,35.156250
2405,35.156250
2406,35.156250
2407,35.156250
2408,35.156250
2409,35.156250
2410,35.156250
2411,35.156250
2412,35.156250
2413,35.156250
2414,31.250000
2415,31.250000
2416,31.250000
2417,31.250000
2418,31.250000
2419,31.250000
2420,31.250000
2421,31.250000
2422,31.250000
2423,31.250000
2424,31.250000
2425,31.250000
2426,31.250000
2427,31.250000
2428,31.250000
2429,31.250000
2430,31.250000
2431,31.250000
2432,31.250000
2433,27.343750
2434,27.343750
2435,27.343750
2436,27.343750
2437,27.343750
2438,27.343750
2439,27.343750
2440,27.343750
2441,27.343750
2442,27.343750
2443,27.343750
2444,27.343750
2445,27.343750
2446,27.343750
2447,23.437500
2448,23.437500
2449,23.437500
2450,23.437500
2451,23.437500
2452,23.437500
2453,23.437500
2454,23.437500
2455,23.437500
2456,23.437500
2457,23.437500
2458,23.437500
2459,23.437500
2460,19.531250
2461,19.531250
2462,19.531250
2463,19.531250
2464,19.531250
2465,19.531250
2466,19.531250
2467,19.531250
2468,19.531250
2469,19.531250
2470,19.531250
2471,19.531250
2472,19.531250
2473,15.625000
2474,15.625000
2475,15.625000
2476,15.625000
2477,15.625000
2478,15.625000
2479,15.625000
2480,15.625000
2481,15.625000
2482,15.625000
2483,15.625000
2484,11.718750
2485,15.625000
2486,11.718750
2487,11.718750
2488,11.718750
2489,11.718750
2490,11.718750
2491,11.718750
2492,11.718750
2493,11.718750
2494,11.718750
2495,11.718750
2496,7.812500
2497,11.718750
2498,7.812500
2499,7.812500
2500,7.812500
2501,7.812500
2502,7.812500
2503,7.812500
2504,7.812500
2505,7.812500
2506,7.812500
2507,7.812500
2508,7.812500
2509,3.906250
2510,3.906250
2511,3.906250
2512,3.906250
2513,3.906250
2514,3.906250
2515,3.906250
2516,3.906250
2517,3.906250
2518,3.906250
2519,0.000000
2520,0.000000
2521,0.000000
2522,0.000000
2523,0.000000
2524,0.000000
2525,0.000000
2526,0.000000
2527,0.000000
2528,0.000000
2529,0.000000
2530,-3.906250
2531,-3.906250
2532,-3.906250
2533,-3.906250
2534,-3.906250
2535,-3.906250
2536,-3.906250
2537,-3.906250
2538,-3.906250
2539,-3.906250
2540,-7.812500
2541,-7.812500
2542,-7.812500
2543,-7.812500
2544,-7.812500
2545,-7.812500
2546,-7.812500
2547,-7.812500
2548,-7.812500
2549,-7.812500
2550,-11.718750
2551,-11.718750
2552,-11.718750
2553,-11.718750
2554,-11.718750
2555,-11.718750
2556,-11.718750
2557,-11.718750
2558,-11.718750
2559,-11.718750
2560,-15.625000
2561,-15.625000
2562,-15.625000
2563,-15.625000
2564,-15.625000
2565,-15.625000
2566,-15.625000
2567,-15.625000
2568,-15.625000
2569,-15.625000
2570,-15.625000
2571,-19.531250
2572,-19.531250
2573,-19.531250
2574,-19.531250
2575,-19.531250
2576,-19.531250
2577,-19.531250
2578,-19.531250
2579,-19.531250
2580,-19.531250
2581,-23.437500
2582,-23.437500
2583,-23.437500
2584,-23.437500
2585,-23.437500
2586,-23.437500
2587,-23.437500
2588,-23.437500
2589,-23.437500
2590,-23.437500
2591,-27.343750
2592,-27.343750
2593,-27.343750
2594,-27.343750
2595,-27.343750
2596,-27.343750
2597,-27.343750
2598,-27.343750
2599,-27.343750
2600,-27.343750
2601,-27.343750
2602,-27.343750
2603,-31.250000
2604,-31.250000
2605,-31.250000
2606,-31.250000
2607,-31.250000
2608,-31.250000
2609,-31.250000
2610,-31.250000
2611,-31.250000
2612,-35.156250
2613,-31.250000
2614,-35.156250
2615,-35.156250
2616,-35.156250
2617,-35.156250
2618,-35.156250
2619,-35.156250
2620,-35.156250
2621,-35.156250
2622,-35.156250
2623,-35.156250
2624,-39.062500
2625,-39.062500
2626,-39.062500
2627,-39.062500
2628,-39.062500
2629,-39.062500
2630,-39.062500
2631,-39.062500
2632,-39.062500
2633,-39.062500
2634,-39.062500
2635,-42.968750
2636,-42.968750
2637,-42.968750
2638,-42.968750
2639,-42.968750
2640,-42.968750
2641,-42.968750
2642,-42.968750
2643,-42.968750
2644,-42.968750
2645,-46.875000
2646,-42.968750
2647,-46.875000
2648,-46.875000
2649,-46.875000
2650,-46.875000
2651,-46.875000
2652,-46.875000
2653,-46.875000
2654,-46.875000
2655,-46.875000
2656,-46.875000
2657,-46.875000
2658,-46.875000
2659,-50.781250
2660,-50.781250
2661,-50.781250
2662,-50.781250
2663,-50.781250
2664,-50.781250
2665,-50.781250
2666,-50.781250
2667,-50.781250
2668,-50.781250
2669,-50.781250
2670,-50.781250
2671,-50.781250
2672,-54.687500
2673,-54.687500
2674,-54.687500
2675,-54.687500
2676,-54.687500
2677,-54.687500
2678,-54.687500
2679,-54.687500
2680,-54.687500
2681,-58.593750
2682,-54.687500
2683,-54.687500
2684,-58.593750
2685,-58.593750
2686,-58.593750
2687,-58.593750
2688,-58.593750
2689,-58.593750
2690,-58.593750
2691,-58.593750
2692,-58.593750
2693,-58.593750
2694,-58.593750
2695,-58.593750
2696,-62.500000
2697,-58.593750
2698,-58.593750
2699,-58.593750
2700,-62.500000
2701,-62.500000
2702,-62.500000
2703,-62.500000
2704,-62.500000
2705,-62.500000
2706,-62.500000
2707,-62.500000
2708,-62.500000
2709,-62.500000
2710,-62.500000
2711,-62.500000
2712,-62.500000
2713,-62.500000
2714,-62.500000
2715,-66.406250
2716,-66.406250
2717,-66.406250
2718,-66.406250
2719,-66.406250
2720,-66.406250
2721,-66.406250
2722,-66.406250
2723,-66.406250
2724,-66.406250
2725,-66.406250
2726,-66.406250
2727,-66.406250
2728,-66.406250
2729,-66.406250
2730,-66.406250
2731,-66.406250
2732,-66.406250
2733,-70.312500
2734,-70.312500
2735,-66.406250
2736,-66.406250
2737,-70.312500
2738,-70.312500
2739,-70.312500
2740,-70.312500
2741,-70.312500
2742,-70.312500
2743,-70.312500
2744,-70.312500
2745,-70.312500
2746,-70.312500
2747,-70.312500
2748,-70.312500
2749,-70.312500
2750,-70.312500
2751,-70.312500
2752,-70.312500
2753,-70.312500
2754,-70.312500
2755,-70.312500
2756,-70.312500
2757,-74.218750
2758,-74.218750
2759,-70.312500
2760,-74.218750
2761,-74.218750
2762,-74.218750
2763,-74.218750
2764,-74.218750
2765,-74.218750
2766,-74.218750
2767,-74.218750
2768,-74.218750
2769,-74.218750
2770,-74.218750
2771,-74.218750
2772,-74.218750
2773,-74.218750
2774,-74.218750
2775,-74.218750
2776,-74.218750
2777,-74.218750
2778,-74.218750
2779,-74.218750
2780,-74.218750
2781,-74.218750
2782,-74.218750
2783,-74.218750
2784,-74.218750
2785,-74.218750
2786,-74.218750
2787,-74.218750
2788,-74.218750
2789,-74.218750
2790,-74.218750
2791,-74.218750
2792,-74.218750
2793,-74.218750
2794,-74.218750
2795,-74.218750
2796,-74.218750
2797,-74.218750
2798,-74.218750
2799,-74.218750
2800,-74.218750
2801,-74.218750
2802,-74.218750
2803,-74.218750
2804,-74.218750
2805,-74.218750
2806,-74.218750
2807,-74.218750
2808,-74.218750
2809,-74.218750
2810,-74.218750
2811,-74.218750
2812,-74.218750
2813,-74.218750
2814,-78.125000
2815,-78.125000
2816,-74.218750
2817,-74.218750
2818,-74.218750
2819,-74.218750
2820,-74.218750
2821,-74.218750
2822,-74.218750
2823,-74.218750
2824,-74.218750
2825,-74.218750
2826,-74.218750
2827,-74.218750
2828,-74.218750
2829,-74.218750
2830,-74.218750
2831,-74.218750
2832,-74.218750
2833,-74.218750
2834,-74.218750
2835,-74.218750
2836,-74.218750
2837,-74.218750
2838,-74.218750
2839,-74.218750
2840,-74.218750
2841,-74.218750
2842,-74.218750
2843,-74.218750
2844,-74.218750
2845,-74.218750
2846,-74.218750
2847,-74.218750
2848,-74.218750
2849,-74.218750
2850,-74.218750
2851,-74.218750
2852,-74.218750
2853,-74.218750
2854,-74.218750
2855,-74.218750
2856,-74.218750
2857,-70.312500
2858,-70.312500
2859,-70.312500
2860,-70.312500
2861,-70.312500
2862,-70.312500
2863,-70.312500
2864,-70.312500
2865,-70.312500
2866,-70.312500
2867,-70.312500
2868,-70.312500
2869,-70.312500
2870,-70.312500
2871,-70.312500
2872,-70.312500
2873,-70.312500
2874,-70.312500
2875,-70.312500
2876,-70.312500
2877,-70.312500
2878,-66.406250
2879,-66.406250
2880,-66.406250
2881,-66.406250
2882,-66.406250
2883,-66.406250
2884,-66.406250
2885,-66.406250
2886,-66.406250
2887,-66.406250
2888,-66.406250
2889,-66.406250
2890,-66.406250
2891,-66.406250
2892,-66.406250
2893,-66.406250
2894,-66.406250
2895,-66.406250
2896,-66.406250
2897,-66.406250
2898,-66.406250
2899,-62.500000
2900,-62.500000
2901,-62.500000
2902,-62.500000
2903,-62.500000
2904,-62.500000
2905,-62.500000
2906,-62.500000
2907,-62.500000
2908,-62.500000
2909,-62.500000
2910,-62.500000
2911,-62.500000
2912,-58.593750
2913,-58.593750
2914,-58.593750
2915,-58.593750
2916,-58.593750
2917,-58.593750
2918,-58.593750
2919,-58.593750
2920,-58.593750
2921,-58.593750
2922,-58.593750
2923,-58.593750
2924,-58.593750
2925,-58.593750
2926,-58.593750
2927,-54.687500
2928,-58.593750
2929,-54.687500
2930,-54.687500
2931,-54.687500
2932,-54.687500
2933,-54.687500
2934,-54.687500
2935,-54.687500
2936,-54.687500
2937,-54.687500
2938,-54.687500
2939,-54.687500
2940,-54.687500
2941,-50.781250
2942,-50.781250
2943,-50.781250
2944,-50.781250
2945,-50.781250
2946,-50.781250
2947,-50.781250
2948,-50.781250
2949,-50.781250
2950,-50.781250
2951,-50.781250
2952,-50.781250
2953,-46.875000
2954,-46.875000
2955,-46.875000
2956,-46.875000
2957,-46.875000
2958,-46.875000
2959,-46.875000
2960,-46.875000
2961,-46.875000
2962,-46.875000
2963,-46.875000
2964,-46.875000
2965,-42.968750
2966,-42.968750
2967,-42.968750
2968,-42.968750
2969,-42.968750
2970,-42.968750
2971,-42.968750
2972,-42.968750
2973,-42.968750
2974,-42.968750
2975,-42.968750
2976,-39.062500
2977,-39.062500
2978,-39.062500
2979,-39.062500
2980,-39.062500
2981,-39.062500
2982,-39.062500
2983,-39.062500
2984,-39.062500
2985,-39.062500
2986,-35.156250
2987,-35.156250
2988,-35.156250
2989,-35.156250
2990,-35.156250
2991,-35.156250
2992,-35.156250
2993,-35.156250
2994,-35.156250
2995,-35.156250
2996,-35.156250
2997,-31.250000
2998,-35.156250
2999,-31.250000
3000,-31.250000
3001,-31.250000
3002,-31.250000
3003,-31.250000
3004,-31.250000
3005,-31.250000
3006,-27.343750
3007,-31.250000
3008,-27.343750
3009,-27.343750
3010,-27.343750
3011,-27.343750
3012,-27.343750
3013,-27.343750
3014,-27.343750
3015,-27.343750
3016,-23.437500
3017,-27.343750
3018,-23.437500
3019,-23.437500
3020,-23.437500
3021,-23.437500
3022,-23.437500
3023,-23.437500
3024,-23.437500
3025,-23.437500
3026,-23.437500
3027,-23.437500
3028,-19.531250
3029,-19.531250
3030,-19.531250
3031,-19.531250
3032,-19.531250
3033,-19.531250
3034,-19.531250
3035,-19.531250
3036,-19.531250
3037,-19.531250
3038,-15.625000
3039,-15.625000
3040,-15.625000
3041,-15.625000
3042,-15.625000
3043,-15.625000
3044,-15.625000
3045,-15.625000
3046,-15.625000
3047,-11.718750
3048,-15.625000
3049,-11.718750
3050,-11.718750
3051,-11.718750
3052,-11.718750
3053,-11.718750
3054,-11.718750
3055,-11.718750
3056,-11.718750
3057,-11.718750
3058,-11.718750
3059,-7.812500
3060,-7.812500
3061,-7.812500
3062,-7.812500
3063,-7.812500
3064,-7.812500
3065,-7.812500
3066,-7.812500
3067,-3.906250
3068,-3.906250
3069,-3.906250
3070,-3.906250
3071,-3.906250
3072,-3.906250
3073,-3.906250
3074,-3.906250
3075,-3.906250
3076,-3.906250
3077,0.000000
3078,0.000000
3079,0.000000
3080,0.000000
3081,0.000000
3082,0.000000
3083,0.000000
3084,0.000000
3085,0.000000
3086,0.000000
3087,0.000000
3088,3.906250
3089,3.906250
3090,3.906250
3091,3.906250
3092,3.906250
3093,3.906250
3094,3.906250
3095,3.906250
3096,3.906250
3097,3.906250
3098,3.906250
3099,7.812500
3100,7.812500
3101,7.812500
3102,7.812500
3103,7.812500
3104,7.812500
3105,7.812500
3106,7.812500
3107,7.812500
3108,7.812500
3109,7.812500
3110,11.718750
3111,11.718750
3112,11.718750
3113,11.718750
3114,11.718750
3115,11.718750
3116,11.718750
3117,11.718750
3118,11.718750
3119,11.718750
3120,11.718750
3121,15.625000
3122,11.718750
3123,15.625000
3124,15.625000
3125,15.625000
3126,15.625000
3127,15.625000
3128,15.625000
3129,15.625000
3130,15.625000
3131,15.625000
3132,19.531250
3133,19.531250
3134,19.531250
3135,19.531250
3136,19.531250
3137,19.531250
3138,19.531250
3139,19.531250
3140,19.531250
3141,19.531250
3142,19.531250
3143,19.531250
3144,23.437500
3145,23.437500
3146,23.437500
3147,23.437500
3148,23.437500
3149,23.437500
3150,23.437500
3151,23.437500
3152,23.437500
3153,23.437500
3154,23.437500
3155,23.437500
3156,23.437500
3157,27.343750
3158,23.437500
3159,27.343750
3160,27.343750
3161,27.343750
3162,27.343750
3163,27.343750
3164,27.343750
3165,27.343750
3166,27.343750
3167,27.343750
3168,27.343750
3169,27.343750
3170,31.250000
3171,27.343750
3172,31.250000
3173,31.250000
3174,31.250000
3175,31.250000
3176,31.250000
3177,31.250000
3178,31.250000
3179,31.250000
3180,31.250000
3181,31.250000
3182,31.250000
3183,31.250000
3184,31.250000
3185,31.250000
3186,35.156250
3187,35.156250
3188,31.250000
3189,31.250000
3190,35.156250
3191,35.156250
3192,35.156250
3193,35.156250
3194,35.156250
3195,35.156250
3196,35.156250
3197,35.156250
3198,35.156250
3199,35.156250
3200,35.156250
3201,35.156250
3202,35.156250
3203,35.156250
3204,35.156250
3205,35.156250
3206,39.062500
3207,35.156250
3208,39.062500
3209,39.062500
3210,39.062500
3211,39.062500
3212,39.062500
3213,39.062500
3214,39.062500
3215,39.062500
3216,39.062500
3217,39.062500
3218,39.062500
3219,39.062500
3220,39.062500
3221,39.062500
3222,39.062500
3223,39.062500
3224,39.062500
3225,39.062500
3226,39.062500
3227,39.062500
3228,39.062500
3229,39.062500
3230,42.968750
3231,42.968750
3232,42.968750
3233,42.968750
3234,42.968750
3235,42.968750
3236,42.968750
3237,42.968750
3238,42.968750
3239,42.968750
3240,42.968750
3241,42.968750
3242,42.968750
3243,42.968750
3244,42.968750
3245,42.968750
3246,42.968750
3247,42.968750
3248,42.968750
3249,42.968750
3250,42.968750
3251,42.968750
3252,42.968750
3253,42.968750
3254,42.968750
3255,42.968750
3256,42.968750
3257,42.968750
3258,42.968750
3259,42.968750
3260,46.875000
3261,46.875000
3262,42.968750
3263,46.875000
3264,42.968750
3265,42.968750
3266,42.968750
3267,46.875000
3268,46.875000
3269,46.875000
3270,46.875000
3271,46.875000
3272,46.875000
3273,46.875000
3274,46.875000
3275,46.875000
3276,46.875000
3277,46.875000
3278,46.875000
3279,46.875000
3280,46.875000
3281,46.875000
3282,46.875000
3283,46.875000
3284,46.875000
3285,46.875000
3286,46.875000
3287,46.875000
3288,46.875000
3289,46.875000
3290,46.875000
3291,46.875000
3292,46.875000
3293,46.875000
3294,46.875000
3295,46.875000
3296,46.875000
3297,46.875000
3298,46.875000
3299,46.875000
3300,46.875000
3301,46.875000
3302,46.875000
3303,46.875000
3304,46.875000
3305,46.875000
3306,46.875000
3307,46.875000
3308,46.875000
3309,46.875000
3310,46.875000
3311,46.875000
3312,46.875000
3313,46.875000
3314,46.875000
3315,46.875000
3316,42.968750
3317,46.875000
3318,46.875000
3319,46.875000
3320,46.875000
3321,46.875000
3322,46.875000
3323,46.875000
3324,46.875000
3325,42.968750
3326,46.875000
3327,46.875000
3328,42.968750
3329,42.968750
3330,46.875000
3331,42.968750
3332,42.968750
3333,42.968750
3334,42.968750
3335,42.968750
3336,42.968750
3337,42.968750
3338,42.968750
3339,42.968750
3340,42.968750
3341,42.968750
3342,42.968750
3343,42.968750
3344,42.968750
3345,42.968750
3346,42.968750
3347,42.968750
3348,42.968750
3349,42.968750
3350,42.968750
3351,42.968750
3352,42.968750
3353,42.968750
3354,42.968750
3355,42.968750
3356,42.968750
3357,42.968750
3358,42.968750
3359,42.968750
3360,42.968750
3361,42.968750
3362,42.968750
3363,42.968750
3364,42.968750
3365,42.968750
3366,39.062500
3367,39.062500
3368,39.062500
3369,39.062500
3370,39.062500
3371,39.062500
3372,39.062500
3373,39.062500
3374,39.062500
3375,39.062500
3376,39.062500
3377,39.062500
3378,39.062500
3379,39.062500
3380,39.062500
3381,39.062500
3382,39.062500
3383,39.062500
3384,39.062500
3385,39.062500
3386,39.062500
3387,39.062500
3388,35.156250
3389,35.156250
3390,35.156250
3391,35.156250
3392,35.156250
3393,35.156250
3394,35.156250
3395,35.156250
3396,35.156250
3397,35.156250
3398,35.156250
3399,35.156250
3400,35.156250
3401,35.156250
3402,35.156250
3403,35.156250
3404,35.156250
3405,35.156250
3406,35.156250
3407,31.250000
3408,31.250000
3409,31.250000
3410,31.250000
3411,31.250000
3412,31.250000
3413,31.250000
3414,31.250000
3415,31.250000
3416,31.250000
3417,31.250000
3418,31.250000
3419,31.250000
3420,31.250000
3421,31.250000
3422,31.250000
3423,31.250000
3424,31.250000
3425,27.343750
3426,27.343750
3427,27.343750
3428,27.343750
3429,27.343750
3430,27.343750
3431,27.343750
3432,27.343750
3433,27.343750
3434,27.343750
3435,27.343750
3436,27.343750
3437,23.437500
3438,23.437500
3439,23.437500
3440,23.437500
3441,23.437500
3442,23.437500
3443,23.437500
3444,23.437500
3445,23.437500
3446,23.437500
3447,23.437500
3448,23.437500
3449,23.437500
3450,19.531250
3451,19.531250
3452,19.531250
3453,23.437500
3454,19.531250
3455,19.531250
3456,19.531250
3457,19.531250
3458,19.531250
3459,19.531250
3460,19.531250
3461,19.531250
3462,19.531250
3463,19.531250
3464,15.625000
3465,15.625000
3466,15.625000
3467,15.625000
3468,15.625000
3469,15.625000
3470,15.625000
3471,15.625000
3472,15.625000
3473,15.625000
3474,15.625000
3475,15.625000
3476,15.625000
3477,11.718750
3478,11.718750
3479,11.718750
3480,11.718750
3481,11.718750
3482,11.718750
3483,11.718750
3484,11.718750
3485,11.718750
3486,11.718750
3487,11.718750
3488,11.718750
3489,7.812500
3490,7.812500
3491,7.812500
3492,7.812500
3493,7.812500
3494,7.812500
3495,7.812500
3496,7.812500
3497,7.812500
3498,7.812500
3499,7.812500
3500,3.906250
3501,3.906250
3502,3.906250
3503,3.906250
3504,3.906250
3505,3.906250
3506,3.906250
3507,3.906250
3508,3.906250
3509,3.906250
3510,3.906250
3511,0.000000
3512,0.000000
3513,0.000000
3514,0.000000
3515,0.000000
3516,0.000000
3517,0.000000
3518,0.000000
3519,0.000000
3520,0.000000
3521,-3.906250
3522,-3.906250
3523,-3.906250
3524,-3.906250
3525,-3.906250
3526,-3.906250
3527,-3.906250
3528,-3.906250
3529,-3.906250
3530,-3.906250
3531,-7.812500
3532,-7.812500
3533,-7.812500
3534,-7.812500
3535,-7.812500
3536,-7.812500
3537,-7.812500
3538,-7.812500
3539,-7.812500
3540,-7.812500
3541,-11.718750
3542,-11.718750
3543,-11.718750
3544,-11.718750
3545,-11.718750
3546,-11.718750
3547,-11.718750
3548,-11.718750
3549,-11.718750
3550,-11.718750
3551,-11.718750
3552,-15.625000
3553,-15.625000
3554,-15.625000
3555,-15.625000
3556,-15.625000
3557,-15.625000
3558,-15.625000
3559,-15.625000
3560,-15.625000
3561,-15.625000
3562,-15.625000
3563,-15.625000
3564,-19.531250
3565,-19.531250
3566,-19.531250
3567,-19.531250
3568,-19.531250
3569,-19.531250
3570,-19.531250
3571,-19.531250
3572,-23.437500
3573,-23.437500
3574,-23.437500
3575,-23.437500
3576,-23.437500
3577,-23.437500
3578,-23.437500
3579,-23.437500
3580,-23.437500
3581,-23.437500
3582,-27.343750
3583,-27.343750
3584,-27.343750
3585,-27.343750
3586,-27.343750
3587,-27.343750
3588,-27.343750
3589,-27.343750
3590,-27.343750
3591,-27.343750
3592,-27.343750
3593,-31.250000
3594,-31.250000
3595,-31.250000
3596,-31.250000
3597,-31.250000
3598,-31.250000
3599,-31.250000
3600,-31.250000
3601,-31.250000
3602,-31.250000
3603,-31.250000
3604,-35.156250
3605,-35.156250
3606,-35.156250
3607,-35.156250
3608,-35.156250
3609,-35.156250
3610,-35.156250
3611,-35.156250
3612,-35.156250
3613,-35.156250
3614,-39.062500
3615,-39.062500
3616,-39.062500
3617,-39.062500
3618,-39.062500
3619,-39.062500
3620,-39.062500
3621,-39.062500
3622,-39.062500
3623,-39.062500
3624,-39.062500
3625,-42.968750
3626,-42.968750
3627,-42.968750
3628,-42.968750
3629,-42.968750
3630,-42.968750
3631,-42.968750
3632,-42.968750
3633,-42.968750
3634,-42.968750
3635,-42.968750
3636,-42.968750
3637,-46.875000
3638,-46.875000
3639,-46.875000
3640,-46.875000
3641,-46.875000
3642,-46.875000
3643,-46.875000
3644,-46.875000
3645,-46.875000
3646,-46.875000
3647,-50.781250
3648,-50.781250
3649,-50.781250
3650,-50.781250
3651,-50.781250
3652,-50.781250
3653,-50.781250
3654,-50.781250
3655,-50.781250
3656,-50.781250
3657,-50.781250
3658,-50.781250
3659,-50.781250
3660,-54.687500
3661,-54.687500
3662,-54.687500
3663,-54.687500
3664,-54.687500
3665,-54.687500
3666,-54.687500
3667,-54.687500
3668,-54.687500
3669,-54.687500
3670,-54.687500
3671,-54.687500
3672,-54.687500
3673,-54.687500
3674,-54.687500
3675,-54.687500
3676,-58.593750
3677,-58.593750
3678,-58.593750
3679,-58.593750
3680,-58.593750
3681,-58.593750
3682,-58.593750
3683,-58.593750
3684,-58.593750
3685,-58.593750
3686,-58.593750
3687,-58.593750
3688,-58.593750
3689,-62.500000
3690,-62.500000
3691,-62.500000
3692,-62.500000
3693,-62.500000
3694,-62.500000
3695,-62.500000
3696,-62.500000
3697,-62.500000
3698,-62.500000
3699,-62.500000
3700,-62.500000
3701,-62.500000
3702,-62.500000
3703,-62.500000
3704,-62.500000
3705,-62.500000
3706,-66.406250
3707,-66.406250
3708,-66.406250
3709,-66.406250
3710,-66.406250
3711,-66.406250
3712,-66.406250
3713,-66.406250
3714,-66.406250
3715,-66.406250
3716,-66.406250
3717,-66.406250
3718,-66.406250
3719,-66.406250
3720,-66.406250
3721,-66.406250
3722,-66.406250
3723,-66.406250
3724,-70.312500
3725,-70.312500
3726,-70.312500
3727,-70.312500
3728,-70.312500
3729,-70.312500
3730,-70.312500
3731,-70.312500
3732,-70.312500
3733,-70.312500
3734,-70.312500
3735,-70.312500
3736,-70.312500
3737,-70.312500
3738,-70.312500
3739,-70.312500
3740,-70.312500
3741,-70.312500
3742,-70.312500
3743,-70.312500
3744,-70.312500
3745,-70.312500
3746,-70.312500
3747,-70.312500
3748,-70.312500
3749,-74.218750
3750,-74.218750
3751,-74.218750
3752,-74.218750
3753,-74.218750
3754,-74.218750
3755,-74.218750
3756,-74.218750
3757,-74.218750
3758,-74.218750
3759,-74.218750
3760,-74.218750
3761,-74.218750
3762,-74.218750
3763,-74.218750
3764,-74.218750
3765,-74.218750
3766,-74.218750
3767,-74.218750
3768,-74.218750
3769,-74.218750
3770,-74.218750
3771,-74.218750
3772,-74.218750
3773,-74.218750
3774,-74.218750
3775,-74.218750
3776,-74.218750
3777,-74.218750
3778,-74.218750
3779,-74.218750
3780,-74.218750
3781,-74.218750
3782,-74.218750
3783,-74.218750
3784,-74.218750
3785,-74.218750
3786,-74.218750
3787,-74.218750
3788,-74.218750
3789,-74.218750
3790,-74.218750
3791,-74.218750
3792,-74.218750
3793,-74.218750
3794,-74.218750
3795,-74.218750
3796,-74.218750
3797,-74.218750
3798,-74.218750
3799,-74.218750
3800,-74.218750
3801,-74.218750
3802,-74.218750
3803,-74.218750
3804,-74.218750
3805,-74.218750
3806,-74.218750
3807,-74.218750
3808,-74.218750
3809,-74.218750
3810,-74.218750
3811,-74.218750
3812,-74.218750
3813,-74.218750
3814,-74.218750
3815,-74.218750
3816,-74.218750
3817,-74.218750
3818,-74.218750
3819,-74.218750
3820,-74.218750
3821,-74.218750
3822,-74.218750
3823,-74.218750
3824,-74.218750
3825,-74.218750
3826,-74.218750
3827,-74.218750
3828,-74.218750
3829,-74.218750
3830,-74.218750
3831,-74.218750
3832,-74.218750
3833,-74.218750
3834,-74.218750
3835,-74.218750
3836,-74.218750
3837,-74.218750
3838,-74.218750
3839,-74.218750
3840,-74.218750
3841,-74.218750
3842,-70.312500
3843,-74.218750
3844,-70.312500
3845,-70.312500
3846,-70.312500
3847,-70.312500
3848,-70.312500
3849,-70.312500
3850,-70.312500
3851,-70.312500
3852,-70.312500
3853,-70.312500
3854,-70.312500
3855,-70.312500
3856,-70.312500
3857,-70.312500
3858,-70.312500
3859,-70.312500
3860,-70.312500
3861,-70.312500
3862,-70.312500
3863,-70.312500
3864,-70.312500
3865,-70.312500
3866,-70.312500
3867,-70.312500
3868,-70.312500
3869,-70.312500
3870,-66.406250
3871,-66.406250
3872,-66.406250
3873,-66.406250
3874,-66.406250
3875,-66.406250
3876,-66.406250
3877,-66.406250
3878,-66.406250
3879,-66.406250
3880,-66.406250
3881,-66.406250
3882,-66.406250
3883,-66.406250
3884,-66.406250
3885,-66.406250
3886,-66.406250
3887,-62.500000
3888,-66.406250
3889,-62.500000
3890,-62.500000
3891,-62.500000
3892,-62.500000
3893,-62.500000
3894,-62.500000
3895,-62.500000
3896,-62.500000
3897,-62.500000
3898,-62.500000
3899,-62.500000
3900,-62.500000
3901,-58.593750
3902,-62.500000
3903,-62.500000
3904,-58.593750
3905,-62.500000
3906,-58.593750
3907,-58.593750
3908,-58.593750
3909,-58.593750
3910,-58.593750
3911,-58.593750
3912,-58.593750
3913,-58.593750
3914,-58.593750
3915,-58.593750
3916,-58.593750
3917,-58.593750
3918,-54.687500
3919,-54.687500
3920,-54.687500
3921,-54.687500
3922,-54.687500
3923,-54.687500
3924,-54.687500
3925,-54.687500
3926,-54.687500
3927,-54.687500
3928,-54.687500
3929,-54.687500
3930,-54.687500
3931,-50.781250
3932,-50.781250
3933,-50.781250
3934,-50.781250
3935,-50.781250
3936,-50.781250
3937,-50.781250
3938,-50.781250
3939,-50.781250
3940,-50.781250
3941,-50.781250
3942,-50.781250
3943,-46.875000
3944,-50.781250
3945,-46.875000
3946,-46.875000
3947,-46.875000
3948,-46.875000
3949,-46.875000
3950,-46.875000
3951,-46.875000
3952,-46.875000
3953,-46.875000
3954,-46.875000
3955,-42.968750
3956,-42.968750
3957,-42.968750
3958,-42.968750
3959,-42.968750
3960,-42.968750
3961,-42.968750
3962,-42.968750
3963,-42.968750
3964,-42.968750
3965,-42.968750
3966,-42.968750
3967,-39.062500
3968,-39.062500
3969,-39.062500
3970,-39.062500
3971,-39.062500
3972,-39.062500
3973,-39.062500
3974,-39.062500
3975,-39.062500
3976,-39.062500
3977,-35.156250
3978,-35.156250
3979,-35.156250
3980,-35.156250
3981,-35.156250
3982,-35.156250
3983,-35.156250
3984,-35.156250
3985,-35.156250
3986,-35.156250
3987,-35.156250
3988,-35.156250
3989,-31.250000
3990,-31.250000
3991,-31.250000
3992,-31.250000
3993,-31.250000
3994,-31.250000
3995,-31.250000
3996,-31.250000
3997,-27.343750
3998,-27.343750
3999,-27.343750
4000,-27.343750
4001,-27.343750
4002,-27.343750
4003,-27.343750
4004,-27.343750
4005,-27.343750
4006,-27.343750
4007,-23.437500
4008,-23.437500
4009,-23.437500
4010,-23.437500
4011,-23.437500
4012,-23.437500
4013,-23.437500
4014,-23.437500
4015,-23.437500
4016,-23.437500
4017,-19.531250
4018,-19.531250
4019,-19.531250
4020,-19.531250
4021,-19.531250
4022,-19.531250
4023,-19.531250
4024,-19.531250
4025,-15.625000
4026,-19.531250
4027,-19.531250
4028,-15.625000
4029,-15.625000
4030,-15.625000
4031,-15.625000
4032,-15.625000
4033,-15.625000
4034,-15.625000
4035,-15.625000
4036,-11.718750
4037,-11.718750
4038,-11.718750
4039,-11.718750
4040,-11.718750
4041,-11.718750
4042,-11.718750
4043,-11.718750
4044,-11.718750
4045,-7.812500
4046,-7.812500
4047,-7.812500
4048,-7.812500
4049,-7.812500
4050,-7.812500
4051,-7.812500
4052,-7.812500
4053,-7.812500
4054,-7.812500
4055,-7.812500
4056,-7.812500
4057,-3.906250
4058,-3.906250
4059,-3.906250
4060,-3.906250
4061,-3.906250
4062,-3.906250
4063,-3.906250
4064,-3.906250
4065,-3.906250
4066,-3.906250
4067,0.000000
4068,0.000000
4069,0.000000
4070,0.000000
4071,0.000000
4072,0.000000
4073,0.000000
4074,0.000000
4075,0.000000
4076,3.906250
4077,3.906250
4078,3.906250
4079,3.906250
4080,3.906250
4081,3.906250
4082,3.906250
4083,3.906250
4084,3.906250
4085,3.906250
4086,3.906250
4087,7.812500
4088,7.812500
4089,7.812500
4090,7.812500
4091,7.812500
4092,7.812500
4093,7.812500
4094,7.812500
4095,7.812500
4096,7.812500
4097,7.812500
4098,7.812500
4099,7.812500
4100,11.718750
4101,11.718750
4102,11.718750
4103,11.718750
4104,11.718750
4105,11.718750
4106,11.718750
4107,11.718750
4108,11.718750
4109,11.718750
4110,15.625000
4111,15.625000
4112,15.625000
4113,15.625000
4114,15.625000
4115,15.625000
4116,15.625000
4117,15.625000
4118,15.625000
4119,15.625000
4120,15.625000
4121,15.625000
4122,19.531250
4123,19.531250
4124,19.531250
4125,19.531250
4126,19.531250
4127,19.531250
4128,19.531250
4129,19.531250
4130,19.531250
4131,19.531250
4132,19.531250
4133,19.531250
4134,23.437500
4135,23.437500
4136,23.437500
4137,23.437500
4138,23.437500
4139,23.437500
4140,23.437500
4141,23.437500
4142,23.437500
4143,23.437500
4144,23.437500
4145,23.437500
4146,27.343750
4147,27.343750
4148,27.343750
4149,27.343750
4150,27.343750
4151,27.343750
4152,27.343750
4153,27.343750
4154,27.343750
4155,27.343750
4156,27.343750
4157,27.343750
4158,27.343750
4159,27.343750
4160,27.343750
4161,27.343750
4162,31.250000
4163,31.250000
4164,31.250000
4165,31.250000
4166,31.250000
4167,31.250000
4168,31.250000
4169,31.250000
4170,31.250000
4171,31.250000
4172,31.250000
4173,31.250000
4174,31.250000
4175,35.156250
4176,35.156250
4177,35.156250
4178,35.156250
4179,35.156250
4180,35.156250
4181,35.156250
4182,35.156250
4183,35.156250
4184,35.156250
4185,35.156250
4186,35.156250
4187,35.156250
4188,35.156250
4189,35.156250
4190,35.156250
4191,35.156250
4192,39.062500
4193,35.156250
4194,39.062500
4195,39.062500
4196,39.062500
4197,35.156250
4198,39.062500
4199,39.062500
4200,39.062500
4201,39.062500
4202,39.062500
4203,39.062500
4204,39.062500
4205,39.062500
4206,39.062500
4207,39.062500
4208,39.062500
4209,39.062500
4210,39.062500
4211,39.062500
4212,39.062500
4213,39.062500
4214,42.968750
4215,42.968750
4216,42.968750
4217,42.968750
4218,42.968750
4219,42.968750
4220,42.968750
4221,42.968750
4222,42.968750
4223,42.968750
4224,42.968750
4225,42.968750
4226,42.968750
4227,42.968750
4228,42.968750
4229,42.968750
4230,42.968750
4231,42.968750
4232,42.968750
4233,42.968750
4234,42.968750
4235,42.968750
4236,42.968750
4237,42.968750
4238,42.968750
4239,42.968750
4240,42.968750
4241,42.968750
4242,42.968750
4243,42.968750
4244,42.968750
4245,42.968750
4246,46.875000
4247,46.875000
4248,46.875000
4249,46.875000
4250,42.968750
4251,46.875000
4252,46.875000
4253,42.968750
4254,46.875000
4255,46.875000
4256,46.875000
4257,46.875000
4258,46.875000
4259,46.875000
4260,46.875000
4261,46.875000
4262,46.875000
4263,46.875000
4264,46.875000
4265,46.875000
4266,46.875000
4267,46.875000
4268,46.875000
4269,46.875000
4270,46.875000
4271,46.875000
4272,46.875000
4273,46.875000
4274,46.875000
4275,46.875000
4276,46.875000
4277,46.875000
4278,46.875000
4279,46.875000
4280,46.875000
4281,46.875000
4282,46.875000
4283,46.875000
4284,46.875000
4285,46.875000
4286,46.875000
4287,46.875000
4288,46.875000
4289,46.875000
4290,46.875000
4291,46.875000
4292,46.875000
4293,46.875000
4294,42.968750
4295,46.875000
4296,46.875000
4297,46.875000
4298,46.875000
4299,46.875000
4300,46.875000
4301,46.875000
4302,46.875000
4303,46.875000
4304,46.875000
4305,46.875000
4306,46.875000
4307,46.875000
4308,46.875000
4309,46.875000
4310,46.875000
4311,46.875000
4312,46.875000
4313,46.875000
4314,46.875000
4315,42.968750
4316,42.968750
4317,42.968750
4318,42.968750
4319,46.875000
4320,46.875000
4321,42.968750
4322,42.968750
4323,46.875000
4324,46.875000
4325,42.968750
4326,42.968750
4327,42.968750
4328,42.968750
4329,42.968750
4330,42.968750
4331,42.968750
4332,42.968750
4333,42.968750
4334,42.968750
4335,42.968750
4336,42.968750
4337,42.968750
4338,42.968750
4339,42.968750
4340,42.968750
4341,42.968750
4342,42.968750
4343,42.968750
4344,42.968750
4345,42.968750
4346,42.968750
4347,42.968750
4348,42.968750
4349,39.062500
4350,42.968750
4351,42.968750
4352,42.968750
4353,42.968750
4354,39.062500
4355,39.062500
4356,39.062500
4357,39.062500
4358,39.062500
4359,39.062500
4360,39.062500
4361,39.062500
4362,39.062500
4363,39.062500
4364,39.062500
4365,39.062500
4366,39.062500
4367,39.062500
4368,39.062500
4369,39.062500
4370,39.062500
4371,39.062500
4372,39.062500
4373,35.156250
4374,35.156250
4375,39.062500
4376,35.156250
4377,35.156250
4378,35.156250
4379,35.156250
4380,35.156250
4381,35.156250
4382,35.156250
4383,39.062500
4384,35.156250
4385,35.156250
4386,35.156250
4387,35.156250
4388,35.156250
4389,35.156250
4390,35.156250
4391,35.156250
4392,35.156250
4393,35.156250
4394,35.156250
4395,31.250000
4396,31.250000
4397,31.250000
4398,31.250000
4399,31.250000
4400,31.250000
4401,31.250000
4402,31.250000
4403,31.250000
4404,31.250000
4405,31.250000
4406,31.250000
4407,31.250000
4408,31.250000
4409,31.250000
4410,31.250000
4411,27.343750
4412,27.343750
4413,27.343750
4414,27.343750
4415,27.343750
4416,27.343750
4417,27.343750
4418,27.343750
4419,27.343750
4420,27.343750
4421,27.343750
4422,27.343750
4423,27.343750
4424,27.343750
4425,27.343750
4426,27.343750
4427,27.343750
4428,23.437500
4429,23.437500
4430,23.437500
4431,23.437500
4432,23.437500
4433,23.437500
4434,23.437500
4435,23.437500
4436,23.437500
4437,23.437500
4438,23.437500
4439,19.531250
4440,19.531250
4441,23.437500
4442,19.531250
4443,19.531250
4444,19.531250
4445,19.531250
4446,19.531250
4447,19.531250
4448,19.531250
4449,19.531250
4450,19.531250
4451,19.531250
4452,15.625000
4453,15.625000
4454,15.625000
4455,15.625000
4456,15.625000
4457,15.625000
4458,15.625000
4459,15.625000
4460,15.625000
4461,15.625000
4462,15.625000
4463,15.625000
4464,11.718750
4465,11.718750
4466,11.718750
4467,11.718750
4468,11.718750
4469,11.718750
4470,11.718750
4471,11.718750
4472,11.718750
4473,11.718750
4474,11.718750
4475,7.812500
4476,7.812500
4477,7.812500
4478,7.812500
4479,7.812500
4480,7.812500
4481,7.812500
4482,7.812500
4483,7.812500
4484,3.906250
4485,7.812500
4486,7.812500
4487,7.812500
4488,3.906250
4489,3.906250
4490,3.906250
4491,3.906250
4492,3.906250
4493,3.906250
4494,3.906250
4495,3.906250
4496,3.906250
4497,3.906250
4498,0.000000
4499,0.000000
4500,0.000000
4501,0.000000
4502,0.000000
4503,0.000000
4504,0.000000
4505,0.000000
4506,0.000000
4507,0.000000
4508,0.000000
4509,0.000000
4510,-3.906250
4511,-3.906250
4512,-3.906250
4513,-3.906250
4514,-3.906250
4515,-3.906250
4516,-3.906250
4517,-3.906250
4518,-3.906250
4519,-7.812500
4520,-7.812500
4521,-7.812500
4522,-7.812500
4523,-7.812500
4524,-7.812500
4525,-7.812500
4526,-7.812500
4527,-7.812500
4528,-7.812500
4529,-7.812500
4530,-7.812500
4531,-11.718750
4532,-11.718750
4533,-11.718750
4534,-11.718750
4535,-11.718750
4536,-11.718750
4537,-11.718750
4538,-11.718750
4539,-15.625000
4540,-15.625000
4541,-15.625000
4542,-15.625000
4543,-15.625000
4544,-15.625000
4545,-15.625000
4546,-15.625000
4547,-15.625000
4548,-15.625000
4549,-19.531250
4550,-19.531250
4551,-19.531250
4552,-19.531250
4553,-19.531250
4554,-19.531250
4555,-19.531250
4556,-19.531250
4557,-19.531250
4558,-19.531250
4559,-19.531250
4560,-19.531250
4561,-23.437500
4562,-23.437500
4563,-23.437500
4564,-23.437500
4565,-23.437500
4566,-23.437500
4567,-23.437500
4568,-23.437500
4569,-23.437500
4570,-27.343750
4571,-27.343750
4572,-27.343750
4573,-27.343750
4574,-27.343750
4575,-27.343750
4576,-27.343750
4577,-27.343750
4578,-27.343750
4579,-27.343750
4580,-27.343750
4581,-27.343750
4582,-27.343750
4583,-27.343750
4584,-31.250000
4585,-31.250000
4586,-31.250000
4587,-31.250000
4588,-31.250000
4589,-31.250000
4590,-31.250000
4591,-31.250000
4592,-31.250000
4593,-35.156250
4594,-35.156250
4595,-35.156250
4596,-35.156250
4597,-35.156250
4598,-35.156250
4599,-35.156250
4600,-35.156250
4601,-35.156250
4602,-39.062500
4603,-39.062500
4604,-35.156250
4605,-39.062500
4606,-39.062500
4607,-39.062500
4608,-39.062500
4609,-39.062500
4610,-39.062500
4611,-39.062500
4612,-39.062500
4613,-39.062500
4614,-39.062500
4615,-42.968750
4616,-42.968750
4617,-42.968750
4618,-42.968750
4619,-42.968750
4620,-42.968750
4621,-42.968750
4622,-42.968750
4623,-42.968750
4624,-42.968750
4625,-42.968750
4626,-42.968750
4627,-46.875000
4628,-46.875000
4629,-46.875000
4630,-46.875000
4631,-46.875000
4632,-46.875000
4633,-46.875000
4634,-46.875000
4635,-46.875000
4636,-46.875000
4637,-50.781250
4638,-50.781250
4639,-50.781250
4640,-50.781250
4641,-50.781250
4642,-50.781250
4643,-50.781250
4644,-50.781250
4645,-50.781250
4646,-50.781250
4647,-50.781250
4648,-50.781250
4649,-50.781250
4650,-50.781250
4651,-54.687500
4652,-54.687500
4653,-54.687500
4654,-54.687500
4655,-54.687500
4656,-54.687500
4657,-54.687500
4658,-54.687500
4659,-54.687500
4660,-54.687500
4661,-54.687500
4662,-54.687500
4663,-54.687500
4664,-58.593750
4665,-58.593750
4666,-58.593750
4667,-54.687500
4668,-58.593750
4669,-58.593750
4670,-58.593750
4671,-58.593750
4672,-62.500000
4673,-58.593750
4674,-58.593750
4675,-62.500000
4676,-54.687500
4677,-58.593750
4678,-62.500000
4679,-58.593750
4680,-62.500000
4681,-62.500000
4682,-62.500000
4683,-62.500000
4684,-62.500000
4685,-62.500000
4686,-62.500000
4687,-62.500000
4688,-62.500000
4689,-62.500000
4690,-62.500000
4691,-62.500000
4692,-62.500000
4693,-62.500000
4694,-62.500000
4695,-62.500000
4696,-66.406250
4697,-62.500000
4698,-66.406250
4699,-62.500000
4700,-66.406250
4701,-66.406250
4702,-66.406250
4703,-66.406250
4704,-66.406250
4705,-66.406250
4706,-66.406250
4707,-66.406250
4708,-70.312500
4709,-66.406250
4710,-66.406250
4711,-66.406250
4712,-66.406250
4713,-66.406250
4714,-66.406250
4715,-66.406250
4716,-70.312500
4717,-70.312500
4718,-70.312500
4719,-70.312500
4720,-70.312500
4721,-70.312500
4722,-70.312500
4723,-70.312500
4724,-70.312500
4725,-70.312500
4726,-70.312500
4727,-70.312500
4728,-70.312500
4729,-70.312500
4730,-70.312500
4731,-70.312500
4732,-70.312500
4733,-70.312500
4734,-74.218750
4735,-70.312500
4736,-70.312500
4737,-70.312500
4738,-70.312500
4739,-74.218750
4740,-74.218750
4741,-70.312500
4742,-74.218750
4743,-74.218750
4744,-70.312500
4745,-74.218750
4746,-74.218750
4747,-74.218750
4748,-70.312500
4749,-74.218750
4750,-74.218750
4751,-74.218750
4752,-78.125000
4753,-74.218750
4754,-74.218750
4755,-74.218750
4756,-74.218750
4757,-74.218750
4758,-74.218750
4759,-74.218750
4760,-74.218750
4761,-74.218750
4762,-74.218750
4763,-74.218750
4764,-74.218750
4765,-78.125000
4766,-74.218750
4767,-74.218750
4768,-74.218750
4769,-74.218750
4770,-74.218750
4771,-74.218750
4772,-74.218750
4773,-74.218750
4774,-74.218750
4775,-74.218750
4776,-74.218750
4777,-74.218750
4778,-74.218750
4779,-74.218750
4780,-74.218750
4781,-74.218750
4782,-74.218750
4783,-74.218750
4784,-74.218750
4785,-74.218750
4786,-74.218750
4787,-74.218750
4788,-74.218750
4789,-74.218750
4790,-74.218750
4791,-74.218750
4792,-74.218750
4793,-74.218750
4794,-74.218750
4795,-74.218750
4796,-74.218750
4797,-74.218750
4798,-74.218750
4799,-74.218750
4800,-74.218750
4801,-74.218750
4802,-74.218750
4803,-74.218750
4804,-74.218750
4805,-74.218750
4806,-74.218750
4807,-74.218750
4808,-74.218750
4809,-74.218750
4810,-74.218750
4811,-74.218750
4812,-74.218750
4813,-74.218750
4814,-74.218750
4815,-74.218750
4816,-74.218750
4817,-74.218750
4818,-74.218750
4819,-74.218750
4820,-74.218750
4821,-74.218750
4822,-74.218750
4823,-74.218750
4824,-74.218750
4825,-74.218750
4826,-74.218750
4827,-74.218750
4828,-74.218750
4829,-70.312500
4830,-74.218750
4831,-70.312500
4832,-70.312500
4833,-70.312500
4834,-70.312500
4835,-70.312500
4836,-70.312500
4837,-70.312500
4838,-70.312500
4839,-70.312500
4840,-70.312500
4841,-70.312500
4842,-70.312500
4843,-70.312500
4844,-70.312500
4845,-70.312500
4846,-70.312500
4847,-70.312500
4848,-70.312500
4849,-70.312500
4850,-66.406250
4851,-70.312500
4852,-70.312500
4853,-70.312500
4854,-66.406250
4855,-70.312500
4856,-66.406250
4857,-66.406250
4858,-70.312500
4859,-66.406250
4860,-66.406250
4861,-66.406250
4862,-66.406250
4863,-66.406250
4864,-66.406250
4865,-66.406250
4866,-66.406250
4867,-66.406250
4868,-66.406250
4869,-66.406250
4870,-66.406250
4871,-66.406250
4872,-66.406250
4873,-66.406250
4874,-66.406250
4875,-66.406250
4876,-62.500000
4877,-62.500000
4878,-62.500000
4879,-62.500000
4880,-62.500000
4881,-62.500000
4882,-62.500000
4883,-62.500000
4884,-62.500000
4885,-62.500000
4886,-62.500000
4887,-62.500000
4888,-62.500000
4889,-62.500000
4890,-62.500000
4891,-62.500000
4892,-62.500000
4893,-58.593750
4894,-58.593750
4895,-58.593750
4896,-58.593750
4897,-58.593750
4898,-58.593750
4899,-58.593750
4900,-58.593750
4901,-58.593750
4902,-58.593750
4903,-58.593750
4904,-58.593750
4905,-58.593750
4906,-58.593750
4907,-58.593750
4908,-54.687500
4909,-54.687500
4910,-54.687500
4911,-54.687500
4912,-54.687500
4913,-54.687500
4914,-54.687500
4915,-54.687500
4916,-54.687500
4917,-54.687500
4918,-54.687500
4919,-54.687500
4920,-54.687500
4921,-50.781250
4922,-50.781250
4923,-50.781250
4924,-50.781250
4925,-50.781250
4926,-50.781250
4927,-50.781250
4928,-50.781250
4929,-50.781250
4930,-50.781250
4931,-50.781250
4932,-46.875000
4933,-46.875000
4934,-46.875000
4935,-46.875000
4936,-46.875000
4937,-46.875000
4938,-46.875000
4939,-46.875000
4940,-46.875000
4941,-46.875000
4942,-46.875000
4943,-46.875000
4944,-42.968750
4945,-42.968750
4946,-42.968750
4947,-42.968750
4948,-42.968750
4949,-42.968750
4950,-42.968750
4951,-42.968750
4952,-39.062500
4953,-42.968750
4954,-39.062500
4955,-39.062500
4956,-42.968750
4957,-39.062500
4958,-39.062500
4959,-39.062500
4960,-39.062500
4961,-39.062500
4962,-39.062500
4963,-39.062500
4964,-39.062500
4965,-39.062500
4966,-39.062500
4967,-35.156250
4968,-35.156250
4969,-35.156250
4970,-35.156250
4971,-35.156250
4972,-35.156250
4973,-35.156250
4974,-35.156250
4975,-35.156250
4976,-31.250000
4977,-31.250000
4978,-31.250000
4979,-31.250000
4980,-27.343750
4981,-31.250000
4982,-31.250000
4983,-31.250000
4984,-31.250000
4985,-31.250000
4986,-27.343750
4987,-31.250000
4988,-27.343750
4989,-27.343750
4990,-27.343750
4991,-27.343750
4992,-27.343750
4993,-27.343750
4994,-27.343750
4995,-27.343750
4996,-27.343750
4997,-23.437500
4998,-23.437500
4999,-23.437500
5000,-23.437500
5001,-23.437500
5002,-23.437500
5003,-23.437500
5004,-23.437500
5005,-23.437500
5006,-23.437500
5007,-23.437500
5008,-19.531250
5009,-19.531250
5010,-19.531250
5011,-19.531250
5012,-19.531250
5013,-19.531250
5014,-19.531250
5015,-15.625000
5016,-19.531250
5017,-19.531250
5018,-19.531250
5019,-15.625000
5020,-15.625000
5021,-15.625000
5022,-15.625000
5023,-15.625000
5024,-15.625000
5025,-15.625000
5026,-15.625000
5027,-15.625000
5028,-11.718750
5029,-11.718750
5030,-11.718750
5031,-11.718750
5032,-11.718750
5033,-11.718750
5034,-11.718750
5035,-11.718750
5036,-11.718750
5037,-7.812500
5038,-7.812500
5039,-7.812500
5040,-7.812500
5041,-7.812500
5042,-7.812500
5043,-7.812500
5044,-7.812500
5045,-7.812500
5046,-3.906250
5047,-3.906250
5048,-3.906250
5049,-3.906250
5050,-3.906250
5051,-7.812500
5052,-3.906250
5053,-3.906250
5054,-3.906250
5055,0.000000
5056,-3.906250
5057,0.000000
5058,0.000000
5059,0.000000
5060,0.000000
5061,0.000000
5062,0.000000
5063,0.000000
5064,0.000000
5065,0.000000
5066,3.906250
5067,3.906250
5068,3.906250
5069,3.906250
5070,3.906250
5071,3.906250
5072,3.906250
5073,3.906250
5074,3.906250
5075,3.906250
5076,3.906250
5077,7.812500
5078,7.812500
5079,7.812500
5080,7.812500
5081,7.812500
5082,7.812500
5083,7.812500
5084,7.812500
5085,7.812500
5086,7.812500
5087,11.718750
5088,11.718750
5089,11.718750
5090,11.718750
5091,11.718750
5092,11.718750
5093,11.718750
5094,11.718750
5095,11.718750
5096,11.718750
5097,11.718750
5098,15.625000
5099,11.718750
5100,11.718750
5101,15.625000
5102,15.625000
5103,15.625000
5104,15.625000
5105,15.625000
5106,15.625000
5107,15.625000
5108,15.625000
5109,15.625000
5110,15.625000
5111,19.531250
5112,15.625000
5113,19.531250
5114,19.531250
5115,19.531250
5116,19.531250
5117,19.531250
5118,19.531250
5119,19.531250
5120,19.531250
5121,19.531250
5122,19.531250
5123,19.531250
5124,19.531250
5125,23.437500
5126,23.437500
5127,23.437500
5128,23.437500
5129,23.437500
5130,23.437500
5131,23.437500
5132,23.437500
5133,23.437500
5134,27.343750
5135,23.437500
5136,23.437500
5137,23.437500
5138,27.343750
5139,27.343750
5140,27.343750
5141,27.343750
5142,27.343750
5143,27.343750
5144,27.343750
5145,27.343750
5146,27.343750
5147,27.343750
5148,27.343750
5149,27.343750
5150,27.343750
5151,27.343750
5152,27.343750
5153,27.343750
5154,31.250000
5155,31.250000
5156,31.250000
5157,31.250000
5158,31.250000
5159,31.250000
5160,31.250000
5161,31.250000
5162,31.250000
5163,31.250000
5164,31.250000
5165,31.250000
5166,31.250000
5167,31.250000
5168,35.156250
5169,35.156250
5170,35.156250
5171,35.156250
5172,35.156250
5173,35.156250
5174,35.156250
5175,35.156250
5176,35.156250
5177,35.156250
5178,35.156250
5179,35.156250
5180,35.156250
5181,35.156250
5182,35.156250
5183,35.156250
5184,35.156250
5185,39.062500
5186,39.062500
5187,39.062500
5188,39.062500
5189,39.062500
5190,39.062500
5191,39.062500
5192,39.062500
5193,39.062500
5194,39.062500
5195,39.062500
5196,39.062500
5197,39.062500
5198,39.062500
5199,39.062500
5200,39.062500
5201,39.062500
5202,39.062500
5203,39.062500
5204,39.062500
5205,39.062500
5206,39.062500
5207,39.062500
5208,39.062500
5209,39.062500
5210,42.968750
5211,42.968750
5212,42.968750
5213,42.968750
5214,42.968750
5215,42.968750
5216,42.968750
5217,42.968750
5218,42.968750
5219,42.968750
5220,42.968750
5221,42.968750
5222,42.968750
5223,42.968750
5224,42.968750
5225,42.968750
5226,42.968750
5227,42.968750
5228,42.968750
5229,42.968750
5230,42.968750
5231,42.968750
5232,42.968750
5233,42.968750
5234,42.968750
5235,42.968750
5236,42.968750
5237,42.968750
5238,42.968750
5239,42.968750
5240,46.875000
5241,42.968750
5242,46.875000
5243,46.875000
5244,42.968750
5245,42.968750
5246,46.875000
5247,46.875000
5248,46.875000
5249,46.875000
5250,46.875000
5251,46.875000
5252,46.875000
5253,46.875000
5254,46.875000
5255,46.875000
5256,46.875000
5257,46.875000
5258,46.875000
5259,46.875000
5260,46.875000
5261,46.875000
5262,46.875000
5263,46.875000
5264,46.875000
5265,46.875000
5266,46.875000
5267,46.875000
5268,46.875000
5269,46.875000
5270,46.875000
5271,46.875000
5272,46.875000
5273,46.875000
5274,46.875000
5275,46.875000
5276,46.875000
5277,46.875000
5278,46.875000
5279,46.875000
5280,46.875000
5281,46.875000
5282,46.875000
5283,46.875000
5284,46.875000
5285,46.875000
5286,46.875000
5287,46.875000
5288,46.875000
5289,46.875000
5290,46.875000
5291,46.875000
5292,46.875000
5293,46.875000
5294,46.875000
5295,46.875000
5296,46.875000
5297,46.875000
5298,46.875000
5299,46.875000
5300,46.875000
5301,46.875000
5302,46.875000
5303,46.875000
5304,46.875000
5305,46.875000
5306,46.875000
5307,42.968750
5308,46.875000
5309,46.875000
5310,46.875000
5311,46.875000
5312,42.968750
5313,46.875000
5314,46.875000
5315,42.968750
5316,46.875000
5317,46.875000
5318,42.968750
5319,42.968750
5320,42.968750
5321,42.968750
5322,42.968750
5323,42.968750
5324,42.968750
5325,42.968750
5326,42.968750
5327,42.968750
5328,42.968750
5329,42.968750
5330,42.968750
5331,42.968750
5332,42.968750
5333,42.968750
5334,42.968750
5335,42.968750
5336,42.968750
5337,42.968750
5338,42.968750
5339,42.968750
5340,42.968750
5341,42.968750
5342,42.968750
5343,42.968750
5344,42.968750
5345,39.062500
5346,42.968750
5347,39.062500
5348,39.062500
5349,39.062500
5350,39.062500
5351,39.062500
5352,39.062500
5353,39.062500
5354,39.062500
5355,39.062500
5356,39.062500
5357,39.062500
5358,39.062500
5359,39.062500
5360,39.062500
5361,39.062500
5362,39.062500
5363,39.062500
5364,39.062500
5365,39.062500
5366,39.062500
5367,39.062500
5368,39.062500
5369,39.062500
5370,39.062500
5371,35.156250
5372,35.156250
5373,35.156250
5374,35.156250
5375,35.156250
5376,35.156250
5377,35.156250
5378,35.156250
5379,35.156250
5380,35.156250
5381,35.156250
5382,35.156250
5383,35.156250
5384,35.156250
5385,35.156250
5386,35.156250
5387,31.250000
5388,31.250000
5389,31.250000
5390,31.250000
5391,31.250000
5392,31.250000
5393,31.250000
5394,31.250000
5395,31.250000
5396,31.250000
5397,31.250000
5398,31.250000
5399,31.250000
5400,31.250000
5401,31.250000
5402,31.250000
5403,31.250000
5404,27.343750
5405,27.343750
5406,27.343750
5407,27.343750
5408,27.343750
5409,27.343750
5410,27.343750
5411,27.343750
5412,27.343750
5413,27.343750
5414,27.343750
5415,27.343750
5416,27.343750
5417,23.437500
5418,23.437500
5419,23.437500
5420,23.437500
5421,23.437500
5422,23.437500
5423,23.437500
5424,23.437500
5425,23.437500
5426,23.437500
5427,23.437500
5428,23.437500
5429,19.531250
5430,19.531250
5431,19.531250
5432,19.531250
5433,19.531250
5434,19.531250
5435,19.531250
5436,19.531250
5437,19.531250
5438,19.531250
5439,19.531250
5440,19.531250
5441,19.531250
5442,15.625000
5443,15.625000
5444,15.625000
5445,15.625000
5446,15.625000
5447,15.625000
5448,15.625000
5449,15.625000
5450,15.625000
5451,15.625000
5452,15.625000
5453,15.625000
5454,15.625000
5455,11.718750
5456,11.718750
5457,11.718750
5458,11.718750
5459,11.718750
5460,11.718750
5461,11.718750
5462,11.718750
5463,11.718750
5464,11.718750
5465,11.718750
5466,11.718750
5467,11.718750
5468,7.812500
5469,7.812500
5470,7.812500
5471,7.812500
5472,7.812500
5473,7.812500
5474,7.812500
5475,7.812500
5476,7.812500
5477,7.812500
5478,7.812500
5479,3.906250
5480,3.906250
5481,3.906250
5482,3.906250
5483,3.906250
5484,3.906250
5485,3.906250
5486,3.906250
5487,3.906250
5488,3.906250
5489,0.000000
5490,3.906250
5491,0.000000
5492,0.000000
5493,0.000000
5494,0.000000
5495,0.000000
5496,0.000000
5497,0.000000
5498,0.000000
5499,0.000000
5500,0.000000
5501,-3.906250
5502,-3.906250
5503,-3.906250
5504,-3.906250
5505,-3.906250
5506,-3.906250
5507,-3.906250
5508,-3.906250
5509,-3.906250
5510,-7.812500
5511,-7.812500
5512,-7.812500
5513,-7.812500
5514,-7.812500
5515,-7.812500
5516,-7.812500
5517,-7.812500
5518,-7.812500
5519,-11.718750
5520,-7.812500
5521,-7.812500
5522,-11.718750
5523,-11.718750
5524,-11.718750
5525,-7.812500
5526,-11.718750
5527,-11.718750
5528,-15.625000
5529,-11.718750
5530,-11.718750
5531,-15.625000
5532,-15.625000
5533,-15.625000
5534,-15.625000
5535,-15.625000
5536,-15.625000
5537,-15.625000
5538,-15.625000
5539,-15.625000
5540,-15.625000
5541,-19.531250
5542,-19.531250
5543,-19.531250
5544,-19.531250
5545,-19.531250
5546,-19.531250
5547,-19.531250
5548,-19.531250
5549,-19.531250
5550,-19.531250
5551,-23.437500
5552,-23.437500
5553,-23.437500
5554,-23.437500
5555,-23.437500
5556,-23.437500
5557,-23.437500
5558,-23.437500
5559,-23.437500
5560,-23.437500
5561,-23.437500
5562,-27.343750
5563,-27.343750
5564,-27.343750
5565,-27.343750
5566,-27.343750
5567,-27.343750
5568,-27.343750
5569,-27.343750
5570,-27.343750
5571,-27.343750
5572,-31.250000
5573,-31.250000
5574,-31.250000
5575,-31.250000
5576,-31.250000
5577,-31.250000
5578,-31.250000
5579,-31.250000
5580,-31.250000
5581,-31.250000
5582,-31.250000
5583,-35.156250
5584,-35.156250
5585,-35.156250
5586,-35.156250
5587,-35.156250
5588,-35.156250
5589,-35.156250
5590,-35.156250
5591,-39.062500
5592,-39.062500
5593,-35.156250
5594,-39.062500
5595,-39.062500
5596,-39.062500
5597,-39.062500
5598,-39.062500
5599,-39.062500
5600,-39.062500
5601,-39.062500
5602,-39.062500
5603,-39.062500
5604,-39.062500
5605,-42.968750
5606,-42.968750
5607,-42.968750
5608,-42.968750
5609,-42.968750
5610,-42.968750
5611,-42.968750
5612,-42.968750
5613,-42.968750
5614,-42.968750
5615,-42.968750
5616,-46.875000
5617,-42.968750
5618,-46.875000
5619,-46.875000
5620,-46.875000
5621,-46.875000
5622,-46.875000
5623,-46.875000
5624,-46.875000
5625,-46.875000
5626,-46.875000
5627,-50.781250
5628,-50.781250
5629,-50.781250
5630,-50.781250
5631,-50.781250
5632,-50.781250
5633,-50.781250
5634,-50.781250
5635,-50.781250
5636,-50.781250
5637,-50.781250
5638,-50.781250
5639,-50.781250
5640,-54.687500
5641,-54.687500
5642,-54.687500
5643,-54.687500
5644,-54.687500
5645,-54.687500
5646,-54.687500
5647,-54.687500
5648,-54.687500
5649,-54.687500
5650,-54.687500
5651,-54.687500
5652,-54.687500
5653,-58.593750
5654,-58.593750
5655,-58.593750
5656,-58.593750
5657,-58.593750
5658,-58.593750
5659,-58.593750
5660,-58.593750
5661,-58.593750
5662,-58.593750
5663,-58.593750
5664,-58.593750
5665,-58.593750
5666,-58.593750
5667,-58.593750
5668,-62.500000
5669,-62.500000
5670,-62.500000
5671,-62.500000
5672,-62.500000
5673,-62.500000
5674,-62.500000
5675,-62.500000
5676,-62.500000
5677,-62.500000
5678,-62.500000
5679,-62.500000
5680,-62.500000
5681,-62.500000
5682,-62.500000
5683,-62.500000
5684,-66.406250
5685,-66.406250
5686,-66.406250
5687,-66.406250
5688,-66.406250
5689,-66.406250
5690,-66.406250
5691,-66.406250
5692,-66.406250
5693,-66.406250
5694,-66.406250
5695,-66.406250
5696,-66.406250
5697,-66.406250
5698,-66.406250
5699,-66.406250
5700,-66.406250
5701,-66.406250
5702,-70.312500
5703,-66.406250
5704,-70.312500
5705,-70.312500
5706,-70.312500
5707,-70.312500
5708,-70.312500
5709,-70.312500
5710,-70.312500
5711,-70.312500
5712,-70.312500
5713,-70.312500
5714,-70.312500
5715,-70.312500
5716,-70.312500
5717,-70.312500
5718,-70.312500
5719,-70.312500
5720,-70.312500
5721,-70.312500
5722,-70.312500
5723,-70.312500
5724,-74.218750
5725,-70.312500
5726,-70.312500
5727,-70.312500
5728,-70.312500
5729,-74.218750
5730,-74.218750
5731,-74.218750
5732,-74.218750
5733,-70.312500
5734,-74.218750
5735,-74.218750
5736,-74.218750
5737,-74.218750
5738,-74.218750
5739,-74.218750
5740,-74.218750
5741,-74.218750
5742,-74.218750
5743,-74.218750
5744,-74.218750
5745,-74.218750
5746,-74.218750
5747,-74.218750
5748,-74.218750
5749,-74.218750
5750,-74.218750
5751,-74.218750
5752,-74.218750
5753,-74.218750
5754,-74.218750
5755,-74.218750
5756,-74.218750
5757,-74.218750
5758,-74.218750
5759,-74.218750
5760,-74.218750
5761,-74.218750
5762,-74.218750
5763,-74.218750
5764,-74.218750
5765,-74.218750
5766,-74.218750
5767,-74.218750
5768,-74.218750
5769,-74.218750
5770,-74.218750
5771,-74.218750
5772,-74.218750
5773,-74.218750
5774,-74.218750
5775,-74.218750
5776,-74.218750
5777,-74.218750
5778,-74.218750
5779,-74.218750
5780,-74.218750
5781,-74.218750
5782,-74.218750
5783,-74.218750
5784,-74.218750
5785,-74.218750
5786,-74.218750
5787,-74.218750
5788,-74.218750
5789,-74.218750
5790,-74.218750
5791,-74.218750
5792,-74.218750
5793,-74.218750
5794,-74.218750
5795,-74.218750
5796,-74.218750
5797,-74.218750
5798,-74.218750
5799,-74.218750
5800,-74.218750
5801,-74.218750
5802,-74.218750
5803,-74.218750
5804,-74.218750
5805,-74.218750
5806,-74.218750
5807,-74.218750
5808,-74.218750
5809,-74.218750
5810,-74.218750
5811,-74.218750
5812,-74.218750
5813,-74.218750
5814,-74.218750
5815,-74.218750
5816,-74.218750
5817,-74.218750
5818,-74.218750
5819,-70.312500
5820,-74.218750
5821,-74.218750
5822,-74.218750
5823,-70.312500
5824,-70.312500
5825,-70.312500
5826,-70.312500
5827,-70.312500
5828,-70.312500
5829,-70.312500
5830,-70.312500
5831,-70.312500
5832,-70.312500
5833,-70.312500
5834,-70.312500
5835,-70.312500
5836,-70.312500
5837,-70.312500
5838,-70.312500
5839,-70.312500
5840,-66.406250
5841,-66.406250
5842,-70.312500
5843,-66.406250
5844,-70.312500
5845,-66.406250
5846,-66.406250
5847,-70.312500
5848,-70.312500
5849,-66.406250
5850,-66.406250
5851,-66.406250
5852,-66.406250
5853,-66.406250
5854,-66.406250
5855,-66.406250
5856,-66.406250
5857,-66.406250
5858,-66.406250
5859,-66.406250
5860,-66.406250
5861,-66.406250
5862,-66.406250
5863,-66.406250
5864,-66.406250
5865,-66.406250
5866,-66.406250
5867,-66.406250
5868,-62.500000
5869,-62.500000
5870,-62.500000
5871,-62.500000
5872,-62.500000
5873,-62.500000
5874,-62.500000
5875,-62.500000
5876,-62.500000
5877,-62.500000
5878,-62.500000
5879,-62.500000
5880,-62.500000
5881,-58.593750
5882,-62.500000
5883,-58.593750
5884,-58.593750
5885,-58.593750
5886,-58.593750
5887,-58.593750
5888,-58.593750
5889,-58.593750
5890,-58.593750
5891,-58.593750
5892,-58.593750
5893,-58.593750
5894,-58.593750
5895,-58.593750
5896,-54.687500
5897,-58.593750
5898,-58.593750
5899,-54.687500
5900,-54.687500
5901,-54.687500
5902,-54.687500
5903,-54.687500
5904,-54.687500
5905,-54.687500
5906,-54.687500
5907,-54.687500
5908,-54.687500
5909,-54.687500
5910,-50.781250
5911,-54.687500
5912,-50.781250
5913,-50.781250
5914,-50.781250
5915,-50.781250
5916,-50.781250
5917,-50.781250
5918,-50.781250
5919,-50.781250
5920,-50.781250
5921,-50.781250
5922,-50.781250
5923,-46.875000
5924,-46.875000
5925,-46.875000
5926,-46.875000
5927,-46.875000
5928,-46.875000
5929,-46.875000
5930,-46.875000
5931,-46.875000
5932,-46.875000
5933,-46.875000
5934,-46.875000
5935,-46.875000
5936,-42.968750
5937,-42.968750
5938,-42.968750
5939,-42.968750
5940,-42.968750
5941,-42.968750
5942,-42.968750
5943,-42.968750
5944,-42.968750
5945,-39.062500
5946,-39.062500
5947,-39.062500
5948,-39.062500
5949,-39.062500
5950,-39.062500
5951,-39.062500
5952,-39.062500
5953,-39.062500
5954,-39.062500
5955,-39.062500
5956,-35.156250
5957,-39.062500
5958,-35.156250
5959,-35.156250
5960,-35.156250
5961,-35.156250
5962,-35.156250
5963,-35.156250
5964,-35.156250
5965,-35.156250
5966,-35.156250
5967,-31.250000
5968,-31.250000
5969,-31.250000
5970,-31.250000
5971,-31.250000
5972,-31.250000
5973,-31.250000
5974,-31.250000
5975,-31.250000
5976,-31.250000
5977,-27.343750
5978,-27.343750
5979,-27.343750
5980,-27.343750
5981,-27.343750
5982,-27.343750
5983,-27.343750
5984,-27.343750
5985,-27.343750
5986,-23.437500
5987,-23.437500
5988,-23.437500
5989,-23.437500
5990,-23.437500
5991,-23.437500
5992,-23.437500
5993,-23.437500
5994,-23.437500
5995,-19.531250
5996,-19.531250
5997,-19.531250
5998,-19.531250
5999,-19.531250
6000,-19.531250
6001,-19.531250
6002,-19.531250
6003,-19.531250
6004,-19.531250
6005,-19.531250
6006,-19.531250
6007,-19.531250
6008,-15.625000
6009,-15.625000
6010,-15.625000
6011,-15.625000
6012,-15.625000
6013,-15.625000
6014,-15.625000
6015,-11.718750
6016,-15.625000
6017,-11.718750
6018,-11.718750
6019,-11.718750
6020,-11.718750
6021,-11.718750
6022,-11.718750
6023,-11.718750
6024,-11.718750
6025,-7.812500
6026,-7.812500
6027,-7.812500
6028,-7.812500
6029,-7.812500
6030,-7.812500
6031,-7.812500
6032,-7.812500
6033,-7.812500
6034,-7.812500
6035,-7.812500
6036,-7.812500
6037,-7.812500
6038,-3.906250
6039,-3.906250
6040,-3.906250
6041,-3.906250
6042,-3.906250
6043,-3.906250
6044,-3.906250
6045,-3.906250
6046,-3.906250
6047,0.000000
6048,0.000000
6049,0.000000
6050,0.000000
6051,0.000000
6052,0.000000
6053,0.000000
6054,0.000000
6055,0.000000
6056,0.000000
6057,0.000000
6058,3.906250
6059,3.906250
6060,3.906250
6061,3.906250
6062,3.906250
6063,3.906250
6064,3.906250
6065,3.906250
6066,7.812500
6067,7.812500
6068,7.812500
6069,7.812500
6070,7.812500
6071,7.812500
6072,7.812500
6073,7.812500
6074,7.812500
6075,7.812500
6076,7.812500
6077,7.812500
6078,11.718750
6079,11.718750
6080,11.718750
6081,11.718750
6082,11.718750
6083,11.718750
6084,11.718750
6085,11.718750
6086,11.718750
6087,11.718750
6088,11.718750
6089,11.718750
6090,15.625000
6091,15.625000
6092,15.625000
6093,15.625000
6094,15.625000
6095,15.625000
6096,15.625000
6097,15.625000
6098,15.625000
6099,15.625000
6100,15.625000
6101,19.531250
6102,19.531250
6103,19.531250
6104,19.531250
6105,19.531250
6106,19.531250
6107,19.531250
6108,19.531250
6109,19.531250
6110,19.531250
6111,19.531250
6112,19.531250
6113,19.531250
6114,23.437500
6115,23.437500
6116,23.437500
6117,23.437500
6118,23.437500
6119,23.437500
6120,23.437500
6121,23.437500
6122,23.437500
6123,23.437500
6124,23.437500
6125,27.343750
6126,27.343750
6127,27.343750
6128,27.343750
6129,27.343750
6130,27.343750
6131,27.343750
6132,27.343750
6133,27.343750
6134,27.343750
6135,27.343750
6136,27.343750
6137,27.343750
6138,27.343750
6139,27.343750
6140,27.343750
6141,31.250000
6142,31.250000
6143,31.250000
6144,31.250000
6145,31.250000
6146,31.250000
6147,31.250000
6148,31.250000
6149,31.250000
6150,31.250000
6151,31.250000
6152,31.250000
6153,31.250000
6154,31.250000
6155,31.250000
6156,31.250000
6157,35.156250
6158,35.156250
6159,35.156250
6160,35.156250
6161,35.156250
6162,35.156250
6163,35.156250
6164,35.156250
6165,35.156250
6166,35.156250
6167,35.156250
6168,35.156250
6169,35.156250
6170,35.156250
6171,35.156250
6172,39.062500
6173,39.062500
6174,39.062500
6175,39.062500
6176,39.062500
6177,39.062500
6178,39.062500
6179,35.156250
6180,39.062500
6181,39.062500
6182,39.062500
6183,39.062500
6184,39.062500
6185,39.062500
6186,39.062500
6187,39.062500
6188,39.062500
6189,39.062500
6190,39.062500
6191,39.062500
6192,39.062500
6193,39.062500
6194,39.062500
6195,39.062500
6196,39.062500
6197,39.062500
6198,42.968750
6199,42.968750
6200,42.968750
6201,42.968750
6202,42.968750
6203,42.968750
6204,42.968750
6205,42.968750
6206,42.968750
6207,42.968750
6208,42.968750
6209,42.968750
6210,42.968750
6211,42.968750
6212,42.968750
6213,42.968750
6214,42.968750
6215,42.968750
6216,42.968750
6217,42.968750
6218,42.968750
6219,42.968750
6220,42.968750
6221,42.968750
6222,42.968750
6223,42.968750
6224,42.968750
6225,42.968750
6226,42.968750
6227,46.875000
6228,46.875000
6229,46.875000
6230,42.968750
6231,46.875000
6232,46.875000
6233,46.875000
6234,46.875000
6235,46.875000
6236,46.875000
6237,46.875000
6238,46.875000
6239,46.875000
6240,46.875000
6241,46.875000
6242,46.875000
6243,46.875000
6244,46.875000
6245,46.875000
6246,46.875000
6247,46.875000
6248,46.875000
6249,46.875000
6250,46.875000
6251,46.875000
6252,46.875000
6253,46.875000
6254,46.875000
6255,46.875000
6256,46.875000
6257,46.875000
6258,46.875000
6259,46.875000
6260,46.875000
6261,46.875000
6262,46.875000
6263,46.875000
6264,46.875000
6265,46.875000
6266,46.875000
6267,46.875000
6268,46.875000
6269,46.875000
6270,46.875000
6271,46.875000
6272,46.875000
6273,46.875000
6274,46.875000
6275,46.875000
6276,46.875000
6277,46.875000
6278,46.875000
6279,46.875000
6280,46.875000
6281,46.875000
6282,46.875000
6283,46.875000
6284,46.875000
6285,46.875000
6286,46.875000
6287,42.968750
6288,46.875000
6289,46.875000
6290,46.875000
6291,46.875000
6292,42.968750
6293,42.968750
6294,42.968750
6295,46.875000
6296,46.875000
6297,46.875000
6298,46.875000
6299,46.875000
6300,46.875000
6301,42.968750
6302,42.968750
6303,46.875000
6304,42.968750
6305,42.968750
6306,42.968750
6307,42.968750
6308,42.968750
6309,42.968750
6310,42.968750
6311,42.968750
6312,42.968750
6313,42.968750
6314,42.968750
6315,42.968750
6316,42.968750
6317,42.968750
6318,42.968750
6319,42.968750
6320,42.968750
6321,42.968750
6322,42.968750
6323,42.968750
6324,42.968750
6325,42.968750
6326,42.968750
6327,42.968750
6328,42.968750
6329,42.968750
6330,42.968750
6331,42.968750
6332,42.968750
6333,42.968750
6334,42.968750
6335,39.062500
6336,39.062500
6337,39.062500
6338,39.062500
6339,39.062500
6340,39.062500
6341,39.062500
6342,39.062500
6343,39.062500
6344,39.062500
6345,39.062500
6346,39.062500
6347,39.062500
6348,39.062500
6349,39.062500
6350,39.062500
6351,39.062500
6352,35.156250
6353,39.062500
6354,39.062500
6355,35.156250
6356,35.156250
6357,39.062500
6358,35.156250
6359,35.156250
6360,35.156250
6361,35.156250
6362,35.156250
6363,35.156250
6364,35.156250
6365,35.156250
6366,35.156250
6367,35.156250
6368,35.156250
6369,35.156250
6370,35.156250
6371,35.156250
6372,35.156250
6373,35.156250
6374,35.156250
6375,35.156250
6376,31.250000
6377,31.250000
6378,31.250000
6379,31.250000
6380,31.250000
6381,31.250000
6382,31.250000
6383,31.250000
6384,31.250000
6385,31.250000
6386,31.250000
6387,31.250000
6388,31.250000
6389,31.250000
6390,31.250000
6391,27.343750
6392,31.250000
6393,27.343750
6394,27.343750
6395,27.343750
6396,27.343750
6397,27.343750
6398,27.343750
6399,27.343750
6400,27.343750
6401,27.343750
6402,27.343750
6403,27.343750
6404,27.343750
6405,23.437500
6406,27.343750
6407,27.343750
6408,23.437500
6409,23.437500
6410,23.437500
6411,23.437500
6412,23.437500
6413,23.437500
6414,23.437500
6415,23.437500
6416,23.437500
6417,23.437500
6418,19.531250
6419,19.531250
6420,19.531250
6421,19.531250
6422,19.531250
6423,19.531250
6424,19.531250
6425,19.531250
6426,19.531250
6427,19.531250
6428,19.531250
6429,19.531250
6430,19.531250
6431,19.531250
6432,15.625000
6433,15.625000
6434,15.625000
6435,15.625000
6436,15.625000
6437,15.625000
6438,15.625000
6439,15.625000
6440,15.625000
6441,15.625000
6442,15.625000
6443,15.625000
6444,11.718750
6445,11.718750
6446,11.718750
6447,11.718750
6448,11.718750
6449,11.718750
6450,11.718750
6451,11.718750
6452,11.718750
6453,11.718750
6454,11.718750
6455,11.718750
6456,7.812500
6457,7.812500
6458,7.812500
6459,7.812500
6460,7.812500
6461,7.812500
6462,7.812500
6463,7.812500
6464,7.812500
6465,3.906250
6466,7.812500
6467,7.812500
6468,3.906250
6469,3.906250
6470,3.906250
6471,3.906250
6472,3.906250
6473,3.906250
6474,3.906250
6475,3.906250
6476,3.906250
6477,3.906250
6478,0.000000
6479,0.000000
6480,0.000000
6481,0.000000
6482,0.000000
6483,0.000000
6484,0.000000
6485,0.000000
6486,0.000000
6487,0.000000
6488,-3.906250
6489,-3.906250
6490,-3.906250
6491,-3.906250
6492,-3.906250
6493,-3.906250
6494,-3.906250
6495,-3.906250
6496,-3.906250
6497,-3.906250
6498,-3.906250
6499,-3.906250
6500,-7.812500
6501,-7.812500
6502,-7.812500
6503,-7.812500
6504,-7.812500
6505,-7.812500
6506,-7.812500
6507,-7.812500
6508,-7.812500
6509,-11.718750
6510,-7.812500
6511,-11.718750
6512,-11.718750
6513,-11.718750
6514,-11.718750
6515,-11.718750
6516,-11.718750
6517,-11.718750
6518,-11.718750
6519,-11.718750
6520,-15.625000
6521,-15.625000
6522,-11.718750
6523,-15.625000
6524,-15.625000
6525,-15.625000
6526,-15.625000
6527,-15.625000
6528,-19.531250
6529,-15.625000
6530,-15.625000
6531,-19.531250
6532,-19.531250
6533,-19.531250
6534,-19.531250
6535,-19.531250
6536,-19.531250
6537,-19.531250
6538,-19.531250
6539,-19.531250
6540,-23.437500
6541,-23.437500
6542,-23.437500
6543,-23.437500
6544,-23.437500
6545,-23.437500
6546,-23.437500
6547,-23.437500
6548,-23.437500
6549,-23.437500
6550,-27.343750
6551,-27.343750
6552,-27.343750
6553,-27.343750
6554,-27.343750
6555,-27.343750
6556,-27.343750
6557,-27.343750
6558,-27.343750
6559,-27.343750
6560,-27.343750
6561,-31.250000
6562,-31.250000
6563,-31.250000
6564,-31.250000
6565,-31.250000
6566,-31.250000
6567,-31.250000
6568,-31.250000
6569,-31.250000
6570,-31.250000
6571,-31.250000
6572,-31.250000
6573,-35.156250
6574,-35.156250
6575,-35.156250
6576,-35.156250
6577,-35.156250
6578,-35.156250
6579,-35.156250
6580,-35.156250
6581,-35.156250
6582,-39.062500
6583,-39.062500
6584,-39.062500
6585,-39.062500
6586,-39.062500
6587,-39.062500
6588,-39.062500
6589,-39.062500
6590,-39.062500
6591,-39.062500
6592,-42.968750
6593,-42.968750
6594,-42.968750
6595,-42.968750
6596,-42.968750
6597,-42.968750
6598,-42.968750
6599,-42.968750
6600,-42.968750
6601,-42.968750
6602,-42.968750
6603,-42.968750
6604,-42.968750
6605,-42.968750
6606,-46.875000
6607,-46.875000
6608,-46.875000
6609,-46.875000
6610,-46.875000
6611,-46.875000
6612,-46.875000
6613,-46.875000
6614,-46.875000
6615,-46.875000
6616,-46.875000
6617,-50.781250
6618,-50.781250
6619,-50.781250
6620,-50.781250
6621,-50.781250
6622,-50.781250
6623,-46.875000
6624,-50.781250
6625,-50.781250
6626,-50.781250
6627,-50.781250
6628,-50.781250
6629,-54.687500
6630,-54.687500
6631,-54.687500
6632,-54.687500
6633,-54.687500
6634,-54.687500
6635,-54.687500
6636,-54.687500
6637,-54.687500
6638,-54.687500
6639,-54.687500
6640,-54.687500
6641,-54.687500
6642,-54.687500
6643,-54.687500
6644,-58.593750
6645,-58.593750
6646,-58.593750
6647,-58.593750
6648,-58.593750
6649,-58.593750
6650,-58.593750
6651,-58.593750
6652,-58.593750
6653,-58.593750
6654,-58.593750
6655,-58.593750
6656,-62.500000
6657,-58.593750
6658,-62.500000
6659,-62.500000
6660,-62.500000
6661,-62.500000
6662,-62.500000
6663,-62.500000
6664,-62.500000
6665,-62.500000
6666,-62.500000
6667,-62.500000
6668,-62.500000
6669,-62.500000
6670,-62.500000
6671,-62.500000
6672,-62.500000
6673,-62.500000
6674,-66.406250
6675,-66.406250
6676,-66.406250
6677,-66.406250
6678,-66.406250
6679,-66.406250
6680,-66.406250
6681,-66.406250
6682,-66.406250
6683,-66.406250
6684,-66.406250
6685,-66.406250
6686,-66.406250
6687,-66.406250
6688,-66.406250
6689,-66.406250
6690,-70.312500
6691,-66.406250
6692,-70.312500
6693,-70.312500
6694,-70.312500
6695,-70.312500
6696,-70.312500
6697,-70.312500
6698,-70.312500
6699,-70.312500
6700,-70.312500
6701,-70.312500
6702,-70.312500
6703,-70.312500
6704,-70.312500
6705,-70.312500
6706,-70.312500
6707,-70.312500
6708,-70.312500
6709,-70.312500
6710,-70.312500
6711,-70.312500
6712,-70.312500
6713,-74.218750
6714,-74.218750
6715,-70.312500
6716,-74.218750
6717,-74.218750
6718,-74.218750
6719,-74.218750
6720,-74.218750
6721,-74.218750
6722,-74.218750
6723,-74.218750
6724,-74.218750
6725,-74.218750
6726,-74.218750
6727,-74.218750
6728,-74.218750
6729,-74.218750
6730,-74.218750
6731,-74.218750
6732,-74.218750
6733,-74.218750
6734,-74.218750
6735,-74.218750
6736,-74.218750
6737,-74.218750
6738,-74.218750
6739,-74.218750
6740,-74.218750
6741,-74.218750
6742,-74.218750
6743,-74.218750
6744,-74.218750
6745,-74.218750
6746,-74.218750
6747,-74.218750
6748,-74.218750
6749,-74.218750
6750,-74.218750
6751,-74.218750
6752,-74.218750
6753,-74.218750
6754,-74.218750
6755,-74.218750
6756,-74.218750
6757,-74.218750
6758,-74.218750
6759,-74.218750
6760,-74.218750
6761,-74.218750
6762,-74.218750
6763,-74.218750
6764,-74.218750
6765,-74.218750
6766,-74.218750
6767,-74.218750
6768,-74.218750
6769,-74.218750
6770,-74.218750
6771,-74.218750
6772,-74.218750
6773,-74.218750
6774,-74.218750
6775,-74.218750
6776,-78.125000
6777,-74.218750
6778,-74.218750
6779,-74.218750
6780,-74.218750
6781,-74.218750
6782,-74.218750
6783,-74.218750
6784,-74.218750
6785,-74.218750
6786,-74.218750
6787,-74.218750
6788,-74.218750
6789,-74.218750
6790,-74.218750
6791,-74.218750
6792,-74.218750
6793,-74.218750
6794,-74.218750
6795,-74.218750
6796,-74.218750
6797,-74.218750
6798,-74.218750
6799,-74.218750
6800,-74.218750
6801,-74.218750
6802,-74.218750
6803,-74.218750
6804,-74.218750
6805,-74.218750
6806,-74.218750
6807,-74.218750
6808,-74.218750
6809,-74.218750
6810,-74.218750
6811,-74.218750
6812,-74.218750
6813,-74.218750
6814,-70.312500
6815,-70.312500
6816,-70.312500
6817,-70.312500
6818,-70.312500
6819,-70.312500
6820,-70.312500
6821,-70.312500
6822,-70.312500
6823,-70.312500
6824,-70.312500
6825,-70.312500
6826,-70.312500
6827,-70.312500
6828,-70.312500
6829,-70.312500
6830,-70.312500
6831,-70.312500
6832,-70.312500
6833,-70.312500
6834,-70.312500
6835,-70.312500
6836,-70.312500
6837,-70.312500
6838,-70.312500
6839,-70.312500
6840,-66.406250
6841,-66.406250
6842,-66.406250
6843,-66.406250
6844,-66.406250
6845,-66.406250
6846,-66.406250
6847,-66.406250
6848,-66.406250
6849,-66.406250
6850,-66.406250
6851,-66.406250
6852,-66.406250
6853,-66.406250
6854,-66.406250
6855,-62.500000
6856,-66.406250
6857,-66.406250
6858,-66.406250
6859,-62.500000
6860,-62.500000
6861,-62.500000
6862,-62.500000
6863,-62.500000
6864,-62.500000
6865,-62.500000
6866,-62.500000
6867,-62.500000
6868,-62.500000
6869,-62.500000
6870,-62.500000
6871,-62.500000
6872,-62.500000
6873,-62.500000
6874,-58.593750
6875,-58.593750
6876,-58.593750
6877,-58.593750
6878,-58.593750
6879,-58.593750
6880,-58.593750
6881,-58.593750
6882,-58.593750
6883,-58.593750
6884,-58.593750
6885,-58.593750
6886,-58.593750
6887,-58.593750
6888,-54.687500
6889,-54.687500
6890,-54.687500
6891,-54.687500
6892,-54.687500
6893,-54.687500
6894,-54.687500
6895,-54.687500
6896,-54.687500
6897,-54.687500
6898,-54.687500
6899,-54.687500
6900,-54.687500
6901,-50.781250
6902,-50.781250
6903,-50.781250
6904,-50.781250
6905,-50.781250
6906,-50.781250
6907,-50.781250
6908,-50.781250
6909,-50.781250
6910,-50.781250
6911,-46.875000
6912,-50.781250
6913,-46.875000
6914,-50.781250
6915,-46.875000
6916,-46.875000
6917,-46.875000
6918,-46.875000
6919,-46.875000
6920,-46.875000
6921,-46.875000
6922,-46.875000
6923,-46.875000
6924,-46.875000
6925,-42.968750
6926,-42.968750
6927,-42.968750
6928,-42.968750
6929,-42.968750
6930,-42.968750
6931,-42.968750
6932,-42.968750
6933,-42.968750
6934,-42.968750
6935,-39.062500
6936,-42.968750
6937,-39.062500
6938,-39.062500
6939,-39.062500
6940,-39.062500
6941,-39.062500
6942,-39.062500
6943,-39.062500
6944,-39.062500
6945,-39.062500
6946,-35.156250
6947,-35.156250
6948,-35.156250
6949,-35.156250
6950,-35.156250
6951,-35.156250
6952,-35.156250
6953,-35.156250
6954,-35.156250
6955,-35.156250
6956,-31.250000
6957,-35.156250
6958,-35.156250
6959,-31.250000
6960,-31.250000
6961,-31.250000
6962,-31.250000
6963,-31.250000
6964,-31.250000
6965,-31.250000
6966,-31.250000
6967,-27.343750
6968,-27.343750
6969,-27.343750
6970,-27.343750
6971,-27.343750
6972,-27.343750
6973,-27.343750
6974,-27.343750
6975,-27.343750
6976,-27.343750
6977,-23.437500
6978,-23.437500
6979,-23.437500
6980,-23.437500
6981,-23.437500
6982,-23.437500
6983,-23.437500
6984,-23.437500
6985,-23.437500
6986,-19.531250
6987,-19.531250
6988,-19.531250
6989,-19.531250
6990,-19.531250
6991,-19.531250
6992,-19.531250
6993,-19.531250
6994,-19.531250
6995,-15.625000
6996,-15.625000
6997,-15.625000
6998,-15.625000
6999,-15.625000
7000,-15.625000
7001,-15.625000
7002,-15.625000
7003,-15.625000
7004,-15.625000
7005,-15.625000
7006,-15.625000
7007,-11.718750
7008,-11.718750
7009,-11.718750
7010,-11.718750
7011,-11.718750
7012,-11.718750
7013,-11.718750
7014,-11.718750
7015,-11.718750
7016,-11.718750
7017,-7.812500
7018,-7.812500
7019,-7.812500
7020,-7.812500
7021,-7.812500
7022,-7.812500
7023,-7.812500
7024,-7.812500
7025,-7.812500
7026,-7.812500
7027,-3.906250
7028,-3.906250
7029,-3.906250
7030,-3.906250
7031,-3.906250
7032,-3.906250
7033,-3.906250
7034,-3.906250
7035,0.000000
7036,-3.906250
7037,0.000000
7038,0.000000
7039,0.000000
7040,0.000000
7041,0.000000
7042,0.000000
7043,0.000000
7044,0.000000
7045,0.000000
7046,0.000000
7047,3.906250
7048,3.906250
7049,3.906250
7050,3.906250
7051,3.906250
7052,3.906250
7053,3.906250
7054,3.906250
7055,3.906250
7056,3.906250
7057,3.906250
7058,7.812500
7059,7.812500
7060,7.812500
7061,7.812500
7062,7.812500
7063,7.812500
7064,7.812500
7065,7.812500
7066,7.812500
7067,11.718750
7068,11.718750
7069,11.718750
7070,11.718750
7071,11.718750
7072,11.718750
7073,11.718750
7074,11.718750
7075,11.718750
7076,11.718750
7077,11.718750
7078,11.718750
7079,15.625000
7080,11.718750
7081,15.625000
7082,15.625000
7083,15.625000
7084,15.625000
7085,15.625000
7086,15.625000
7087,15.625000
7088,15.625000
7089,15.625000
7090,15.625000
7091,15.625000
7092,15.625000
7093,19.531250
7094,19.531250
7095,19.531250
7096,19.531250
7097,19.531250
7098,19.531250
7099,19.531250
7100,19.531250
7101,19.531250
7102,23.437500
7103,23.437500
7104,23.437500
7105,23.437500
7106,23.437500
7107,23.437500
7108,23.437500
7109,23.437500
7110,23.437500
7111,23.437500
7112,23.437500
7113,23.437500
7114,27.343750
7115,23.437500
7116,23.437500
7117,27.343750
7118,27.343750
7119,27.343750
7120,27.343750
7121,27.343750
7122,27.343750
7123,27.343750
7124,27.343750
7125,27.343750
7126,27.343750
7127,27.343750
7128,27.343750
7129,31.250000
7130,27.343750
7131,27.343750
7132,31.250000
7133,31.250000
7134,31.250000
7135,31.250000
7136,31.250000
7137,31.250000
7138,31.250000
7139,31.250000
7140,31.250000
7141,31.250000
7142,31.250000
7143,31.250000
7144,31.250000
7145,35.156250
7146,31.250000
7147,35.156250
7148,35.156250
7149,35.156250
7150,35.156250
7151,35.156250
7152,35.156250
7153,35.156250
7154,35.156250
7155,35.156250
7156,35.156250
7157,35.156250
7158,35.156250
7159,35.156250
7160,39.062500
7161,39.062500
7162,35.156250
7163,35.156250
7164,39.062500
7165,39.062500
7166,35.156250
7167,39.062500
7168,39.062500
7169,39.062500
7170,39.062500
7171,39.062500
7172,39.062500
7173,39.062500
7174,39.062500
7175,39.062500
7176,39.062500
7177,39.062500
7178,39.062500
7179,39.062500
7180,39.062500
7181,39.062500
7182,39.062500
7183,39.062500
7184,39.062500
7185,39.062500
7186,39.062500
7187,42.968750
7188,42.968750
7189,42.968750
7190,42.968750
7191,42.968750
7192,42.968750
7193,42.968750
7194,42.968750
7195,42.968750
7196,42.968750
7197,42.968750
7198,42.968750
7199,42.968750
7200,42.968750
7201,42.968750
7202,42.968750
7203,42.968750
7204,42.968750
7205,42.968750
7206,42.968750
7207,42.968750
7208,42.968750
7209,42.968750
7210,42.968750
7211,42.968750
7212,42.968750
7213,42.968750
7214,42.968750
7215,42.968750
7216,42.968750
7217,42.968750
7218,46.875000
7219,46.875000
7220,46.875000
7221,46.875000
7222,46.875000
7223,46.875000
7224,42.968750
7225,46.875000
7226,46.875000
7227,46.875000
7228,46.875000
7229,46.875000
7230,46.875000
7231,46.875000
7232,46.875000
7233,46.875000
7234,46.875000
7235,46.875000
7236,46.875000
7237,46.875000
7238,46.875000
7239,46.875000
7240,46.875000
7241,46.875000
7242,46.875000
7243,46.875000
7244,46.875000
7245,46.875000
7246,46.875000
7247,46.875000
7248,46.875000
7249,46.875000
7250,46.875000
7251,46.875000
7252,46.875000
7253,46.875000
7254,46.875000
7255,46.875000
7256,46.875000
7257,46.875000
7258,46.875000
7259,46.875000
7260,46.875000
7261,46.875000
7262,46.875000
7263,46.875000
7264,46.875000
7265,46.875000
7266,46.875000
7267,46.875000
7268,46.875000
7269,46.875000
7270,46.875000
7271,46.875000
7272,46.875000
7273,46.875000
7274,46.875000
7275,46.875000
7276,46.875000
7277,46.875000
7278,46.875000
7279,46.875000
7280,46.875000
7281,46.875000
7282,46.875000
7283,46.875000
7284,46.875000
7285,46.875000
7286,46.875000
7287,42.968750
7288,46.875000
7289,42.968750
7290,46.875000
7291,42.968750
7292,42.968750
7293,42.968750
7294,42.968750
7295,42.968750
7296,42.968750
7297,42.968750
7298,42.968750
7299,42.968750
7300,42.968750
7301,42.968750
7302,42.968750
7303,42.968750
7304,42.968750
7305,42.968750
7306,42.968750
7307,42.968750
7308,42.968750
7309,42.968750
7310,42.968750
7311,42.968750
7312,42.968750
7313,42.968750
7314,42.968750
7315,42.968750
7316,42.968750
7317,42.968750
7318,42.968750
7319,42.968750
7320,42.968750
7321,39.062500
7322,42.968750
7323,42.968750
7324,39.062500
7325,39.062500
7326,39.062500
7327,39.062500
7328,39.062500
7329,39.062500
7330,39.062500
7331,39.062500
7332,39.062500
7333,39.062500
7334,39.062500
7335,39.062500
7336,39.062500
7337,39.062500
7338,39.062500
7339,39.062500
7340,39.062500
7341,39.062500
7342,39.062500
7343,39.062500
7344,39.062500
7345,39.062500
7346,39.062500
7347,39.062500
7348,35.156250
7349,35.156250
7350,35.156250
7351,35.156250
7352,35.156250
7353,35.156250
7354,35.156250
7355,35.156250
7356,35.156250
7357,35.156250
7358,35.156250
7359,35.156250
7360,35.156250
7361,35.156250
7362,35.156250
7363,35.156250
7364,31.250000
7365,35.156250
7366,31.250000
7367,31.250000
7368,31.250000
7369,31.250000
7370,31.250000
7371,31.250000
7372,31.250000
7373,31.250000
7374,31.250000
7375,31.250000
7376,31.250000
7377,31.250000
7378,31.250000
7379,31.250000
7380,27.343750
7381,27.343750
7382,27.343750
7383,31.250000
7384,27.343750
7385,27.343750
7386,27.343750
7387,27.343750
7388,27.343750
7389,27.343750
7390,27.343750
7391,27.343750
7392,27.343750
7393,27.343750
7394,27.343750
7395,27.343750
7396,27.343750
7397,23.437500
7398,23.437500
7399,23.437500
7400,23.437500
7401,23.437500
7402,23.437500
7403,23.437500
7404,23.437500
7405,23.437500
7406,23.437500
7407,23.437500
7408,23.437500
7409,19.531250
7410,19.531250
7411,19.531250
7412,19.531250
7413,19.531250
7414,19.531250
7415,19.531250
7416,19.531250
7417,19.531250
7418,19.531250
7419,19.531250
7420,19.531250
7421,19.531250
7422,19.531250
7423,15.625000
7424,15.625000
7425,15.625000
7426,15.625000
7427,15.625000
7428,15.625000
7429,15.625000
7430,15.625000
7431,15.625000
7432,15.625000
7433,15.625000
7434,15.625000
7435,11.718750
7436,11.718750
7437,11.718750
7438,11.718750
7439,15.625000
7440,11.718750
7441,11.718750
7442,11.718750
7443,11.718750
7444,11.718750
7445,11.718750
7446,7.812500
7447,7.812500
7448,7.812500
7449,7.812500
7450,7.812500
7451,7.812500
7452,7.812500
7453,7.812500
7454,7.812500
7455,7.812500
7456,3.906250
7457,3.906250
7458,3.906250
7459,3.906250
7460,3.906250
7461,3.906250
7462,3.906250
7463,3.906250
7464,3.906250
7465,3.906250
7466,3.906250
7467,0.000000
7468,0.000000
7469,0.000000
7470,0.000000
7471,0.000000
7472,0.000000
7473,0.000000
7474,0.000000
7475,0.000000
7476,0.000000
7477,0.000000
7478,-3.906250
7479,-3.906250
7480,-3.906250
7481,-3.906250
7482,-3.906250
7483,-3.906250
7484,-3.906250
7485,-3.906250
7486,-3.906250
7487,-3.906250
7488,-3.906250
7489,-7.812500
7490,-7.812500
7491,-7.812500
7492,-7.812500
7493,-7.812500
7494,-7.812500
7495,-7.812500
7496,-7.812500
7497,-7.812500
7498,-11.718750
7499,-11.718750
7500,-11.718750
7501,-11.718750
7502,-11.718750
7503,-11.718750
7504,-11.718750
7505,-11.718750
7506,-15.625000
7507,-11.718750
7508,-11.718750
7509,-11.718750
7510,-15.625000
7511,-15.625000
7512,-15.625000
7513,-15.625000
7514,-15.625000
7515,-15.625000
7516,-15.625000
7517,-15.625000
7518,-19.531250
7519,-19.531250
7520,-19.531250
7521,-19.531250
7522,-19.531250
7523,-19.531250
7524,-19.531250
7525,-19.531250
7526,-19.531250
7527,-19.531250
7528,-19.531250
7529,-23.437500
7530,-23.437500
7531,-19.531250
7532,-23.437500
7533,-23.437500
7534,-23.437500
7535,-23.437500
7536,-23.437500
7537,-23.437500
7538,-23.437500
7539,-23.437500
7540,-23.437500
7541,-27.343750
7542,-27.343750
7543,-27.343750
7544,-27.343750
7545,-27.343750
7546,-27.343750
7547,-27.343750
7548,-27.343750
7549,-27.343750
7550,-27.343750
7551,-31.250000
7552,-31.250000
7553,-31.250000
7554,-31.250000
7555,-31.250000
7556,-31.250000
7557,-31.250000
7558,-31.250000
7559,-31.250000
7560,-31.250000
7561,-35.156250
7562,-35.156250
7563,-35.156250
7564,-35.156250
7565,-35.156250
7566,-35.156250
7567,-35.156250
7568,-35.156250
7569,-35.156250
7570,-35.156250
7571,-39.062500
7572,-39.062500
7573,-39.062500
7574,-39.062500
7575,-39.062500
7576,-39.062500
7577,-39.062500
7578,-39.062500
7579,-39.062500
7580,-39.062500
7581,-39.062500
7582,-42.968750
7583,-42.968750
7584,-42.968750
7585,-42.968750
7586,-42.968750
7587,-42.968750
7588,-42.968750
7589,-42.968750
7590,-42.968750
7591,-42.968750
7592,-42.968750
7593,-42.968750
7594,-42.968750
7595,-42.968750
7596,-46.875000
7597,-46.875000
7598,-46.875000
7599,-46.875000
7600,-46.875000
7601,-46.875000
7602,-46.875000
7603,-46.875000
7604,-46.875000
7605,-46.875000
7606,-46.875000
7607,-50.781250
7608,-50.781250
7609,-50.781250
7610,-50.781250
7611,-50.781250
7612,-50.781250
7613,-50.781250
7614,-50.781250
7615,-50.781250
7616,-50.781250
7617,-50.781250
7618,-54.687500
7619,-54.687500
7620,-54.687500
7621,-54.687500
7622,-54.687500
7623,-54.687500
7624,-54.687500
7625,-54.687500
7626,-54.687500
7627,-54.687500
7628,-54.687500
7629,-54.687500
7630,-54.687500
7631,-54.687500
7632,-54.687500
7633,-58.593750
7634,-58.593750
7635,-58.593750
7636,-58.593750
7637,-58.593750
7638,-58.593750
7639,-58.593750
7640,-58.593750
7641,-58.593750
7642,-58.593750
7643,-58.593750
7644,-58.593750
7645,-58.593750
7646,-62.500000
7647,-62.500000
7648,-62.500000
7649,-62.500000
7650,-62.500000
7651,-62.500000
7652,-62.500000
7653,-62.500000
7654,-62.500000
7655,-62.500000
7656,-62.500000
7657,-62.500000
7658,-62.500000
7659,-62.500000
7660,-62.500000
7661,-62.500000
7662,-62.500000
7663,-62.500000
7664,-66.406250
7665,-66.406250
7666,-66.406250
7667,-66.406250
7668,-66.406250
7669,-66.406250
7670,-66.406250
7671,-66.406250
7672,-66.406250
7673,-66.406250
7674,-66.406250
7675,-66.406250
7676,-66.406250
7677,-66.406250
7678,-66.406250
7679,-66.406250
7680,-66.406250
7681,-70.312500
7682,-70.312500
7683,-70.312500
7684,-70.312500
7685,-70.312500
7686,-70.312500
7687,-70.312500
7688,-70.312500
7689,-70.312500
7690,-70.312500
7691,-70.312500
7692,-70.312500
7693,-70.312500
7694,-70.312500
7695,-70.312500
7696,-70.312500
7697,-70.312500
7698,-70.312500
7699,-70.312500
7700,-70.312500
7701,-70.312500
7702,-70.312500
7703,-70.312500
7704,-74.218750
7705,-74.218750
7706,-70.312500
7707,-74.218750
7708,-70.312500
7709,-70.312500
7710,-74.218750
7711,-74.218750
7712,-74.218750
7713,-74.218750
7714,-74.218750
7715,-74.218750
7716,-74.218750
7717,-74.218750
7718,-74.218750
7719,-74.218750
7720,-74.218750
7721,-74.218750
7722,-74.218750
7723,-74.218750
7724,-74.218750
7725,-74.218750
7726,-74.218750
7727,-74.218750
7728,-74.218750
7729,-74.218750
7730,-74.218750
7731,-74.218750
7732,-74.218750
7733,-74.218750
7734,-74.218750
7735,-74.218750
7736,-74.218750
7737,-74.218750
7738,-74.218750
7739,-74.218750
7740,-74.218750
7741,-74.218750
7742,-74.218750
7743,-74.218750
7744,-74.218750
7745,-74.218750
7746,-74.218750
7747,-74.218750
7748,-74.218750
7749,-74.218750
7750,-74.218750
7751,-74.218750
7752,-74.218750
7753,-74.218750
7754,-74.218750
7755,-74.218750
7756,-74.218750
7757,-74.218750
7758,-74.218750
7759,-74.218750
7760,-74.218750
7761,-74.218750
7762,-74.218750
7763,-78.125000
7764,-74.218750
7765,-74.218750
7766,-78.125000
7767,-74.218750
7768,-74.218750
7769,-78.125000
7770,-74.218750
7771,-74.218750
7772,-78.125000
7773,-74.218750
7774,-74.218750
7775,-74.218750
7776,-74.218750
7777,-74.218750
7778,-74.218750
7779,-74.218750
7780,-74.218750
7781,-74.218750
7782,-74.218750
7783,-74.218750
7784,-74.218750
7785,-74.218750
7786,-74.218750
7787,-74.218750
7788,-74.218750
7789,-74.218750
7790,-74.218750
7791,-74.218750
7792,-74.218750
7793,-74.218750
7794,-74.218750
7795,-74.218750
7796,-74.218750
7797,-74.218750
7798,-70.312500
7799,-74.218750
7800,-70.312500
7801,-70.312500
7802,-74.218750
7803,-70.312500
7804,-70.312500
7805,-74.218750
7806,-70.312500
7807,-70.312500
7808,-70.312500
7809,-70.312500
7810,-70.312500
7811,-70.312500
7812,-70.312500
7813,-70.312500
7814,-70.312500
7815,-70.312500
7816,-70.312500
7817,-70.312500
7818,-70.312500
7819,-70.312500
7820,-70.312500
7821,-70.312500
7822,-70.312500
7823,-70.312500
7824,-70.312500
7825,-70.312500
7826,-66.406250
7827,-70.312500
7828,-66.406250
7829,-70.312500
7830,-66.406250
7831,-66.406250
7832,-66.406250
7833,-66.406250
7834,-66.406250
7835,-66.406250
7836,-66.406250
7837,-66.406250
7838,-66.406250
7839,-66.406250
7840,-66.406250
7841,-66.406250
7842,-66.406250
7843,-66.406250
7844,-66.406250
7845,-66.406250
7846,-66.406250
7847,-66.406250
7848,-66.406250
7849,-62.500000
7850,-62.500000
7851,-62.500000
7852,-62.500000
7853,-62.500000
7854,-62.500000
7855,-62.500000
7856,-62.500000
7857,-62.500000
7858,-62.500000
7859,-62.500000
7860,-62.500000
7861,-62.500000
7862,-62.500000
7863,-58.593750
7864,-58.593750
7865,-58.593750
7866,-58.593750
7867,-58.593750
7868,-58.593750
7869,-58.593750
7870,-58.593750
7871,-58.593750
7872,-58.593750
7873,-58.593750
7874,-58.593750
7875,-58.593750
7876,-58.593750
7877,-54.687500
7878,-54.687500
7879,-54.687500
7880,-54.687500
7881,-54.687500
7882,-54.687500
7883,-54.687500
7884,-54.687500
7885,-54.687500
7886,-54.687500
7887,-54.687500
7888,-54.687500
7889,-54.687500
7890,-54.687500
7891,-54.687500
7892,-50.781250
7893,-50.781250
7894,-50.781250
7895,-50.781250
7896,-50.781250
7897,-50.781250
7898,-50.781250
7899,-50.781250
7900,-50.781250
7901,-50.781250
7902,-46.875000
7903,-46.875000
7904,-46.875000
7905,-46.875000
7906,-46.875000
7907,-46.875000
7908,-46.875000
7909,-46.875000
7910,-46.875000
7911,-46.875000
7912,-46.875000
7913,-42.968750
7914,-46.875000
7915,-42.968750
7916,-42.968750
7917,-42.968750
7918,-42.968750
7919,-42.968750
7920,-42.968750
7921,-42.968750
7922,-42.968750
7923,-42.968750
7924,-39.062500
7925,-39.062500
7926,-39.062500
7927,-39.062500
7928,-39.062500
7929,-39.062500
7930,-39.062500
7931,-39.062500
7932,-39.062500
7933,-39.062500
7934,-39.062500
7935,-39.062500
7936,-35.156250
7937,-35.156250
7938,-35.156250
7939,-35.156250
7940,-35.156250
7941,-35.156250
7942,-35.156250
7943,-35.156250
7944,-35.156250
7945,-35.156250
7946,-35.156250
7947,-31.250000
7948,-31.250000
7949,-31.250000
7950,-31.250000
7951,-31.250000
7952,-31.250000
7953,-31.250000
7954,-31.250000
7955,-27.343750
7956,-31.250000
7957,-27.343750
7958,-27.343750
7959,-27.343750
7960,-27.343750
7961,-27.343750
7962,-27.343750
7963,-27.343750
7964,-27.343750
7965,-27.343750
7966,-23.437500
7967,-23.437500
7968,-23.437500
7969,-23.437500
7970,-23.437500
7971,-23.437500
7972,-23.437500
7973,-23.437500
7974,-23.437500
7975,-23.437500
7976,-23.437500
7977,-19.531250
7978,-19.531250
7979,-19.531250
7980,-19.531250
7981,-19.531250
7982,-19.531250
7983,-19.531250
7984,-19.531250
7985,-19.531250
7986,-19.531250
7987,-15.625000
7988,-15.625000
7989,-15.625000
7990,-15.625000
7991,-15.625000
7992,-15.625000
7993,-15.625000
7994,-15.625000
7995,-15.625000
7996,-11.718750
7997,-15.625000
7998,-11.718750
7999,-11.718750
8000,-11.718750
8001,-11.718750
8002,-11.718750
8003,-11.718750
8004,-11.718750
8005,-11.718750
8006,-7.812500
8007,-7.812500
8008,-7.812500
8009,-7.812500
8010,-7.812500
8011,-7.812500
8012,-7.812500
8013,-7.812500
8014,-7.812500
8015,-7.812500
8016,-7.812500
8017,-3.906250
8018,-3.906250
8019,-3.906250
8020,-3.906250
8021,-3.906250
8022,-3.906250
8023,-3.906250
8024,-3.906250
8025,-3.906250
8026,0.000000
8027,0.000000
8028,0.000000
8029,0.000000
8030,0.000000
8031,0.000000
8032,0.000000
8033,0.000000
8034,0.000000
8035,0.000000
8036,0.000000
8037,3.906250
8038,3.906250
8039,3.906250
8040,3.906250
8041,3.906250
8042,3.906250
8043,3.906250
8044,3.906250
8045,3.906250
8046,3.906250
8047,3.906250
8048,7.812500
8049,7.812500
8050,7.812500
8051,7.812500
8052,7.812500
8053,7.812500
8054,7.812500
8055,7.812500
8056,7.812500
8057,7.812500
8058,11.718750
8059,11.718750
8060,11.718750
8061,11.718750
8062,11.718750
8063,11.718750
8064,11.718750
8065,15.625000
8066,11.718750
8067,11.718750
8068,11.718750
8069,15.625000
8070,15.625000
8071,15.625000
8072,15.625000
8073,15.625000
8074,15.625000
8075,15.625000
8076,15.625000
8077,15.625000
8078,15.625000
8079,15.625000
8080,15.625000
8081,19.531250
8082,19.531250
8083,19.531250
8084,19.531250
8085,19.531250
8086,19.531250
8087,19.531250
8088,19.531250
8089,19.531250
8090,19.531250
8091,19.531250
8092,19.531250
8093,23.437500
8094,23.437500
8095,23.437500
8096,23.437500
8097,23.437500
8098,23.437500
8099,23.437500
8100,23.437500
8101,23.437500
8102,23.437500
8103,23.437500
8104,23.437500
8105,23.437500
8106,23.437500
8107,27.343750
8108,27.343750
8109,27.343750
8110,27.343750
8111,27.343750
8112,27.343750
8113,27.343750
8114,27.343750
8115,27.343750
8116,27.343750
8117,27.343750
8118,27.343750
8119,27.343750
8120,27.343750
8121,31.250000
8122,31.250000
8123,31.250000
8124,31.250000
8125,31.250000
8126,31.250000
8127,31.250000
8128,31.250000
8129,31.250000
8130,31.250000
8131,31.250000
8132,31.250000
8133,31.250000
8134,35.156250
8135,31.250000
8136,31.250000
8137,35.156250
8138,35.156250
8139,35.156250
8140,35.156250
8141,35.156250
8142,35.156250
8143,35.156250
8144,35.156250
8145,35.156250
8146,35.156250
8147,35.156250
8148,35.156250
8149,35.156250
8150,35.156250
8151,35.156250
8152,35.156250
8153,35.156250
8154,35.156250
8155,39.062500
8156,39.062500
8157,39.062500
8158,39.062500
8159,39.062500
8160,35.156250
8161,39.062500
8162,39.062500
8163,39.062500
8164,39.062500
8165,39.062500
8166,39.062500
8167,39.062500
8168,39.062500
8169,39.062500
8170,39.062500
8171,39.062500
8172,39.062500
8173,39.062500
8174,42.968750
8175,39.062500
8176,42.968750
8177,39.062500
8178,39.062500
8179,39.062500
8180,42.968750
8181,42.968750
8182,42.968750
8183,42.968750
8184,42.968750
8185,42.968750
8186,42.968750
8187,42.968750
8188,42.968750
8189,42.968750
8190,42.968750
8191,42.968750
8192,42.968750
8193,42.968750
8194,42.968750
8195,42.968750
8196,42.968750
8197,42.968750
8198,42.968750
8199,42.968750
8200,42.968750
8201,42.968750
8202,46.875000
8203,42.968750
8204,42.968750
8205,42.968750
8206,46.875000
8207,42.968750
8208,42.968750
8209,46.875000
8210,46.875000
8211,46.875000
8212,42.968750
8213,46.875000
8214,46.875000
8215,46.875000
8216,46.875000
8217,46.875000
8218,46.875000
8219,46.875000
8220,46.875000
8221,46.875000
8222,46.875000
8223,46.875000
8224,46.875000
8225,46.875000
8226,46.875000
8227,46.875000
8228,46.875000
8229,46.875000
8230,46.875000
8231,46.875000
8232,46.875000
8233,42.968750
8234,46.875000
8235,46.875000
8236,46.875000
8237,46.875000
8238,46.875000
8239,42.968750
8240,46.875000
8241,46.875000
8242,42.968750
8243,46.875000
8244,46.875000
8245,46.875000
8246,46.875000
8247,46.875000
8248,46.875000
8249,46.875000
8250,46.875000
8251,46.875000
8252,46.875000
8253,46.875000
8254,46.875000
8255,46.875000
8256,46.875000
8257,46.875000
8258,46.875000
8259,46.875000
8260,46.875000
8261,46.875000
8262,46.875000
8263,46.875000
8264,46.875000
8265,46.875000
8266,46.875000
8267,46.875000
8268,46.875000
8269,46.875000
8270,42.968750
8271,46.875000
8272,42.968750
8273,46.875000
8274,46.875000
8275,46.875000
8276,42.968750
8277,46.875000
8278,46.875000
8279,42.968750
8280,46.875000
8281,46.875000
8282,46.875000
8283,42.968750
8284,42.968750
8285,42.968750
8286,42.968750
8287,42.968750
8288,42.968750
8289,42.968750
8290,42.968750
8291,42.968750
8292,42.968750
8293,42.968750
8294,42.968750
8295,42.968750
8296,42.968750
8297,42.968750
8298,42.968750
8299,42.968750
8300,42.968750
8301,42.968750
8302,42.968750
8303,42.968750
8304,42.968750
8305,42.968750
8306,42.968750
8307,42.968750
8308,42.968750
8309,42.968750
8310,42.968750
8311,42.968750
8312,42.968750
8313,42.968750
8314,42.968750
8315,39.062500
8316,39.062500
8317,39.062500
8318,39.062500
8319,39.062500
8320,39.062500
8321,39.062500
8322,39.062500
8323,39.062500
8324,39.062500
8325,39.062500
8326,39.062500
8327,39.062500
8328,39.062500
8329,39.062500
8330,39.062500
8331,39.062500
8332,39.062500
8333,39.062500
8334,39.062500
8335,39.062500
8336,39.062500
8337,39.062500
8338,35.156250
8339,35.156250
8340,35.156250
8341,35.156250
8342,35.156250
8343,35.156250
8344,35.156250
8345,35.156250
8346,35.156250
8347,35.156250
8348,35.156250
8349,35.156250
8350,35.156250
8351,35.156250
8352,35.156250
8353,35.156250
8354,35.156250
8355,35.156250
8356,31.250000
8357,31.250000
8358,31.250000
8359,31.250000
8360,31.250000
8361,31.250000
8362,31.250000
8363,31.250000
8364,31.250000
8365,31.250000
8366,31.250000
8367,31.250000
8368,31.250000
8369,31.250000
8370,31.250000
8371,27.343750
8372,27.343750
8373,27.343750
8374,27.343750
8375,27.343750
8376,27.343750
8377,27.343750
8378,27.343750
8379,27.343750
8380,27.343750
8381,27.343750
8382,27.343750
8383,27.343750
8384,23.437500
8385,23.437500
8386,23.437500
8387,23.437500
8388,23.437500
8389,23.437500
8390,23.437500
8391,23.437500
8392,23.437500
8393,23.437500
8394,23.437500
8395,23.437500
8396,23.437500
8397,23.437500
8398,23.437500
8399,23.437500
8400,19.531250
8401,19.531250
8402,19.531250
8403,19.531250
8404,19.531250
8405,19.531250
8406,19.531250
8407,19.531250
8408,19.531250
8409,19.531250
8410,19.531250
8411,19.531250
8412,19.531250
8413,19.531250
8414,15.625000
8415,15.625000
8416,15.625000
8417,15.625000
8418,15.625000
8419,15.625000
8420,15.625000
8421,15.625000
8422,15.625000
8423,15.625000
8424,15.625000
8425,11.718750
8426,11.718750
8427,11.718750
8428,11.718750
8429,11.718750
8430,11.718750
8431,11.718750
8432,11.718750
8433,11.718750
8434,11.718750
8435,11.718750
8436,11.718750
8437,7.812500
8438,7.812500
8439,7.812500
8440,7.812500
8441,7.812500
8442,7.812500
8443,7.812500
8444,7.812500
8445,7.812500
8446,7.812500
8447,7.812500
8448,7.812500
8449,3.906250
8450,3.906250
8451,3.906250
8452,3.906250
8453,3.906250
8454,3.906250
8455,3.906250
8456,3.906250
8457,3.906250
8458,0.000000
8459,0.000000
8460,0.000000
8461,0.000000
8462,0.000000
8463,0.000000
8464,0.000000
8465,0.000000
8466,0.000000
8467,0.000000
8468,0.000000
8469,-3.906250
8470,-3.906250
8471,-3.906250
8472,-3.906250
8473,-3.906250
8474,-3.906250
8475,-3.906250
8476,-3.906250
8477,-3.906250
8478,-3.906250
8479,-7.812500
8480,-7.812500
8481,-7.812500
8482,-7.812500
8483,-7.812500
8484,-7.812500
8485,-7.812500
8486,-7.812500
8487,-7.812500
8488,-11.718750
8489,-7.812500
8490,-11.718750
8491,-11.718750
8492,-11.718750
8493,-11.718750
8494,-11.718750
8495,-11.718750
8496,-11.718750
8497,-11.718750
8498,-11.718750
8499,-11.718750
8500,-15.625000
8501,-11.718750
8502,-15.625000
8503,-15.625000
8504,-15.625000
8505,-15.625000
8506,-15.625000
8507,-15.625000
8508,-19.531250
8509,-19.531250
8510,-19.531250
8511,-19.531250
8512,-19.531250
8513,-19.531250
8514,-19.531250
8515,-19.531250
8516,-19.531250
8517,-19.531250
8518,-19.531250
8519,-19.531250
8520,-23.437500
8521,-23.437500
8522,-23.437500
8523,-23.437500
8524,-23.437500
8525,-23.437500
8526,-23.437500
8527,-23.437500
8528,-23.437500
8529,-23.437500
8530,-27.343750
8531,-27.343750
8532,-27.343750
8533,-27.343750
8534,-27.343750
8535,-27.343750
8536,-27.343750
8537,-27.343750
8538,-27.343750
8539,-27.343750
8540,-31.250000
8541,-31.250000
8542,-31.250000
8543,-31.250000
8544,-31.250000
8545,-31.250000
8546,-31.250000
8547,-35.156250
8548,-31.250000
8549,-31.250000
8550,-31.250000
8551,-31.250000
8552,-35.156250
8553,-35.156250
8554,-35.156250
8555,-35.156250
8556,-35.156250
8557,-35.156250
8558,-35.156250
8559,-35.156250
8560,-35.156250
8561,-39.062500
8562,-39.062500
8563,-35.156250
8564,-39.062500
8565,-39.062500
8566,-39.062500
8567,-39.062500
8568,-39.062500
8569,-39.062500
8570,-39.062500
8571,-39.062500
8572,-42.968750
8573,-39.062500
8574,-42.968750
8575,-42.968750
8576,-42.968750
8577,-42.968750
8578,-42.968750
8579,-42.968750
8580,-42.968750
8581,-42.968750
8582,-42.968750
8583,-42.968750
8584,-46.875000
8585,-46.875000
8586,-46.875000
8587,-46.875000
8588,-46.875000
8589,-46.875000
8590,-46.875000
8591,-46.875000
8592,-46.875000
8593,-46.875000
8594,-46.875000
8595,-50.781250
8596,-50.781250
8597,-50.781250
8598,-50.781250
8599,-50.781250
8600,-50.781250
8601,-50.781250
8602,-50.781250
8603,-50.781250
8604,-50.781250
8605,-50.781250
8606,-50.781250
8607,-50.781250
8608,-50.781250
8609,-54.687500
8610,-54.687500
8611,-54.687500
8612,-54.687500
8613,-54.687500
8614,-54.687500
8615,-54.687500
8616,-54.687500
8617,-54.687500
8618,-54.687500
8619,-54.687500
8620,-54.687500
8621,-54.687500
8622,-58.593750
8623,-58.593750
8624,-58.593750
8625,-58.593750
8626,-58.593750
8627,-58.593750
8628,-58.593750
8629,-58.593750
8630,-58.593750
8631,-58.593750
8632,-58.593750
8633,-58.593750
8634,-62.500000
8635,-62.500000
8636,-62.500000
8637,-62.500000
8638,-62.500000
8639,-62.500000
8640,-62.500000
8641,-62.500000
8642,-62.500000
8643,-62.500000
8644,-62.500000
8645,-62.500000
8646,-62.500000
8647,-62.500000
8648,-62.500000
8649,-66.406250
8650,-62.500000
8651,-66.406250
8652,-62.500000
8653,-66.406250
8654,-66.406250
8655,-66.406250
8656,-66.406250
8657,-66.406250
8658,-66.406250
8659,-66.406250
8660,-66.406250
8661,-66.406250
8662,-66.406250
8663,-66.406250
8664,-66.406250
8665,-66.406250
8666,-66.406250
8667,-66.406250
8668,-66.406250
8669,-66.406250
8670,-70.312500
8671,-70.312500
8672,-70.312500
8673,-70.312500
8674,-70.312500
8675,-70.312500
8676,-70.312500
8677,-70.312500
8678,-70.312500
8679,-70.312500
8680,-70.312500
8681,-70.312500
8682,-70.312500
8683,-70.312500
8684,-70.312500
8685,-70.312500
8686,-70.312500
8687,-70.312500
8688,-70.312500
8689,-70.312500
8690,-70.312500
8691,-70.312500
8692,-70.312500
8693,-74.218750
8694,-70.312500
8695,-70.312500
8696,-74.218750
8697,-74.218750
8698,-74.218750
8699,-74.218750
8700,-74.218750
8701,-74.218750
8702,-74.218750
8703,-74.218750
8704,-74.218750
8705,-74.218750
8706,-74.218750
8707,-74.218750
8708,-74.218750
8709,-74.218750
8710,-74.218750
8711,-74.218750
8712,-74.218750
8713,-74.218750
8714,-74.218750
8715,-74.218750
8716,-74.218750
8717,-74.218750
8718,-74.218750
8719,-74.218750
8720,-74.218750
8721,-74.218750
8722,-74.218750
8723,-74.218750
8724,-74.218750
8725,-74.218750
8726,-74.218750
8727,-78.125000
8728,-74.218750
8729,-74.218750
8730,-74.218750
8731,-74.218750
8732,-74.218750
8733,-74.218750
8734,-74.218750
8735,-74.218750
8736,-74.218750
8737,-74.218750
8738,-74.218750
8739,-74.218750
8740,-74.218750
8741,-78.125000
8742,-74.218750
8743,-74.218750
8744,-74.218750
8745,-74.218750
8746,-74.218750
8747,-74.218750
8748,-74.218750
8749,-74.218750
8750,-78.125000
8751,-78.125000
8752,-74.218750
8753,-74.218750
8754,-74.218750
8755,-74.218750
8756,-74.218750
8757,-74.218750
8758,-74.218750
8759,-74.218750
8760,-74.218750
8761,-74.218750
8762,-74.218750
8763,-74.218750
8764,-74.218750
8765,-74.218750
8766,-74.218750
8767,-74.218750
8768,-74.218750
8769,-74.218750
8770,-74.218750
8771,-74.218750
8772,-74.218750
8773,-74.218750
8774,-74.218750
8775,-74.218750
8776,-74.218750
8777,-74.218750
8778,-74.218750
8779,-74.218750
8780,-74.218750
8781,-74.218750
8782,-74.218750
8783,-74.218750
8784,-74.218750
8785,-74.218750
8786,-74.218750
8787,-74.218750
8788,-74.218750
8789,-74.218750
8790,-74.218750
8791,-74.218750
8792,-74.218750
8793,-70.312500
8794,-74.218750
8795,-74.218750
8796,-74.218750
8797,-70.312500
8798,-70.312500
8799,-70.312500
8800,-70.312500
8801,-70.312500
8802,-70.312500
8803,-70.312500
8804,-70.312500
8805,-70.312500
8806,-70.312500
8807,-70.312500
8808,-70.312500
8809,-70.312500
8810,-70.312500
8811,-70.312500
8812,-70.312500
8813,-70.312500
8814,-70.312500
8815,-70.312500
8816,-70.312500
8817,-70.312500
8818,-70.312500
8819,-70.312500
8820,-70.312500
8821,-66.406250
8822,-66.406250
8823,-66.406250
8824,-66.406250
8825,-66.406250
8826,-66.406250
8827,-66.406250
8828,-66.406250
8829,-66.406250
8830,-66.406250
8831,-66.406250
8832,-66.406250
8833,-66.406250
8834,-66.406250
8835,-66.406250
8836,-62.500000
8837,-62.500000
8838,-62.500000
8839,-62.500000
8840,-66.406250
8841,-62.500000
8842,-62.500000
8843,-62.500000
8844,-62.500000
8845,-62.500000
8846,-62.500000
8847,-62.500000
8848,-62.500000
8849,-62.500000
8850,-62.500000
8851,-62.500000
8852,-62.500000
8853,-62.500000
8854,-58.593750
8855,-58.593750
8856,-58.593750
8857,-58.593750
8858,-58.593750
8859,-58.593750
8860,-58.593750
8861,-58.593750
8862,-58.593750
8863,-58.593750
8864,-58.593750
8865,-58.593750
8866,-58.593750
8867,-58.593750
8868,-54.687500
8869,-54.687500
8870,-54.687500
8871,-54.687500
8872,-54.687500
8873,-54.687500
8874,-54.687500
8875,-54.687500
8876,-54.687500
8877,-54.687500
8878,-54.687500
8879,-54.687500
8880,-50.781250
8881,-54.687500
8882,-50.781250
8883,-50.781250
8884,-50.781250
8885,-50.781250
8886,-50.781250
8887,-50.781250
8888,-50.781250
8889,-50.781250
8890,-50.781250
8891,-50.781250
8892,-50.781250
8893,-46.875000
8894,-46.875000
8895,-46.875000
8896,-46.875000
8897,-46.875000
8898,-46.875000
8899,-46.875000
8900,-46.875000
8901,-46.875000
8902,-46.875000
8903,-46.875000
8904,-42.968750
8905,-42.968750
8906,-42.968750
8907,-42.968750
8908,-42.968750
8909,-42.968750
8910,-42.968750
8911,-42.968750
8912,-42.968750
8913,-42.968750
8914,-39.062500
8915,-39.062500
8916,-39.062500
8917,-39.062500
8918,-39.062500
8919,-39.062500
8920,-39.062500
8921,-39.062500
8922,-39.062500
8923,-39.062500
8924,-39.062500
8925,-35.156250
8926,-35.156250
8927,-35.156250
8928,-35.156250
8929,-35.156250
8930,-35.156250
8931,-35.156250
8932,-35.156250
8933,-35.156250
8934,-35.156250
8935,-31.250000
8936,-31.250000
8937,-31.250000
8938,-31.250000
8939,-31.250000
8940,-31.250000
8941,-31.250000
8942,-31.250000
8943,-31.250000
8944,-31.250000
8945,-27.343750
8946,-27.343750
8947,-27.343750
8948,-27.343750
8949,-27.343750
8950,-27.343750
8951,-27.343750
8952,-31.250000
8953,-23.437500
8954,-27.343750
8955,-27.343750
8956,-27.343750
8957,-23.437500
8958,-23.437500
8959,-23.437500
8960,-23.437500
8961,-23.437500
8962,-23.437500
8963,-23.437500
8964,-23.437500
8965,-23.437500
8966,-23.437500
8967,-19.531250
8968,-19.531250
8969,-19.531250
8970,-19.531250
8971,-19.531250
8972,-19.531250
8973,-19.531250
8974,-19.531250
8975,-19.531250
8976,-15.625000
8977,-15.625000
8978,-15.625000
8979,-15.625000
8980,-15.625000
8981,-15.625000
8982,-15.625000
8983,-15.625000
8984,-15.625000
8985,-15.625000
8986,-11.718750
8987,-11.718750
8988,-11.718750
8989,-11.718750
8990,-11.718750
8991,-11.718750
8992,-11.718750
8993,-11.718750
8994,-11.718750
8995,-7.812500
8996,-7.812500
8997,-7.812500
8998,-7.812500
8999,-7.812500
9000,-7.812500
9001,-7.812500
9002,-7.812500
9003,-7.812500
9004,-7.812500
9005,-7.812500
9006,-3.906250
9007,-3.906250
9008,-7.812500
9009,-3.906250
9010,-3.906250
9011,-3.906250
9012,-3.906250
9013,-3.906250
9014,-3.906250
9015,0.000000
9016,-3.906250
9017,0.000000
9018,0.000000
9019,0.000000
9020,0.000000
9021,0.000000
9022,0.000000
9023,0.000000
9024,0.000000
9025,0.000000
9026,0.000000
9027,3.906250
9028,3.906250
9029,3.906250
9030,3.906250
9031,3.906250
9032,3.906250
9033,3.906250
9034,3.906250
9035,3.906250
9036,3.906250
9037,7.812500
9038,7.812500
9039,7.812500
9040,7.812500
9041,7.812500
9042,7.812500
9043,7.812500
9044,7.812500
9045,7.812500
9046,7.812500
9047,7.812500
9048,7.812500
9049,11.718750
9050,11.718750
9051,11.718750
9052,11.718750
9053,11.718750
9054,11.718750
9055,11.718750
9056,11.718750
9057,11.718750
9058,11.718750
9059,15.625000
9060,15.625000
9061,15.625000
9062,15.625000
9063,15.625000
9064,15.625000
9065,15.625000
9066,15.625000
9067,15.625000
9068,15.625000
9069,15.625000
9070,15.625000
9071,19.531250
9072,19.531250
9073,19.531250
9074,19.531250
9075,19.531250
9076,19.531250
9077,19.531250
9078,19.531250
9079,19.531250
9080,19.531250
9081,19.531250
9082,23.437500
9083,23.437500
9084,23.437500
9085,23.437500
9086,23.437500
9087,23.437500
9088,23.437500
9089,23.437500
9090,23.437500
9091,23.437500
9092,23.437500
9093,23.437500
9094,23.437500
9095,23.437500
9096,27.343750
9097,27.343750
9098,27.343750
9099,27.343750
9100,27.343750
9101,27.343750
9102,27.343750
9103,27.343750
9104,27.343750
9105,27.343750
9106,27.343750
9107,27.343750
9108,31.250000
9109,31.250000
9110,31.250000
9111,31.250000
9112,31.250000
9113,31.250000
9114,31.250000
9115,31.250000
9116,31.250000
9117,31.250000
9118,31.250000
9119,31.250000
9120,31.250000
9121,31.250000
9122,31.250000
9123,35.156250
9124,31.250000
9125,31.250000
9126,35.156250
9127,35.156250
9128,35.156250
9129,35.156250
9130,35.156250
9131,35.156250
9132,35.156250
9133,35.156250
9134,35.156250
9135,35.156250
9136,35.156250
9137,35.156250
9138,35.156250
9139,35.156250
9140,35.156250
9141,35.156250
9142,35.156250
9143,35.156250
9144,35.156250
9145,39.062500
9146,39.062500
9147,39.062500
9148,39.062500
9149,39.062500
9150,39.062500
9151,39.062500
9152,39.062500
9153,39.062500
9154,39.062500
9155,39.062500
9156,39.062500
9157,39.062500
9158,39.062500
9159,39.062500
9160,39.062500
9161,39.062500
9162,39.062500
9163,39.062500
9164,39.062500
9165,42.968750
9166,39.062500
9167,42.968750
9168,42.968750
9169,42.968750
9170,42.968750
9171,42.968750
9172,42.968750
9173,42.968750
9174,42.968750
9175,42.968750
9176,42.968750
9177,42.968750
9178,42.968750
9179,42.968750
9180,42.968750
9181,42.968750
9182,42.968750
9183,42.968750
9184,42.968750
9185,42.968750
9186,42.968750
9187,42.968750
9188,42.968750
9189,46.875000
9190,42.968750
9191,42.968750
9192,42.968750
9193,42.968750
9194,42.968750
9195,46.875000
9196,42.968750
9197,46.875000
9198,42.968750
9199,46.875000
9200,46.875000
9201,46.875000
9202,46.875000
9203,46.875000
9204,46.875000
9205,46.875000
9206,46.875000
9207,46.875000
9208,46.875000
9209,46.875000
9210,46.875000
9211,46.875000
9212,46.875000
9213,46.875000
9214,46.875000
9215,46.875000
9216,46.875000
9217,46.875000
9218,46.875000
9219,46.875000
9220,46.875000
9221,46.875000
9222,46.875000
9223,46.875000
9224,46.875000
9225,46.875000
9226,46.875000
9227,46.875000
9228,46.875000
9229,46.875000
9230,46.875000
9231,46.875000
9232,46.875000
9233,46.875000
9234,46.875000
9235,46.875000
9236,46.875000
9237,46.875000
9238,46.875000
9239,46.875000
9240,46.875000
9241,46.875000
9242,46.875000
9243,46.875000
9244,46.875000
9245,46.875000
9246,46.875000
9247,46.875000
9248,46.875000
9249,46.875000
9250,46.875000
9251,46.875000
9252,46.875000
9253,46.875000
9254,46.875000
9255,46.875000
9256,46.875000
9257,46.875000
9258,46.875000
9259,46.875000
9260,46.875000
9261,46.875000
9262,46.875000
9263,46.875000
9264,46.875000
9265,46.875000
9266,46.875000
9267,46.875000
9268,46.875000
9269,42.968750
9270,42.968750
9271,42.968750
9272,42.968750
9273,42.968750
9274,42.968750
9275,42.968750
9276,42.968750
9277,42.968750
9278,42.968750
9279,42.968750
9280,42.968750
9281,42.968750
9282,42.968750
9283,42.968750
9284,42.968750
9285,42.968750
9286,42.968750
9287,42.968750
9288,42.968750
9289,42.968750
9290,42.968750
9291,42.968750
9292,42.968750
9293,42.968750
9294,42.968750
9295,42.968750
9296,42.968750
9297,42.968750
9298,42.968750
9299,42.968750
9300,42.968750
9301,39.062500
9302,42.968750
9303,39.062500
9304,39.062500
9305,39.062500
9306,39.062500
9307,39.062500
9308,39.062500
9309,39.062500
9310,39.062500
9311,39.062500
9312,39.062500
9313,39.062500
9314,39.062500
9315,39.062500
9316,39.062500
9317,39.062500
9318,39.062500
9319,39.062500
9320,39.062500
9321,39.062500
9322,39.062500
9323,39.062500
9324,39.062500
9325,39.062500
9326,35.156250
9327,35.156250
9328,35.156250
9329,35.156250
9330,35.156250
9331,35.156250
9332,35.156250
9333,35.156250
9334,35.156250
9335,35.156250
9336,35.156250
9337,35.156250
9338,35.156250
9339,35.156250
9340,35.156250
9341,35.156250
9342,35.156250
9343,35.156250
9344,31.250000
9345,35.156250
9346,35.156250
9347,31.250000
9348,31.250000
9349,31.250000
9350,31.250000
9351,31.250000
9352,31.250000
9353,31.250000
9354,31.250000
9355,31.250000
9356,31.250000
9357,31.250000
9358,31.250000
9359,31.250000
9360,27.343750
9361,27.343750
9362,27.343750
9363,27.343750
9364,27.343750
9365,27.343750
9366,27.343750
9367,27.343750
9368,27.343750
9369,27.343750
9370,27.343750
9371,27.343750
9372,27.343750
9373,27.343750
9374,23.437500
9375,23.437500
9376,27.343750
9377,23.437500
9378,23.437500
9379,23.437500
9380,23.437500
9381,23.437500
9382,23.437500
9383,23.437500
9384,23.437500
9385,23.437500
9386,23.437500
9387,23.437500
9388,23.437500
9389,19.531250
9390,19.531250
9391,19.531250
9392,19.531250
9393,19.531250
9394,19.531250
9395,19.531250
9396,19.531250
9397,19.531250
9398,19.531250
9399,19.531250
9400,19.531250
9401,15.625000
9402,15.625000
9403,15.625000
9404,15.625000
9405,15.625000
9406,15.625000
9407,15.625000
9408,15.625000
9409,15.625000
9410,15.625000
9411,15.625000
9412,11.718750
9413,11.718750
9414,11.718750
9415,11.718750
9416,11.718750
9417,11.718750
9418,11.718750
9419,11.718750
9420,11.718750
9421,11.718750
9422,11.718750
9423,7.812500
9424,7.812500
9425,7.812500
9426,7.812500
9427,7.812500
9428,7.812500
9429,7.812500
9430,7.812500
9431,7.812500
9432,7.812500
9433,7.812500
9434,7.812500
9435,7.812500
9436,3.906250
9437,3.906250
9438,3.906250
9439,3.906250
9440,3.906250
9441,3.906250
9442,3.906250
9443,3.906250
9444,0.000000
9445,3.906250
9446,0.000000
9447,3.906250
9448,0.000000
9449,0.000000
9450,0.000000
9451,0.000000
9452,0.000000
9453,0.000000
9454,0.000000
9455,0.000000
9456,-3.906250
9457,-3.906250
9458,-3.906250
9459,-3.906250
9460,-3.906250
9461,-3.906250
9462,-3.906250
9463,-3.906250
9464,-3.906250
9465,-3.906250
9466,-7.812500
9467,-3.906250
9468,-7.812500
9469,-7.812500
9470,-7.812500
9471,-7.812500
9472,-7.812500
9473,-7.812500
9474,-7.812500
9475,-7.812500
9476,-7.812500
9477,-11.718750
9478,-7.812500
9479,-11.718750
9480,-11.718750
9481,-11.718750
9482,-11.718750
9483,-11.718750
9484,-11.718750
9485,-11.718750
9486,-11.718750
9487,-11.718750
9488,-11.718750
9489,-15.625000
9490,-15.625000
9491,-15.625000
9492,-15.625000
9493,-15.625000
9494,-15.625000
9495,-15.625000
9496,-15.625000
9497,-15.625000
9498,-19.531250
9499,-15.625000
9500,-19.531250
9501,-19.531250
9502,-19.531250
9503,-19.531250
9504,-19.531250
9505,-19.531250
9506,-19.531250
9507,-19.531250
9508,-19.531250
9509,-23.437500
9510,-19.531250
9511,-23.437500
9512,-23.437500
9513,-23.437500
9514,-23.437500
9515,-23.437500
9516,-23.437500
9517,-23.437500
9518,-23.437500
9519,-27.343750
9520,-27.343750
9521,-27.343750
9522,-27.343750
9523,-27.343750
9524,-27.343750
9525,-27.343750
9526,-27.343750
9527,-27.343750
9528,-27.343750
9529,-31.250000
9530,-31.250000
9531,-31.250000
9532,-31.250000
9533,-31.250000
9534,-31.250000
9535,-31.250000
9536,-31.250000
9537,-31.250000
9538,-31.250000
9539,-35.156250
9540,-31.250000
9541,-35.156250
9542,-31.250000
9543,-35.156250
9544,-35.156250
9545,-35.156250
9546,-35.156250
9547,-35.156250
9548,-35.156250
9549,-35.156250
9550,-35.156250
9551,-39.062500
9552,-35.156250
9553,-39.062500
9554,-39.062500
9555,-39.062500
9556,-39.062500
9557,-39.062500
9558,-39.062500
9559,-39.062500
9560,-39.062500
9561,-39.062500
9562,-39.062500
9563,-39.062500
9564,-42.968750
9565,-42.968750
9566,-42.968750
9567,-42.968750
9568,-42.968750
9569,-42.968750
9570,-42.968750
9571,-42.968750
9572,-42.968750
9573,-46.875000
9574,-46.875000
9575,-46.875000
9576,-46.875000
9577,-46.875000
9578,-46.875000
9579,-46.875000
9580,-46.875000
9581,-46.875000
9582,-46.875000
9583,-46.875000
9584,-46.875000
9585,-50.781250
9586,-50.781250
9587,-50.781250
9588,-50.781250
9589,-50.781250
9590,-50.781250
9591,-50.781250
9592,-50.781250
9593,-50.781250
9594,-50.781250
9595,-50.781250
9596,-50.781250
9597,-50.781250
9598,-54.687500
9599,-54.687500
9600,-54.687500
9601,-54.687500
9602,-54.687500
9603,-54.687500
9604,-54.687500
9605,-54.687500
9606,-54.687500
9607,-54.687500
9608,-54.687500
9609,-54.687500
9610,-54.687500
9611,-58.593750
9612,-58.593750
9613,-54.687500
9614,-58.593750
9615,-58.593750
9616,-58.593750
9617,-58.593750
9618,-58.593750
9619,-58.593750
9620,-58.593750
9621,-58.593750
9622,-58.593750
9623,-58.593750
9624,-62.500000
9625,-58.593750
9626,-62.500000
9627,-62.500000
9628,-62.500000
9629,-62.500000
9630,-62.500000
9631,-62.500000
9632,-62.500000
9633,-62.500000
9634,-62.500000
9635,-62.500000
9636,-62.500000
9637,-62.500000
9638,-62.500000
9639,-62.500000
9640,-66.406250
9641,-66.406250
9642,-66.406250
9643,-66.406250
9644,-66.406250
9645,-66.406250
9646,-66.406250
9647,-66.406250
9648,-66.406250
9649,-66.406250
9650,-66.406250
9651,-66.406250
9652,-66.406250
9653,-66.406250
9654,-66.406250
9655,-66.406250
9656,-66.406250
9657,-66.406250
9658,-66.406250
9659,-70.312500
9660,-70.312500
9661,-70.312500
9662,-70.312500
9663,-70.312500
9664,-70.312500
9665,-70.312500
9666,-70.312500
9667,-70.312500
9668,-70.312500
9669,-70.312500
9670,-70.312500
9671,-70.312500
9672,-70.312500
9673,-70.312500
9674,-70.312500
9675,-70.312500
9676,-70.312500
9677,-70.312500
9678,-70.312500
9679,-70.312500
9680,-74.218750
9681,-74.218750
9682,-70.312500
9683,-74.218750
9684,-70.312500
9685,-70.312500
9686,-74.218750
9687,-74.218750
9688,-74.218750
9689,-74.218750
9690,-74.218750
9691,-74.218750
9692,-74.218750
9693,-74.218750
9694,-74.218750
9695,-74.218750
9696,-74.218750
9697,-74.218750
9698,-74.218750
9699,-74.218750
9700,-74.218750
9701,-74.218750
9702,-74.218750
9703,-74.218750
9704,-74.218750
9705,-74.218750
9706,-74.218750
9707,-74.218750
9708,-74.218750
9709,-74.218750
9710,-74.218750
9711,-74.218750
9712,-74.218750
9713,-74.218750
9714,-74.218750
9715,-74.218750
9716,-74.218750
9717,-74.218750
9718,-74.218750
9719,-74.218750
9720,-74.218750
9721,-74.218750
9722,-74.218750
9723,-74.218750
9724,-74.218750
9725,-74.218750
9726,-74.218750
9727,-74.218750
9728,-74.218750
9729,-74.218750
9730,-74.218750
9731,-74.218750
9732,-74.218750
9733,-74.218750
9734,-74.218750
9735,-74.218750
9736,-74.218750
9737,-74.218750
9738,-74.218750
9739,-74.218750
9740,-74.218750
9741,-74.218750
9742,-74.218750
9743,-74.218750
9744,-74.218750
9745,-74.218750
9746,-74.218750
9747,-74.218750
9748,-74.218750
9749,-74.218750
9750,-74.218750
9751,-74.218750
9752,-74.218750
9753,-74.218750
9754,-74.218750
9755,-74.218750
9756,-74.218750
9757,-74.218750
9758,-74.218750
9759,-74.218750
9760,-74.218750
9761,-74.218750
9762,-74.218750
9763,-74.218750
9764,-74.218750
9765,-74.218750
9766,-74.218750
9767,-74.218750
9768,-74.218750
9769,-74.218750
9770,-74.218750
9771,-74.218750
9772,-74.218750
9773,-74.218750
9774,-74.218750
9775,-74.218750
9776,-74.218750
9777,-74.218750
9778,-74.218750
9779,-74.218750
9780,-74.218750
9781,-74.218750
9782,-74.218750
9783,-74.218750
9784,-70.312500
9785,-70.312500
9786,-70.312500
9787,-70.312500
9788,-70.312500
9789,-70.312500
9790,-70.312500
9791,-70.312500
9792,-70.312500
9793,-70.312500
9794,-70.312500
9795,-70.312500
9796,-70.312500
9797,-70.312500
9798,-70.312500
9799,-70.312500
9800,-70.312500
9801,-70.312500
9802,-70.312500
9803,-70.312500
9804,-70.312500
9805,-70.312500
9806,-70.312500
9807,-70.312500
9808,-70.312500
9809,-66.406250
9810,-66.406250
9811,-66.406250
9812,-70.312500
9813,-66.406250
9814,-66.406250
9815,-66.406250
9816,-66.406250
9817,-66.406250
9818,-66.406250
9819,-66.406250
9820,-66.406250
9821,-66.406250
9822,-66.406250
9823,-66.406250
9824,-66.406250
9825,-66.406250
9826,-66.406250
9827,-66.406250
9828,-62.500000
9829,-62.500000
9830,-62.500000
9831,-62.500000
9832,-62.500000
9833,-62.500000
9834,-62.500000
9835,-62.500000
9836,-62.500000
9837,-62.500000
9838,-62.500000
9839,-62.500000
9840,-58.593750
9841,-62.500000
9842,-58.593750
9843,-58.593750
9844,-58.593750
9845,-58.593750
9846,-58.593750
9847,-58.593750
9848,-58.593750
9849,-58.593750
9850,-58.593750
9851,-58.593750
9852,-58.593750
9853,-58.593750
9854,-58.593750
9855,-58.593750
9856,-58.593750
9857,-54.687500
9858,-54.687500
9859,-54.687500
9860,-54.687500
9861,-54.687500
9862,-54.687500
9863,-54.687500
9864,-54.687500
9865,-54.687500
9866,-54.687500
9867,-54.687500
9868,-54.687500
9869,-50.781250
9870,-50.781250
9871,-50.781250
9872,-50.781250
9873,-50.781250
9874,-50.781250
9875,-50.781250
9876,-50.781250
9877,-50.781250
9878,-50.781250
9879,-50.781250
9880,-46.875000
9881,-50.781250
9882,-46.875000
9883,-46.875000
9884,-46.875000
9885,-46.875000
9886,-46.875000
9887,-46.875000
9888,-46.875000
9889,-46.875000
9890,-46.875000
9891,-46.875000
9892,-42.968750
9893,-46.875000
9894,-42.968750
9895,-42.968750
9896,-42.968750
9897,-42.968750
9898,-42.968750
9899,-42.968750
9900,-42.968750
9901,-42.968750
9902,-39.062500
9903,-42.968750
9904,-39.062500
9905,-39.062500
9906,-39.062500
9907,-39.062500
9908,-39.062500
9909,-39.062500
9910,-39.062500
9911,-39.062500
9912,-39.062500
9913,-39.062500
9914,-39.062500
9915,-39.062500
9916,-35.156250
9917,-35.156250
9918,-35.156250
9919,-35.156250
9920,-35.156250
9921,-35.156250
9922,-35.156250
9923,-35.156250
9924,-35.156250
9925,-35.156250
9926,-31.250000
9927,-35.156250
9928,-31.250000
9929,-31.250000
9930,-31.250000
9931,-31.250000
9932,-31.250000
9933,-31.250000
9934,-31.250000
9935,-31.250000
9936,-31.250000
9937,-27.343750
9938,-27.343750
9939,-27.343750
9940,-27.343750
9941,-27.343750
9942,-27.343750
9943,-27.343750
9944,-27.343750
9945,-23.437500
9946,-23.437500
9947,-23.437500
9948,-23.437500
9949,-23.437500
9950,-23.437500
9951,-23.437500
9952,-23.437500
9953,-23.437500
9954,-19.531250
9955,-23.437500
9956,-19.531250
9957,-19.531250
9958,-19.531250
9959,-19.531250
9960,-19.531250
9961,-19.531250
9962,-19.531250
9963,-19.531250
9964,-19.531250
9965,-19.531250
9966,-15.625000
9967,-15.625000
9968,-15.625000
9969,-15.625000
9970,-15.625000
9971,-15.625000
9972,-15.625000
9973,-15.625000
9974,-11.718750
9975,-11.718750
9976,-11.718750
9977,-11.718750
9978,-11.718750
9979,-11.718750
9980,-11.718750
9981,-11.718750
9982,-11.718750
9983,-11.718750
9984,-11.718750
9985,-11.718750
9986,-7.812500
9987,-7.812500
9988,-7.812500
9989,-7.812500
9990,-7.812500
9991,-7.812500
9992,-7.812500
9993,-7.812500
9994,-3.906250
9995,-3.906250
9996,-3.906250
9997,-3.906250
9998,-3.906250
9999,-3.906250
10000,-3.906250
